###################################################################
## OUTPUT of StarlightChains_v04.for    [Cid@UFSC - 01/Apr/2007] ##
###################################################################

## Some input info
KUG0210-078._27_39.txt                   [arq_obs]
Base.CB07.vall.4m                        [arq_base]
Masks.EmLines.NEW.gm                     [arq_masks]
StCv04.C11.config                        [arq_config]
   66                                    [N_base]
    0                                    [N_YAV_components = # of components with extra extinction!]
    0                                    [i_FitPowerLaw (1/0 = Yes/No)]
-9.99                                    [alpha_PowerLaw]
CCM                                      [red_law_option]
 1.458241                                [q_norm = A(l_norm)/A(V)]

## (Re)Sampling Parameters
 3741.00                                 [l_ini (A)]
 7218.00                                 [l_fin (A)]
    1.00                                 [dl    (A)]     (OBS: dl_cushion =    50.00 A)

## Normalization info
 4020.00                                 [l_norm (A) - for base]
 4010.00                                 [llow_norm (A) - window for f_obs]
 4060.00                                 [lupp_norm (A) - window for f_obs]
1.764580E-17                             [fobs_norm (in input units)]

## S/N
 3691.00                                 [llow_SN (A) - window for S/N]
 7268.00                                 [lupp_SN (A) - window for S/N]
   5.479                                 [S/N in S/N window]
   5.226                                 [S/N in norm. window]
   0.023                                 [S/N_err in S/N window]
   0.022                                 [S/N_err in norm. window]
  1.0000                                 [fscale_chi2]

## etc...
    -2007359                             [idum_orig]
  2430                                   [NOl_eff]
  2234                                   [Nl_eff]
   196    NSIGMA                         [Ntot_cliped & clip_method]
 10942330                                [Nglobal_steps]
   7                                     [N_chains]
  40                                     [NEX0s_base = N_base in EX0s-fits]
 0   0   1      196   2.0   1.086E+04    [Clip-Bug, RC-Crash & Burn-In warning-flags, n_censored_weights, wei_nsig_threshold & wei_limit]
    95     94.109     93.616      0.493  [idt_all, wdt_TotTime, wdt_UsrTime & wdt_SysTime (sec)]

## Synthesis Results - Best model ##

 7.04522E-06                             [chi2/Nl_eff]
     6.62898                             [adev (%)]

   109.40497                             [sum-of-x (%)]
 1.69915E-16                             [Flux_tot (units of input spectrum!)]
 1.03278E-13                             [Mini_tot (???)]
 6.43718E-14                             [Mcor_tot (???)]

-490.02                                  [v0_min  (km/s)]
 277.10                                  [vd_min  (km/s)]
 1.6193                                  [AV_min  (mag)]
 0.0000                                  [YAV_min (mag)]

# j     x_j(%)      Mini_j(%)     Mcor_j(%)     age_j(yr)     Z_j      (L/M)_j    YAV?  Mstars   component_j        a/Fe...       SSP_chi2r SSP_adev(%)   SSP_AV   SSP_x(%)
  1      2.1933     3.0148E-01    4.8370E-01    1.000000E+06  0.00400  1.094E-02    0   1.0000   age020_m42            0.0000     1.1076E-05    10.2651   3.1332    98.4629
  2      0.0000     0.0000E+00    0.0000E+00    3.160000E+06  0.00400  4.007E-02    0   0.9999   age045_m42            0.0000     1.0395E-05     9.4908   2.4812   101.7305
  3      0.0000     0.0000E+00    0.0000E+00    5.010000E+06  0.00400  2.539E-02    0   0.9488   age055_m42            0.0000     1.0486E-05     9.7419   2.7685   100.7646
  4      0.0000     0.0000E+00    0.0000E+00    6.610000E+06  0.00400  2.620E-02    0   0.9220   age061_m42            0.0000     1.0009E-05     9.2440   2.4109   101.8215
  5      0.0000     0.0000E+00    0.0000E+00    1.000000E+07  0.00400  1.322E-02    0   0.8862   age070_m42            0.0000     8.4514E-06     8.0011   2.1308   104.0896
  6      0.0000     0.0000E+00    0.0000E+00    1.445000E+07  0.00400  7.883E-03    0   0.8571   age078_m42            0.0000     8.7218E-06     8.3418   2.4346   102.5312
  7      0.0000     0.0000E+00    0.0000E+00    2.512000E+07  0.00400  5.251E-03    0   0.8174   age090_m42            0.0000     8.1914E-06     7.7464   2.0075   104.4060
  8      0.0000     0.0000E+00    0.0000E+00    4.000000E+07  0.00400  3.649E-03    0   0.7851   age104_m42            0.0000     8.2394E-06     7.7544   1.7915   104.6647
  9      4.5112     2.1898E+00    2.6802E+00    5.500000E+07  0.00400  3.098E-03    0   0.7629   age110_m42            0.0000     8.8730E-06     8.1770   1.9549   104.1260
 10      0.0000     0.0000E+00    0.0000E+00    1.015200E+08  0.00400  2.228E-03    0   0.7207   age116_m42            0.0000     9.2607E-06     8.4021   1.9851   103.8107
 11      0.9243     1.2717E+00    1.3564E+00    2.861200E+08  0.00400  1.093E-03    0   0.6648   age125_m42            0.0000     8.5141E-06     7.5189   1.4383   105.6454
 12      0.0000     0.0000E+00    0.0000E+00    5.088000E+08  0.00400  6.597E-04    0   0.6365   age130_m42            0.0000     9.0614E-06     7.9096   1.4425   105.8042
 13      5.7804     4.0772E+01    3.7927E+01    1.434000E+09  0.00400  2.132E-04    0   0.5798   age139_m42            0.0000     8.6373E-06     7.8566   0.5000   106.4315
 14      0.0000     0.0000E+00    0.0000E+00    4.250000E+09  0.00400  5.895E-05    0   0.5377   age158_m42            0.0000     9.3857E-06     8.7667   0.0389   103.0602
 15      0.0000     0.0000E+00    0.0000E+00    7.500000E+09  0.00400  3.510E-05    0   0.5212   age171_m42            0.0000     9.8134E-06     9.0575  -0.1472   102.1777
 16      0.0000     0.0000E+00    0.0000E+00    1.300000E+10  0.00400  2.005E-05    0   0.5034   age193_m42            0.0000     1.0244E-05     9.3392  -0.3104   101.4231
 17      0.1741     1.7166E+01    1.3680E+01    1.800000E+10  0.00400  1.525E-05    0   0.4967   age213_m42            0.0000     1.0179E-05     9.2724  -0.3367   101.1209
 18      0.0000     0.0000E+00    0.0000E+00    1.000000E+06  0.00800  1.238E-02    0   1.0000   age020_m52            0.0000     1.1103E-05    10.2838   3.1285    98.6923
 19      0.0000     0.0000E+00    0.0000E+00    3.160000E+06  0.00800  3.074E-02    0   0.9966   age045_m52            0.0000     1.1086E-05    10.2774   3.0568    99.3524
 20      0.0000     0.0000E+00    0.0000E+00    5.010000E+06  0.00800  2.668E-02    0   0.9443   age055_m52            0.0000     1.0462E-05     9.7989   2.8389   100.4179
 21      0.0000     0.0000E+00    0.0000E+00    6.610000E+06  0.00800  2.136E-02    0   0.9177   age061_m52            0.0000     8.3537E-06     8.1325   1.6329   105.1232
 22      0.0000     0.0000E+00    0.0000E+00    1.000000E+07  0.00800  1.215E-02    0   0.8827   age070_m52            0.0000     8.1434E-06     7.7411   2.2948   104.5948
 23      0.0000     0.0000E+00    0.0000E+00    1.445000E+07  0.00800  8.717E-03    0   0.8552   age078_m52            0.0000     8.6009E-06     8.2212   2.4072   103.6352
 24      2.3353     6.2801E-01    8.2239E-01    2.512000E+07  0.00800  5.592E-03    0   0.8162   age090_m52            0.0000     8.0846E-06     7.5956   2.0732   105.5275
 25      0.0000     0.0000E+00    0.0000E+00    4.000000E+07  0.00800  3.896E-03    0   0.7841   age104_m52            0.0000     8.2157E-06     7.6408   1.9979   105.6519
 26      0.0000     0.0000E+00    0.0000E+00    1.015200E+08  0.00800  2.148E-03    0   0.7226   age116_m52            0.0000     8.6842E-06     8.0279   1.9504   104.7469
 27      0.0000     0.0000E+00    0.0000E+00    2.861200E+08  0.00800  9.925E-04    0   0.6683   age125_m52            0.0000     8.9826E-06     7.8882   1.5092   106.7376
 28      0.0000     0.0000E+00    0.0000E+00    9.047900E+08  0.00800  3.141E-04    0   0.6138   age135_m52            0.0000     9.1359E-06     8.0145   0.7467   109.1228
 29      0.0000     0.0000E+00    0.0000E+00    1.434000E+09  0.00800  1.719E-04    0   0.5853   age139_m52            0.0000     8.8028E-06     8.0879   0.1529   107.3689
 30      0.0000     0.0000E+00    0.0000E+00    2.500000E+09  0.00800  7.872E-05    0   0.5600   age150_m52            0.0000     1.0014E-05     9.1069  -0.1203   104.6613
 31      0.0482     1.6715E+00    1.4551E+00    4.250000E+09  0.00800  4.336E-05    0   0.5426   age158_m52            0.0000     1.0108E-05     9.1659  -0.1385   103.7974
 32      0.0000     0.0000E+00    0.0000E+00    6.250000E+09  0.00800  3.159E-05    0   0.5319   age166_m52            0.0000     1.0846E-05     9.5759  -0.3336   103.3609
 33      0.0000     0.0000E+00    0.0000E+00    1.300000E+10  0.00800  1.361E-05    0   0.5073   age193_m52            0.0000     1.1990E-05    10.2128  -0.7917   102.0819
 34      0.0000     0.0000E+00    0.0000E+00    1.800000E+10  0.00800  9.886E-06    0   0.4990   age213_m52            0.0000     1.2983E-05    10.6977  -0.8974   101.3670
 35      0.0000     0.0000E+00    0.0000E+00    1.000000E+06  0.02000  1.544E-02    0   1.0000   age020_m62            0.0000     1.1149E-05    10.3085   3.1226    99.0089
 36      0.0000     0.0000E+00    0.0000E+00    3.160000E+06  0.02000  3.762E-02    0   0.9858   age045_m62            0.0000     1.1199E-05    10.3390   3.0616    99.8640
 37      0.0000     0.0000E+00    0.0000E+00    5.010000E+06  0.02000  3.296E-02    0   0.9342   age055_m62            0.0000     1.0586E-05     9.7806   2.7406   101.4477
 38     81.8199     1.0662E+01    1.5158E+01    8.710000E+06  0.02000  1.154E-02    0   0.8861   age067_m62            0.0000     6.8399E-06     6.3680   1.7184   109.0788
 39      0.0000     0.0000E+00    0.0000E+00    1.445000E+07  0.02000  7.663E-03    0   0.8472   age078_m62            0.0000     7.4817E-06     7.0325   1.9408   106.9417
 40      0.0000     0.0000E+00    0.0000E+00    2.512000E+07  0.02000  4.532E-03    0   0.8099   age090_m62            0.0000     7.3576E-06     6.8959   1.9358   106.4995
 41      0.0000     0.0000E+00    0.0000E+00    5.500000E+07  0.02000  2.733E-03    0   0.7595   age110_m62            0.0000     8.1158E-06     7.6520   1.9741   105.1928
 42      0.0000     0.0000E+00    0.0000E+00    1.609000E+08  0.02000  1.369E-03    0   0.6985   age120_m62            0.0000     8.8338E-06     7.9491   1.8508   106.1583
 43      0.0000     0.0000E+00    0.0000E+00    2.861200E+08  0.02000  9.013E-04    0   0.6714   age125_m62            0.0000     9.2333E-06     8.0526   1.6275   107.8164
 44      8.1422     2.4352E+01    2.5196E+01    5.088000E+08  0.02000  5.028E-04    0   0.6449   age130_m62            0.0000     9.9646E-06     8.5280   1.2766   109.1867
 45      0.0000     0.0000E+00    0.0000E+00    9.047900E+08  0.02000  2.428E-04    0   0.6179   age135_m62            0.0000     9.6324E-06     8.6501   0.6860   108.5335
 46      0.0000     0.0000E+00    0.0000E+00    1.434000E+09  0.02000  1.263E-04    0   0.5908   age139_m62            0.0000     9.7982E-06     8.9375   0.2341   107.1809
 47      0.0020     4.9939E-02    4.5453E-02    2.500000E+09  0.02000  5.985E-05    0   0.5673   age150_m62            0.0000     1.0953E-05     9.6978  -0.1339   105.6470
 48      0.0000     0.0000E+00    0.0000E+00    4.250000E+09  0.02000  3.271E-05    0   0.5468   age158_m62            0.0000     1.2320E-05    10.4206  -0.4334   104.3148
 49      0.0000     0.0000E+00    0.0000E+00    1.000000E+10  0.02000  1.360E-05    0   0.5167   age181_m62            0.0000     1.4132E-05    11.1424  -0.7732   103.2913
 50      0.0000     0.0000E+00    0.0000E+00    1.800000E+10  0.02000  7.124E-06    0   0.5013   age213_m62            0.0000     1.5867E-05    11.7930  -0.9818   102.2480
 51      0.0000     0.0000E+00    0.0000E+00    1.000000E+06  0.05000  2.592E-02    0   0.9998   age020_m72            0.0000     1.1181E-05    10.3333   3.1072    99.3396
 52      0.0000     0.0000E+00    0.0000E+00    3.160000E+06  0.05000  4.845E-02    0   0.9577   age045_m72            0.0000     1.1098E-05    10.2472   2.9645   100.2818
 53      0.9626     4.7120E-02    6.9150E-02    5.010000E+06  0.05000  3.072E-02    0   0.9147   age055_m72            0.0000     8.4490E-06     7.9863   2.4967   104.1013
 54      0.0000     0.0000E+00    0.0000E+00    6.610000E+06  0.05000  1.455E-02    0   0.8877   age061_m72            0.0000     8.3129E-06     7.5738   1.7339   110.9419
 55      0.0000     0.0000E+00    0.0000E+00    1.000000E+07  0.05000  9.074E-03    0   0.8524   age070_m72            0.0000     9.0178E-06     8.4638   2.6652   104.0367
 56      2.5115     8.8864E-01    1.1266E+00    2.512000E+07  0.05000  4.250E-03    0   0.7902   age090_m72            0.0000     8.3522E-06     7.7404   2.4058   104.3802
 57      0.0000     0.0000E+00    0.0000E+00    4.000000E+07  0.05000  3.087E-03    0   0.7618   age104_m72            0.0000     8.2088E-06     7.5164   2.1929   105.3965
 58      0.0000     0.0000E+00    0.0000E+00    1.015200E+08  0.05000  1.700E-03    0   0.7096   age116_m72            0.0000     8.5760E-06     7.6723   1.9837   106.1682
 59      0.0000     0.0000E+00    0.0000E+00    2.861200E+08  0.05000  7.384E-04    0   0.6633   age125_m72            0.0000     9.5220E-06     8.2584   1.5078   108.5979
 60      0.0000     0.0000E+00    0.0000E+00    5.088000E+08  0.05000  3.819E-04    0   0.6372   age130_m72            0.0000     9.9437E-06     8.8510   1.0253   109.7340
 61      0.0000     0.0000E+00    0.0000E+00    9.047900E+08  0.05000  1.676E-04    0   0.6110   age135_m72            0.0000     1.1017E-05     9.8409   0.3238   107.8042
 62      0.0000     0.0000E+00    0.0000E+00    1.434000E+09  0.05000  8.837E-05    0   0.5874   age139_m72            0.0000     1.1209E-05     9.7841  -0.1332   107.0611
 63      0.0000     0.0000E+00    0.0000E+00    2.500000E+09  0.05000  4.233E-05    0   0.5598   age150_m72            0.0000     1.2912E-05    10.7066  -0.4346   105.1791
 64      0.0000     0.0000E+00    0.0000E+00    6.250000E+09  0.05000  1.435E-05    0   0.5249   age166_m72            0.0000     1.4947E-05    11.4791  -0.8715   102.8670
 65      0.0000     0.0000E+00    0.0000E+00    1.300000E+10  0.05000  6.513E-06    0   0.5036   age193_m72            0.0000     1.7778E-05    12.0143  -1.0000    98.9210
 66      0.0000     0.0000E+00    0.0000E+00    1.800000E+10  0.05000  4.527E-06    0   0.4945   age213_m72            0.0000     2.1159E-05    12.5682  -1.0000    93.5996


## Synthesis Results - Average & Chains ##

# j      x_j: min, <> & last-chain-values for 1 ...  7 chains
  1      2.1933      7.4621      4.7508      7.6475      7.6494      7.7513      7.7434      8.4786      7.1791
  2      0.0000     15.5656     15.5463     14.0797     14.4679     15.5231     18.0412     14.7582     15.9019
  3      0.0000      0.1442      0.0000      0.1696      0.0000      0.0000      0.0506      0.0862      0.0208
  4      0.0000      0.1531      0.0000      0.0868      0.4430      0.2029      0.0681      0.1579      0.1589
  5      0.0000      0.1324      0.4264      0.0000      0.1210      0.0558      0.0000      0.1067      0.1106
  6      0.0000      0.1401      1.0824      0.0000      0.0487      0.0000      0.0525      0.0102      0.0899
  7      0.0000      0.1400      0.2289      0.0000      0.0330      0.0000      0.0067      0.0456      0.1267
  8      0.0000      1.2313      1.1578      1.5683      1.5626      0.7065      0.9651      0.8120      0.9416
  9      4.5112      3.6252      2.1993      3.8958      3.7860      3.5997      4.4313      3.3164      3.6557
 10      0.0000      0.1455      1.2016      0.0502      0.0173      0.0415      0.0425      0.0129      0.2409
 11      0.9243      0.1622      0.5958      0.0526      0.0134      0.0685      0.0150      0.0970      0.0272
 12      0.0000      0.1707      0.5956      0.0000      0.1269      0.1062      0.0617      0.1352      0.1161
 13      5.7804      0.1478      0.6111      0.0377      0.0879      0.1555      0.0492      0.0346      0.0000
 14      0.0000      0.1909      0.3780      0.0000      0.1908      0.5523      0.1861      0.0038      0.5067
 15      0.0000      0.1311      0.3580      0.1316      0.1523      0.5211      0.0000      0.0000      0.0000
 16      0.0000      0.1160      0.0000      0.0000      0.2158      0.5845      0.1246      0.0851      0.5346
 17      0.1741      0.1343      0.2569      0.0315      0.0647      0.1419      0.0000      0.0424      0.0000
 18      0.0000      2.5952      2.1283      2.6595      2.7164      3.1332      1.3796      2.7611      3.0597
 19      0.0000      0.2719      0.4368      0.0500      0.1823      0.3752      0.1122      0.1964      1.1683
 20      0.0000      0.1441      0.0014      0.2131      0.2136      0.0115      0.0006      0.1018      0.0324
 21      0.0000      0.1198      1.0612      0.1458      0.0902      0.0017      0.0000      0.0788      0.0000
 22      0.0000      0.1246      0.6758      0.1190      0.0000      0.1582      0.0168      0.0157      0.0009
 23      0.0000      0.1183      0.5384      0.0179      0.0546      0.0000      0.0298      0.0698      0.2891
 24      2.3353      0.1973      0.4455      0.5348      0.0968      0.0000      0.0927      0.2339      0.1281
 25      0.0000      0.1557      0.3527      0.1322      0.0260      0.2084      0.0549      0.2208      0.0140
 26      0.0000      0.1161      0.0000      0.1130      0.0776      0.1763      0.0000      0.1498      0.0235
 27      0.0000      0.1571      0.4924      0.0000      0.1182      0.0000      0.2962      0.0000      0.0000
 28      0.0000      0.1547      0.5820      0.0554      0.2002      0.0927      0.0945      0.0000      0.3571
 29      0.0000      0.1304      0.7992      0.0000      0.0688      0.0000      0.0661      0.0730      0.0753
 30      0.0000      0.1102      0.2478      0.0086      0.0377      0.0000      0.0193      0.0302      0.3029
 31      0.0482      0.1291      0.4300      0.0166      0.0369      0.3517      0.0000      0.0741      0.0000
 32      0.0000      0.1211      0.1244      0.1800      0.3782      0.2328      0.1134      0.0063      0.0281
 33      0.0000      0.1482      0.1264      0.3325      0.2633      0.7656      0.0000      0.0457      0.7053
 34      0.0000      0.1764      0.2235      0.2354      0.0591      0.0013      0.0616      0.0428      0.2019
 35      0.0000      0.1413      0.0946      0.1212      0.1300      0.0000      0.0000      0.0891      0.2246
 36      0.0000      0.1309      0.0000      0.0279      0.0000      0.0000      0.0577      0.0232      0.1125
 37      0.0000      0.1225      0.0000      0.2190      0.1281      0.0000      0.0567      0.0000      0.1463
 38     81.8199      0.1796      0.7995      0.1219      0.1817      0.0338      0.0785      0.4159      0.1749
 39      0.0000      0.1511      0.1941      0.0454      0.0466      0.0000      0.0101      0.1860      0.0000
 40      0.0000      0.1645      0.0000      0.0000      0.1937      0.0000      0.0695      0.0345      0.0000
 41      0.0000      0.1674      0.1747      0.0097      0.0037      0.1514      0.0791      0.1428      0.0631
 42      0.0000      0.1252      0.0000      0.0114      0.0005      0.1232      0.1357      0.0965      0.0469
 43      0.0000      0.1238      0.0000      0.1852      0.0978      0.5544      0.0000      0.0000      0.1897
 44      8.1422      4.9942      4.7763      5.1163      5.2833      4.2586      4.4858      5.9052      4.3565
 45      0.0000      0.1573      0.1072      0.1378      0.4558      0.0000      0.0275      0.0000      0.0000
 46      0.0000      0.1302      0.4147      0.4081      0.0952      0.1757      0.1017      0.0508      0.3445
 47      0.0020      0.1146      0.6408      0.3725      0.0329      0.1290      0.0405      0.0341      0.0000
 48      0.0000      0.1643      0.0000      0.1672      0.1416      0.0886      0.0509      0.1063      0.0343
 49      0.0000      0.1085      0.6474      0.0494      0.0328      0.1083      0.0338      0.0471      0.3688
 50      0.0000      0.1436      0.0000      0.1160      0.3426      0.0000      0.0483      0.2730      0.1430
 51      0.0000      0.1221      0.0000      0.0968      0.0000      0.0591      0.0018      0.0509      0.1223
 52      0.0000      0.1406      0.4411      0.1021      0.0000      0.0025      0.1989      0.1737      0.3492
 53      0.9626      0.1378      0.6814      0.0821      0.1805      0.2994      0.0848      0.0582      0.0000
 54      0.0000      0.1231      0.0000      0.0000      0.2870      0.2181      0.0576      0.0256      0.0000
 55      0.0000      0.1743      0.2929      0.1393      0.3918      0.0166      0.2012      0.1728      0.0000
 56      2.5115      0.1705      0.5742      0.3005      0.1231      0.5182      0.0000      0.0230      0.1465
 57      0.0000      0.1200      0.0000      0.0000      0.0444      0.0000      0.0000      0.0247      0.0000
 58      0.0000      0.1526      1.2140      0.3544      0.0162      0.0898      0.1122      0.0416      0.0000
 59      0.0000      0.1624      0.1146      0.2775      0.0576      0.3193      0.1107      0.0471      0.2803
 60      0.0000      0.1910      0.0150      0.0000      0.1879      0.0000      0.2249      0.1301      0.3528
 61      0.0000      0.1521      0.9690      0.0293      0.1058      0.3585      0.0535      0.0068      0.4835
 62      0.0000      0.1232      0.0000      0.0232      0.0382      0.0000      0.0875      0.0411      0.1587
 63      0.0000      0.1433      0.7211      0.1400      0.0464      0.0904      0.0062      0.0626      0.3786
 64      0.0000      0.1336      0.4099      0.2233      0.2251      0.1728      0.1609      0.0537      0.1091
 65      0.0000      5.6363      5.7012      6.0944      6.3752      5.4019      7.4726      5.9656      5.6445
 66      0.0000     30.2126     23.0662     32.1926     31.1191     31.1219     32.2597     33.6083     29.6294

# j      m_j: min, <> & last-chain-values for 1 ...  7 chains
  1  4.8370E-01  1.7928E-02  1.4098E-02  1.7229E-02  1.7595E-02  1.8110E-02  1.7119E-02  1.8547E-02  1.7367E-02
  2  0.0000E+00  1.0209E-02  1.2594E-02  8.6592E-03  9.0852E-03  9.9008E-03  1.0888E-02  8.8133E-03  1.0502E-02
  3  0.0000E+00  1.4159E-04  0.0000E+00  1.5619E-04  0.0000E+00  0.0000E+00  4.5768E-05  7.7074E-05  2.0546E-05
  4  0.0000E+00  1.4160E-04  0.0000E+00  7.5297E-05  3.9227E-04  1.8251E-04  5.7952E-05  1.3300E-04  1.4799E-04
  5  0.0000E+00  2.3325E-04  9.2802E-04  0.0000E+00  2.0418E-04  9.5666E-05  0.0000E+00  1.7120E-04  1.9622E-04
  6  0.0000E+00  4.0037E-04  3.8206E-03  0.0000E+00  1.3336E-04  0.0000E+00  1.3800E-04  2.6626E-05  2.5855E-04
  7  0.0000E+00  5.7276E-04  1.1565E-03  0.0000E+00  1.2939E-04  0.0000E+00  2.5148E-05  1.6971E-04  5.2177E-04
  8  0.0000E+00  6.9632E-03  8.0873E-03  8.3161E-03  8.4604E-03  3.8851E-03  5.0221E-03  4.1807E-03  5.3617E-03
  9  2.6802E+00  2.3465E-02  1.7583E-02  2.3644E-02  2.3461E-02  2.2657E-02  2.6392E-02  1.9544E-02  2.3825E-02
 10  0.0000E+00  1.2373E-03  1.2619E-02  4.0032E-04  1.4118E-04  3.4291E-04  3.3272E-04  9.9527E-05  2.0620E-03
 11  1.3564E+00  2.5924E-03  1.1764E-02  7.8886E-04  2.0561E-04  1.0651E-03  2.2003E-04  1.4125E-03  4.3775E-04
 12  0.0000E+00  4.3298E-03  1.8658E-02  0.0000E+00  3.0818E-03  2.6193E-03  1.4393E-03  3.1227E-03  2.9653E-03
 13  3.7927E+01  1.0566E-02  5.3953E-02  2.5246E-03  6.0167E-03  1.0812E-02  3.2380E-03  2.2520E-03  0.0000E+00
 14  0.0000E+00  4.5760E-02  1.1194E-01  0.0000E+00  4.3793E-02  1.2876E-01  4.1049E-02  8.2022E-04  1.2231E-01
 15  0.0000E+00  5.1159E-02  1.7257E-01  4.8158E-02  5.6903E-02  1.9776E-01  0.0000E+00  0.0000E+00  0.0000E+00
 16  0.0000E+00  7.6553E-02  0.0000E+00  0.0000E+00  1.3634E-01  3.7512E-01  7.5671E-02  5.1119E-02  3.5519E-01
 17  1.3680E+01  1.1495E-01  2.7165E-01  2.5310E-02  5.3048E-02  1.1817E-01  0.0000E+00  3.3073E-02  0.0000E+00
 18  0.0000E+00  5.5098E-03  5.5813E-03  5.2945E-03  5.5216E-03  6.4688E-03  2.6952E-03  5.3373E-03  6.5407E-03
 19  0.0000E+00  2.3167E-04  4.5975E-04  3.9924E-05  1.4869E-04  3.1093E-04  8.7962E-05  1.5237E-04  1.0024E-03
 20  0.0000E+00  1.3404E-04  1.6037E-06  1.8592E-04  1.9028E-04  1.0386E-05  4.8387E-07  8.6189E-05  3.0337E-05
 21  0.0000E+00  1.3530E-04  1.4802E-03  1.5435E-04  9.7528E-05  1.9107E-06  0.0000E+00  8.1045E-05  0.0000E+00
 22  0.0000E+00  2.3796E-04  1.5940E-03  2.1306E-04  0.0000E+00  2.9378E-04  2.9480E-05  2.7368E-05  1.8193E-06
 23  0.0000E+00  3.0506E-04  1.7147E-03  4.3203E-05  1.3484E-04  0.0000E+00  7.0673E-05  1.6392E-04  7.5069E-04
 24  8.2239E-01  7.5700E-04  2.1108E-03  1.9239E-03  3.5543E-04  0.0000E+00  3.2723E-04  8.1715E-04  4.9490E-04
 25  0.0000E+00  8.2383E-04  2.3043E-03  6.5563E-04  1.3183E-04  1.0719E-03  2.6722E-04  1.0636E-03  7.4772E-05
 26  0.0000E+00  1.0266E-03  0.0000E+00  9.3665E-04  6.5662E-04  1.5158E-03  0.0000E+00  1.2060E-03  2.0899E-04
 27  0.0000E+00  2.7798E-03  1.0765E-02  0.0000E+00  2.0033E-03  0.0000E+00  4.8230E-03  0.0000E+00  0.0000E+00
 28  0.0000E+00  7.9473E-03  3.6925E-02  2.6679E-03  9.8428E-03  4.6280E-03  4.4667E-03  0.0000E+00  1.8467E-02
 29  0.0000E+00  1.1667E-02  8.8345E-02  0.0000E+00  5.8932E-03  0.0000E+00  5.4423E-03  5.9466E-03  6.7892E-03
 30  0.0000E+00  2.0607E-02  5.7233E-02  1.5029E-03  6.7441E-03  0.0000E+00  3.3241E-03  5.1496E-03  5.7035E-02
 31  1.4551E+00  4.2469E-02  1.7469E-01  5.1095E-03  1.1607E-02  1.1249E-01  0.0000E+00  2.2189E-02  0.0000E+00
 32  0.0000E+00  5.3610E-02  6.7996E-02  7.4699E-02  1.6024E-01  1.0019E-01  4.6168E-02  2.5198E-03  1.2513E-02
 33  0.0000E+00  1.4520E-01  1.5292E-01  3.0546E-01  2.4694E-01  7.2937E-01  0.0000E+00  4.0800E-02  6.9577E-01
 34  0.0000E+00  2.3409E-01  3.6631E-01  2.9279E-01  7.5099E-02  1.6662E-03  7.5204E-02  5.1740E-02  2.6968E-01
 35  0.0000E+00  2.4046E-04  1.9885E-04  1.9349E-04  2.1192E-04  0.0000E+00  0.0000E+00  1.3816E-04  3.8492E-04
 36  0.0000E+00  9.0142E-05  0.0000E+00  1.8015E-05  0.0000E+00  0.0000E+00  3.6543E-05  1.4551E-05  7.7988E-05
 37  0.0000E+00  9.1295E-05  0.0000E+00  1.5298E-04  9.1339E-05  0.0000E+00  3.8863E-05  0.0000E+00  1.0974E-04
 38  1.5158E+01  3.6237E-04  1.9929E-03  2.3065E-04  3.5118E-04  6.6259E-05  1.4577E-04  7.6433E-04  3.5544E-04
 39  0.0000E+00  4.3895E-04  6.9669E-04  1.2357E-04  1.2959E-04  0.0000E+00  2.7019E-05  4.9199E-04  0.0000E+00
 40  0.0000E+00  7.7250E-04  0.0000E+00  0.0000E+00  8.7130E-04  0.0000E+00  3.0025E-04  1.4766E-04  0.0000E+00
 41  0.0000E+00  1.2224E-03  1.5766E-03  6.6151E-05  2.5952E-05  1.0751E-03  5.3188E-04  9.4974E-04  4.6378E-04
 42  0.0000E+00  1.6793E-03  0.0000E+00  1.4366E-04  5.7965E-06  1.6065E-03  1.6742E-03  1.1782E-03  6.3365E-04
 43  0.0000E+00  2.4247E-03  0.0000E+00  3.4005E-03  1.8341E-03  1.0557E-02  0.0000E+00  0.0000E+00  3.7398E-03
 44  2.5196E+01  1.6837E-01  1.9889E-01  1.6174E-01  1.7053E-01  1.3961E-01  1.3915E-01  1.8126E-01  1.4788E-01
 45  0.0000E+00  1.0523E-02  8.8588E-03  8.6434E-03  2.9189E-02  0.0000E+00  1.6941E-03  0.0000E+00  0.0000E+00
 46  0.0000E+00  1.6006E-02  6.2975E-02  4.7054E-02  1.1204E-02  2.1012E-02  1.1506E-02  5.6815E-03  4.2654E-02
 47  4.5453E-02  2.8563E-02  1.9720E-01  8.7029E-02  7.8468E-03  3.1248E-02  9.2950E-03  7.7320E-03  0.0000E+00
 48  0.0000E+00  7.2202E-02  0.0000E+00  6.8885E-02  5.9568E-02  3.7858E-02  2.0567E-02  4.2525E-02  1.5166E-02
 49  0.0000E+00  1.0840E-01  7.9856E-01  4.6222E-02  3.1361E-02  1.0513E-01  3.1089E-02  4.2792E-02  3.7081E-01
 50  0.0000E+00  2.6563E-01  0.0000E+00  2.0112E-01  6.0664E-01  0.0000E+00  8.2140E-02  4.5968E-01  2.6627E-01
 51  0.0000E+00  1.2382E-04  0.0000E+00  9.2022E-05  0.0000E+00  5.8294E-05  1.7136E-06  4.7022E-05  1.2483E-04
 52  0.0000E+00  7.3028E-05  2.8304E-04  4.9719E-05  0.0000E+00  1.2468E-06  9.5074E-05  8.2175E-05  1.8266E-04
 53  6.9150E-02  1.0782E-04  6.5872E-04  6.0237E-05  1.3524E-04  2.2790E-04  6.1053E-05  4.1468E-05  0.0000E+00
 54  0.0000E+00  1.9739E-04  0.0000E+00  0.0000E+00  4.4065E-04  3.4006E-04  8.5016E-05  3.7383E-05  0.0000E+00
 55  0.0000E+00  4.3040E-04  8.9341E-04  3.2261E-04  9.2616E-04  3.9883E-05  4.5706E-04  3.8837E-04  0.0000E+00
 56  1.1266E+00  8.3324E-04  3.4660E-03  1.3770E-03  5.7583E-04  2.4626E-03  0.0000E+00  1.0237E-04  7.2076E-04
 57  0.0000E+00  7.7850E-04  0.0000E+00  0.0000E+00  2.7542E-04  0.0000E+00  0.0000E+00  1.4603E-04  0.0000E+00
 58  0.0000E+00  1.6739E-03  1.6451E-02  3.6460E-03  1.7051E-04  9.5811E-04  1.1322E-03  4.1543E-04  0.0000E+00
 59  0.0000E+00  3.8337E-03  3.3433E-03  6.1448E-03  1.3030E-03  7.3318E-03  2.4045E-03  1.0116E-03  6.6627E-03
 60  0.0000E+00  8.3741E-03  8.1103E-04  0.0000E+00  7.8910E-03  0.0000E+00  9.0737E-03  5.1956E-03  1.5579E-02
 61  0.0000E+00  1.4573E-02  1.1468E-01  2.6349E-03  9.7034E-03  3.3407E-02  4.7146E-03  5.9366E-04  4.6652E-02
 62  0.0000E+00  2.1527E-02  0.0000E+00  3.8072E-03  6.3913E-03  0.0000E+00  1.4061E-02  6.5413E-03  2.7914E-02
 63  0.0000E+00  4.9827E-02  3.0960E-01  4.5633E-02  1.5435E-02  3.0545E-02  1.9682E-03  1.9810E-02  1.3250E-01
 64  0.0000E+00  1.2841E-01  4.8677E-01  2.0129E-01  2.0722E-01  1.6153E-01  1.4230E-01  4.6984E-02  1.0560E-01
 65  0.0000E+00  1.1455E+01  1.4311E+01  1.1614E+01  1.2405E+01  1.0676E+01  1.3974E+01  1.1039E+01  1.1551E+01
 66  0.0000E+00  8.6743E+01  8.1799E+01  8.6669E+01  8.5540E+01  8.6892E+01  8.5226E+01  8.7856E+01  8.5654E+01

# AV, chi2 & Mass for <> & i_chain = 1 ...  7 solutions
AV       1.6193      0.3661      0.6434      0.3827      0.4015      0.4180      0.3595      0.3607      0.4595
chi2 7.0452E-06  2.6708E-05  2.5174E-05  2.6018E-05  2.5691E-05  2.5729E-05  2.5168E-05  2.5596E-05  2.5690E-05
Mass 6.4372E-14  1.0977E-12  1.2899E-12  1.1971E-12  1.2023E-12  1.2104E-12  1.1825E-12  1.1969E-12  1.2359E-12
-490.02                                  [v0_min (km/s) before EX0s...]
 277.10                                  [vd_min (km/s) before EX0s...]


## Synthetic spectrum (Best Model) ##l_obs f_obs f_syn wei
 3478    [Nl_obs]
 3741.00   -0.04081   0.81862    0.000
 3742.00    0.03227   0.80230    0.000
 3743.00    0.10749   0.79154    0.000
 3744.00    0.08755   0.78860    0.000
 3745.00    0.01218   0.79587   -1.000
 3746.00    0.11052   0.81143   -1.000
 3747.00    0.29708   0.83198   -1.000
 3748.00    0.37687   0.85583   -1.000
 3749.00    0.40971   0.88085   -1.000
 3750.00    0.46644   0.90376   -1.000
 3751.00    0.53219   0.92276   -1.000
 3752.00    0.63848   0.93728   -1.000
 3753.00    0.75776   0.94637   -1.000
 3754.00    0.69580   0.95009   -1.000
 3755.00    0.58529   0.94864   -1.000
 3756.00    0.59413   0.94137   -1.000
 3757.00    0.62917   0.92806   -1.000
 3758.00    0.75371   0.90998   -1.000
 3759.00    0.89387   0.88809   -1.000
 3760.00    0.76414   0.86297   -1.000
 3761.00    0.59857   0.83722   -1.000
 3762.00    0.53543   0.81535   -1.000
 3763.00    0.48192   0.80005   -1.000
 3764.00    0.34349   0.79198   -1.000
 3765.00    0.20016   0.79339   -1.000
 3766.00    0.23619   0.80568   -1.000
 3767.00    0.27720   0.82617   -1.000
 3768.00    0.40558   0.85160   -1.000
 3769.00    0.53180   0.88044   -1.000
 3770.00    0.60526   0.91060   -1.000
 3771.00    0.66101   0.93902   -1.000
 3772.00    0.48466   0.96369   -1.000
 3773.00    0.31915   0.98433   -1.000
 3774.00    0.24881   1.00110   -1.000
 3775.00    0.20137   1.01320   -1.000
 3776.00    0.30238   1.02064   -1.000
 3777.00    0.39155   1.02442   -1.000
 3778.00    0.42076   1.02451   -1.000
 3779.00    0.44378   1.02062   -1.000
 3780.00    0.44146   1.01344   -1.000
 3781.00    0.40323   1.00285   -1.000
 3782.00    0.24320   0.98813   -1.000
 3783.00    0.10667   0.96973   -1.000
 3784.00    0.03735   0.94744   -1.000
 3785.00   -0.00289   0.92063    0.000
 3786.00    0.02795   0.89067   -1.000
 3787.00    0.09444   0.85935   -1.000
 3788.00    0.23610   0.82779   -1.000
 3789.00    0.36361   0.79943   -1.000
 3790.00    0.46521   0.77883   -1.000
 3791.00    0.45214   0.76725   -1.000
 3792.00    0.25551   0.76528   -1.000
 3793.00    0.22116   0.77439   -1.000
 3794.00    0.41476   0.79354   -1.000
 3795.00    0.43467   0.81932   -1.000
 3796.00    0.23988   0.84858   -1.000
 3797.00    0.11242   0.87892   -1.000
 3798.00    0.05832   0.90913   -1.000
 3799.00    0.13847   0.93717   -1.000
 3800.00    0.34764   0.96082   -1.000
 3801.00    0.45056   0.98111   -1.000
 3802.00    0.46343   0.99923   -1.000
 3803.00    0.54526   1.01338   -1.000
 3804.00    0.67853   1.02294   -1.000
 3805.00    0.76041   1.02960   -1.000
 3806.00    0.80858   1.03256   -1.000
 3807.00    0.70779   1.03056   -1.000
 3808.00    0.52152   1.02563   -1.000
 3809.00    0.40889   1.01839   -1.000
 3810.00    0.33306   1.00759   -1.000
 3811.00    0.36533   0.99691   -1.000
 3812.00    0.44435   0.98943   -1.000
 3813.00    0.47259   0.98265   -1.000
 3814.00    0.48200   0.97702   -1.000
 3815.00    0.42694   0.97567   -1.000
 3816.00    0.35161   0.97612   -1.000
 3817.00    0.44424   0.97421   -1.000
 3818.00    0.58092   0.97065   -1.000
 3819.00    0.47625   0.96461   -1.000
 3820.00    0.31986   0.95300   -1.000
 3821.00    0.26539   0.93557   -1.000
 3822.00    0.22821   0.91268   -1.000
 3823.00    0.26820   0.88486   -1.000
 3824.00    0.31809   0.85416   -1.000
 3825.00    0.40590   0.82241   -1.000
 3826.00    0.49711   0.79171   -1.000
 3827.00    0.45748   0.76663   -1.000
 3828.00    0.41081   0.75022   -1.000
 3829.00    0.41133   0.74284   -1.000
 3830.00    0.41413   0.74646   -1.000
 3831.00    0.53015   0.76205   -1.000
 3832.00    0.64400   0.78609   -1.000
 3833.00    0.70973   0.81554   -1.000
 3834.00    0.74991   0.84920   -1.000
 3835.00    0.47243   0.88357   -1.000
 3836.00    0.24035   0.91549   -1.000
 3837.00    0.39189   0.94420   -1.000
 3838.00    0.53492   0.96894   -1.000
 3839.00    0.62430   0.98935   -1.000
 3840.00    0.68612   1.00591   -1.000
 3841.00    0.61190   1.01880   -1.000
 3842.00    0.49011   1.02869   -1.000
 3843.00    0.17788   1.03661   -1.000
 3844.00   -0.02082   1.04247    0.000
 3845.00    0.15796   1.04667   -1.000
 3846.00    0.34249   1.05010   -1.000
 3847.00    0.54314   1.05253    0.000
 3848.00    0.67676   1.05391    0.000
 3849.00    0.64937   1.05524    0.000
 3850.00    0.57308   1.05609    0.000
 3851.00    0.39542   1.05602    0.000
 3852.00    0.30247   1.05630    0.000
 3853.00    0.36231   1.05659    0.000
 3854.00    0.42374   1.05585    0.000
 3855.00    0.48765   1.05471    0.000
 3856.00    0.48525   1.05391    0.000
 3857.00    0.39103   1.05296    0.000
 3858.00    0.34954   1.05075    0.000
 3859.00    0.37229   1.04817    0.000
 3860.00    0.37707   1.04643    0.000
 3861.00    0.36256   1.04419    0.000
 3862.00    0.39884   1.04041    0.000
 3863.00    0.48324   1.03684    0.000
 3864.00    0.47612   1.03370    0.000
 3865.00    0.39254   1.02946    0.000
 3866.00    0.41515   1.02424    0.000
 3867.00    0.51588   1.01869    0.000
 3868.00    0.51634   1.01318    0.000
 3869.00    0.45205   1.00653    0.000
 3870.00    0.38279   0.99750    0.000
 3871.00    0.31071   0.98738    0.000
 3872.00    0.36258   0.97586    0.000
 3873.00    0.47542   0.96027    0.000
 3874.00    0.41259   0.94093    0.000
 3875.00    0.27507   0.91910    0.000
 3876.00    0.26087   0.89291    0.000
 3877.00    0.29159   0.86277    0.000
 3878.00    0.41164   0.83229    0.000
 3879.00    0.55923   0.80260    0.000
 3880.00    0.65353   0.77498    0.000
 3881.00    0.73416   0.75448   -1.000
 3882.00    0.69328   0.74405   -1.000
 3883.00    0.62699   0.74273   -1.000
 3884.00    0.57828   0.75173   -1.000
 3885.00    0.53247   0.77177   -1.000
 3886.00    0.56787   0.79831   -1.000
 3887.00    0.61333   0.82798   -1.000
 3888.00    0.54893   0.85984   -1.000
 3889.00    0.47512   0.89093   -1.000
 3890.00    0.46184   0.91852   -1.000
 3891.00    0.45158   0.94283   -1.000
 3892.00    0.49429   0.96443   -1.000
 3893.00    0.53670   0.98241   -1.000
 3894.00    0.50400   0.99713   -1.000
 3895.00    0.47935   1.01035   -1.000
 3896.00    0.61936   1.02187   -1.000
 3897.00    0.75040   1.03101   -1.000
 3898.00    0.77548   1.03904   -1.000
 3899.00    0.78060   1.04646   -1.000
 3900.00    0.62315   1.05224   -1.000
 3901.00    0.48542   1.05704   -1.000
 3902.00    0.46814   1.06142   -1.000
 3903.00    0.44507   1.06440   -1.000
 3904.00    0.39414   1.06652   -1.000
 3905.00    0.31572   1.06811   -1.000
 3906.00    0.12964   1.06813   -1.000
 3907.00    0.01216   1.06700   -1.000
 3908.00    0.11830   1.06524   -1.000
 3909.00    0.25017   1.06215   -1.000
 3910.00    0.45296   1.05800   -1.000
 3911.00    0.63786   1.05341   -1.000
 3912.00    0.78051   1.04870   -1.000
 3913.00    0.85553   1.04446   -1.000
 3914.00    0.79251   1.04065   -1.000
 3915.00    0.70763   1.03698   -1.000
 3916.00    0.58393   1.03454   -1.000
 3917.00    0.48571   1.03280   -1.000
 3918.00    0.42710   1.02970   -1.000
 3919.00    0.44089   1.02704   -1.000
 3920.00    0.55345   1.02504   -1.000
 3921.00    0.58904   1.02119   -1.000
 3922.00    0.53216   1.01752   -1.000
 3923.00    0.54476   1.01489   -1.000
 3924.00    0.63097   1.01147   -1.000
 3925.00    0.67460   1.00843   -1.000
 3926.00    0.67845   1.00762   -1.000
 3927.00    0.73253   1.00841   -1.000
 3928.00    0.82799   1.01010   -1.000
 3929.00    0.77401   1.01439   -1.000
 3930.00    0.61172   1.02075   -1.000
 3931.00    0.55343   1.02709   -1.000
 3932.00    0.56135   1.03358   -1.000
 3933.00    0.59652   1.03944   -1.000
 3934.00    0.64687   1.04404   -1.000
 3935.00    0.54830   1.04758   -1.000
 3936.00    0.37765   1.04924   -1.000
 3937.00    0.31173   1.05017   -1.000
 3938.00    0.28960   1.05109   -1.000
 3939.00    0.42334   1.05069   -1.000
 3940.00    0.61283   1.05003   -1.000
 3941.00    0.62631   1.04989   -1.000
 3942.00    0.58658   1.04877   -1.000
 3943.00    0.50856   1.04666   -1.000
 3944.00    0.42092   1.04415   -1.000
 3945.00    0.51105   1.04073   -1.000
 3946.00    0.63743   1.03608   -1.000
 3947.00    0.74136   1.03036   -1.000
 3948.00    0.84170   1.02370   -1.000
 3949.00    0.80325   1.01545   -1.000
 3950.00    0.74822   1.00536   -1.000
 3951.00    0.72488   0.99352   -1.000
 3952.00    0.70412   0.97886   -1.000
 3953.00    0.65726   0.96026   -1.000
 3954.00    0.60919   0.93890   -1.000
 3955.00    0.63073   0.91441   -1.000
 3956.00    0.65469   0.88484   -1.000
 3957.00    0.75882   0.85335   -1.000
 3958.00    0.85585   0.82152   -1.000
 3959.00    0.81850   0.78791   -1.000
 3960.00    0.77554   0.75728    0.000
 3961.00    0.66927   0.73250    0.000
 3962.00    0.60394   0.71366    0.000
 3963.00    0.86045   0.70532    0.000
 3964.00    1.04826   0.70778    0.000
 3965.00    0.82844   0.71917    0.000
 3966.00    0.63657   0.74135    0.000
 3967.00    0.57588   0.77080    0.000
 3968.00    0.54049   0.80276    0.000
 3969.00    0.60207   0.83695    0.000
 3970.00    0.64879   0.87070    0.000
 3971.00    0.64800   0.90070    0.000
 3972.00    0.67958   0.92727    0.000
 3973.00    0.79881   0.95058    0.000
 3974.00    0.97827   0.96955    0.000
 3975.00    1.29758   0.98520    0.000
 3976.00    1.47783   0.99921    0.000
 3977.00    1.37878   1.01097    0.000
 3978.00    1.22051   1.02065    0.000
 3979.00    0.95867   1.02993    0.000
 3980.00    0.82835   1.03814    0.000
 3981.00    0.89940   1.04459   -1.000
 3982.00    1.01627   1.05036   -1.000
 3983.00    1.19476   1.05504   -1.000
 3984.00    1.15155   1.05828    0.172
 3985.00    0.84580   1.06108    0.054
 3986.00    0.70121   1.06276    0.040
 3987.00    0.72490   1.06357    0.039
 3988.00    0.80072   1.06509    0.039
 3989.00    0.92455   1.06617    0.039
 3990.00    1.02893   1.06657    0.039
 3991.00    1.11752   1.06791    0.039
 3992.00    1.12934   1.06911    0.039
 3993.00    1.08630   1.06925    0.039
 3994.00    0.95062   1.06888    0.039
 3995.00    0.75685   1.06794    0.038
 3996.00    0.78696   1.06608    0.038
 3997.00    0.93975   1.06257    0.038
 3998.00    1.07242   1.05854    0.038
 3999.00    1.19551   1.05557    0.039
 4000.00    1.08474   1.05218    0.039
 4001.00    0.87785   1.04910    0.039
 4002.00    0.87527   1.04935    0.039
 4003.00    0.94444   1.05107    0.039
 4004.00    0.96894   1.05313    0.039
 4005.00    0.98019   1.05796    0.039
 4006.00    0.97752   1.06361    0.039
 4007.00    0.97142   1.06824    0.038
 4008.00    1.13793   1.07293    0.039
 4009.00    1.33874   1.07631    0.039
 4010.00    1.05664   1.07739    0.039
 4011.00    0.69951   1.07657    0.039
 4012.00    0.67142   1.07317    0.039
 4013.00    0.68117   1.06723    0.039
 4014.00    0.76721   1.05896    0.039
 4015.00    0.85915   1.04868    0.039
 4016.00    0.81423   1.03840    0.039
 4017.00    0.76354   1.02848    0.039
 4018.00    0.75750   1.01934    0.039
 4019.00    0.75629   1.01467    0.039
 4020.00    0.94904   1.01378    0.039
 4021.00    1.13213   1.01476    0.040
 4022.00    1.14505   1.01999    0.040
 4023.00    1.14931   1.02786    0.040
 4024.00    1.06044   1.03537    0.040
 4025.00    1.00000   1.04357    0.040
 4026.00    1.15547   1.05184    0.040
 4027.00    1.26600   1.05862    0.040
 4028.00    1.11724   1.06485    0.040
 4029.00    0.99648   1.07043    0.039
 4030.00    1.00400   1.07437    0.039
 4031.00    0.99325   1.07756    0.039
 4032.00    0.91401   1.07966    0.038
 4033.00    0.85304   1.07984    0.037
 4034.00    0.84933   1.07935    0.037
 4035.00    0.88109   1.07817    0.037
 4036.00    1.00722   1.07614    0.037
 4037.00    1.09537   1.07452    0.037
 4038.00    1.09678   1.07340    0.037
 4039.00    1.13764   1.07294    0.037
 4040.00    1.25651   1.07341    0.037
 4041.00    1.27293   1.07436    0.038
 4042.00    1.11288   1.07584    0.038
 4043.00    0.98823   1.07730    0.038
 4044.00    0.91697   1.07814    0.037
 4045.00    0.88716   1.07858    0.037
 4046.00    0.91227   1.07827    0.037
 4047.00    1.01025   1.07708    0.037
 4048.00    1.19328   1.07567    0.038
 4049.00    1.24686   1.07369    0.038
 4050.00    1.16715   1.07138    0.037
 4051.00    1.10913   1.06947    0.037
 4052.00    1.07081   1.06712    0.037
 4053.00    0.95280   1.06478    0.038
 4054.00    0.77100   1.06315    0.038
 4055.00    0.75476   1.06102    0.037
 4056.00    0.85510   1.05889    0.037
 4057.00    0.95699   1.05748    0.038
 4058.00    1.05983   1.05530    0.038
 4059.00    1.07943   1.05270    0.038
 4060.00    1.05411   1.05048    0.038
 4061.00    1.09857   1.04720    0.037
 4062.00    1.17573   1.04351    0.037
 4063.00    1.11292   1.04043    0.037
 4064.00    0.99356   1.03654    0.037
 4065.00    1.08773   1.03313    0.038
 4066.00    1.25552   1.03118    0.038
 4067.00    1.23846   1.02878    0.038
 4068.00    1.16771   1.02740    0.038
 4069.00    0.95064   1.02792    0.037
 4070.00    0.69844   1.02811    0.037
 4071.00    0.87159   1.02880    0.037
 4072.00    1.12717   1.03072    0.038
 4073.00    1.09398   1.03187    0.037
 4074.00    1.01728   1.03217    0.037
 4075.00    1.01170   1.03233    0.037
 4076.00    1.01399   1.03117    0.037
 4077.00    1.13355   1.02856    0.037
 4078.00    1.26170   1.02525    0.037
 4079.00    1.14290   1.02083    0.037
 4080.00    1.01465   1.01520    0.037
 4081.00    0.98427   1.00845    0.037
 4082.00    0.95709   1.00019    0.037
 4083.00    1.02991   0.99016    0.037
 4084.00    1.08447   0.97743    0.037
 4085.00    0.83805   0.96158    0.037
 4086.00    0.62251   0.94282    0.036
 4087.00    0.72478   0.92018    0.036
 4088.00    0.84547   0.89381    0.036
 4089.00    1.10139   0.86564    0.037
 4090.00    1.30762   0.83596    0.038
 4091.00    1.23515   0.80633    0.037
 4092.00    1.20131   0.78052    0.000
 4093.00    1.34031   0.75974    0.000
 4094.00    1.42011   0.74576    0.000
 4095.00    1.28251   0.74177    0.000
 4096.00    1.16201   0.74675    0.000
 4097.00    1.09407   0.75983    0.000
 4098.00    1.04160   0.78116    0.000
 4099.00    1.02961   0.80699    0.000
 4100.00    1.03031   0.83467    0.000
 4101.00    1.05954   0.86328    0.000
 4102.00    1.08098   0.89007    0.000
 4103.00    1.08726   0.91374    0.000
 4104.00    1.06198   0.93447    0.000
 4105.00    0.98314   0.95158    0.000
 4106.00    0.98153   0.96525    0.000
 4107.00    1.09471   0.97603    0.000
 4108.00    1.16313   0.98390    0.000
 4109.00    1.17305   0.98978    0.000
 4110.00    1.20561   0.99404    0.000
 4111.00    1.26422   0.99705    0.000
 4112.00    1.28384   1.00028    0.000
 4113.00    1.26385   1.00364    0.036
 4114.00    1.19605   1.00746    0.036
 4115.00    1.08543   1.01254    0.035
 4116.00    0.97418   1.01779    0.035
 4117.00    0.86243   1.02290    0.035
 4118.00    0.88103   1.02777    0.035
 4119.00    0.99008   1.03139    0.034
 4120.00    1.05176   1.03364    0.034
 4121.00    1.08463   1.03496    0.035
 4122.00    1.09589   1.03548    0.035
 4123.00    1.09568   1.03542    0.035
 4124.00    1.00257   1.03572    0.035
 4125.00    0.86663   1.03665    0.035
 4126.00    0.90288   1.03781    0.035
 4127.00    1.00750   1.03940    0.036
 4128.00    1.05509   1.04119    0.035
 4129.00    1.08337   1.04215    0.035
 4130.00    1.08443   1.04166    0.034
 4131.00    1.07774   1.04009    0.034
 4132.00    1.07026   1.03695    0.034
 4133.00    1.06259   1.03178    0.034
 4134.00    0.98889   1.02667    0.034
 4135.00    0.90273   1.02215    0.034
 4136.00    0.88687   1.01777    0.034
 4137.00    0.88129   1.01615    0.035
 4138.00    0.96602   1.01708    0.035
 4139.00    1.06035   1.01900    0.035
 4140.00    1.13628   1.02329    0.035
 4141.00    1.21094   1.02864    0.035
 4142.00    1.04975   1.03315    0.034
 4143.00    0.88042   1.03768    0.034
 4144.00    1.02026   1.04185    0.035
 4145.00    1.15521   1.04464    0.036
 4146.00    1.10817   1.04704    0.035
 4147.00    1.05668   1.04962    0.035
 4148.00    0.93639   1.05170    0.034
 4149.00    0.82593   1.05387    0.034
 4150.00    0.81228   1.05640    0.034
 4151.00    0.80733   1.05850    0.035
 4152.00    0.86424   1.06024    0.034
 4153.00    0.90952   1.06177    0.034
 4154.00    0.89130   1.06246    0.034
 4155.00    0.87582   1.06222    0.034
 4156.00    0.87230   1.06156    0.034
 4157.00    0.88501   1.06032    0.034
 4158.00    0.95606   1.05825    0.034
 4159.00    1.04145   1.05596    0.033
 4160.00    1.17012   1.05383    0.033
 4161.00    1.21155   1.05138    0.033
 4162.00    1.02896   1.04902    0.034
 4163.00    0.91932   1.04729    0.034
 4164.00    0.97081   1.04573    0.035
 4165.00    1.00632   1.04461    0.035
 4166.00    1.01121   1.04423    0.034
 4167.00    1.00389   1.04434    0.034
 4168.00    0.97618   1.04495    0.034
 4169.00    0.97726   1.04610    0.035
 4170.00    1.02051   1.04773    0.035
 4171.00    1.02602   1.04930    0.035
 4172.00    0.98292   1.05086    0.034
 4173.00    0.96890   1.05255    0.035
 4174.00    0.98787   1.05345    0.035
 4175.00    1.01017   1.05403    0.035
 4176.00    1.03579   1.05439    0.036
 4177.00    1.02055   1.05387    0.035
 4178.00    0.96923   1.05358    0.035
 4179.00    1.08242   1.05312    0.035
 4180.00    1.32357   1.05253    0.035
 4181.00    1.23236   1.05286    0.035
 4182.00    0.91387   1.05305    0.034
 4183.00    0.84369   1.05371    0.034
 4184.00    0.92236   1.05481    0.034
 4185.00    0.97791   1.05522    0.034
 4186.00    1.02137   1.05563    0.034
 4187.00    1.05500   1.05559    0.034
 4188.00    1.08416   1.05452    0.034
 4189.00    1.20341   1.05309    0.034
 4190.00    1.35780   1.05152    0.034
 4191.00    1.21434   1.04974    0.034
 4192.00    0.97195   1.04822    0.033
 4193.00    0.85517   1.04761    0.033
 4194.00    0.77340   1.04770    0.033
 4195.00    0.75308   1.04845    0.033
 4196.00    0.74686   1.05030    0.033
 4197.00    0.87935   1.05252    0.033
 4198.00    1.03732   1.05501    0.033
 4199.00    1.09452   1.05771    0.033
 4200.00    1.13748   1.05980    0.033
 4201.00    1.21686   1.06164    0.033
 4202.00    1.29996   1.06295    0.033
 4203.00    1.15960   1.06334    0.032
 4204.00    1.00468   1.06354    0.032
 4205.00    0.94475   1.06290    0.032
 4206.00    0.88802   1.06196    0.031
 4207.00    1.01149   1.06148    0.031
 4208.00    1.13198   1.06038    0.031
 4209.00    1.16494   1.05923    0.032
 4210.00    1.18585   1.05835    0.032
 4211.00    1.03150   1.05690    0.032
 4212.00    0.89686   1.05470    0.032
 4213.00    0.94858   1.05204    0.032
 4214.00    0.99099   1.04860    0.032
 4215.00    0.96948   1.04426    0.032
 4216.00    0.95112   1.03980    0.031
 4217.00    0.94947   1.03525    0.031
 4218.00    0.94114   1.03150    0.031
 4219.00    0.90429   1.02896    0.031
 4220.00    0.88190   1.02716    0.031
 4221.00    0.91040   1.02723    0.031
 4222.00    0.94086   1.02852    0.031
 4223.00    0.97706   1.02995    0.031
 4224.00    0.96255   1.03245    0.031
 4225.00    0.82002   1.03511    0.031
 4226.00    0.74848   1.03683    0.030
 4227.00    0.83115   1.03892    0.030
 4228.00    0.88732   1.04116    0.030
 4229.00    0.89351   1.04252    0.030
 4230.00    0.89478   1.04431    0.030
 4231.00    0.88795   1.04652    0.030
 4232.00    0.90635   1.04839    0.030
 4233.00    0.96117   1.05071    0.030
 4234.00    0.95562   1.05305    0.030
 4235.00    0.87343   1.05476    0.029
 4236.00    0.89794   1.05628    0.029
 4237.00    1.04181   1.05718    0.030
 4238.00    1.14425   1.05702    0.030
 4239.00    1.20579   1.05598    0.030
 4240.00    1.12382   1.05380    0.030
 4241.00    0.91696   1.05107    0.029
 4242.00    0.85597   1.04839    0.029
 4243.00    0.90681   1.04466    0.030
 4244.00    0.94873   1.04133    0.030
 4245.00    0.98464   1.03964    0.030
 4246.00    0.98579   1.03765    0.031
 4247.00    0.96642   1.03658    0.032
 4248.00    1.10174   1.03721    0.032
 4249.00    1.31670   1.03807    0.032
 4250.00    1.27596   1.03958    0.033
 4251.00    1.12113   1.04118    0.033
 4252.00    1.04016   1.04260    0.033
 4253.00    0.98751   1.04411    0.032
 4254.00    0.98352   1.04459    0.032
 4255.00    0.99539   1.04477    0.032
 4256.00    1.04891   1.04427    0.032
 4257.00    1.11381   1.04205    0.032
 4258.00    1.08629   1.04037    0.032
 4259.00    1.03806   1.03761    0.032
 4260.00    1.00175   1.03296    0.032
 4261.00    0.96757   1.03041    0.032
 4262.00    0.96876   1.02794    0.032
 4263.00    0.97478   1.02471    0.033
 4264.00    1.00006   1.02268    0.033
 4265.00    1.02722   1.02098    0.032
 4266.00    0.98100   1.02078    0.032
 4267.00    0.93029   1.02143    0.032
 4268.00    0.97513   1.02216    0.032
 4269.00    1.02198   1.02427    0.031
 4270.00    0.96019   1.02677    0.032
 4271.00    0.90375   1.02945    0.032
 4272.00    0.98881   1.03195    0.032
 4273.00    1.06644   1.03323    0.032
 4274.00    1.04187   1.03421    0.032
 4275.00    1.02813   1.03435    0.031
 4276.00    1.11273   1.03352    0.032
 4277.00    1.17023   1.03261    0.033
 4278.00    1.04720   1.03092    0.032
 4279.00    0.98758   1.02912    0.032
 4280.00    1.25622   1.02795    0.033
 4281.00    1.43962   1.02633    0.033
 4282.00    1.26717   1.02487   -2.000
 4283.00    1.09211   1.02429   -2.000
 4284.00    0.90807   1.02373   -2.000
 4285.00    0.77596   1.02377   -2.000
 4286.00    0.79476   1.02426   -2.000
 4287.00    0.87846   1.02328   -2.000
 4288.00    1.12312   1.02247   -2.000
 4289.00    1.31544   1.02182   -2.000
 4290.00    1.39586   1.01961   -2.000
 4291.00    1.39348   1.01717   -2.000
 4292.00    1.23734   1.01425   -2.000
 4293.00    1.12910   1.01070   -2.000
 4294.00    1.09854   1.00814   -2.000
 4295.00    1.11061   1.00552   -2.000
 4296.00    1.18331   1.00256   -2.000
 4297.00    1.16492   1.00117   -2.000
 4298.00    1.03252   1.00054    0.031
 4299.00    0.94520   1.00012    0.030
 4300.00    0.90759   1.00072    0.031
 4301.00    0.99845   1.00196    0.031
 4302.00    1.21431   1.00405    0.031
 4303.00    1.24654   1.00705    0.031
 4304.00    1.12122   1.01034    0.031
 4305.00    1.03822   1.01385    0.030
 4306.00    0.98720   1.01748    0.031
 4307.00    0.94629   1.02071    0.030
 4308.00    0.91209   1.02361    0.030
 4309.00    0.93828   1.02597    0.030
 4310.00    0.99960   1.02699    0.030
 4311.00    1.03844   1.02712    0.030
 4312.00    1.06589   1.02591    0.029
 4313.00    1.08577   1.02318    0.029
 4314.00    1.10233   1.01959    0.029
 4315.00    1.06816   1.01502    0.029
 4316.00    1.01487   1.00959    0.029
 4317.00    0.96709   1.00393    0.029
 4318.00    0.92106   0.99778    0.029
 4319.00    1.05112   0.99159    0.031
 4320.00    1.22825   0.98576    0.033
 4321.00    1.26926   0.97899    0.033
 4322.00    1.28048   0.97072    0.034
 4323.00    1.16929   0.96062    0.034
 4324.00    1.03681   0.94770    0.033
 4325.00    1.04383   0.93122    0.033
 4326.00    1.06931   0.91141    0.032
 4327.00    1.06298   0.88851    0.031
 4328.00    1.05368   0.86304    0.030
 4329.00    1.15334   0.83736    0.030
 4330.00    1.25923   0.81287    0.000
 4331.00    1.16574   0.79178    0.000
 4332.00    1.06846   0.77669    0.000
 4333.00    1.06839   0.76780    0.000
 4334.00    1.06908   0.76767    0.000
 4335.00    1.08815   0.77641    0.000
 4336.00    1.09877   0.79070    0.000
 4337.00    0.99952   0.81024    0.000
 4338.00    0.91643   0.83353    0.000
 4339.00    0.97447   0.85735    0.000
 4340.00    1.03266   0.88063    0.000
 4341.00    1.09175   0.90263    0.000
 4342.00    1.12496   0.92239    0.000
 4343.00    1.02753   0.94011    0.000
 4344.00    0.93167   0.95561    0.000
 4345.00    0.84225   0.96952    0.000
 4346.00    0.81070   0.98260    0.000
 4347.00    0.97493   0.99406    0.000
 4348.00    1.10098   1.00465    0.000
 4349.00    1.11808   1.01451    0.000
 4350.00    1.13053   1.02328    0.000
 4351.00    1.13166   1.03086    0.029
 4352.00    1.10286   1.03701    0.035
 4353.00    1.01110   1.04259    0.090
 4354.00    0.91380   1.04678   -1.000
 4355.00    0.80639   1.04978   -1.000
 4356.00    0.77241   1.05234   -1.000
 4357.00    0.85578   1.05361   -1.000
 4358.00    0.94342   1.05447   -1.000
 4359.00    1.03707   1.05447   -1.000
 4360.00    1.08931   1.05357    0.133
 4361.00    1.09047   1.05294    0.041
 4362.00    1.09280   1.05180    0.030
 4363.00    1.09639   1.05046    0.030
 4364.00    1.07434   1.04956    0.030
 4365.00    1.02769   1.04880    0.030
 4366.00    0.99570   1.04824    0.030
 4367.00    0.97611   1.04757    0.030
 4368.00    0.93249   1.04686    0.030
 4369.00    0.87095   1.04619    0.030
 4370.00    0.91134   1.04467    0.030
 4371.00    1.01842   1.04194    0.030
 4372.00    1.01644   1.03833    0.030
 4373.00    0.95199   1.03385    0.030
 4374.00    0.95963   1.02857    0.030
 4375.00    1.00323   1.02196    0.029
 4376.00    1.01673   1.01536    0.029
 4377.00    1.01724   1.01088    0.029
 4378.00    1.05771   1.00708    0.030
 4379.00    1.11296   1.00506    0.030
 4380.00    1.10676   1.00570    0.030
 4381.00    1.08128   1.00823    0.030
 4382.00    1.00129   1.01382    0.030
 4383.00    0.90703   1.01991    0.029
 4384.00    0.99202   1.02638    0.029
 4385.00    1.11530   1.03476    0.029
 4386.00    1.19225   1.04191    0.029
 4387.00    1.26138   1.04807    0.029
 4388.00    1.19016   1.05353    0.030
 4389.00    1.10102   1.05753    0.030
 4390.00    0.97402   1.06080    0.029
 4391.00    0.84363   1.06189    0.029
 4392.00    0.92120   1.06167    0.029
 4393.00    1.00986   1.06117    0.029
 4394.00    1.03278   1.05946    0.029
 4395.00    1.05534   1.05713    0.029
 4396.00    1.15206   1.05445    0.029
 4397.00    1.24225   1.05209    0.030
 4398.00    1.18877   1.05102    0.030
 4399.00    1.14367   1.05040    0.030
 4400.00    1.20207   1.05006    0.030
 4401.00    1.24505   1.05058    0.030
 4402.00    1.15828   1.05122    0.030
 4403.00    1.08136   1.05203    0.030
 4404.00    1.06612   1.05267    0.030
 4405.00    1.06469   1.05224    0.030
 4406.00    1.13123   1.05227    0.030
 4407.00    1.18049   1.05222    0.030
 4408.00    1.16077   1.05221    0.030
 4409.00    1.13595   1.05391    0.030
 4410.00    1.09419   1.05536    0.029
 4411.00    1.08702   1.05746    0.029
 4412.00    1.17676   1.06078    0.030
 4413.00    1.24172   1.06336    0.030
 4414.00    1.24726   1.06621    0.029
 4415.00    1.21726   1.06842    0.029
 4416.00    1.11368   1.06955    0.030
 4417.00    1.06146   1.07034    0.030
 4418.00    1.10168   1.06989    0.030
 4419.00    1.14322   1.06925    0.029
 4420.00    1.18684   1.06867    0.029
 4421.00    1.18538   1.06724    0.029
 4422.00    1.12164   1.06577    0.030
 4423.00    1.15979   1.06424    0.030
 4424.00    1.32186   1.06281    0.030
 4425.00    1.33603   1.06189    0.029
 4426.00    1.19162   1.06074    0.029
 4427.00    1.10109   1.06020    0.029
 4428.00    1.06152   1.06050    0.029
 4429.00    1.10149   1.06119    0.029
 4430.00    1.20777   1.06252    0.030
 4431.00    1.23542   1.06397    0.030
 4432.00    1.20533   1.06553    0.030
 4433.00    1.21151   1.06704    0.030
 4434.00    1.24108   1.06854    0.030
 4435.00    1.25221   1.07025    0.030
 4436.00    1.25295   1.07189    0.030
 4437.00    1.20989   1.07310    0.030
 4438.00    1.14534   1.07373    0.030
 4439.00    1.12052   1.07459    0.030
 4440.00    1.11255   1.07541    0.030
 4441.00    1.07414   1.07560    0.030
 4442.00    1.02467   1.07526    0.030
 4443.00    1.10446   1.07360    0.030
 4444.00    1.22401   1.07173    0.030
 4445.00    1.21031   1.06975    0.030
 4446.00    1.16250   1.06669    0.030
 4447.00    1.15751   1.06410    0.030
 4448.00    1.16145   1.06154    0.029
 4449.00    1.16575   1.05938    0.029
 4450.00    1.17012   1.05776    0.029
 4451.00    1.06102   1.05618    0.029
 4452.00    0.93793   1.05544    0.029
 4453.00    1.02544   1.05459    0.029
 4454.00    1.13086   1.05415    0.029
 4455.00    1.10288   1.05327    0.029
 4456.00    1.06833   1.05121    0.029
 4457.00    1.20084   1.04840    0.029
 4458.00    1.33313   1.04472    0.029
 4459.00    1.28451   1.04105    0.029
 4460.00    1.23576   1.03722    0.029
 4461.00    1.18442   1.03329    0.000
 4462.00    1.12688   1.02961    0.000
 4463.00    0.99653   1.02890    0.000
 4464.00    0.90317   1.03164    0.000
 4465.00    1.10983   1.03539    0.000
 4466.00    1.27857   1.04016    0.000
 4467.00    1.21650   1.04528    0.000
 4468.00    1.14903   1.05159    0.000
 4469.00    1.05565   1.05876    0.000
 4470.00    0.99480   1.06370    0.000
 4471.00    1.06096   1.06635    0.000
 4472.00    1.11869   1.06834    0.000
 4473.00    1.14904   1.07080    0.000
 4474.00    1.17129   1.07380    0.000
 4475.00    1.17124   1.07610    0.000
 4476.00    1.18349   1.07828    0.000
 4477.00    1.22469   1.08076    0.000
 4478.00    1.22168   1.08363    0.000
 4479.00    1.12862   1.08632    0.000
 4480.00    1.06882   1.08765    0.000
 4481.00    1.06800   1.08852    0.000
 4482.00    1.06846   1.08909    0.028
 4483.00    1.07091   1.08934    0.028
 4484.00    1.09035   1.08930    0.028
 4485.00    1.13292   1.08882    0.028
 4486.00    1.09836   1.08890    0.028
 4487.00    0.97131   1.08960    0.028
 4488.00    0.95248   1.09103    0.028
 4489.00    1.04805   1.09310    0.028
 4490.00    1.18280   1.09540    0.028
 4491.00    1.35407   1.09810    0.028
 4492.00    1.36743   1.10097    0.028
 4493.00    1.25099   1.10429    0.028
 4494.00    1.20766   1.10804    0.028
 4495.00    1.21726   1.11118    0.028
 4496.00    1.13537   1.11356    0.028
 4497.00    0.99538   1.11505    0.027
 4498.00    0.98100   1.11576    0.027
 4499.00    1.03639   1.11627    0.027
 4500.00    1.09257   1.11588    0.028
 4501.00    1.14914   1.11461    0.028
 4502.00    1.15597   1.11286    0.028
 4503.00    1.14204   1.11041    0.028
 4504.00    1.20270   1.10814    0.028
 4505.00    1.28998   1.10621    0.028
 4506.00    1.25379   1.10429    0.028
 4507.00    1.18037   1.10310    0.027
 4508.00    1.15691   1.10178    0.027
 4509.00    1.14595   1.10062    0.027
 4510.00    1.26782   1.10024    0.027
 4511.00    1.41668   1.09947    0.028
 4512.00    1.30958   1.09877    0.028
 4513.00    1.16164   1.09713    0.027
 4514.00    1.21452   1.09424    0.027
 4515.00    1.29128   1.09141    0.028
 4516.00    1.23818   1.08771    0.027
 4517.00    1.17459   1.08346    0.027
 4518.00    1.19541   1.07893    0.027
 4519.00    1.22007   1.07403    0.027
 4520.00    1.14685   1.07004    0.027
 4521.00    1.07508   1.06724    0.027
 4522.00    1.13818   1.06516    0.027
 4523.00    1.19288   1.06444    0.027
 4524.00    1.08996   1.06441    0.027
 4525.00    1.00231   1.06534    0.027
 4526.00    1.08572   1.06782    0.027
 4527.00    1.15412   1.07088    0.027
 4528.00    1.10510   1.07490    0.027
 4529.00    1.07919   1.07852    0.027
 4530.00    1.18992   1.08172    0.027
 4531.00    1.27720   1.08500    0.027
 4532.00    1.25476   1.08779    0.027
 4533.00    1.21770   1.09043    0.028
 4534.00    1.12473   1.09207    0.027
 4535.00    1.06162   1.09257    0.027
 4536.00    1.09370   1.09241    0.027
 4537.00    1.13466   1.09192    0.027
 4538.00    1.19964   1.09093    0.027
 4539.00    1.22718   1.08960    0.027
 4540.00    1.16794   1.08784    0.027
 4541.00    1.12537   1.08579    0.027
 4542.00    1.11622   1.08468    0.027
 4543.00    1.10690   1.08349    0.027
 4544.00    1.09728   1.08295    0.027
 4545.00    1.10168   1.08368    0.027
 4546.00    1.12750   1.08501    0.027
 4547.00    1.11816   1.08772    0.027
 4548.00    1.06162   1.09101    0.027
 4549.00    1.04532   1.09431    0.027
 4550.00    1.07659   1.09826    0.000
 4551.00    1.16955   1.10183    0.000
 4552.00    1.32682   1.10466    0.000
 4553.00    1.36059   1.10719    0.000
 4554.00    1.28083   1.10838    0.000
 4555.00    1.22897   1.10900    0.000
 4556.00    1.19973   1.10926    0.000
 4557.00    1.18142   1.10897    0.000
 4558.00    1.17091   1.10884    0.000
 4559.00    1.17195   1.10842    0.000
 4560.00    1.18023   1.10791    0.000
 4561.00    1.20969   1.10777    0.000
 4562.00    1.25074   1.10766    0.000
 4563.00    1.21764   1.10751    0.000
 4564.00    1.14930   1.10754    0.000
 4565.00    1.07526   1.10732    0.000
 4566.00    0.99888   1.10701    0.000
 4567.00    1.03051   1.10669    0.000
 4568.00    1.10001   1.10596    0.000
 4569.00    1.15039   1.10534    0.000
 4570.00    1.19514   1.10448    0.000
 4571.00    1.17335   1.10337    0.000
 4572.00    1.13526   1.10260    0.000
 4573.00    1.02502   1.10187    0.000
 4574.00    0.90048   1.10132    0.000
 4575.00    1.09034   1.10089    0.000
 4576.00    1.32886   1.10087    0.000
 4577.00    1.21098   1.10125    0.000
 4578.00    1.05232   1.10187    0.000
 4579.00    1.03476   1.10218    0.000
 4580.00    1.02804   1.10219    0.000
 4581.00    1.00713   1.10213    0.000
 4582.00    0.98563   1.10183    0.000
 4583.00    1.04295   1.10139    0.000
 4584.00    1.10175   1.10053    0.000
 4585.00    1.19453   1.09951    0.000
 4586.00    1.27650   1.09860    0.000
 4587.00    1.16949   1.09789    0.000
 4588.00    1.08323   1.09753    0.000
 4589.00    1.21889   1.09739    0.000
 4590.00    1.32144   1.09705    0.000
 4591.00    1.17378   1.09728    0.000
 4592.00    1.03798   1.09764    0.000
 4593.00    0.97033   1.09854    0.000
 4594.00    0.93850   1.09961    0.000
 4595.00    1.07029   1.10064    0.000
 4596.00    1.16220   1.10229    0.000
 4597.00    1.10487   1.10423    0.000
 4598.00    1.06913   1.10673    0.000
 4599.00    1.10091   1.10936    0.000
 4600.00    1.14455   1.11194    0.000
 4601.00    1.21965   1.11439    0.000
 4602.00    1.29737   1.11649    0.000
 4603.00    1.38106   1.11840    0.000
 4604.00    1.40137   1.12020    0.000
 4605.00    1.29662   1.12118    0.000
 4606.00    1.21197   1.12196    0.000
 4607.00    1.16187   1.12207    0.000
 4608.00    1.10060   1.12187    0.000
 4609.00    1.02253   1.12206    0.000
 4610.00    0.99703   1.12207    0.000
 4611.00    1.04110   1.12223    0.000
 4612.00    1.11072   1.12242    0.000
 4613.00    1.21012   1.12238    0.000
 4614.00    1.25673   1.12270    0.000
 4615.00    1.24909   1.12276    0.000
 4616.00    1.24854   1.12297    0.000
 4617.00    1.25443   1.12311    0.000
 4618.00    1.22021   1.12243    0.000
 4619.00    1.15393   1.12166    0.000
 4620.00    1.15774   1.12073    0.000
 4621.00    1.21080   1.11982    0.000
 4622.00    1.24780   1.11819    0.000
 4623.00    1.27491   1.11634    0.000
 4624.00    1.27709   1.11437    0.000
 4625.00    1.26584   1.11231    0.000
 4626.00    1.21930   1.10995    0.000
 4627.00    1.15624   1.10682    0.000
 4628.00    1.10145   1.10376    0.000
 4629.00    1.04999   1.10050    0.000
 4630.00    1.11601   1.09732    0.000
 4631.00    1.22243   1.09438    0.000
 4632.00    1.23199   1.09154    0.000
 4633.00    1.21350   1.08889    0.000
 4634.00    1.15449   1.08627    0.000
 4635.00    1.08577   1.08354    0.000
 4636.00    1.10630   1.08109    0.000
 4637.00    1.14406   1.07902    0.000
 4638.00    1.15719   1.07720    0.000
 4639.00    1.16663   1.07585    0.000
 4640.00    1.11738   1.07527    0.000
 4641.00    1.06166   1.07557    0.000
 4642.00    1.12090   1.07728    0.000
 4643.00    1.18850   1.07958    0.000
 4644.00    1.16323   1.08315    0.000
 4645.00    1.13445   1.08769    0.000
 4646.00    1.11549   1.09254    0.000
 4647.00    1.09590   1.09806    0.000
 4648.00    1.05133   1.10261    0.000
 4649.00    1.01310   1.10705    0.000
 4650.00    1.07847   1.11016    0.000
 4651.00    1.13494   1.11242    0.000
 4652.00    1.10039   1.11398    0.000
 4653.00    1.07414   1.11411    0.000
 4654.00    1.10859   1.11330    0.000
 4655.00    1.13676   1.11092    0.000
 4656.00    1.12987   1.10795    0.000
 4657.00    1.12094   1.10505    0.000
 4658.00    1.10295   1.10241    0.000
 4659.00    1.08758   1.10052    0.000
 4660.00    1.08185   1.09908    0.000
 4661.00    1.07617   1.09824    0.000
 4662.00    1.07064   1.09812    0.000
 4663.00    1.07964   1.09887    0.000
 4664.00    1.12652   1.10023    0.000
 4665.00    1.16496   1.10193    0.000
 4666.00    1.18450   1.10340    0.000
 4667.00    1.21023   1.10447    0.000
 4668.00    1.24800   1.10526    0.000
 4669.00    1.25373   1.10564    0.000
 4670.00    1.20520   1.10608    0.000
 4671.00    1.16007   1.10610    0.000
 4672.00    1.11997   1.10612    0.000
 4673.00    1.14262   1.10580    0.000
 4674.00    1.24712   1.10541    0.000
 4675.00    1.27632   1.10512    0.000
 4676.00    1.21902   1.10504    0.000
 4677.00    1.19310   1.10529    0.000
 4678.00    1.19900   1.10565    0.000
 4679.00    1.19651   1.10611    0.000
 4680.00    1.18653   1.10661    0.000
 4681.00    1.19346   1.10740    0.000
 4682.00    1.21369   1.10819    0.000
 4683.00    1.23625   1.10895    0.000
 4684.00    1.26041   1.10958    0.000
 4685.00    1.21065   1.10941    0.000
 4686.00    1.11599   1.10906    0.000
 4687.00    1.13120   1.10812    0.000
 4688.00    1.20467   1.10670    0.000
 4689.00    1.26465   1.10502    0.000
 4690.00    1.31842   1.10285    0.000
 4691.00    1.27220   1.10048    0.000
 4692.00    1.18636   1.09780    0.000
 4693.00    1.18483   1.09532    0.000
 4694.00    1.21178   1.09361    0.000
 4695.00    1.23747   1.09222    0.000
 4696.00    1.26281   1.09101    0.000
 4697.00    1.18877   1.09014    0.000
 4698.00    1.09147   1.08979    0.000
 4699.00    1.10373   1.08928    0.000
 4700.00    1.13660   1.08909    0.000
 4701.00    1.23988   1.08912    0.000
 4702.00    1.35340   1.08944    0.000
 4703.00    1.25705   1.09018    0.000
 4704.00    1.13851   1.09146    0.000
 4705.00    1.12786   1.09392    0.000
 4706.00    1.12462   1.09645    0.000
 4707.00    1.10715   1.09962    0.000
 4708.00    1.08920   1.10362    0.000
 4709.00    1.13275   1.10843    0.000
 4710.00    1.17271   1.11257    0.000
 4711.00    1.09250   1.11699    0.000
 4712.00    1.01969   1.12033    0.000
 4713.00    1.06031   1.12295    0.000
 4714.00    1.09718   1.12406    0.000
 4715.00    1.09712   1.12415    0.000
 4716.00    1.11339   1.12325    0.000
 4717.00    1.24507   1.12133    0.000
 4718.00    1.35394   1.11922    0.000
 4719.00    1.33875   1.11668    0.000
 4720.00    1.30015   1.11429    0.000
 4721.00    1.15958   1.11173    0.000
 4722.00    1.05493   1.11006    0.000
 4723.00    1.07916   1.10911    0.000
 4724.00    1.11420   1.10889    0.000
 4725.00    1.18179   1.10954    0.000
 4726.00    1.21788   1.11044    0.000
 4727.00    1.17325   1.11186    0.000
 4728.00    1.16133   1.11283    0.000
 4729.00    1.22150   1.11421    0.000
 4730.00    1.24597   1.11538    0.000
 4731.00    1.20220   1.11622    0.000
 4732.00    1.16298   1.11730    0.000
 4733.00    1.13133   1.11834    0.000
 4734.00    1.12433   1.11908    0.000
 4735.00    1.15337   1.11980    0.000
 4736.00    1.17049   1.12056    0.000
 4737.00    1.17229   1.12142    0.000
 4738.00    1.15736   1.12218    0.000
 4739.00    1.12350   1.12229    0.000
 4740.00    1.10341   1.12260    0.000
 4741.00    1.09710   1.12232    0.000
 4742.00    1.11793   1.12163    0.000
 4743.00    1.16268   1.12070    0.000
 4744.00    1.17925   1.11947    0.000
 4745.00    1.17393   1.11805    0.000
 4746.00    1.13908   1.11625    0.000
 4747.00    1.08407   1.11464    0.000
 4748.00    1.12953   1.11280    0.000
 4749.00    1.23509   1.11091    0.000
 4750.00    1.18689   1.10898    0.000
 4751.00    1.05842   1.10696    0.000
 4752.00    1.10670   1.10480    0.000
 4753.00    1.23497   1.10271    0.000
 4754.00    1.20109   1.10071    0.000
 4755.00    1.10406   1.09896    0.000
 4756.00    1.07134   1.09721    0.000
 4757.00    1.05992   1.09618    0.000
 4758.00    1.08680   1.09550    0.000
 4759.00    1.12433   1.09541    0.000
 4760.00    1.15553   1.09581    0.000
 4761.00    1.18529   1.09676    0.024
 4762.00    1.16102   1.09807    0.024
 4763.00    1.12686   1.09926    0.024
 4764.00    1.10187   1.10065    0.024
 4765.00    1.07818   1.10155    0.024
 4766.00    1.07182   1.10230    0.024
 4767.00    1.06722   1.10282    0.024
 4768.00    1.09545   1.10291    0.024
 4769.00    1.12580   1.10266    0.024
 4770.00    1.18347   1.10167    0.024
 4771.00    1.24184   1.10053    0.024
 4772.00    1.23429   1.09917    0.024
 4773.00    1.22639   1.09757    0.024
 4774.00    1.20807   1.09613    0.024
 4775.00    1.18948   1.09494    0.024
 4776.00    1.16687   1.09410    0.024
 4777.00    1.14932   1.09369    0.024
 4778.00    1.17941   1.09386    0.024
 4779.00    1.20128   1.09483    0.023
 4780.00    1.16686   1.09621    0.023
 4781.00    1.12735   1.09801    0.023
 4782.00    1.06099   1.10047    0.023
 4783.00    1.00982   1.10291    0.023
 4784.00    1.02339   1.10552    0.023
 4785.00    1.02660   1.10807    0.022
 4786.00    0.99342   1.11030    0.022
 4787.00    0.98740   1.11216    0.022
 4788.00    1.06161   1.11347    0.022
 4789.00    1.12173   1.11424    0.022
 4790.00    1.14636   1.11435    0.023
 4791.00    1.16605   1.11415    0.023
 4792.00    1.17507   1.11366    0.023
 4793.00    1.17311   1.11308    0.023
 4794.00    1.15052   1.11241    0.023
 4795.00    1.10351   1.11181    0.023
 4796.00    1.01637   1.11120    0.023
 4797.00    0.97132   1.11031    0.023
 4798.00    0.98690   1.10963    0.023
 4799.00    1.00626   1.10883    0.023
 4800.00    1.03042   1.10828    0.024
 4801.00    1.04180   1.10794    0.024
 4802.00    1.03891   1.10777    0.023
 4803.00    1.07584   1.10787    0.023
 4804.00    1.15201   1.10800    0.023
 4805.00    1.19021   1.10833    0.023
 4806.00    1.19543   1.10871    0.023
 4807.00    1.19285   1.10917    0.023
 4808.00    1.18430   1.10946    0.024
 4809.00    1.16730   1.10975    0.024
 4810.00    1.14463   1.10970    0.023
 4811.00    1.11410   1.10937    0.023
 4812.00    1.07893   1.10863    0.023
 4813.00    1.09865   1.10734    0.023
 4814.00    1.14657   1.10595    0.023
 4815.00    1.16895   1.10416    0.023
 4816.00    1.17996   1.10243    0.024
 4817.00    1.22870   1.10056    0.024
 4818.00    1.29189   1.09897    0.024
 4819.00    1.33566   1.09766    0.024
 4820.00    1.37312   1.09635    0.024
 4821.00    1.29036   1.09523    0.024
 4822.00    1.17487   1.09433    0.024
 4823.00    1.15244   1.09366    0.024
 4824.00    1.15081   1.09285    0.024
 4825.00    1.08763   1.09239    0.024
 4826.00    1.01348   1.09161    0.024
 4827.00    1.03911   1.09089    0.024
 4828.00    1.07832   1.08970    0.024
 4829.00    1.06249   1.08824    0.024
 4830.00    1.04131   1.08641    0.024
 4831.00    1.03451   1.08416    0.024
 4832.00    1.02858   1.08173    0.024
 4833.00    1.08954   1.07881    0.024
 4834.00    1.15215   1.07583    0.024
 4835.00    1.19086   1.07229    0.024
 4836.00    1.22499   1.06845    0.024
 4837.00    1.13969   1.06399    0.024
 4838.00    1.05922   1.05872    0.024
 4839.00    1.04486   1.05238    0.024
 4840.00    1.03848   1.04461    0.024
 4841.00    1.10439   1.03522    0.024
 4842.00    1.15569   1.02429    0.024
 4843.00    1.11013   1.01105    0.023
 4844.00    1.06767   0.99567    0.023
 4845.00    1.04113   0.97826    0.024
 4846.00    1.04819   0.95885    0.024
 4847.00    1.19512   0.93824    0.024
 4848.00    1.27884   0.91716    0.000
 4849.00    1.14492   0.89701    0.000
 4850.00    1.03716   0.87831    0.000
 4851.00    1.00526   0.86305    0.000
 4852.00    0.98801   0.85136    0.000
 4853.00    1.00703   0.84505    0.000
 4854.00    1.02305   0.84484    0.000
 4855.00    1.03269   0.85119    0.000
 4856.00    1.04224   0.86201    0.000
 4857.00    1.05164   0.87711    0.000
 4858.00    1.06974   0.89465    0.000
 4859.00    1.10192   0.91341    0.000
 4860.00    1.12804   0.93240    0.000
 4861.00    1.14556   0.95067    0.000
 4862.00    1.10059   0.96789    0.000
 4863.00    0.97755   0.98331    0.000
 4864.00    0.95564   0.99747    0.000
 4865.00    1.04510   1.01044    0.000
 4866.00    1.07118   1.02193    0.000
 4867.00    1.03570   1.03219    0.000
 4868.00    1.02137   1.04118    0.000
 4869.00    1.02513   1.04918    0.000
 4870.00    1.02544   1.05581    0.000
 4871.00    1.02314   1.06137    0.000
 4872.00    1.02435   1.06579    0.000
 4873.00    1.02788   1.06859    0.000
 4874.00    1.12657   1.07085    0.000
 4875.00    1.28048   1.07235    0.025
 4876.00    1.26425   1.07332    0.025
 4877.00    1.16196   1.07390    0.025
 4878.00    1.09595   1.07454    0.025
 4879.00    1.04582   1.07568    0.024
 4880.00    1.06026   1.07745    0.024
 4881.00    1.09897   1.07986    0.024
 4882.00    1.14949   1.08299    0.025
 4883.00    1.20377   1.08660    0.025
 4884.00    1.19040   1.09153    0.025
 4885.00    1.15900   1.09703    0.025
 4886.00    1.09815   1.10225    0.025
 4887.00    1.03088   1.10744    0.025
 4888.00    1.06602   1.11168    0.025
 4889.00    1.11892   1.11519    0.024
 4890.00    1.16755   1.11760    0.024
 4891.00    1.21561   1.11909    0.024
 4892.00    1.16385   1.11955    0.024
 4893.00    1.10280   1.11988    0.025
 4894.00    1.21556   1.11978    0.025
 4895.00    1.33816   1.11925    0.025
 4896.00    1.29927   1.11877    0.025
 4897.00    1.25716   1.11836    0.025
 4898.00    1.26524   1.11806    0.025
 4899.00    1.27106   1.11747    0.024
 4900.00    1.22327   1.11681    0.024
 4901.00    1.17934   1.11601    0.024
 4902.00    1.18516   1.11475    0.024
 4903.00    1.19738   1.11332    0.024
 4904.00    1.26535   1.11105    0.024
 4905.00    1.31099   1.10804    0.024
 4906.00    1.21303   1.10387    0.024
 4907.00    1.13909   1.09881    0.024
 4908.00    1.18602   1.09286    0.024
 4909.00    1.21054   1.08604    0.024
 4910.00    1.14382   1.07971    0.024
 4911.00    1.09656   1.07315    0.024
 4912.00    1.11498   1.06937    0.024
 4913.00    1.14848   1.06620    0.024
 4914.00    1.22488   1.06725    0.023
 4915.00    1.27558   1.06961    0.023
 4916.00    1.26375   1.07547    0.023
 4917.00    1.24927   1.08156    0.023
 4918.00    1.22920   1.08974    0.023
 4919.00    1.20948   1.09748    0.023
 4920.00    1.19036   1.10466    0.023
 4921.00    1.19798   1.11081    0.023
 4922.00    1.24824   1.11518    0.023
 4923.00    1.24097   1.11790    0.023
 4924.00    1.15319   1.11898    0.023
 4925.00    1.08213   1.11880    0.023
 4926.00    1.03168   1.11750    0.023
 4927.00    1.06430   1.11610    0.023
 4928.00    1.18712   1.11421    0.023
 4929.00    1.21947   1.11288    0.024
 4930.00    1.16519   1.11168    0.024
 4931.00    1.14647   1.11207    0.025
 4932.00    1.15777   1.11266    0.026
 4933.00    1.13645   1.11498    0.027
 4934.00    1.09087   1.11729    0.027
 4935.00    1.11496   1.12065    0.026
 4936.00    1.18457   1.12389    0.026
 4937.00    1.17676   1.12740    0.025
 4938.00    1.12469   1.13023    0.023
 4939.00    1.09631   1.13274    0.023
 4940.00    1.07974   1.13426    0.000
 4941.00    1.05160   1.13491    0.000
 4942.00    1.01847   1.13433    0.000
 4943.00    1.09016   1.13258    0.000
 4944.00    1.20054   1.12993    0.000
 4945.00    1.21650   1.12625    0.000
 4946.00    1.20291   1.12241    0.000
 4947.00    1.16572   1.11794    0.000
 4948.00    1.12238   1.11413    0.000
 4949.00    1.15946   1.11096    0.000
 4950.00    1.21368   1.10863    0.000
 4951.00    1.19851   1.10732    0.000
 4952.00    1.17166   1.10650    0.000
 4953.00    1.15349   1.10641    0.000
 4954.00    1.13643   1.10646    0.000
 4955.00    1.10921   1.10684    0.000
 4956.00    1.08109   1.10729    0.000
 4957.00    1.07183   1.10800    0.000
 4958.00    1.06357   1.10870    0.000
 4959.00    1.06904   1.10981    0.000
 4960.00    1.07545   1.11097    0.000
 4961.00    1.13562   1.11235    0.000
 4962.00    1.18787   1.11381    0.000
 4963.00    1.06777   1.11496    0.000
 4964.00    0.96627   1.11595    0.000
 4965.00    1.09314   1.11619    0.000
 4966.00    1.20628   1.11572    0.000
 4967.00    1.20437   1.11442    0.000
 4968.00    1.18894   1.11210    0.000
 4969.00    1.08900   1.10911    0.000
 4970.00    1.00899   1.10554    0.000
 4971.00    1.02671   1.10168    0.000
 4972.00    1.04226   1.09765    0.000
 4973.00    1.04923   1.09416    0.000
 4974.00    1.06185   1.09148    0.000
 4975.00    1.09318   1.08974    0.000
 4976.00    1.09827   1.08887    0.000
 4977.00    1.03001   1.08903    0.000
 4978.00    0.98333   1.08983    0.000
 4979.00    0.98826   1.09107    0.000
 4980.00    1.00113   1.09264    0.000
 4981.00    1.03043   1.09400    0.000
 4982.00    1.04312   1.09562    0.000
 4983.00    1.02599   1.09660    0.000
 4984.00    1.01684   1.09713    0.000
 4985.00    1.02023   1.09711    0.000
 4986.00    1.03243   1.09655    0.000
 4987.00    1.05678   1.09520    0.000
 4988.00    1.06578   1.09311    0.000
 4989.00    1.05614   1.09061    0.000
 4990.00    1.08288   1.08709    0.000
 4991.00    1.14857   1.08410    0.000
 4992.00    1.15729   1.08025    0.000
 4993.00    1.11222   1.07765    0.000
 4994.00    1.10445   1.07420    0.000
 4995.00    1.12772   1.07194    0.000
 4996.00    1.10983   1.06942    0.000
 4997.00    1.06178   1.06790    0.000
 4998.00    1.00020   1.06638    0.000
 4999.00    0.92991   1.06506    0.000
 5000.00    0.97400   1.06354    0.000
 5001.00    1.08249   1.06174    0.000
 5002.00    1.18040   1.05992    0.000
 5003.00    1.27312   1.05739    0.000
 5004.00    1.22643   1.05570    0.000
 5005.00    1.12071   1.05335    0.000
 5006.00    1.08879   1.05272    0.000
 5007.00    1.08363   1.05206    0.000
 5008.00    1.07356   1.05307    0.000
 5009.00    1.06199   1.05428    0.000
 5010.00    1.02881   1.05688    0.000
 5011.00    0.99011   1.05977    0.000
 5012.00    0.99863   1.06335    0.000
 5013.00    1.01697   1.06701    0.000
 5014.00    1.09528   1.07096    0.000
 5015.00    1.18340   1.07459    0.000
 5016.00    1.12071   1.07808    0.000
 5017.00    1.03952   1.08139    0.000
 5018.00    1.02189   1.08427    0.000
 5019.00    1.00964   1.08711    0.000
 5020.00    1.05551   1.08925    0.000
 5021.00    1.10422   1.09122    0.000
 5022.00    1.10152   1.09220    0.000
 5023.00    1.09716   1.09265    0.000
 5024.00    1.03999   1.09180    0.000
 5025.00    0.98776   1.09055    0.000
 5026.00    1.03484   1.08794    0.000
 5027.00    1.07863   1.08517    0.000
 5028.00    1.08393   1.08135    0.000
 5029.00    1.08555   1.07787    0.022
 5030.00    1.05745   1.07446    0.022
 5031.00    1.03568   1.07222    0.022
 5032.00    1.05224   1.07040    0.023
 5033.00    1.07181   1.07001    0.023
 5034.00    1.10581   1.07025    0.023
 5035.00    1.14257   1.07124    0.023
 5036.00    1.19005   1.07275    0.023
 5037.00    1.21554   1.07439    0.023
 5038.00    1.16974   1.07655    0.023
 5039.00    1.12700   1.07802    0.023
 5040.00    1.09270   1.08013    0.023
 5041.00    1.05552   1.08138    0.022
 5042.00    1.01159   1.08359    0.023
 5043.00    1.00253   1.08482    0.022
 5044.00    1.06435   1.08722    0.022
 5045.00    1.07927   1.08889    0.022
 5046.00    1.01119   1.09184    0.022
 5047.00    0.95865   1.09376    0.022
 5048.00    0.93015   1.09642    0.023
 5049.00    0.95074   1.09816    0.023
 5050.00    1.03805   1.09984    0.023
 5051.00    1.06366   1.10049    0.023
 5052.00    1.01543   1.10048    0.023
 5053.00    1.02386   1.09960    0.023
 5054.00    1.09209   1.09826    0.023
 5055.00    1.13295   1.09633    0.023
 5056.00    1.14834   1.09405    0.023
 5057.00    1.12810   1.09170    0.023
 5058.00    1.07861   1.08946    0.023
 5059.00    1.05102   1.08749    0.023
 5060.00    1.03925   1.08572    0.023
 5061.00    1.03155   1.08438    0.023
 5062.00    1.02643   1.08332    0.023
 5063.00    1.02217   1.08230    0.023
 5064.00    1.01839   1.08143    0.023
 5065.00    1.07779   1.08020    0.024
 5066.00    1.16767   1.07912    0.024
 5067.00    1.12277   1.07741    0.023
 5068.00    1.02177   1.07593    0.023
 5069.00    1.01664   1.07413    0.023
 5070.00    1.04566   1.07271    0.023
 5071.00    1.06983   1.07138    0.023
 5072.00    1.09255   1.07062    0.023
 5073.00    1.11982   1.07046    0.023
 5074.00    1.14824   1.07089    0.024
 5075.00    1.11816   1.07215    0.024
 5076.00    1.07622   1.07377    0.024
 5077.00    1.09586   1.07611    0.023
 5078.00    1.12528   1.07845    0.023
 5079.00    1.02143   1.08116    0.023
 5080.00    0.90181   1.08347    0.023
 5081.00    0.98213   1.08560    0.023
 5082.00    1.07852   1.08706    0.023
 5083.00    1.06332   1.08798    0.023
 5084.00    1.04311   1.08818    0.023
 5085.00    0.99988   1.08760    0.022
 5086.00    0.95796   1.08657    0.022
 5087.00    0.99500   1.08492    0.022
 5088.00    1.02909   1.08309    0.022
 5089.00    1.00856   1.08095    0.022
 5090.00    0.99366   1.07888    0.021
 5091.00    1.04145   1.07688    0.022
 5092.00    1.08084   1.07513    0.022
 5093.00    1.05485   1.07359    0.022
 5094.00    1.03825   1.07231    0.022
 5095.00    1.07700   1.07137    0.022
 5096.00    1.10492   1.07058    0.022
 5097.00    1.08235   1.07020    0.022
 5098.00    1.05760   1.07005    0.022
 5099.00    1.02455   1.07029    0.022
 5100.00    0.99154   1.07092    0.021
 5101.00    0.95868   1.07202    0.021
 5102.00    0.95066   1.07349    0.021
 5103.00    1.00962   1.07527    0.021
 5104.00    1.05502   1.07725    0.022
 5105.00    1.06909   1.07911    0.022
 5106.00    1.07052   1.08081    0.022
 5107.00    1.04668   1.08188    0.022
 5108.00    1.01725   1.08235    0.022
 5109.00    0.97807   1.08189    0.022
 5110.00    0.97958   1.08057    0.022
 5111.00    1.04316   1.07841    0.022
 5112.00    1.09456   1.07548    0.022
 5113.00    1.12963   1.07222    0.022
 5114.00    1.13358   1.06857    0.023
 5115.00    1.10082   1.06538    0.023
 5116.00    1.07007   1.06223    0.023
 5117.00    1.04141   1.06014    0.023
 5118.00    1.03369   1.05846    0.023
 5119.00    1.04517   1.05809    0.023
 5120.00    1.08676   1.05814    0.023
 5121.00    1.15272   1.05927    0.022
 5122.00    1.11238   1.06064    0.022
 5123.00    0.99636   1.06252    0.022
 5124.00    0.93950   1.06438    0.022
 5125.00    0.91960   1.06619    0.022
 5126.00    0.90979   1.06753    0.022
 5127.00    0.90549   1.06845    0.022
 5128.00    0.92310   1.06879    0.022
 5129.00    0.95111   1.06861    0.023
 5130.00    0.95498   1.06779    0.023
 5131.00    0.94897   1.06672    0.023
 5132.00    0.98446   1.06511    0.023
 5133.00    1.03447   1.06360    0.023
 5134.00    1.05812   1.06168    0.023
 5135.00    1.07399   1.06014    0.023
 5136.00    1.05616   1.05837    0.023
 5137.00    1.03011   1.05709    0.023
 5138.00    1.01715   1.05585    0.023
 5139.00    1.00679   1.05504    0.022
 5140.00    1.01304   1.05464    0.023
 5141.00    1.02186   1.05454    0.023
 5142.00    1.01003   1.05526    0.022
 5143.00    0.99584   1.05612    0.022
 5144.00    0.97025   1.05804    0.022
 5145.00    0.94379   1.05990    0.023
 5146.00    0.97871   1.06260    0.023
 5147.00    1.01615   1.06489    0.023
 5148.00    1.00044   1.06730    0.023
 5149.00    0.98425   1.06873    0.023
 5150.00    0.96633   1.06931    0.023
 5151.00    0.95055   1.06843    0.023
 5152.00    0.97173   1.06592    0.023
 5153.00    0.99937   1.06174    0.022
 5154.00    1.09579   1.05575    0.023
 5155.00    1.17100   1.04854    0.023
 5156.00    1.08652   1.04021    0.023
 5157.00    1.02018   1.03161    0.023
 5158.00    1.05775   1.02303    0.023
 5159.00    1.07316   1.01532    0.023
 5160.00    0.98763   1.00876    0.023
 5161.00    0.92615   1.00387    0.023
 5162.00    0.95446   1.00074    0.023
 5163.00    0.97082   0.99940    0.022
 5164.00    0.94990   0.99969    0.022
 5165.00    0.94297   1.00121    0.022
 5166.00    0.97314   1.00364    0.022
 5167.00    0.99285   1.00641    0.022
 5168.00    0.98882   1.00921    0.022
 5169.00    0.95126   1.01166    0.022
 5170.00    0.84770   1.01371    0.022
 5171.00    0.79218   1.01532    0.022
 5172.00    0.81909   1.01670    0.022
 5173.00    0.86970   1.01809    0.022
 5174.00    0.95595   1.01981    0.022
 5175.00    0.99911   1.02201    0.022
 5176.00    0.98536   1.02495    0.022
 5177.00    0.97525   1.02843    0.022
 5178.00    0.96937   1.03253    0.022
 5179.00    0.96405   1.03676    0.021
 5180.00    0.95931   1.04113    0.021
 5181.00    0.90756   1.04523    0.021
 5182.00    0.81326   1.04904    0.021
 5183.00    0.80706   1.05246    0.020
 5184.00    0.87110   1.05541    0.021
 5185.00    0.95767   1.05810    0.021
 5186.00    1.06003   1.06018    0.021
 5187.00    1.01411   1.06204    0.021
 5188.00    0.87694   1.06301    0.021
 5189.00    0.88219   1.06350    0.021
 5190.00    0.96398   1.06277    0.000
 5191.00    0.98595   1.06119    0.000
 5192.00    0.97998   1.05839    0.000
 5193.00    0.97651   1.05473    0.000
 5194.00    0.97405   1.05040    0.000
 5195.00    0.95916   1.04578    0.000
 5196.00    0.93999   1.04157    0.000
 5197.00    0.98147   1.03800    0.000
 5198.00    1.04046   1.03594    0.000
 5199.00    0.97969   1.03532    0.000
 5200.00    0.89032   1.03677    0.000
 5201.00    0.96166   1.03987    0.000
 5202.00    1.06393   1.04478    0.000
 5203.00    0.99347   1.05087    0.000
 5204.00    0.89719   1.05786    0.000
 5205.00    0.93342   1.06516    0.000
 5206.00    0.98417   1.07225    0.000
 5207.00    0.99489   1.07879    0.000
 5208.00    1.00272   1.08426    0.000
 5209.00    1.02682   1.08859    0.000
 5210.00    1.05153   1.09144    0.000
 5211.00    1.09586   1.09298    0.023
 5212.00    1.13746   1.09315    0.023
 5213.00    1.07636   1.09229    0.023
 5214.00    1.02400   1.09063    0.023
 5215.00    1.11322   1.08860    0.023
 5216.00    1.18303   1.08659    0.023
 5217.00    1.05524   1.08495    0.022
 5218.00    0.93889   1.08404    0.022
 5219.00    0.90582   1.08397    0.022
 5220.00    0.88200   1.08491    0.023
 5221.00    0.90973   1.08669    0.023
 5222.00    0.94466   1.08933    0.023
 5223.00    1.01153   1.09248    0.023
 5224.00    1.05607   1.09614    0.022
 5225.00    1.01902   1.09989    0.022
 5226.00    0.99078   1.10376    0.023
 5227.00    0.98951   1.10740    0.023
 5228.00    0.99198   1.11079    0.023
 5229.00    1.00420   1.11366    0.022
 5230.00    0.99367   1.11595    0.022
 5231.00    0.93230   1.11746    0.022
 5232.00    0.91399   1.11817    0.022
 5233.00    0.97913   1.11795    0.022
 5234.00    1.04329   1.11690    0.022
 5235.00    1.10579   1.11506    0.022
 5236.00    1.14265   1.11265    0.022
 5237.00    1.14155   1.10987    0.022
 5238.00    1.11388   1.10703    0.022
 5239.00    1.05164   1.10435    0.022
 5240.00    1.00041   1.10214    0.021
 5241.00    0.96183   1.10052    0.021
 5242.00    0.97027   1.09965    0.021
 5243.00    1.02628   1.09943    0.021
 5244.00    1.03056   1.09979    0.021
 5245.00    0.98868   1.10044    0.021
 5246.00    0.99948   1.10108    0.021
 5247.00    1.05168   1.10135    0.021
 5248.00    1.03206   1.10084    0.021
 5249.00    0.96279   1.09933    0.022
 5250.00    0.92279   1.09651    0.022
 5251.00    0.90055   1.09246    0.022
 5252.00    0.91729   1.08715    0.022
 5253.00    0.95464   1.08096    0.022
 5254.00    0.96267   1.07419    0.022
 5255.00    0.95724   1.06739    0.022
 5256.00    0.97528   1.06105    0.022
 5257.00    1.00261   1.05566    0.022
 5258.00    1.04884   1.05167    0.022
 5259.00    1.10144   1.04934    0.022
 5260.00    1.11717   1.04892    0.022
 5261.00    1.12245   1.05035    0.023
 5262.00    1.08750   1.05361    0.023
 5263.00    1.04314   1.05837    0.023
 5264.00    0.92714   1.06434    0.023
 5265.00    0.79770   1.07108    0.023
 5266.00    0.87979   1.07818    0.023
 5267.00    0.99251   1.08525    0.023
 5268.00    1.04035   1.09195    0.024
 5269.00    1.08137   1.09806    0.024
 5270.00    1.07145   1.10349    0.024
 5271.00    1.05807   1.10821    0.023
 5272.00    1.00601   1.11237    0.023
 5273.00    0.95265   1.11605    0.023
 5274.00    0.99094   1.11946    0.024
 5275.00    1.03053   1.12265    0.024
 5276.00    1.10847   1.12573    0.023
 5277.00    1.17818   1.12856    0.023
 5278.00    1.12258   1.13109    0.023
 5279.00    1.07103   1.13309    0.023
 5280.00    1.05899   1.13438    0.023
 5281.00    1.04968   1.13479    0.023
 5282.00    1.05959   1.13420    0.023
 5283.00    1.06440   1.13268    0.022
 5284.00    1.04159   1.13024    0.022
 5285.00    1.02897   1.12728    0.022
 5286.00    1.06063   1.12392    0.022
 5287.00    1.08167   1.12079    0.022
 5288.00    1.06468   1.11801    0.022
 5289.00    1.06788   1.11624    0.022
 5290.00    1.13173   1.11540    0.022
 5291.00    1.15248   1.11595    0.022
 5292.00    1.06300   1.11754    0.022
 5293.00    1.01119   1.12037    0.022
 5294.00    1.04226   1.12386    0.022
 5295.00    1.05034   1.12799    0.022
 5296.00    1.01457   1.13214    0.022
 5297.00    0.99807   1.13624    0.022
 5298.00    1.01365   1.13980    0.022
 5299.00    1.02660   1.14280    0.022
 5300.00    1.03571   1.14497    0.021
 5301.00    1.02919   1.14640    0.021
 5302.00    1.00263   1.14697    0.021
 5303.00    1.00803   1.14686    0.021
 5304.00    1.04958   1.14604    0.021
 5305.00    1.05849   1.14467    0.021
 5306.00    1.03485   1.14276    0.021
 5307.00    1.01251   1.14039    0.021
 5308.00    0.99132   1.13759    0.021
 5309.00    1.01559   1.13428    0.021
 5310.00    1.07508   1.13060    0.021
 5311.00    1.09643   1.12631    0.021
 5312.00    1.09179   1.12174    0.021
 5313.00    1.09125   1.11659    0.021
 5314.00    1.09317   1.11149    0.021
 5315.00    1.09032   1.10615    0.021
 5316.00    1.08498   1.10145    0.021
 5317.00    1.05212   1.09712    0.021
 5318.00    1.00683   1.09410    0.022
 5319.00    0.97105   1.09205    0.021
 5320.00    0.93896   1.09168    0.021
 5321.00    0.96768   1.09244    0.021
 5322.00    1.01651   1.09464    0.021
 5323.00    0.99958   1.09760    0.022
 5324.00    0.96442   1.10119    0.022
 5325.00    0.96325   1.10485    0.022
 5326.00    0.96982   1.10821    0.021
 5327.00    0.98541   1.11110    0.022
 5328.00    1.00265   1.11309    0.022
 5329.00    1.00626   1.11455    0.022
 5330.00    1.00795   1.11505    0.022
 5331.00    1.00432   1.11538    0.022
 5332.00    1.00016   1.11507    0.022
 5333.00    1.02378   1.11514    0.022
 5334.00    1.04917   1.11496    0.022
 5335.00    1.06981   1.11565    0.022
 5336.00    1.09011   1.11637    0.022
 5337.00    1.03350   1.11824    0.022
 5338.00    0.97994   1.12030    0.021
 5339.00    1.01381   1.12357    0.022
 5340.00    1.04941   1.12700    0.022
 5341.00    1.11005   1.13147    0.022
 5342.00    1.16198   1.13589    0.021
 5343.00    1.13247   1.14093    0.021
 5344.00    1.11030   1.14551    0.021
 5345.00    1.13827   1.15010    0.021
 5346.00    1.15535   1.15380    0.021
 5347.00    1.11498   1.15688    0.021
 5348.00    1.07297   1.15879    0.021
 5349.00    1.02404   1.15966    0.021
 5350.00    0.98631   1.15933    0.021
 5351.00    0.98790   1.15789    0.021
 5352.00    1.00023   1.15546    0.021
 5353.00    1.04424   1.15215    0.021
 5354.00    1.08048   1.14824    0.021
 5355.00    1.09719   1.14390    0.021
 5356.00    1.11598   1.13940    0.021
 5357.00    1.13927   1.13504    0.021
 5358.00    1.12960   1.13100    0.021
 5359.00    1.05802   1.12769    0.021
 5360.00    1.01378   1.12513    0.021
 5361.00    1.01438   1.12376    0.021
 5362.00    1.03775   1.12336    0.021
 5363.00    1.09390   1.12429    0.021
 5364.00    1.11707   1.12604    0.021
 5365.00    1.09854   1.12881    0.020
 5366.00    1.06701   1.13191    0.021
 5367.00    1.02096   1.13540    0.021
 5368.00    1.00897   1.13863   -2.000
 5369.00    1.03045   1.14158   -2.000
 5370.00    1.05244   1.14388   -2.000
 5371.00    1.07488   1.14544   -2.000
 5372.00    1.05871   1.14632   -2.000
 5373.00    1.01305   1.14626   -2.000
 5374.00    1.04825   1.14575   -2.000
 5375.00    1.13775   1.14428   -2.000
 5376.00    1.20647   1.14264   -2.000
 5377.00    1.26295   1.14010   -2.000
 5378.00    1.24165   1.13762   -2.000
 5379.00    1.18046   1.13432   -2.000
 5380.00    1.13179   1.13123   -2.000
 5381.00    1.08870   1.12753   -2.000
 5382.00    1.04408   1.12414   -2.000
 5383.00    0.99889   1.12047    0.022
 5384.00    0.98068   1.11717    0.022
 5385.00    0.97122   1.11397    0.022
 5386.00    1.01850   1.11114    0.022
 5387.00    1.08118   1.10868    0.021
 5388.00    1.14753   1.10644    0.021
 5389.00    1.21470   1.10464    0.021
 5390.00    1.13918   1.10282    0.021
 5391.00    1.03831   1.10134    0.021
 5392.00    1.03219   1.09971    0.021
 5393.00    1.03893   1.09831    0.021
 5394.00    1.03796   1.09691    0.021
 5395.00    1.03624   1.09584    0.021
 5396.00    1.09206   1.09522    0.021
 5397.00    1.15134   1.09516    0.020
 5398.00    1.03890   1.09611    0.020
 5399.00    0.92303   1.09780    0.020
 5400.00    0.98042   1.10079    0.020
 5401.00    1.03684   1.10443    0.020
 5402.00    1.06839   1.10921    0.020
 5403.00    1.09668   1.11424    0.020
 5404.00    1.08082   1.11988    0.020
 5405.00    1.06098   1.12519    0.020
 5406.00    1.00535   1.13047    0.020
 5407.00    0.95897   1.13489    0.019
 5408.00    0.97362   1.13882    0.020
 5409.00    0.98252   1.14158    0.020
 5410.00    0.96182   1.14366    0.020
 5411.00    0.94598   1.14451    0.019
 5412.00    0.95035   1.14470    0.019
 5413.00    0.96749   1.14379    0.020
 5414.00    1.02851   1.14231    0.020
 5415.00    1.08069   1.13999    0.020
 5416.00    1.10724   1.13721    0.020
 5417.00    1.12034   1.13390    0.020
 5418.00    1.10022   1.13037    0.020
 5419.00    1.08013   1.12678    0.020
 5420.00    1.06010   1.12331    0.020
 5421.00    1.03638   1.12035    0.020
 5422.00    1.00584   1.11796    0.020
 5423.00    0.99508   1.11662    0.020
 5424.00    1.01629   1.11613    0.020
 5425.00    1.04012   1.11695    0.020
 5426.00    1.06766   1.11855    0.020
 5427.00    1.07428   1.12124    0.020
 5428.00    1.05478   1.12424    0.020
 5429.00    1.03100   1.12762    0.020
 5430.00    1.00249   1.13061    0.020
 5431.00    0.98708   1.13316    0.020
 5432.00    0.98437   1.13476    0.020
 5433.00    1.00183   1.13539    0.020
 5434.00    1.03653   1.13488    0.020
 5435.00    1.04230   1.13350    0.020
 5436.00    1.02627   1.13117    0.021
 5437.00    1.04031   1.12858    0.021
 5438.00    1.07425   1.12538    0.021
 5439.00    1.05826   1.12268    0.021
 5440.00    1.01336   1.11962    0.020
 5441.00    1.01741   1.11762    0.020
 5442.00    1.04617   1.11528    0.020
 5443.00    1.06238   1.11427    0.020
 5444.00    1.07311   1.11290    0.020
 5445.00    1.04008   1.11285    0.020
 5446.00    0.99066   1.11246    0.020
 5447.00    0.98253   1.11322    0.020
 5448.00    0.98754   1.11369    0.020
 5449.00    1.01873   1.11500    0.020
 5450.00    1.05688   1.11605    0.020
 5451.00    1.08555   1.11754    0.020
 5452.00    1.11216   1.11881    0.020
 5453.00    1.10101   1.12012    0.020
 5454.00    1.08335   1.12122    0.020
 5455.00    1.06317   1.12202    0.020
 5456.00    1.04267   1.12265    0.020
 5457.00    1.06720   1.12273    0.020
 5458.00    1.09589   1.12264    0.020
 5459.00    1.10024   1.12189    0.020
 5460.00    1.10322   1.12099    0.019
 5461.00    1.07382   1.11947    0.019
 5462.00    1.04420   1.11792    0.020
 5463.00    1.06684   1.11600    0.020
 5464.00    1.08911   1.11416    0.020
 5465.00    1.10257   1.11250    0.020
 5466.00    1.11572   1.11104    0.019
 5467.00    1.12480   1.11020    0.019
 5468.00    1.13003   1.10956    0.020
 5469.00    1.10192   1.10986    0.020
 5470.00    1.07563   1.11028    0.020
 5471.00    1.06097   1.11164    0.020
 5472.00    1.05559   1.11303    0.020
 5473.00    1.09667   1.11506    0.020
 5474.00    1.12446   1.11700    0.020
 5475.00    1.09826   1.11913    0.020
 5476.00    1.06278   1.12111    0.020
 5477.00    0.99605   1.12293    0.020
 5478.00    0.95883   1.12468   -2.000
 5479.00    1.00543   1.12603   -2.000
 5480.00    1.04204   1.12728   -2.000
 5481.00    1.05440   1.12815   -2.000
 5482.00    1.06819   1.12887   -2.000
 5483.00    1.08499   1.12920   -2.000
 5484.00    1.08214   1.12946   -2.000
 5485.00    1.04352   1.12925   -2.000
 5486.00    1.01864   1.12908   -2.000
 5487.00    1.01562   1.12836   -2.000
 5488.00    1.00530   1.12778   -2.000
 5489.00    0.98477   1.12662   -2.000
 5490.00    1.05688   1.12565   -2.000
 5491.00    1.24289   1.12418   -2.000
 5492.00    1.33771   1.12280   -2.000
 5493.00    1.33369   1.12121   -2.000
 5494.00    1.28231   1.11963   -2.000
 5495.00    1.18567   1.11817   -2.000
 5496.00    1.11004   1.11654   -2.000
 5497.00    1.05211   1.11532   -2.000
 5498.00    1.03152   1.11382   -2.000
 5499.00    1.03864   1.11314   -2.000
 5500.00    1.03665   1.11211   -2.000
 5501.00    1.02874   1.11195   -2.000
 5502.00    1.03251   1.11168    0.019
 5503.00    1.04296   1.11235    0.018
 5504.00    1.06187   1.11314    0.018
 5505.00    1.08497   1.11496    0.018
 5506.00    1.10242   1.11686    0.018
 5507.00    1.11745   1.11969    0.018
 5508.00    1.12432   1.12231    0.018
 5509.00    1.12817   1.12550    0.019
 5510.00    1.07473   1.12807    0.019
 5511.00    1.00342   1.13067    0.019
 5512.00    1.02613   1.13238    0.019
 5513.00    1.07331   1.13376    0.019
 5514.00    1.08529   1.13425    0.019
 5515.00    1.08978   1.13437    0.019
 5516.00    1.07450   1.13391    0.019
 5517.00    1.05590   1.13323    0.020
 5518.00    1.05493   1.13244    0.020
 5519.00    1.05620   1.13166    0.019
 5520.00    1.06247   1.13119    0.020
 5521.00    1.06919   1.13090    0.020
 5522.00    1.04916   1.13113    0.020
 5523.00    1.02774   1.13162    0.020
 5524.00    0.98291   1.13252    0.019
 5525.00    0.93917   1.13352    0.019
 5526.00    1.01057   1.13484    0.020
 5527.00    1.07928   1.13618    0.020
 5528.00    1.09022   1.13768    0.020
 5529.00    1.10090   1.13909    0.019
 5530.00    1.10842   1.14063    0.019
 5531.00    1.11576   1.14189    0.019
 5532.00    1.12167   1.14326    0.019
 5533.00    1.12060   1.14440    0.020
 5534.00    1.07616   1.14556    0.019
 5535.00    1.04665   1.14654    0.019
 5536.00    1.09012   1.14749    0.019
 5537.00    1.12265   1.14836    0.019
 5538.00    1.11171   1.14913    0.019
 5539.00    1.10619   1.14975    0.019
 5540.00    1.11853   1.15018    0.019
 5541.00    1.12188   1.15040    0.019
 5542.00    1.10015   1.15028    0.020
 5543.00    1.08436   1.14986    0.020
 5544.00    1.08271   1.14911    0.020
 5545.00    1.07908   1.14805    0.020
 5546.00    1.07136   1.14676    0.019
 5547.00    1.07097   1.14521    0.019
 5548.00    1.08369   1.14359    0.019
 5549.00    1.09544   1.14177    0.018
 5550.00    1.10567   1.13998    0.018
 5551.00    1.11060   1.13805    0.018
 5552.00    1.10823   1.13627    0.019
 5553.00    1.09687   1.13442    0.019
 5554.00    1.07461   1.13279    0.019
 5555.00    1.05992   1.13124    0.019
 5556.00    1.05334   1.12995    0.019
 5557.00    1.01812   1.12891    0.019
 5558.00    0.95592   1.12820    0.019
 5559.00    0.94394   1.12780    0.019
 5560.00    0.97371   1.12776    0.019
 5561.00    0.99489   1.12800    0.019
 5562.00    1.00981   1.12850    0.019
 5563.00    0.97932   1.12922    0.019
 5564.00    0.91968   1.12996    0.019
 5565.00    0.91295   1.13074    0.019
 5566.00    0.93594   1.13131    0.019
 5567.00    0.97257   1.13172    0.019
 5568.00    1.01585   1.13161    0.019
 5569.00    1.03675   1.13117    0.019
 5570.00    1.04819   1.13014    0.019
 5571.00    1.06698   1.12845    0.019
 5572.00    1.08843   1.12623    0.019
 5573.00    1.10090   1.12346    0.019
 5574.00    1.11063   1.12024    0.019
 5575.00    1.12449   1.11684    0.019
 5576.00    1.13941   1.11336    0.020
 5577.00    1.10662   1.11004    0.020
 5578.00    1.06396   1.10714    0.019
 5579.00    1.04736   1.10485    0.019
 5580.00    1.03501   1.10315    0.019
 5581.00    1.03661   1.10228    0.019
 5582.00    1.03992   1.10198    0.019
 5583.00    0.99481   1.10241    0.019
 5584.00    0.94564   1.10323    0.019
 5585.00    0.95551   1.10446    0.019
 5586.00    0.96825   1.10577    0.019
 5587.00    0.99254   1.10725    0.019
 5588.00    1.01647   1.10856    0.019
 5589.00    1.00897   1.11023    0.018
 5590.00    1.00261   1.11166    0.018
 5591.00    1.01903   1.11384    0.019
 5592.00    1.03697   1.11575    0.019
 5593.00    1.07251   1.11852    0.019
 5594.00    1.10442   1.12105    0.019
 5595.00    1.10717   1.12450    0.019
 5596.00    1.10734   1.12730    0.019
 5597.00    1.09197   1.13064    0.019
 5598.00    1.07868   1.13298    0.019
 5599.00    1.07533   1.13527    0.019
 5600.00    1.06806   1.13640    0.019
 5601.00    1.04559   1.13695    0.019
 5602.00    1.03800   1.13644    0.019
 5603.00    1.07855   1.13524    0.019
 5604.00    1.10683   1.13337    0.019
 5605.00    1.10154   1.13111    0.019
 5606.00    1.10098   1.12867    0.019
 5607.00    1.11152   1.12628    0.019
 5608.00    1.12178   1.12408    0.019
 5609.00    1.13148   1.12224    0.019
 5610.00    1.11509   1.12077    0.019
 5611.00    1.05261   1.11990    0.019
 5612.00    1.01361   1.11953    0.019
 5613.00    1.01088   1.11969    0.019
 5614.00    1.02182   1.12016    0.019
 5615.00    1.05131   1.12113    0.019
 5616.00    1.06244   1.12225    0.019
 5617.00    1.05164   1.12377    0.019
 5618.00    1.04827   1.12524    0.019
 5619.00    1.05273   1.12684    0.019
 5620.00    1.05684   1.12826    0.019
 5621.00    1.06064   1.12956    0.018
 5622.00    1.04111   1.13057    0.018
 5623.00    1.00248   1.13111    0.018
 5624.00    0.97821   1.13132    0.018
 5625.00    0.96430   1.13101    0.018
 5626.00    0.97192   1.13035    0.018
 5627.00    0.99317   1.12949    0.018
 5628.00    1.01444   1.12831    0.018
 5629.00    1.03572   1.12739    0.018
 5630.00    1.04677   1.12619    0.018
 5631.00    1.05288   1.12567    0.018
 5632.00    1.03923   1.12493    0.018
 5633.00    1.01737   1.12507    0.018
 5634.00    1.02695   1.12504    0.018
 5635.00    1.04770   1.12581    0.018
 5636.00    1.05121   1.12641    0.018
 5637.00    1.04953   1.12753    0.018
 5638.00    1.02128   1.12847    0.018
 5639.00    0.98640   1.12950    0.018
 5640.00    0.99792   1.13026    0.018
 5641.00    1.01882   1.13076    0.018
 5642.00    1.04463   1.13080    0.018
 5643.00    1.07121   1.13046    0.018
 5644.00    1.08544   1.12954    0.018
 5645.00    1.09823   1.12831    0.018
 5646.00    1.06293   1.12659    0.018
 5647.00    1.02379   1.12482    0.019
 5648.00    1.02488   1.12283    0.019
 5649.00    1.02777   1.12112    0.019
 5650.00    1.03587   1.11949    0.019
 5651.00    1.04356   1.11848    0.019
 5652.00    1.02767   1.11777    0.019
 5653.00    1.01234   1.11780    0.018
 5654.00    1.00713   1.11821    0.019
 5655.00    1.00334   1.11926    0.019
 5656.00    1.01532   1.12066    0.019
 5657.00    1.02805   1.12246    0.019
 5658.00    1.04663   1.12453    0.019
 5659.00    1.06068   1.12654    0.019
 5660.00    1.04809   1.12886    0.019
 5661.00    1.03478   1.13087    0.018
 5662.00    1.01809   1.13305    0.018
 5663.00    1.00669   1.13465    0.018
 5664.00    1.01540   1.13631    0.018
 5665.00    1.02401   1.13732    0.018
 5666.00    1.03227   1.13821    0.018
 5667.00    1.04183   1.13853    0.018
 5668.00    1.05492   1.13853    0.018
 5669.00    1.06987   1.13817    0.018
 5670.00    1.08914   1.13750    0.017
 5671.00    1.10139   1.13675    0.017
 5672.00    1.09964   1.13571    0.018
 5673.00    1.08571   1.13498    0.018
 5674.00    1.05063   1.13408    0.018
 5675.00    1.04118   1.13379    0.018
 5676.00    1.07076   1.13326    0.018
 5677.00    1.08357   1.13359    0.018
 5678.00    1.07397   1.13358    0.019
 5679.00    1.06293   1.13441    0.019
 5680.00    1.05019   1.13460    0.018
 5681.00    1.03100   1.13554    0.018
 5682.00    1.00510   1.13562    0.018
 5683.00    1.01751   1.13605    0.018
 5684.00    1.06500   1.13551    0.019
 5685.00    1.09252   1.13510    0.019
 5686.00    1.10390   1.13379    0.018
 5687.00    1.10472   1.13241    0.018
 5688.00    1.09803   1.13038    0.019
 5689.00    1.07961   1.12821    0.019
 5690.00    1.05387   1.12568    0.018
 5691.00    1.04032   1.12318    0.018
 5692.00    1.03341   1.12056    0.019
 5693.00    1.02086   1.11820    0.019
 5694.00    1.00565   1.11593    0.018
 5695.00    1.01688   1.11410    0.018
 5696.00    1.03892   1.11247    0.018
 5697.00    1.05851   1.11157    0.018
 5698.00    1.07724   1.11095    0.018
 5699.00    1.09480   1.11122    0.019
 5700.00    1.11201   1.11203    0.019
 5701.00    1.11248   1.11368    0.019
 5702.00    1.10887   1.11596    0.018
 5703.00    1.05407   1.11877    0.018
 5704.00    0.98919   1.12222    0.018
 5705.00    0.97264   1.12588    0.018
 5706.00    0.96350   1.12992    0.018
 5707.00    1.00184   1.13379    0.018
 5708.00    1.04555   1.13771    0.018
 5709.00    1.02446   1.14102    0.018
 5710.00    0.99846   1.14408    0.017
 5711.00    1.01237   1.14653    0.018
 5712.00    1.02791   1.14833    0.018
 5713.00    1.06218   1.14959    0.018
 5714.00    1.09505   1.15031    0.018
 5715.00    1.06435   1.15059    0.018
 5716.00    1.03501   1.15057    0.018
 5717.00    1.02895   1.15027    0.018
 5718.00    1.02386   1.14990    0.018
 5719.00    1.02900   1.14941    0.018
 5720.00    1.03275   1.14910    0.018
 5721.00    1.02609   1.14871    0.018
 5722.00    1.02197   1.14868    0.018
 5723.00    1.03233   1.14847    0.018
 5724.00    1.04746   1.14869    0.018
 5725.00    1.08432   1.14865    0.018
 5726.00    1.10499   1.14920    0.018
 5727.00    1.06542   1.14918    0.018
 5728.00    1.03837   1.14964    0.018
 5729.00    1.05032   1.14968    0.018
 5730.00    1.05880   1.15016    0.018
 5731.00    1.05815   1.15038    0.018
 5732.00    1.05178   1.15065    0.018
 5733.00    1.03245   1.15101    0.018
 5734.00    1.03365   1.15103    0.018
 5735.00    1.07519   1.15144    0.019
 5736.00    1.11384   1.15128    0.019
 5737.00    1.14753   1.15160    0.018
 5738.00    1.14593   1.15140    0.018
 5739.00    1.09136   1.15151    0.018
 5740.00    1.07048   1.15125    0.000
 5741.00    1.09400   1.15114    0.000
 5742.00    1.12477   1.15103    0.000
 5743.00    1.16397   1.15084    0.000
 5744.00    1.17279   1.15075    0.000
 5745.00    1.15049   1.15060    0.000
 5746.00    1.13966   1.15067    0.000
 5747.00    1.13920   1.15080    0.000
 5748.00    1.13241   1.15093    0.000
 5749.00    1.12059   1.15114    0.000
 5750.00    1.10989   1.15140    0.000
 5751.00    1.10000   1.15185    0.000
 5752.00    1.10597   1.15247    0.000
 5753.00    1.12169   1.15331    0.000
 5754.00    1.10644   1.15414    0.000
 5755.00    1.07458   1.15516    0.000
 5756.00    1.05076   1.15606    0.000
 5757.00    1.03069   1.15701    0.000
 5758.00    1.06135   1.15771    0.000
 5759.00    1.11237   1.15826    0.000
 5760.00    1.12068   1.15841    0.000
 5761.00    1.11437   1.15820    0.000
 5762.00    1.08225   1.15740    0.000
 5763.00    1.04269   1.15592    0.000
 5764.00    1.04212   1.15402    0.000
 5765.00    1.05083   1.15154    0.000
 5766.00    1.08250   1.14867    0.000
 5767.00    1.11858   1.14536    0.000
 5768.00    1.11639   1.14192    0.000
 5769.00    1.10852   1.13845    0.000
 5770.00    1.11458   1.13497    0.000
 5771.00    1.12216   1.13206    0.000
 5772.00    1.16292   1.12922    0.000
 5773.00    1.20606   1.12739    0.000
 5774.00    1.21011   1.12596    0.000
 5775.00    1.21272   1.12563    0.000
 5776.00    1.17906   1.12597    0.000
 5777.00    1.14528   1.12718    0.000
 5778.00    1.11297   1.12913    0.000
 5779.00    1.08297   1.13154    0.000
 5780.00    1.09027   1.13472    0.000
 5781.00    1.09698   1.13784    0.000
 5782.00    1.09776   1.14143    0.000
 5783.00    1.10037   1.14482    0.000
 5784.00    1.11622   1.14842    0.000
 5785.00    1.12867   1.15162    0.000
 5786.00    1.12226   1.15465    0.000
 5787.00    1.11433   1.15743    0.000
 5788.00    1.09965   1.15970    0.000
 5789.00    1.07977   1.16194    0.000
 5790.00    1.04091   1.16371    0.000
 5791.00    1.00866   1.16527   -2.000
 5792.00    0.99657   1.16645   -2.000
 5793.00    0.98955   1.16732   -2.000
 5794.00    0.99570   1.16790   -2.000
 5795.00    1.00737   1.16822   -2.000
 5796.00    1.03135   1.16843   -2.000
 5797.00    1.05955   1.16842   -2.000
 5798.00    1.09592   1.16820   -2.000
 5799.00    1.10767   1.16790   -2.000
 5800.00    1.07791   1.16741   -2.000
 5801.00    1.07292   1.16705   -2.000
 5802.00    1.10453   1.16663   -2.000
 5803.00    1.13445   1.16650   -2.000
 5804.00    1.16217   1.16624   -2.000
 5805.00    1.18192   1.16638   -2.000
 5806.00    1.19256   1.16637   -2.000
 5807.00    1.20864   1.16673   -2.000
 5808.00    1.23022   1.16701   -2.000
 5809.00    1.22819   1.16762   -2.000
 5810.00    1.20516   1.16812   -2.000
 5811.00    1.17390   1.16880    0.000
 5812.00    1.13620   1.16939    0.000
 5813.00    1.12040   1.16997    0.000
 5814.00    1.11971   1.17055    0.000
 5815.00    1.12392   1.17088    0.000
 5816.00    1.13111   1.17133    0.000
 5817.00    1.12912   1.17133    0.000
 5818.00    1.12229   1.17147    0.000
 5819.00    1.12177   1.17112    0.000
 5820.00    1.12414   1.17111    0.000
 5821.00    1.14456   1.17070    0.000
 5822.00    1.17210   1.17044    0.000
 5823.00    1.17047   1.17003    0.000
 5824.00    1.15905   1.16976    0.000
 5825.00    1.15749   1.16955    0.000
 5826.00    1.15872   1.16931    0.000
 5827.00    1.14125   1.16923    0.000
 5828.00    1.11942   1.16898    0.000
 5829.00    1.09967   1.16888    0.000
 5830.00    1.08031   1.16852    0.000
 5831.00    1.09585   1.16814    0.000
 5832.00    1.11643   1.16740    0.000
 5833.00    1.10957   1.16660    0.000
 5834.00    1.09985   1.16532    0.000
 5835.00    1.08128   1.16381    0.000
 5836.00    1.06212   1.16178    0.000
 5837.00    1.04845   1.15951    0.000
 5838.00    1.03496   1.15693    0.000
 5839.00    1.03452   1.15408    0.000
 5840.00    1.03464   1.15120    0.000
 5841.00    1.05201   1.14800    0.000
 5842.00    1.07016   1.14507    0.000
 5843.00    1.09998   1.14197    0.000
 5844.00    1.12711   1.13942    0.000
 5845.00    1.12818   1.13705    0.000
 5846.00    1.12300   1.13524    0.000
 5847.00    1.07406   1.13376    0.000
 5848.00    1.03423   1.13271    0.000
 5849.00    1.04367   1.13208    0.000
 5850.00    1.04930   1.13180    0.000
 5851.00    1.03842   1.13196    0.000
 5852.00    1.03245   1.13228    0.000
 5853.00    1.04398   1.13276    0.000
 5854.00    1.06202   1.13332    0.000
 5855.00    1.09953   1.13388    0.000
 5856.00    1.12298   1.13409    0.000
 5857.00    1.11053   1.13433    0.000
 5858.00    1.09519   1.13364    0.000
 5859.00    1.07352   1.13298    0.000
 5860.00    1.06554   1.13133    0.000
 5861.00    1.08366   1.12937    0.000
 5862.00    1.09852   1.12740    0.000
 5863.00    1.10793   1.12446    0.000
 5864.00    1.11784   1.12266    0.000
 5865.00    1.12847   1.11890    0.000
 5866.00    1.12532   1.11662    0.000
 5867.00    1.10451   1.11262    0.000
 5868.00    1.08857   1.10965    0.000
 5869.00    1.07813   1.10524    0.000
 5870.00    1.08000   1.10047    0.000
 5871.00    1.09413   1.09510    0.000
 5872.00    1.11447   1.08793    0.000
 5873.00    1.14028   1.08066    0.000
 5874.00    1.13666   1.07076    0.000
 5875.00    1.11028   1.06071    0.000
 5876.00    1.12833   1.04884    0.000
 5877.00    1.17659   1.03780    0.000
 5878.00    1.19078   1.02712    0.000
 5879.00    1.18466   1.01633    0.000
 5880.00    1.16273   1.00791    0.000
 5881.00    1.13258   0.99931    0.000
 5882.00    1.12609   0.99407    0.000
 5883.00    1.13026   0.99085    0.000
 5884.00    1.11748   0.99113    0.000
 5885.00    1.09811   0.99335    0.000
 5886.00    1.06758   0.99816    0.000
 5887.00    1.03338   1.00559    0.000
 5888.00    1.00544   1.01432    0.000
 5889.00    0.97923   1.02524    0.000
 5890.00    0.98029   1.03624    0.000
 5891.00    0.98754   1.04817    0.000
 5892.00    0.99663   1.05939    0.000
 5893.00    1.00606   1.07046    0.000
 5894.00    0.99039   1.08083    0.000
 5895.00    0.97122   1.09021    0.000
 5896.00    0.98289   1.09837    0.000
 5897.00    0.99765   1.10548    0.000
 5898.00    1.01616   1.11094    0.000
 5899.00    1.03491   1.11553    0.000
 5900.00    1.03658   1.11843    0.000
 5901.00    1.03772   1.12113    0.018
 5902.00    1.03240   1.12237    0.018
 5903.00    1.02852   1.12378    0.018
 5904.00    1.06535   1.12439    0.018
 5905.00    1.10043   1.12493    0.018
 5906.00    1.11050   1.12549    0.018
 5907.00    1.11814   1.12577    0.018
 5908.00    1.10314   1.12636    0.018
 5909.00    1.08771   1.12674    0.017
 5910.00    1.06944   1.12750    0.017
 5911.00    1.05672   1.12801    0.018
 5912.00    1.07319   1.12895    0.017
 5913.00    1.08699   1.12960    0.017
 5914.00    1.08943   1.13047    0.017
 5915.00    1.09246   1.13105    0.017
 5916.00    1.09757   1.13159    0.017
 5917.00    1.10339   1.13198    0.017
 5918.00    1.11129   1.13239    0.017
 5919.00    1.11261   1.13253    0.017
 5920.00    1.09745   1.13281    0.017
 5921.00    1.08595   1.13267    0.017
 5922.00    1.08236   1.13285    0.017
 5923.00    1.07672   1.13272    0.017
 5924.00    1.06722   1.13292    0.017
 5925.00    1.06971   1.13301    0.017
 5926.00    1.09182   1.13301    0.017
 5927.00    1.11024   1.13308    0.017
 5928.00    1.12337   1.13309    0.017
 5929.00    1.12771   1.13317    0.017
 5930.00    1.12096   1.13333    0.017
 5931.00    1.12441   1.13365    0.017
 5932.00    1.13921   1.13389    0.017
 5933.00    1.13504   1.13416    0.018
 5934.00    1.11226   1.13435    0.018
 5935.00    1.11458   1.13439    0.018
 5936.00    1.13862   1.13432    0.018
 5937.00    1.12968   1.13412    0.018
 5938.00    1.09559   1.13378    0.018
 5939.00    1.08130   1.13357    0.018
 5940.00    1.08029   1.13306    0.018
 5941.00    1.10186   1.13272    0.018
 5942.00    1.13670   1.13237    0.018
 5943.00    1.14581   1.13232    0.017
 5944.00    1.14176   1.13211    0.017
 5945.00    1.14378   1.13232    0.017
 5946.00    1.14850   1.13286    0.017
 5947.00    1.12424   1.13371    0.017
 5948.00    1.08896   1.13504    0.017
 5949.00    1.08934   1.13630    0.017
 5950.00    1.10126   1.13798    0.016
 5951.00    1.08620   1.13948    0.016
 5952.00    1.06382   1.14116    0.016
 5953.00    1.05660   1.14277    0.017
 5954.00    1.05275   1.14412    0.017
 5955.00    1.07723   1.14571    0.016
 5956.00    1.10673   1.14680    0.016
 5957.00    1.13130   1.14789    0.017
 5958.00    1.15521   1.14849    0.017
 5959.00    1.16207   1.14888    0.017
 5960.00    1.16730   1.14876    0.017
 5961.00    1.15069   1.14830    0.017
 5962.00    1.13279   1.14747    0.017
 5963.00    1.12994   1.14617    0.017
 5964.00    1.12750   1.14462    0.017
 5965.00    1.12964   1.14294    0.017
 5966.00    1.13171   1.14099    0.017
 5967.00    1.13218   1.13934    0.017
 5968.00    1.13308   1.13765    0.018
 5969.00    1.13990   1.13631    0.018
 5970.00    1.14590   1.13486    0.018
 5971.00    1.14444   1.13390    0.018
 5972.00    1.14246   1.13288    0.017
 5973.00    1.13704   1.13274    0.018
 5974.00    1.13021   1.13308    0.018
 5975.00    1.11608   1.13371    0.017
 5976.00    1.09993   1.13452    0.017
 5977.00    1.07546   1.13568    0.017
 5978.00    1.05511   1.13711    0.016
 5979.00    1.04890   1.13832    0.016
 5980.00    1.04716   1.13970    0.016
 5981.00    1.05834   1.14098    0.016
 5982.00    1.06417   1.14231    0.017
 5983.00    1.05682   1.14310    0.016
 5984.00    1.05220   1.14366    0.016
 5985.00    1.05339   1.14379    0.016
 5986.00    1.06593   1.14363    0.016
 5987.00    1.09943   1.14322    0.017
 5988.00    1.11671   1.14260    0.017
 5989.00    1.10784   1.14196    0.016
 5990.00    1.09545   1.14094    0.016
 5991.00    1.07809   1.13976    0.017
 5992.00    1.08001   1.13889    0.017
 5993.00    1.10591   1.13783    0.017
 5994.00    1.12137   1.13682    0.017
 5995.00    1.12535   1.13582    0.017
 5996.00    1.10789   1.13481    0.017
 5997.00    1.06969   1.13422    0.017
 5998.00    1.04138   1.13391    0.017
 5999.00    1.02153   1.13343    0.017
 6000.00    1.01689   1.13314    0.017
 6001.00    1.02367   1.13251    0.017
 6002.00    1.03563   1.13237    0.017
 6003.00    1.05101   1.13206    0.017
 6004.00    1.06405   1.13193    0.017
 6005.00    1.07575   1.13175    0.017
 6006.00    1.06924   1.13186    0.017
 6007.00    1.05355   1.13218    0.017
 6008.00    1.05256   1.13265    0.017
 6009.00    1.05798   1.13353    0.016
 6010.00    1.07344   1.13442    0.017
 6011.00    1.09265   1.13585    0.017
 6012.00    1.10293   1.13732    0.017
 6013.00    1.11037   1.13935    0.016
 6014.00    1.11341   1.14152    0.016
 6015.00    1.11529   1.14374    0.017
 6016.00    1.10818   1.14630    0.017
 6017.00    1.09912   1.14868    0.017
 6018.00    1.11046   1.15123    0.017
 6019.00    1.12532   1.15335    0.017
 6020.00    1.12164   1.15560    0.017
 6021.00    1.11554   1.15748    0.017
 6022.00    1.10906   1.15934    0.017
 6023.00    1.10254   1.16089    0.017
 6024.00    1.07983   1.16232    0.017
 6025.00    1.05621   1.16336    0.017
 6026.00    1.07646   1.16446    0.017
 6027.00    1.09762   1.16514    0.017
 6028.00    1.11306   1.16587    0.017
 6029.00    1.12683   1.16662    0.018
 6030.00    1.10189   1.16710    0.017
 6031.00    1.07875   1.16802    0.017
 6032.00    1.07857   1.16861    0.017
 6033.00    1.07928   1.16939    0.018
 6034.00    1.08762   1.16993    0.018
 6035.00    1.09555   1.17039    0.017
 6036.00    1.10088   1.17069    0.017
 6037.00    1.10765   1.17063    0.017
 6038.00    1.12160   1.17063    0.017
 6039.00    1.13703   1.17007    0.017
 6040.00    1.15842   1.16963    0.016
 6041.00    1.17157   1.16874    0.016
 6042.00    1.15702   1.16768    0.016
 6043.00    1.14859   1.16649    0.016
 6044.00    1.15751   1.16500    0.016
 6045.00    1.15978   1.16379    0.016
 6046.00    1.14595   1.16222    0.016
 6047.00    1.12473   1.16127    0.016
 6048.00    1.08809   1.16024    0.017
 6049.00    1.07053   1.15969    0.017
 6050.00    1.08768   1.15940    0.017
 6051.00    1.09940   1.15901    0.016
 6052.00    1.10251   1.15937    0.016
 6053.00    1.09894   1.15936    0.017
 6054.00    1.08604   1.16046    0.017
 6055.00    1.08524   1.16144    0.017
 6056.00    1.09927   1.16304    0.017
 6057.00    1.10941   1.16519    0.017
 6058.00    1.11532   1.16688    0.017
 6059.00    1.11685   1.16888    0.017
 6060.00    1.11421   1.17020    0.017
 6061.00    1.11752   1.17157    0.017
 6062.00    1.12584   1.17231    0.017
 6063.00    1.13243   1.17261    0.017
 6064.00    1.13773   1.17246    0.017
 6065.00    1.13552   1.17177    0.017
 6066.00    1.12841   1.17056    0.017
 6067.00    1.12891   1.16890    0.017
 6068.00    1.13374   1.16692    0.017
 6069.00    1.14902   1.16470    0.017
 6070.00    1.16949   1.16259    0.017
 6071.00    1.18083   1.16028    0.017
 6072.00    1.18825   1.15812    0.016
 6073.00    1.17373   1.15633    0.016
 6074.00    1.15115   1.15493    0.016
 6075.00    1.12998   1.15353    0.016
 6076.00    1.10925   1.15246    0.016
 6077.00    1.09221   1.15179    0.016
 6078.00    1.07614   1.15108    0.016
 6079.00    1.07898   1.15070    0.019
 6080.00    1.08584   1.15023    0.023
 6081.00    1.11552   1.14996    0.024
 6082.00    1.14902   1.15035    0.025
 6083.00    1.18153   1.14971    0.025
 6084.00    1.21391   1.14988    0.025
 6085.00    1.22330   1.14958    0.021
 6086.00    1.23067   1.14926    0.018
 6087.00    1.21520   1.14856    0.017
 6088.00    1.19855   1.14764    0.017
 6089.00    1.16014   1.14731    0.017
 6090.00    1.12159   1.14611    0.017
 6091.00    1.10165   1.14586    0.017
 6092.00    1.08347   1.14432    0.017
 6093.00    1.10285   1.14373    0.017
 6094.00    1.12123   1.14417    0.017
 6095.00    1.12748   1.14481    0.017
 6096.00    1.13342   1.14566    0.017
 6097.00    1.13677   1.14647    0.017
 6098.00    1.13466   1.14762    0.017
 6099.00    1.09863   1.14879    0.016
 6100.00    1.06375   1.14996    0.016
 6101.00    1.03450   1.15029    0.016
 6102.00    1.01588   1.15063    0.016
 6103.00    1.03939   1.15073    0.016
 6104.00    1.06378   1.15041    0.016
 6105.00    1.09105   1.14934    0.016
 6106.00    1.10843   1.14761    0.016
 6107.00    1.09832   1.14571    0.016
 6108.00    1.08909   1.14375    0.016
 6109.00    1.08198   1.14157    0.017
 6110.00    1.08472   1.13883    0.017
 6111.00    1.10773   1.13718    0.017
 6112.00    1.13315   1.13500    0.016
 6113.00    1.16287   1.13449    0.016
 6114.00    1.17324   1.13450    0.016
 6115.00    1.15330   1.13429    0.017
 6116.00    1.14070   1.13459    0.017
 6117.00    1.13818   1.13467    0.017
 6118.00    1.13696   1.13493    0.017
 6119.00    1.13731   1.13494    0.017
 6120.00    1.14091   1.13540    0.017
 6121.00    1.14798   1.13548    0.017
 6122.00    1.15916   1.13523    0.017
 6123.00    1.17420   1.13481    0.017
 6124.00    1.17470   1.13386    0.017
 6125.00    1.16315   1.13259    0.017
 6126.00    1.15011   1.13187    0.017
 6127.00    1.13600   1.13117    0.017
 6128.00    1.13421   1.13166    0.017
 6129.00    1.14033   1.13323    0.016
 6130.00    1.14191   1.13461    0.016
 6131.00    1.14094   1.13595    0.016
 6132.00    1.12954   1.13723    0.016
 6133.00    1.11304   1.13913    0.016
 6134.00    1.09397   1.14089    0.016
 6135.00    1.07382   1.14241    0.016
 6136.00    1.08118   1.14345    0.016
 6137.00    1.09847   1.14405    0.017
 6138.00    1.11792   1.14392    0.017
 6139.00    1.13802   1.14309    0.017
 6140.00    1.14222   1.14128    0.017
 6141.00    1.14237   1.13933    0.017
 6142.00    1.14619   1.13664    0.017
 6143.00    1.15077   1.13342    0.017
 6144.00    1.14803   1.12904    0.017
 6145.00    1.14410   1.12386    0.017
 6146.00    1.16085   1.11875    0.017
 6147.00    1.18013   1.11308    0.017
 6148.00    1.15894   1.10759    0.017
 6149.00    1.13438   1.10196    0.017
 6150.00    1.11531   1.09659    0.017
 6151.00    1.09650   1.09129    0.017
 6152.00    1.09167   1.08625    0.017
 6153.00    1.08692   1.08268    0.017
 6154.00    1.07553   1.08035    0.016
 6155.00    1.06349   1.07952    0.016
 6156.00    1.03873   1.07936    0.016
 6157.00    1.01723   1.08017    0.016
 6158.00    1.03322   1.08196    0.017
 6159.00    1.04867   1.08359    0.017
 6160.00    1.05976   1.08622    0.017
 6161.00    1.07086   1.08965    0.017
 6162.00    1.08200   1.09375    0.016
 6163.00    1.09202   1.09761    0.016
 6164.00    1.09669   1.10163    0.016
 6165.00    1.09408   1.10535    0.016
 6166.00    1.06332   1.10852    0.016
 6167.00    1.04154   1.11136    0.017
 6168.00    1.04878   1.11371    0.017
 6169.00    1.06037   1.11543    0.017
 6170.00    1.08383   1.11641    0.017
 6171.00    1.10484   1.11705    0.017
 6172.00    1.12011   1.11665    0.017
 6173.00    1.12076   1.11572    0.017
 6174.00    1.09180   1.11395    0.017
 6175.00    1.07347   1.11201    0.017
 6176.00    1.07388   1.10990    0.017
 6177.00    1.08386   1.10757    0.017
 6178.00    1.10859   1.10571    0.017
 6179.00    1.12123   1.10365    0.017
 6180.00    1.11749   1.10244    0.017
 6181.00    1.11060   1.10112    0.017
 6182.00    1.09993   1.10025    0.016
 6183.00    1.09146   1.10050    0.016
 6184.00    1.08530   1.10099    0.016
 6185.00    1.09021   1.10254    0.016
 6186.00    1.10538   1.10390    0.016
 6187.00    1.12044   1.10556    0.016
 6188.00    1.13539   1.10717    0.017
 6189.00    1.14037   1.10841    0.017
 6190.00    1.13818   1.10981    0.016
 6191.00    1.13261   1.11100    0.016
 6192.00    1.12491   1.11227    0.016
 6193.00    1.10568   1.11305    0.016
 6194.00    1.08008   1.11317    0.017
 6195.00    1.03852   1.11274    0.017
 6196.00    0.98930   1.11135   -2.000
 6197.00    1.03025   1.10946   -2.000
 6198.00    1.10859   1.10693   -2.000
 6199.00    1.23829   1.10395   -2.000
 6200.00    1.38620   1.10073   -2.000
 6201.00    1.50463   1.09704   -2.000
 6202.00    1.61424   1.09320   -2.000
 6203.00    1.57032   1.08899   -2.000
 6204.00    1.48826   1.08505   -2.000
 6205.00    1.37261   1.08151   -2.000
 6206.00    1.25020   1.07819   -2.000
 6207.00    1.17927   1.07573   -2.000
 6208.00    1.11647   1.07372    0.018
 6209.00    1.11816   1.07197    0.017
 6210.00    1.12740   1.07076    0.017
 6211.00    1.12937   1.06962    0.017
 6212.00    1.13076   1.06886    0.016
 6213.00    1.12352   1.06805    0.016
 6214.00    1.11590   1.06751    0.016
 6215.00    1.11623   1.06721    0.016
 6216.00    1.11713   1.06667    0.016
 6217.00    1.14077   1.06679    0.016
 6218.00    1.16312   1.06654    0.016
 6219.00    1.16192   1.06660    0.016
 6220.00    1.15984   1.06632    0.016
 6221.00    1.14824   1.06623    0.016
 6222.00    1.13808   1.06615    0.016
 6223.00    1.13911   1.06579    0.016
 6224.00    1.13863   1.06652    0.016
 6225.00    1.12938   1.06645    0.017
 6226.00    1.12298   1.06664    0.017
 6227.00    1.12976   1.06665    0.017
 6228.00    1.13873   1.06596    0.017
 6229.00    1.15593   1.06549    0.017
 6230.00    1.16824   1.06475    0.018
 6231.00    1.16508   1.06456    0.017
 6232.00    1.15917   1.06421    0.017
 6233.00    1.14591   1.06402    0.017
 6234.00    1.13392   1.06421    0.017
 6235.00    1.12487   1.06339    0.017
 6236.00    1.11478   1.06325    0.017
 6237.00    1.10264   1.06290    0.016
 6238.00    1.09580   1.06240    0.016
 6239.00    1.09815   1.06187    0.016
 6240.00    1.09548   1.06110    0.016
 6241.00    1.08516   1.06007    0.016
 6242.00    1.07829   1.05826    0.016
 6243.00    1.07604   1.05721    0.016
 6244.00    1.08939   1.05573    0.016
 6245.00    1.12106   1.05546    0.016
 6246.00    1.13943   1.05513    0.016
 6247.00    1.14400   1.05543    0.016
 6248.00    1.13361   1.05617    0.016
 6249.00    1.10954   1.05703    0.016
 6250.00    1.10050   1.05893    0.017
 6251.00    1.10356   1.06084    0.017
 6252.00    1.09575   1.06436    0.017
 6253.00    1.08022   1.06722    0.017
 6254.00    1.06219   1.07025    0.017
 6255.00    1.04261   1.07349    0.017
 6256.00    1.03191   1.07629    0.017
 6257.00    1.02604   1.07871    0.017
 6258.00    1.03090   1.08113    0.017
 6259.00    1.04083   1.08361    0.018
 6260.00    1.10033   1.08560    0.019
 6261.00    1.18002   1.08714    0.020
 6262.00    1.22664   1.08878    0.020
 6263.00    1.26176   1.09012    0.021
 6264.00    1.28844   1.09096    0.021
 6265.00    1.31264   1.09185    0.020
 6266.00    1.28001   1.09254    0.019
 6267.00    1.23356   1.09367    0.018
 6268.00    1.18410   1.09446    0.017
 6269.00    1.13405   1.09581    0.016
 6270.00    1.11711   1.09669    0.016
 6271.00    1.10523   1.09802    0.016
 6272.00    1.10952   1.09931    0.016
 6273.00    1.11563   1.10047    0.016
 6274.00    1.12326   1.10241    0.016
 6275.00    1.13101   1.10336    0.016
 6276.00    1.11668   1.10477    0.016
 6277.00    1.10147   1.10539    0.016
 6278.00    1.06176   1.10577    0.016
 6279.00    1.02322   1.10640    0.017
 6280.00    1.03960   1.10606    0.000
 6281.00    1.05641   1.10556    0.000
 6282.00    1.08048   1.10457    0.000
 6283.00    1.10354   1.10344    0.000
 6284.00    1.11595   1.10274    0.000
 6285.00    1.12780   1.10169    0.000
 6286.00    1.13550   1.10102    0.000
 6287.00    1.14373   1.10054    0.000
 6288.00    1.15494   1.09984    0.000
 6289.00    1.16310   1.09997    0.000
 6290.00    1.15745   1.10037    0.000
 6291.00    1.15025   1.10130    0.000
 6292.00    1.13734   1.10281    0.000
 6293.00    1.12431   1.10388    0.000
 6294.00    1.11092   1.10533    0.000
 6295.00    1.10205   1.10662    0.000
 6296.00    1.10505   1.10778    0.000
 6297.00    1.11237   1.10898    0.000
 6298.00    1.12943   1.10995    0.000
 6299.00    1.14644   1.11136    0.000
 6300.00    1.16332   1.11170    0.000
 6301.00    1.16865   1.11213    0.000
 6302.00    1.15423   1.11241    0.000
 6303.00    1.13398   1.11174    0.000
 6304.00    1.10500   1.11201    0.000
 6305.00    1.08367   1.11238    0.000
 6306.00    1.07242   1.11325    0.000
 6307.00    1.07488   1.11361    0.000
 6308.00    1.09321   1.11453    0.000
 6309.00    1.11283   1.11632    0.000
 6310.00    1.13375   1.11681    0.000
 6311.00    1.14004   1.11906    0.000
 6312.00    1.13314   1.12108    0.000
 6313.00    1.13826   1.12330    0.000
 6314.00    1.15294   1.12543    0.000
 6315.00    1.16361   1.12673    0.000
 6316.00    1.17147   1.12901    0.000
 6317.00    1.15581   1.12986    0.000
 6318.00    1.12574   1.13144    0.000
 6319.00    1.12116   1.13219    0.000
 6320.00    1.13021   1.13215    0.000
 6321.00    1.14877   1.13229    0.016
 6322.00    1.17174   1.13158    0.016
 6323.00    1.18613   1.13138    0.016
 6324.00    1.19708   1.13065    0.016
 6325.00    1.18192   1.13037    0.016
 6326.00    1.15784   1.12950    0.016
 6327.00    1.15064   1.12831    0.016
 6328.00    1.14830   1.12709    0.016
 6329.00    1.17027   1.12651    0.016
 6330.00    1.19802   1.12660    0.016
 6331.00    1.19833   1.12596    0.016
 6332.00    1.19338   1.12639    0.016
 6333.00    1.17380   1.12635    0.016
 6334.00    1.15204   1.12662    0.017
 6335.00    1.13616   1.12640    0.017
 6336.00    1.12091   1.12644    0.017
 6337.00    1.12844   1.12706    0.016
 6338.00    1.13759   1.12675    0.016
 6339.00    1.14880   1.12660    0.016
 6340.00    1.16009   1.12564    0.016
 6341.00    1.15213   1.12508    0.016
 6342.00    1.14413   1.12341    0.016
 6343.00    1.13750   1.12141    0.016
 6344.00    1.13083   1.11943    0.016
 6345.00    1.12362   1.11690    0.016
 6346.00    1.11718   1.11453    0.016
 6347.00    1.11861   1.11193    0.016
 6348.00    1.12182   1.11042    0.016
 6349.00    1.13786   1.10909    0.016
 6350.00    1.15226   1.10784    0.016
 6351.00    1.15762   1.10776    0.016
 6352.00    1.16004   1.10843    0.016
 6353.00    1.14941   1.11004    0.016
 6354.00    1.13754   1.11193    0.016
 6355.00    1.12114   1.11440    0.017
 6356.00    1.10756   1.11775    0.017
 6357.00    1.10253   1.12081    0.017
 6358.00    1.09658   1.12437    0.017
 6359.00    1.08825   1.12779    0.017
 6360.00    1.08189   1.13097    0.017
 6361.00    1.07990   1.13380    0.017
 6362.00    1.08808   1.13556    0.017
 6363.00    1.11591   1.13735    0.017
 6364.00    1.13319   1.13860    0.017
 6365.00    1.13270   1.13952    0.016
 6366.00    1.13028   1.13975    0.016
 6367.00    1.12501   1.13976    0.016
 6368.00    1.11734   1.13958    0.016
 6369.00    1.10653   1.13902    0.016
 6370.00    1.09983   1.13834    0.016
 6371.00    1.09784   1.13753    0.016
 6372.00    1.11184   1.13713    0.016
 6373.00    1.14195   1.13617    0.016
 6374.00    1.15773   1.13564    0.016
 6375.00    1.16076   1.13515    0.016
 6376.00    1.14300   1.13442    0.016
 6377.00    1.10895   1.13386    0.016
 6378.00    1.09555   1.13285    0.016
 6379.00    1.09637   1.13226    0.016
 6380.00    1.10626   1.13105    0.016
 6381.00    1.12164   1.13061    0.017
 6382.00    1.12151   1.13075    0.017
 6383.00    1.11320   1.13047    0.017
 6384.00    1.09797   1.13051    0.017
 6385.00    1.07957   1.12972    0.017
 6386.00    1.08435   1.13004    0.017
 6387.00    1.09825   1.13052    0.017
 6388.00    1.11273   1.13141    0.016
 6389.00    1.12741   1.13332    0.016
 6390.00    1.12969   1.13420    0.016
 6391.00    1.12849   1.13506    0.016
 6392.00    1.11795   1.13526    0.016
 6393.00    1.10524   1.13609    0.016
 6394.00    1.14185   1.13779    0.016
 6395.00    1.18764   1.13832    0.016
 6396.00    1.19857   1.13939    0.016
 6397.00    1.20449   1.13993    0.016
 6398.00    1.15851   1.13943    0.016
 6399.00    1.10713   1.13941    0.016
 6400.00    1.07803   1.13911    0.016
 6401.00    1.05044   1.13955    0.016
 6402.00    1.06069   1.13999    0.017
 6403.00    1.07217   1.13972    0.017
 6404.00    1.09053   1.13989    0.017
 6405.00    1.10909   1.13964    0.017
 6406.00    1.13407   1.13973    0.017
 6407.00    1.15722   1.14031    0.017
 6408.00    1.15304   1.14095    0.017
 6409.00    1.14755   1.14197    0.017
 6410.00    1.12949   1.14251    0.016
 6411.00    1.11384   1.14292    0.016
 6412.00    1.11515   1.14353    0.016
 6413.00    1.11407   1.14414    0.016
 6414.00    1.10016   1.14516    0.016
 6415.00    1.09094   1.14582    0.016
 6416.00    1.10201   1.14602    0.016
 6417.00    1.11543   1.14587    0.016
 6418.00    1.13724   1.14544    0.016
 6419.00    1.15461   1.14569    0.016
 6420.00    1.15872   1.14587    0.016
 6421.00    1.15621   1.14594    0.016
 6422.00    1.13682   1.14580    0.016
 6423.00    1.12427   1.14557    0.016
 6424.00    1.12670   1.14588    0.016
 6425.00    1.13080   1.14620    0.016
 6426.00    1.13806   1.14650    0.016
 6427.00    1.13787   1.14753    0.016
 6428.00    1.12530   1.14860    0.017
 6429.00    1.11828   1.14881    0.017
 6430.00    1.11935   1.14903    0.017
 6431.00    1.11890   1.14898    0.017
 6432.00    1.11652   1.14945    0.017
 6433.00    1.12334   1.14981    0.017
 6434.00    1.14052   1.14942    0.017
 6435.00    1.15280   1.14897    0.017
 6436.00    1.16022   1.14737    0.016
 6437.00    1.17084   1.14575    0.016
 6438.00    1.18426   1.14551    0.016
 6439.00    1.18732   1.14537    0.016
 6440.00    1.18238   1.14547    0.016
 6441.00    1.16595   1.14506    0.016
 6442.00    1.14172   1.14401    0.016
 6443.00    1.12401   1.14437    0.016
 6444.00    1.11018   1.14513    0.016
 6445.00    1.12021   1.14654    0.016
 6446.00    1.14262   1.14808    0.016
 6447.00    1.15137   1.14858    0.016
 6448.00    1.15396   1.14918    0.016
 6449.00    1.15184   1.14889    0.016
 6450.00    1.14789   1.14938    0.017
 6451.00    1.14805   1.15087    0.017
 6452.00    1.14957   1.15158    0.017
 6453.00    1.13185   1.15227    0.017
 6454.00    1.10883   1.15214    0.017
 6455.00    1.06487   1.15247    0.017
 6456.00    1.01617   1.15291    0.016
 6457.00    0.98885   1.15342    0.016
 6458.00    0.96542   1.15407    0.016
 6459.00    0.97301   1.15462    0.016
 6460.00    0.98492   1.15540    0.017
 6461.00    1.01331   1.15513    0.016
 6462.00    1.04334   1.15488    0.016
 6463.00    1.06169   1.15478    0.016
 6464.00    1.07930   1.15485    0.016
 6465.00    1.08967   1.15443    0.016
 6466.00    1.09986   1.15388    0.016
 6467.00    1.11574   1.15335    0.016
 6468.00    1.13248   1.15192    0.016
 6469.00    1.17312   1.15032    0.016
 6470.00    1.21110   1.14890    0.016
 6471.00    1.21150   1.14789    0.016
 6472.00    1.21059   1.14651    0.016
 6473.00    1.19745   1.14429    0.016
 6474.00    1.18582   1.14162    0.017
 6475.00    1.18445   1.13889    0.017
 6476.00    1.18062   1.13546    0.017
 6477.00    1.16396   1.13180    0.017
 6478.00    1.14820   1.12816    0.017
 6479.00    1.13629   1.12426    0.017
 6480.00    1.12908   1.12016    0.017
 6481.00    1.13823   1.11462    0.016
 6482.00    1.14824   1.11058    0.016
 6483.00    1.16073   1.10752    0.016
 6484.00    1.16510   1.10477    0.016
 6485.00    1.14914   1.10382    0.016
 6486.00    1.13336   1.10221    0.016
 6487.00    1.11796   1.10299    0.015
 6488.00    1.10937   1.10423    0.015
 6489.00    1.11352   1.10635    0.016
 6490.00    1.11843   1.11025    0.016
 6491.00    1.12457   1.11367    0.016
 6492.00    1.11943   1.11858    0.016
 6493.00    1.09813   1.12265    0.015
 6494.00    1.09076   1.12697    0.015
 6495.00    1.10095   1.13116    0.016
 6496.00    1.12505   1.13474    0.016
 6497.00    1.16461   1.13859    0.016
 6498.00    1.19483   1.14138    0.017
 6499.00    1.21592   1.14393    0.017
 6500.00    1.21610   1.14572    0.017
 6501.00    1.19823   1.14717    0.017
 6502.00    1.17358   1.14836    0.017
 6503.00    1.14377   1.14920    0.017
 6504.00    1.14788   1.15015    0.017
 6505.00    1.17467   1.15045    0.017
 6506.00    1.18902   1.15089    0.016
 6507.00    1.19607   1.15150    0.016
 6508.00    1.17228   1.15182    0.016
 6509.00    1.13272   1.15234    0.016
 6510.00    1.12293   1.15259    0.016
 6511.00    1.12632   1.15310    0.016
 6512.00    1.13943   1.15375    0.016
 6513.00    1.15623   1.15371    0.016
 6514.00    1.15939   1.15382    0.016
 6515.00    1.15816   1.15396    0.015
 6516.00    1.15468   1.15419    0.016
 6517.00    1.15059   1.15453    0.016
 6518.00    1.14364   1.15422    0.016
 6519.00    1.13606   1.15388    0.016
 6520.00    1.14180   1.15350    0.016
 6521.00    1.14989   1.15331    0.016
 6522.00    1.13961   1.15343    0.016
 6523.00    1.12686   1.15298    0.016
 6524.00    1.11953   1.15216    0.016
 6525.00    1.11273   1.15095    0.016
 6526.00    1.13182   1.14987    0.017
 6527.00    1.15244   1.14866    0.017
 6528.00    1.15905   1.14669    0.000
 6529.00    1.16538   1.14445    0.000
 6530.00    1.18069   1.14151    0.000
 6531.00    1.19520   1.13834    0.000
 6532.00    1.18976   1.13462    0.000
 6533.00    1.18413   1.13013    0.000
 6534.00    1.17589   1.12574    0.000
 6535.00    1.16911   1.12063    0.000
 6536.00    1.17519   1.11498    0.000
 6537.00    1.18385   1.10885    0.000
 6538.00    1.20942   1.10190    0.000
 6539.00    1.23121   1.09466    0.000
 6540.00    1.23373   1.08662    0.000
 6541.00    1.23272   1.07813    0.000
 6542.00    1.21715   1.06965    0.000
 6543.00    1.20090   1.05983    0.000
 6544.00    1.18234   1.04863    0.000
 6545.00    1.16387   1.03756    0.000
 6546.00    1.14569   1.02832    0.000
 6547.00    1.13734   1.02032    0.000
 6548.00    1.15313   1.01177    0.000
 6549.00    1.16373   1.00337    0.000
 6550.00    1.16330   0.99661    0.000
 6551.00    1.15377   0.99295    0.000
 6552.00    1.12748   0.99235    0.000
 6553.00    1.12275   0.99375    0.000
 6554.00    1.15272   0.99676    0.000
 6555.00    1.16382   1.00068    0.000
 6556.00    1.14828   1.00588    0.000
 6557.00    1.13113   1.01351    0.000
 6558.00    1.11196   1.02303    0.000
 6559.00    1.12050   1.03312    0.000
 6560.00    1.15937   1.04227    0.000
 6561.00    1.19567   1.05016    0.000
 6562.00    1.22946   1.05878    0.000
 6563.00    1.23053   1.06711    0.000
 6564.00    1.20372   1.07538    0.000
 6565.00    1.17438   1.08306    0.000
 6566.00    1.14315   1.08895    0.000
 6567.00    1.13006   1.09530    0.000
 6568.00    1.12894   1.09995    0.000
 6569.00    1.11675   1.10510    0.000
 6570.00    1.09817   1.11002    0.000
 6571.00    1.10873   1.11355    0.000
 6572.00    1.13393   1.11791    0.000
 6573.00    1.16895   1.12014    0.000
 6574.00    1.20824   1.12292    0.000
 6575.00    1.21512   1.12459    0.000
 6576.00    1.20989   1.12587    0.000
 6577.00    1.20786   1.12794    0.000
 6578.00    1.20684   1.12837    0.000
 6579.00    1.23002   1.12910    0.000
 6580.00    1.25960   1.12863    0.000
 6581.00    1.27924   1.12849    0.000
 6582.00    1.29672   1.12896    0.000
 6583.00    1.26206   1.12922    0.000
 6584.00    1.21846   1.12991    0.000
 6585.00    1.19152   1.12999    0.000
 6586.00    1.16676   1.13002    0.000
 6587.00    1.16417   1.13048    0.000
 6588.00    1.16360   1.13135    0.000
 6589.00    1.17142   1.13266    0.000
 6590.00    1.17971   1.13347    0.000
 6591.00    1.18545   1.13349    0.000
 6592.00    1.19102   1.13393    0.000
 6593.00    1.18423   1.13438    0.000
 6594.00    1.17712   1.13529    0.000
 6595.00    1.16265   1.13602    0.000
 6596.00    1.14813   1.13597    0.000
 6597.00    1.13302   1.13671    0.000
 6598.00    1.12012   1.13715    0.000
 6599.00    1.12606   1.13837    0.000
 6600.00    1.13394   1.13972    0.000
 6601.00    1.15408   1.14033    0.000
 6602.00    1.17219   1.14157    0.000
 6603.00    1.18013   1.14225    0.000
 6604.00    1.18501   1.14372    0.000
 6605.00    1.17752   1.14496    0.000
 6606.00    1.16464   1.14504    0.000
 6607.00    1.13372   1.14518    0.000
 6608.00    1.11044   1.14484    0.000
 6609.00    1.10882   1.14492    0.016
 6610.00    1.11954   1.14464    0.016
 6611.00    1.16012   1.14331    0.016
 6612.00    1.18126   1.14188    0.017
 6613.00    1.16182   1.14050    0.017
 6614.00    1.13739   1.13929    0.017
 6615.00    1.10390   1.13834    0.017
 6616.00    1.08705   1.13693    0.017
 6617.00    1.09659   1.13539    0.017
 6618.00    1.10913   1.13426    0.017
 6619.00    1.12586   1.13341    0.016
 6620.00    1.14305   1.13316    0.016
 6621.00    1.16078   1.13276    0.017
 6622.00    1.18252   1.13215    0.016
 6623.00    1.20859   1.13200    0.016
 6624.00    1.21133   1.13222    0.016
 6625.00    1.19185   1.13276    0.016
 6626.00    1.16928   1.13312    0.016
 6627.00    1.14411   1.13308    0.016
 6628.00    1.12367   1.13339    0.016
 6629.00    1.10672   1.13401    0.016
 6630.00    1.09465   1.13469    0.016
 6631.00    1.08574   1.13510    0.016
 6632.00    1.10411   1.13493    0.016
 6633.00    1.13797   1.13507    0.016
 6634.00    1.14174   1.13551    0.016
 6635.00    1.13061   1.13588    0.016
 6636.00    1.12751   1.13591    0.016
 6637.00    1.12783   1.13551    0.016
 6638.00    1.12699   1.13535    0.016
 6639.00    1.12574   1.13542    0.016
 6640.00    1.11911   1.13511    0.016
 6641.00    1.11081   1.13443    0.016
 6642.00    1.11876   1.13378    0.016
 6643.00    1.13093   1.13303    0.016
 6644.00    1.13348   1.13240    0.016
 6645.00    1.13401   1.13121    0.016
 6646.00    1.13987   1.12992    0.016
 6647.00    1.14662   1.12890    0.016
 6648.00    1.16428   1.12773    0.016
 6649.00    1.18331   1.12694    0.016
 6650.00    1.20219   1.12562    0.016
 6651.00    1.22107   1.12459    0.016
 6652.00    1.21385   1.12388    0.016
 6653.00    1.20530   1.12333    0.016
 6654.00    1.19665   1.12338    0.016
 6655.00    1.18808   1.12279    0.016
 6656.00    1.18455   1.12218    0.016
 6657.00    1.18083   1.12191    0.016
 6658.00    1.17312   1.12173    0.017
 6659.00    1.16716   1.12183    0.017
 6660.00    1.18240   1.12114    0.017
 6661.00    1.19686   1.11933    0.017
 6662.00    1.20481   1.11835    0.017
 6663.00    1.20935   1.11752    0.017
 6664.00    1.19281   1.11712    0.017
 6665.00    1.17141   1.11627    0.017
 6666.00    1.12635   1.11386    0.016
 6667.00    1.08792   1.11314    0.016
 6668.00    1.07570   1.11321    0.016
 6669.00    1.07210   1.11433    0.016
 6670.00    1.09681   1.11509    0.016
 6671.00    1.11601   1.11447    0.015
 6672.00    1.11989   1.11547    0.016
 6673.00    1.12199   1.11723    0.016
 6674.00    1.11984   1.11955    0.016
 6675.00    1.11981   1.12108    0.016
 6676.00    1.12410   1.12164    0.016
 6677.00    1.12575   1.12286    0.016
 6678.00    1.12267   1.12427    0.016
 6679.00    1.12074   1.12549    0.017
 6680.00    1.12060   1.12591    0.017
 6681.00    1.11286   1.12606    0.016
 6682.00    1.09470   1.12635    0.017
 6683.00    1.08913   1.12665    0.017
 6684.00    1.09877   1.12704    0.017
 6685.00    1.12005   1.12666    0.017
 6686.00    1.15371   1.12654    0.017
 6687.00    1.16734   1.12667    0.016
 6688.00    1.16217   1.12656    0.016
 6689.00    1.16249   1.12692    0.016
 6690.00    1.16736   1.12665    0.016
 6691.00    1.16803   1.12644    0.016
 6692.00    1.16566   1.12635    0.016
 6693.00    1.15953   1.12586    0.016
 6694.00    1.15100   1.12551    0.016
 6695.00    1.14544   1.12497    0.016
 6696.00    1.14154   1.12405    0.000
 6697.00    1.12129   1.12284    0.000
 6698.00    1.09307   1.12165    0.000
 6699.00    1.09493   1.11995    0.000
 6700.00    1.10944   1.11852    0.000
 6701.00    1.12064   1.11694    0.000
 6702.00    1.13066   1.11512    0.000
 6703.00    1.12998   1.11419    0.000
 6704.00    1.12603   1.11250    0.000
 6705.00    1.13992   1.11126    0.000
 6706.00    1.15832   1.11044    0.000
 6707.00    1.17005   1.10986    0.000
 6708.00    1.18041   1.11064    0.000
 6709.00    1.17862   1.11070    0.000
 6710.00    1.17485   1.11079    0.000
 6711.00    1.16339   1.11152    0.000
 6712.00    1.15099   1.11263    0.000
 6713.00    1.15712   1.11443    0.000
 6714.00    1.16478   1.11563    0.000
 6715.00    1.20990   1.11638    0.000
 6716.00    1.25680   1.11745    0.000
 6717.00    1.26432   1.11858    0.000
 6718.00    1.27083   1.11954    0.000
 6719.00    1.25192   1.12029    0.000
 6720.00    1.23325   1.12070    0.000
 6721.00    1.21934   1.12071    0.000
 6722.00    1.20608   1.12048    0.000
 6723.00    1.20017   1.12010    0.000
 6724.00    1.19573   1.11972    0.000
 6725.00    1.20309   1.11963    0.000
 6726.00    1.20753   1.11853    0.000
 6727.00    1.19452   1.11700    0.000
 6728.00    1.18294   1.11615    0.000
 6729.00    1.17812   1.11507    0.000
 6730.00    1.17798   1.11477    0.000
 6731.00    1.19594   1.11350    0.000
 6732.00    1.21039   1.11165    0.000
 6733.00    1.21352   1.11140    0.000
 6734.00    1.20491   1.11057    0.000
 6735.00    1.16431   1.11062    0.000
 6736.00    1.13079   1.11025    0.000
 6737.00    1.11381   1.10913    0.000
 6738.00    1.10771   1.11027    0.000
 6739.00    1.12364   1.11060    0.000
 6740.00    1.14040   1.11163    0.000
 6741.00    1.15865   1.11270    0.000
 6742.00    1.16742   1.11288    0.000
 6743.00    1.16162   1.11517    0.000
 6744.00    1.16171   1.11671    0.000
 6745.00    1.16979   1.11806    0.000
 6746.00    1.16581   1.11947    0.000
 6747.00    1.14748   1.12025    0.000
 6748.00    1.13183   1.12195    0.000
 6749.00    1.11900   1.12316    0.000
 6750.00    1.13120   1.12342    0.000
 6751.00    1.16658   1.12355    0.000
 6752.00    1.19539   1.12394    0.000
 6753.00    1.21885   1.12448    0.018
 6754.00    1.21448   1.12479    0.018
 6755.00    1.19012   1.12434    0.018
 6756.00    1.16355   1.12408    0.018
 6757.00    1.13560   1.12465    0.018
 6758.00    1.13590   1.12537    0.018
 6759.00    1.15175   1.12589    0.018
 6760.00    1.20120   1.12597    0.018
 6761.00    1.26673   1.12638    0.019
 6762.00    1.29875   1.12713    0.030
 6763.00    1.31689   1.12786    0.143
 6764.00    1.38322   1.12813   -1.000
 6765.00    1.46658   1.12787   -1.000
 6766.00    1.52466   1.12763   -1.000
 6767.00    1.57520   1.12697   -1.000
 6768.00    1.57045   1.12621   -1.000
 6769.00    1.55200   1.12518   -1.000
 6770.00    1.50703   1.12371   -1.000
 6771.00    1.45673   1.12251   -1.000
 6772.00    1.37585   1.12082    0.041
 6773.00    1.29017   1.11932    0.019
 6774.00    1.25308   1.11825    0.018
 6775.00    1.22165   1.11711    0.017
 6776.00    1.16513   1.11675    0.017
 6777.00    1.10664   1.11595    0.017
 6778.00    1.12657   1.11553    0.017
 6779.00    1.14992   1.11569    0.018
 6780.00    1.17802   1.11583    0.018
 6781.00    1.20481   1.11692    0.018
 6782.00    1.16838   1.11715    0.018
 6783.00    1.13391   1.11774    0.018
 6784.00    1.13515   1.11894    0.018
 6785.00    1.13844   1.11953    0.018
 6786.00    1.16422   1.12105    0.018
 6787.00    1.18793   1.12170    0.018
 6788.00    1.19564   1.12217    0.018
 6789.00    1.20516   1.12361    0.018
 6790.00    1.22524   1.12396    0.019
 6791.00    1.24273   1.12468    0.019
 6792.00    1.24820   1.12540    0.019
 6793.00    1.25425   1.12520    0.019
 6794.00    1.26253   1.12590    0.019
 6795.00    1.26023   1.12605    0.018
 6796.00    1.22452   1.12567    0.018
 6797.00    1.20235   1.12629    0.017
 6798.00    1.21640   1.12593    0.017
 6799.00    1.21650   1.12568    0.017
 6800.00    1.18452   1.12611    0.017
 6801.00    1.16251   1.12568    0.017
 6802.00    1.16033   1.12628    0.017
 6803.00    1.16324   1.12649    0.017
 6804.00    1.17497   1.12598    0.018
 6805.00    1.18792   1.12686    0.018
 6806.00    1.20272   1.12721    0.018
 6807.00    1.20411   1.12778    0.018
 6808.00    1.18764   1.12829    0.018
 6809.00    1.16994   1.12794    0.018
 6810.00    1.15082   1.12880    0.018
 6811.00    1.15517   1.12933    0.018
 6812.00    1.18384   1.12943    0.019
 6813.00    1.22464   1.12953    0.019
 6814.00    1.27652   1.12903    0.019
 6815.00    1.27630   1.12943    0.019
 6816.00    1.23417   1.12934    0.019
 6817.00    1.19058   1.12864    0.018
 6818.00    1.14595   1.12829    0.017
 6819.00    1.15082   1.12763    0.017
 6820.00    1.18643   1.12744    0.017
 6821.00    1.20795   1.12677    0.017
 6822.00    1.22183   1.12548    0.017
 6823.00    1.22155   1.12490    0.017
 6824.00    1.21461   1.12431    0.016
 6825.00    1.20359   1.12356    0.017
 6826.00    1.19092   1.12267    0.017
 6827.00    1.20265   1.12156    0.017
 6828.00    1.22286   1.12103    0.018
 6829.00    1.23051   1.12088    0.018
 6830.00    1.23449   1.12021    0.019
 6831.00    1.24056   1.11968    0.019
 6832.00    1.24713   1.11958    0.019
 6833.00    1.24836   1.11955    0.018
 6834.00    1.24855   1.11988    0.018
 6835.00    1.24680   1.11966    0.018
 6836.00    1.24476   1.11933    0.018
 6837.00    1.25629   1.11973    0.018
 6838.00    1.26934   1.11968    0.018
 6839.00    1.29103   1.11952    0.018
 6840.00    1.31337   1.11924    0.019
 6841.00    1.29152   1.11849    0.018
 6842.00    1.26791   1.11835    0.018
 6843.00    1.21586   1.11795    0.017
 6844.00    1.16575   1.11711    0.017
 6845.00    1.20002   1.11679    0.017
 6846.00    1.23140   1.11621    0.017
 6847.00    1.21401   1.11578    0.017
 6848.00    1.20034   1.11565    0.017
 6849.00    1.22556   1.11522    0.018
 6850.00    1.24590   1.11520    0.018
 6851.00    1.22997   1.11533    0.018
 6852.00    1.21385   1.11523    0.018
 6853.00    1.19673   1.11558    0.018
 6854.00    1.18386   1.11595    0.017
 6855.00    1.19021   1.11614    0.018
 6856.00    1.19378   1.11659    0.018
 6857.00    1.18703   1.11686    0.018
 6858.00    1.17649   1.11752    0.018
 6859.00    1.15417   1.11851    0.017
 6860.00    1.14223   1.11893    0.017
 6861.00    1.15757   1.11950    0.017
 6862.00    1.16835   1.12015    0.017
 6863.00    1.16881   1.12108    0.017
 6864.00    1.16898   1.12233    0.017
 6865.00    1.16857   1.12300    0.017
 6866.00    1.16655   1.12380    0.018
 6867.00    1.16178   1.12460    0.018
 6868.00    1.16180   1.12560    0.018
 6869.00    1.16899   1.12692    0.018
 6870.00    1.17171   1.12765    0.018
 6871.00    1.16855   1.12884    0.018
 6872.00    1.17095   1.12988    0.018
 6873.00    1.17979   1.13097    0.018
 6874.00    1.18494   1.13278    0.018
 6875.00    1.18632   1.13375    0.017
 6876.00    1.17902   1.13499    0.017
 6877.00    1.16391   1.13646    0.018
 6878.00    1.17505   1.13756    0.017
 6879.00    1.20701   1.13926    0.017
 6880.00    1.20856   1.14028    0.017
 6881.00    1.18887   1.14074    0.017
 6882.00    1.16509   1.14192    0.017
 6883.00    1.13880   1.14288    0.017
 6884.00    1.13553   1.14358    0.017
 6885.00    1.14455   1.14424    0.017
 6886.00    1.16054   1.14426    0.017
 6887.00    1.17975   1.14498    0.017
 6888.00    1.18350   1.14598    0.017
 6889.00    1.18107   1.14598    0.017
 6890.00    1.16085   1.14646    0.018
 6891.00    1.13456   1.14693    0.018
 6892.00    1.16065   1.14728    0.018
 6893.00    1.20175   1.14803    0.018
 6894.00    1.19867   1.14783    0.018
 6895.00    1.18513   1.14783    0.018
 6896.00    1.19722   1.14854    0.018
 6897.00    1.21421   1.14832    0.018
 6898.00    1.20542   1.14809    0.018
 6899.00    1.19282   1.14800    0.017
 6900.00    1.20022   1.14734    0.017
 6901.00    1.20977   1.14759    0.017
 6902.00    1.21778   1.14729    0.017
 6903.00    1.22567   1.14649    0.018
 6904.00    1.20762   1.14675    0.017
 6905.00    1.18864   1.14611    0.017
 6906.00    1.18271   1.14584    0.017
 6907.00    1.17601   1.14594    0.017
 6908.00    1.14102   1.14561    0.017
 6909.00    1.10698   1.14594    0.017
 6910.00    1.08787   1.14576    0.017
 6911.00    1.07041   1.14564    0.017
 6912.00    1.06947   1.14591    0.017
 6913.00    1.07034   1.14626    0.017
 6914.00    1.08424   1.14643    0.018
 6915.00    1.09548   1.14677    0.018
 6916.00    1.09206   1.14758    0.017
 6917.00    1.09792   1.14793    0.017
 6918.00    1.14469   1.14869    0.018
 6919.00    1.17762   1.14900    0.018
 6920.00    1.16042   1.14976    0.017
 6921.00    1.14918   1.15118    0.017
 6922.00    1.15602   1.15150    0.017
 6923.00    1.16552   1.15223    0.017
 6924.00    1.18188   1.15269    0.017
 6925.00    1.19475   1.15329    0.017
 6926.00    1.19987   1.15404    0.017
 6927.00    1.19251   1.15416    0.017
 6928.00    1.16110   1.15465    0.018
 6929.00    1.14603   1.15477    0.018
 6930.00    1.15841   1.15500    0.018
 6931.00    1.16760   1.15479    0.018
 6932.00    1.17209   1.15462    0.018
 6933.00    1.17053   1.15520    0.018
 6934.00    1.16113   1.15492    0.019
 6935.00    1.15884   1.15507    0.019
 6936.00    1.16465   1.15507    0.019
 6937.00    1.17352   1.15490    0.019
 6938.00    1.18545   1.15576    0.018
 6939.00    1.18885   1.15573    0.018
 6940.00    1.18468   1.15600    0.018
 6941.00    1.15675   1.15677    0.018
 6942.00    1.11025   1.15741    0.018
 6943.00    1.11211   1.15844    0.018
 6944.00    1.14724   1.15881    0.018
 6945.00    1.17492   1.15973    0.018
 6946.00    1.19811   1.16080    0.017
 6947.00    1.18882   1.16165    0.018
 6948.00    1.16242   1.16272    0.018
 6949.00    1.14370   1.16318    0.018
 6950.00    1.12849   1.16428    0.018
 6951.00    1.13891   1.16490    0.018
 6952.00    1.15941   1.16463    0.019
 6953.00    1.19097   1.16528    0.019
 6954.00    1.22623   1.16539    0.019
 6955.00    1.20678   1.16510    0.019
 6956.00    1.17198   1.16450    0.018
 6957.00    1.15848   1.16295    0.018
 6958.00    1.14991   1.16241    0.018
 6959.00    1.17953   1.16142    0.018
 6960.00    1.21623   1.15931    0.018
 6961.00    1.24162   1.15782    0.018
 6962.00    1.26539   1.15634    0.017
 6963.00    1.24739   1.15509    0.017
 6964.00    1.22506   1.15333    0.017
 6965.00    1.19972   1.15139    0.018
 6966.00    1.17419   1.15148    0.018
 6967.00    1.18957   1.15145    0.018
 6968.00    1.20625   1.15125    0.018
 6969.00    1.18270   1.15153    0.018
 6970.00    1.15923   1.15183    0.018
 6971.00    1.13840   1.15340    0.018
 6972.00    1.11870   1.15471    0.019
 6973.00    1.11564   1.15582    0.018
 6974.00    1.11553   1.15760    0.018
 6975.00    1.14368   1.15857    0.018
 6976.00    1.16908   1.15988    0.019
 6977.00    1.17539   1.16112    0.018
 6978.00    1.17048   1.16203    0.018
 6979.00    1.10537   1.16329    0.018
 6980.00    1.06426   1.16320    0.018
 6981.00    1.12656   1.16343    0.018
 6982.00    1.17603   1.16400    0.018
 6983.00    1.17995   1.16389    0.018
 6984.00    1.18384   1.16434    0.017
 6985.00    1.18763   1.16356    0.018
 6986.00    1.18667   1.16298    0.018
 6987.00    1.17365   1.16335    0.018
 6988.00    1.16497   1.16303    0.018
 6989.00    1.16576   1.16306    0.018
 6990.00    1.14899   1.16234    0.019
 6991.00    1.09892   1.16193    0.018
 6992.00    1.05766   1.16235    0.018
 6993.00    1.03097   1.16198    0.018
 6994.00    1.03961   1.16168    0.018
 6995.00    1.09955   1.16166    0.018
 6996.00    1.14572   1.16165    0.018
 6997.00    1.17429   1.16126    0.018
 6998.00    1.18087   1.16099    0.019
 6999.00    1.16271   1.16105    0.019
 7000.00    1.15590   1.16112    0.019
 7001.00    1.16034   1.16094    0.019
 7002.00    1.15825   1.15976    0.018
 7003.00    1.15045   1.15993    0.018
 7004.00    1.13554   1.16092    0.018
 7005.00    1.11515   1.16061    0.018
 7006.00    1.11413   1.16053    0.018
 7007.00    1.12623   1.16048    0.018
 7008.00    1.14191   1.16105    0.018
 7009.00    1.15972   1.16202    0.018
 7010.00    1.13494   1.16184    0.019
 7011.00    1.08811   1.16251    0.019
 7012.00    1.10550   1.16396    0.019
 7013.00    1.15172   1.16479    0.020
 7014.00    1.14516   1.16570    0.020
 7015.00    1.11822   1.16647    0.019
 7016.00    1.11151   1.16773    0.019
 7017.00    1.11143   1.16959    0.019
 7018.00    1.14648   1.17099    0.019
 7019.00    1.19118   1.17234    0.019
 7020.00    1.20180   1.17403    0.019
 7021.00    1.20472   1.17584    0.018
 7022.00    1.23186   1.17788    0.018
 7023.00    1.26339   1.17978    0.018
 7024.00    1.24744   1.18112    0.018
 7025.00    1.22493   1.18305    0.019
 7026.00    1.15681   1.18574    0.019
 7027.00    1.08416   1.18794    0.019
 7028.00    1.09165   1.18958    0.019
 7029.00    1.10415   1.19098    0.018
 7030.00    1.08348   1.19222    0.019
 7031.00    1.06198   1.19366    0.019
 7032.00    1.07309   1.19472    0.019
 7033.00    1.08511   1.19468    0.019
 7034.00    1.12197   1.19488    0.019
 7035.00    1.16208   1.19423    0.020
 7036.00    1.24791   1.19221    0.020
 7037.00    1.31587   1.19070    0.020
 7038.00    1.21916   1.18805    0.020
 7039.00    1.13733   1.18530    0.019
 7040.00    1.15580   1.18269    0.019
 7041.00    1.16131   1.17863    0.019
 7042.00    1.09911   1.17571    0.019
 7043.00    1.05490   1.17212    0.019
 7044.00    1.08636   1.16802    0.019
 7045.00    1.12480   1.16524    0.019
 7046.00    1.18752   1.16149    0.019
 7047.00    1.23117   1.15914    0.019
 7048.00    1.21899   1.15736    0.020
 7049.00    1.21806   1.15456    0.020
 7050.00    1.24520   1.15334   -2.000
 7051.00    1.24329   1.15179   -2.000
 7052.00    1.17889   1.15068   -2.000
 7053.00    1.14835   1.15105   -2.000
 7054.00    1.18106   1.15044   -2.000
 7055.00    1.20482   1.15103   -2.000
 7056.00    1.21399   1.15240   -2.000
 7057.00    1.22785   1.15289   -2.000
 7058.00    1.24841   1.15426   -2.000
 7059.00    1.27422   1.15546   -2.000
 7060.00    1.30665   1.15653   -2.000
 7061.00    1.31257   1.15839   -2.000
 7062.00    1.28910   1.15914   -2.000
 7063.00    1.27179   1.15946   -2.000
 7064.00    1.26053   1.16016   -2.000
 7065.00    1.26049   1.15954   -2.000
 7066.00    1.27014   1.15858   -2.000
 7067.00    1.26034   1.15704   -2.000
 7068.00    1.23577   1.15458   -2.000
 7069.00    1.21536   1.15280   -2.000
 7070.00    1.19773   1.14924   -2.000
 7071.00    1.27786   1.14528   -2.000
 7072.00    1.41518   1.14269   -2.000
 7073.00    1.38746   1.13839   -2.000
 7074.00    1.27560   1.13469   -2.000
 7075.00    1.22976   1.13117   -2.000
 7076.00    1.21307   1.12690   -2.000
 7077.00    1.27214   1.12542   -2.000
 7078.00    1.35995   1.12271   -2.000
 7079.00    1.34101   1.11968   -2.000
 7080.00    1.28771   1.11912   -2.000
 7081.00    1.28469   1.11725   -2.000
 7082.00    1.29523   1.11703   -2.000
 7083.00    1.30493   1.11740   -2.000
 7084.00    1.31446   1.11632   -2.000
 7085.00    1.24318   1.11746   -2.000
 7086.00    1.15770   1.11773   -2.000
 7087.00    1.15013   1.11820   -2.000
 7088.00    1.15301   1.11972   -2.000
 7089.00    1.15679   1.11947   -2.000
 7090.00    1.16067   1.12072   -2.000
 7091.00    1.20097   1.12212   -2.000
 7092.00    1.24341   1.12239   -2.000
 7093.00    1.20258   1.12303   -2.000
 7094.00    1.16043   1.12310   -2.000
 7095.00    1.21815   1.12382   -2.000
 7096.00    1.27171   1.12538   -2.000
 7097.00    1.22190   1.12537   -2.000
 7098.00    1.17317   1.12539   -2.000
 7099.00    1.13879   1.12650   -2.000
 7100.00    1.11396   1.12702   -2.000
 7101.00    1.17376   1.12732   -2.000
 7102.00    1.21801   1.12735   -2.000
 7103.00    1.16073   1.12728   -2.000
 7104.00    1.11337   1.12814   -2.000
 7105.00    1.11661   1.12769   -2.000
 7106.00    1.10950   1.12691   -2.000
 7107.00    1.05980   1.12695   -2.000
 7108.00    1.02644   1.12531   -2.000
 7109.00    1.04881   1.12381   -2.000
 7110.00    1.08506   1.12248   -2.000
 7111.00    1.16114   1.12054   -2.000
 7112.00    1.22306   1.11912   -2.000
 7113.00    1.25024   1.11623   -2.000
 7114.00    1.24581   1.11401   -2.000
 7115.00    1.17450   1.11325   -2.000
 7116.00    1.12926   1.11074   -2.000
 7117.00    1.13195   1.10878   -2.000
 7118.00    1.14720   1.10786   -2.000
 7119.00    1.18262   1.10708   -2.000
 7120.00    1.21166   1.10730   -2.000
 7121.00    1.23170   1.10642   -2.000
 7122.00    1.24167   1.10575   -2.000
 7123.00    1.23917   1.10714   -2.000
 7124.00    1.23323   1.10804   -2.000
 7125.00    1.22352   1.10859   -2.000
 7126.00    1.24743   1.10944   -2.000
 7127.00    1.30376   1.11027   -2.000
 7128.00    1.30673   1.11156   -2.000
 7129.00    1.26433   1.11273   -2.000
 7130.00    1.26099   1.11294   -2.000
 7131.00    1.28691   1.11327   -2.000
 7132.00    1.26520   1.11520   -2.000
 7133.00    1.21213   1.11590   -2.000
 7134.00    1.15531   1.11607   -2.000
 7135.00    1.09631   1.11754   -2.000
 7136.00    1.12451   1.11829   -2.000
 7137.00    1.19647   1.11981   -2.000
 7138.00    1.23517   1.12079   -2.000
 7139.00    1.25942   1.12092   -2.000
 7140.00    1.24379   1.12345   -2.000
 7141.00    1.21329   1.12501   -2.000
 7142.00    1.21951   1.12564   -2.000
 7143.00    1.23732   1.12727   -2.000
 7144.00    1.18322   1.12865   -2.000
 7145.00    1.11014   1.13049   -2.000
 7146.00    1.15679   1.13131   -2.000
 7147.00    1.22925   1.13161   -2.000
 7148.00    1.23003   1.13325   -2.000
 7149.00    1.21855   1.13450   -2.000
 7150.00    1.17250   1.13534   -2.000
 7151.00    1.12197   1.13620   -2.000
 7152.00    1.13000   1.13704   -2.000
 7153.00    1.14336   1.13860   -2.000
 7154.00    1.14998   1.13990   -2.000
 7155.00    1.15623   1.14071   -2.000
 7156.00    1.17905   1.14178   -2.000
 7157.00    1.20222   1.14330   -2.000
 7158.00    1.22410   1.14494   -2.000
 7159.00    1.24913   1.14567   -2.000
 7160.00    1.34579   1.14648   -2.000
 7161.00    1.43822   1.14779   -2.000
 7162.00    1.47735   1.14825   -2.000
 7163.00    1.50366   1.14861   -2.000
 7164.00    1.42059   1.14842   -2.000
 7165.00    1.34176   1.14820   -2.000
 7166.00    1.28982   1.14910   -2.000
 7167.00    1.24036   1.14779   -2.000
 7168.00    1.20318   1.14673   -2.000
 7169.00    1.19825   1.14714   -2.000
 7170.00    1.32310   1.14546   -2.000
 7171.00    1.39775   1.14464   -2.000
 7172.00    1.30473   1.14362   -2.000
 7173.00    1.21349   1.14223   -2.000
 7174.00    1.12724   1.14340   -2.000
 7175.00    1.07625   1.14201   -2.000
 7176.00    1.11029   1.14082   -2.000
 7177.00    1.14447   1.14152   -2.000
 7178.00    1.17897   1.14083   -2.000
 7179.00    1.21754   1.14127   -2.000
 7180.00    1.26346   1.14117   -2.000
 7181.00    1.29017   1.14108   -2.000
 7182.00    1.28647   1.14269   -2.000
 7183.00    1.25769   1.14294   -2.000
 7184.00    1.19408   1.14291   -2.000
 7185.00    1.14094   1.14321   -2.000
 7186.00    1.10062   1.14403   -2.000
 7187.00    1.12321   1.14445   -2.000
 7188.00    1.21360   1.14430   -2.000
 7189.00    1.25383   1.14439   -2.000
 7190.00    1.24636   1.14410   -2.000
 7191.00    1.19835   1.14485   -2.000
 7192.00    1.11634   1.14463   -2.000
 7193.00    1.08745   1.14412   -2.000
 7194.00    1.09777   1.14544   -2.000
 7195.00    1.10395   1.14519   -2.000
 7196.00    1.10745   1.14564   -2.000
 7197.00    1.05552   1.14688   -2.000
 7198.00    0.97216   1.14698   -2.000
 7199.00    1.01125   1.14888   -2.000
 7200.00    1.11081   1.15051   -2.000
 7201.00    1.20795   1.15177   -2.000
 7202.00    1.30404   1.15455   -2.000
 7203.00    1.31659   1.15617   -2.000
 7204.00    1.29857   1.15787   -2.000
 7205.00    1.18168   1.16086   -2.000
 7206.00    1.03417   1.16297   -2.000
 7207.00    1.03653   1.16528   -2.000
 7208.00    1.07756   1.16788   -2.000
 7209.00    1.09620   1.16998   -2.000
 7210.00    1.11012   1.17283   -2.000
 7211.00    1.06894   1.17460   -2.000
 7212.00    1.01860   1.17619   -2.000
 7213.00    1.05879   1.17909   -2.000
 7214.00    1.11030   1.18070   -2.000
 7215.00    1.16533   1.18245   -2.000
 7216.00    1.22067   1.18419   -2.000
 7217.00    1.12202   1.18521   -2.000
 7218.00    1.01555   1.18725   -2.000
