###################################################################
## OUTPUT of StarlightChains_v04.for    [Cid@UFSC - 01/Apr/2007] ##
###################################################################

## Some input info
KUG0210-078._37_34.txt                   [arq_obs]
Base.CB07.vall.4m                        [arq_base]
Masks.EmLines.NEW.gm                     [arq_masks]
StCv04.C11.config                        [arq_config]
   66                                    [N_base]
    0                                    [N_YAV_components = # of components with extra extinction!]
    0                                    [i_FitPowerLaw (1/0 = Yes/No)]
-9.99                                    [alpha_PowerLaw]
CCM                                      [red_law_option]
 1.458241                                [q_norm = A(l_norm)/A(V)]

## (Re)Sampling Parameters
 3741.00                                 [l_ini (A)]
 7218.00                                 [l_fin (A)]
    1.00                                 [dl    (A)]     (OBS: dl_cushion =    50.00 A)

## Normalization info
 4020.00                                 [l_norm (A) - for base]
 4010.00                                 [llow_norm (A) - window for f_obs]
 4060.00                                 [lupp_norm (A) - window for f_obs]
2.396871E-17                             [fobs_norm (in input units)]

## S/N
 3691.00                                 [llow_SN (A) - window for S/N]
 7268.00                                 [lupp_SN (A) - window for S/N]
   4.948                                 [S/N in S/N window]
   4.424                                 [S/N in norm. window]
   0.032                                 [S/N_err in S/N window]
   0.029                                 [S/N_err in norm. window]
  1.0000                                 [fscale_chi2]

## etc...
    -2007628                             [idum_orig]
  2432                                   [NOl_eff]
  2415                                   [Nl_eff]
    17    NSIGMA                         [Ntot_cliped & clip_method]
  4745510                                [Nglobal_steps]
   7                                     [N_chains]
  14                                     [NEX0s_base = N_base in EX0s-fits]
 0   1   1       18   2.0   4.220E+03    [Clip-Bug, RC-Crash & Burn-In warning-flags, n_censored_weights, wei_nsig_threshold & wei_limit]
    87     82.632     81.807      0.824  [idt_all, wdt_TotTime, wdt_UsrTime & wdt_SysTime (sec)]

## Synthesis Results - Best model ##

 4.62446E-02                             [chi2/Nl_eff]
     7.71829                             [adev (%)]

   103.96574                             [sum-of-x (%)]
 7.86500E-18                             [Flux_tot (units of input spectrum!)]
 1.20621E-12                             [Mini_tot (???)]
 6.00374E-13                             [Mcor_tot (???)]

-479.00                                  [v0_min  (km/s)]
 322.33                                  [vd_min  (km/s)]
-0.8586                                  [AV_min  (mag)]
 0.0000                                  [YAV_min (mag)]

# j     x_j(%)      Mini_j(%)     Mcor_j(%)     age_j(yr)     Z_j      (L/M)_j    YAV?  Mstars   component_j        a/Fe...       SSP_chi2r SSP_adev(%)   SSP_AV   SSP_x(%)
  1      0.0000     0.0000E+00    0.0000E+00    1.000000E+06  0.00400  1.094E-02    0   1.0000   age020_m42            0.0000     9.5071E-05    22.9383   3.0503   118.2453
  2      0.0000     0.0000E+00    0.0000E+00    3.160000E+06  0.00400  4.007E-02    0   0.9999   age045_m42            0.0000     8.0475E-05    21.0091   2.3282   125.0733
  3      0.0000     0.0000E+00    0.0000E+00    5.010000E+06  0.00400  2.539E-02    0   0.9488   age055_m42            0.0000     8.4020E-05    21.5646   2.6621   121.5116
  4      0.0000     0.0000E+00    0.0000E+00    6.610000E+06  0.00400  2.620E-02    0   0.9220   age061_m42            0.0000     7.7465E-05    20.6421   2.2728   124.1446
  5      0.0000     0.0000E+00    0.0000E+00    1.000000E+07  0.00400  1.322E-02    0   0.8862   age070_m42            0.0000     8.5078E-05    22.2698   2.0258   125.8253
  6      0.0000     0.0000E+00    0.0000E+00    1.445000E+07  0.00400  7.883E-03    0   0.8571   age078_m42            0.0000     8.8673E-05    22.7079   2.3437   123.3404
  7      0.0000     0.0000E+00    0.0000E+00    2.512000E+07  0.00400  5.251E-03    0   0.8174   age090_m42            0.0000     8.4755E-05    22.3502   1.9061   125.9705
  8      0.0000     0.0000E+00    0.0000E+00    4.000000E+07  0.00400  3.649E-03    0   0.7851   age104_m42            0.0000     7.9703E-05    21.6045   1.6814   126.3820
  9      0.0000     0.0000E+00    0.0000E+00    5.500000E+07  0.00400  3.098E-03    0   0.7629   age110_m42            0.0000     7.6447E-05    20.7069   1.8079   127.4876
 10      0.0000     0.0000E+00    0.0000E+00    1.015200E+08  0.00400  2.228E-03    0   0.7207   age116_m42            0.0000     7.2223E-05    19.8277   1.8220   127.6417
 11      0.0000     0.0000E+00    0.0000E+00    2.861200E+08  0.00400  1.093E-03    0   0.6648   age125_m42            0.0000     6.7417E-05    19.2835   1.2853   129.0429
 12      0.0000     0.0000E+00    0.0000E+00    5.088000E+08  0.00400  6.597E-04    0   0.6365   age130_m42            0.0000     6.1139E-05    17.8606   1.2602   130.2646
 13      0.0000     0.0000E+00    0.0000E+00    1.434000E+09  0.00400  2.132E-04    0   0.5798   age139_m42            0.0000     4.3172E-05    15.3630   0.3525   127.3923
 14      0.0000     0.0000E+00    0.0000E+00    4.250000E+09  0.00400  5.895E-05    0   0.5377   age158_m42            0.0000     3.2098E-05    13.2843  -0.0234   117.2573
 15      0.0000     0.0000E+00    0.0000E+00    7.500000E+09  0.00400  3.510E-05    0   0.5212   age171_m42            0.0000     2.8983E-05    12.4711  -0.1986   115.2865
 16      0.1266     3.9616E-02    4.0066E-02    1.300000E+10  0.00400  2.005E-05    0   0.5034   age193_m42            0.0000     2.7771E-05    11.9687  -0.3669   114.4833
 17      0.0000     0.0000E+00    0.0000E+00    1.800000E+10  0.00400  1.525E-05    0   0.4967   age213_m42            0.0000     2.8098E-05    12.1186  -0.3839   113.7227
 18      0.0000     0.0000E+00    0.0000E+00    1.000000E+06  0.00800  1.238E-02    0   1.0000   age020_m52            0.0000     9.4514E-05    22.8587   3.0481   118.3312
 19      0.0000     0.0000E+00    0.0000E+00    3.160000E+06  0.00800  3.074E-02    0   0.9966   age045_m52            0.0000     9.2012E-05    22.5675   2.9763   118.9774
 20      0.0000     0.0000E+00    0.0000E+00    5.010000E+06  0.00800  2.668E-02    0   0.9443   age055_m52            0.0000     8.5320E-05    21.7604   2.7466   120.3827
 21      0.0000     0.0000E+00    0.0000E+00    6.610000E+06  0.00800  2.136E-02    0   0.9177   age061_m52            0.0000     7.6874E-05    21.3117   1.5529   125.0067
 22      0.0000     0.0000E+00    0.0000E+00    1.000000E+07  0.00800  1.215E-02    0   0.8827   age070_m52            0.0000     8.9008E-05    22.9923   2.2144   125.3457
 23      0.0000     0.0000E+00    0.0000E+00    1.445000E+07  0.00800  8.717E-03    0   0.8552   age078_m52            0.0000     8.6307E-05    22.4670   2.3163   124.5304
 24      0.0000     0.0000E+00    0.0000E+00    2.512000E+07  0.00800  5.592E-03    0   0.8162   age090_m52            0.0000     8.2927E-05    22.1649   1.9755   126.9501
 25      0.0000     0.0000E+00    0.0000E+00    4.000000E+07  0.00800  3.896E-03    0   0.7841   age104_m52            0.0000     7.6684E-05    21.1839   1.8892   127.2353
 26      0.0000     0.0000E+00    0.0000E+00    1.015200E+08  0.00800  2.148E-03    0   0.7226   age116_m52            0.0000     6.8704E-05    19.7093   1.8220   126.5241
 27      0.0000     0.0000E+00    0.0000E+00    2.861200E+08  0.00800  9.925E-04    0   0.6683   age125_m52            0.0000     5.7475E-05    17.4569   1.3420   130.1503
 28      0.0000     0.0000E+00    0.0000E+00    9.047900E+08  0.00800  3.141E-04    0   0.6138   age135_m52            0.0000     3.8122E-05    14.2309   0.5823   130.9703
 29      0.0000     0.0000E+00    0.0000E+00    1.434000E+09  0.00800  1.719E-04    0   0.5853   age139_m52            0.0000     3.1206E-05    12.3087  -0.0000   123.8920
 30      0.0197     1.5723E-03    1.7690E-03    2.500000E+09  0.00800  7.872E-05    0   0.5600   age150_m52            0.0000     2.3579E-05    11.3908  -0.1523   116.3953
 31      0.0000     0.0000E+00    0.0000E+00    4.250000E+09  0.00800  4.336E-05    0   0.5426   age158_m52            0.0000     2.3553E-05    11.3536  -0.1610   114.8476
 32      0.0001     2.6320E-05    2.8126E-05    6.250000E+09  0.00800  3.159E-05    0   0.5319   age166_m52            0.0000     1.9963E-05    10.2710  -0.3437   113.1460
 33      2.4614     1.1343E+00    1.1561E+00    1.300000E+10  0.00800  1.361E-05    0   0.5073   age193_m52            0.0000     1.6548E-05     9.0624  -0.7721   109.4736
 34      4.0012     2.5384E+00    2.5448E+00    1.800000E+10  0.00800  9.886E-06    0   0.4990   age213_m52            0.0000     1.5078E-05     8.3377  -0.8706   108.0119
 35      0.0000     0.0000E+00    0.0000E+00    1.000000E+06  0.02000  1.544E-02    0   1.0000   age020_m62            0.0000     9.5532E-05    22.9945   3.0421   118.8023
 36      0.0000     0.0000E+00    0.0000E+00    3.160000E+06  0.02000  3.762E-02    0   0.9858   age045_m62            0.0000     9.5580E-05    22.9935   2.9786   120.0107
 37      0.0000     0.0000E+00    0.0000E+00    5.010000E+06  0.02000  3.296E-02    0   0.9342   age055_m62            0.0000     8.0309E-05    20.9630   2.6178   122.9569
 38      0.0000     0.0000E+00    0.0000E+00    8.710000E+06  0.02000  1.154E-02    0   0.8861   age067_m62            0.0000     1.1518E-04    27.1574   1.7147   128.1747
 39      0.0000     3.7862E-08    6.4446E-08    1.445000E+07  0.02000  7.663E-03    0   0.8472   age078_m62            0.0000     9.3054E-05    23.8520   1.8810   127.3391
 40      0.0000     0.0000E+00    0.0000E+00    2.512000E+07  0.02000  4.532E-03    0   0.8099   age090_m62            0.0000     9.1225E-05    23.6289   1.8846   126.0996
 41      0.0000     0.0000E+00    0.0000E+00    5.500000E+07  0.02000  2.733E-03    0   0.7595   age110_m62            0.0000     7.4797E-05    20.9658   1.8846   125.4243
 42      0.0000     0.0000E+00    0.0000E+00    1.609000E+08  0.02000  1.369E-03    0   0.6985   age120_m62            0.0000     6.4712E-05    18.7948   1.7028   129.0042
 43      0.0000     0.0000E+00    0.0000E+00    2.861200E+08  0.02000  9.013E-04    0   0.6714   age125_m62            0.0000     5.8583E-05    17.4011   1.4429   132.6614
 44      0.0000     0.0000E+00    0.0000E+00    5.088000E+08  0.02000  5.028E-04    0   0.6449   age130_m62            0.0000     4.7103E-05    15.1619   1.0555   135.2959
 45      0.0000     0.0000E+00    0.0000E+00    9.047900E+08  0.02000  2.428E-04    0   0.6179   age135_m62            0.0000     2.9238E-05    12.5712   0.5755   125.9655
 46      0.0000     0.0000E+00    0.0000E+00    1.434000E+09  0.02000  1.263E-04    0   0.5908   age139_m62            0.0000     2.2565E-05    11.3547   0.2200   117.9748
 47      0.0000     0.0000E+00    0.0000E+00    2.500000E+09  0.02000  5.985E-05    0   0.5673   age150_m62            0.0000     1.8612E-05    10.0802  -0.1090   113.4634
 48      0.0000     0.0000E+00    0.0000E+00    4.250000E+09  0.02000  3.271E-05    0   0.5468   age158_m62            0.0000     1.5494E-05     8.7817  -0.3889   110.4314
 49      3.4073     1.5713E+00    1.6312E+00    1.000000E+10  0.02000  1.360E-05    0   0.5167   age181_m62            0.0000     1.4230E-05     7.7021  -0.6754   105.8571
 50      2.4778     2.1814E+00    2.1970E+00    1.800000E+10  0.02000  7.124E-06    0   0.5013   age213_m62            0.0000     1.5257E-05     7.3648  -0.8452   102.4866
 51      0.0000     0.0000E+00    0.0000E+00    1.000000E+06  0.05000  2.592E-02    0   0.9998   age020_m72            0.0000     9.6014E-05    23.0788   3.0385   118.5595
 52      0.0000     0.0000E+00    0.0000E+00    3.160000E+06  0.05000  4.845E-02    0   0.9577   age045_m72            0.0000     8.6903E-05    21.8168   2.8722   120.2865
 53      0.0000     0.0000E+00    0.0000E+00    5.010000E+06  0.05000  3.072E-02    0   0.9147   age055_m72            0.0000     9.2284E-05    23.2633   2.4369   123.7047
 54      0.0000     0.0000E+00    0.0000E+00    6.610000E+06  0.05000  1.455E-02    0   0.8877   age061_m72            0.0000     1.3936E-04    29.3320   1.7376   131.3882
 55      0.0000     0.0000E+00    0.0000E+00    1.000000E+07  0.05000  9.074E-03    0   0.8524   age070_m72            0.0000     9.7172E-05    23.5792   2.5995   124.3068
 56      0.0000     0.0000E+00    0.0000E+00    2.512000E+07  0.05000  4.250E-03    0   0.7902   age090_m72            0.0000     8.6126E-05    22.3323   2.3236   124.7296
 57      0.0000     0.0000E+00    0.0000E+00    4.000000E+07  0.05000  3.087E-03    0   0.7618   age104_m72            0.0000     8.4255E-05    22.1476   2.1057   126.1970
 58      0.0003     1.0183E-06    1.4517E-06    1.015200E+08  0.05000  1.700E-03    0   0.7096   age116_m72            0.0000     6.8938E-05    19.6478   1.8513   128.4704
 59      0.0000     0.0000E+00    0.0000E+00    2.861200E+08  0.05000  7.384E-04    0   0.6633   age125_m72            0.0000     4.6718E-05    15.4642   1.3384   131.3674
 60      0.0000     0.0000E+00    0.0000E+00    5.088000E+08  0.05000  3.819E-04    0   0.6372   age130_m72            0.0000     3.1220E-05    12.8918   0.9011   128.3326
 61     12.7363     4.7660E-01    5.8505E-01    9.047900E+08  0.05000  1.676E-04    0   0.6110   age135_m72            0.0000     1.7885E-05     9.9508   0.3435   116.0107
 62      7.7678     5.5129E-01    6.5060E-01    1.434000E+09  0.05000  8.837E-05    0   0.5874   age139_m72            0.0000     1.6978E-05     9.6787  -0.0676   112.3467
 63      0.0000     0.0000E+00    0.0000E+00    2.500000E+09  0.05000  4.233E-05    0   0.5598   age150_m72            0.0000     1.4469E-05     8.3429  -0.3554   109.1353
 64      0.0712     3.1103E-02    3.2800E-02    6.250000E+09  0.05000  1.435E-05    0   0.5249   age166_m72            0.0000     1.4637E-05     7.6223  -0.7372   103.3962
 65     15.9662     1.5375E+01    1.5556E+01    1.300000E+10  0.05000  6.513E-06    0   0.5036   age193_m72            0.0000     1.6783E-05     7.4615  -0.9818   101.9813
 66     54.9297     7.6100E+01    7.5605E+01    1.800000E+10  0.05000  4.527E-06    0   0.4945   age213_m72            0.0000     2.0499E-05     9.0199  -1.0000    98.7989


## Synthesis Results - Average & Chains ##

# j      x_j: min, <> & last-chain-values for 1 ...  7 chains
  1      0.0000      0.0326      0.0000      0.0000      0.0000      0.0000      0.2172      0.0000      0.0000
  2      0.0000      0.0157      0.0000      0.0000      0.0000      0.0000      0.0000      0.0035      0.0000
  3      0.0000      0.0506      0.0000      0.0000      0.3337      0.0000      0.0245      0.0000      0.1753
  4      0.0000      0.0188      0.0000      0.1274      0.0000      0.0000      0.0000      0.2518      0.0000
  5      0.0000      0.0587      0.2168      0.0000      0.0000      0.0000      0.0000      0.2162      0.0000
  6      0.0000      0.0306      0.0000      0.0000      0.0000      0.0000      0.0101      0.0244      0.0000
  7      0.0000      0.0287      0.0000      0.0000      0.0000      0.0008      0.0000      0.0000      0.3138
  8      0.0000      0.0253      0.0000      0.0000      0.1129      0.0000      0.0773      0.0000      0.1272
  9      0.0000      0.0333      0.0000      0.0000      0.0302      0.0045      0.0273      0.0854      0.0000
 10      0.0000      0.0393      0.0000      0.0000      0.0000      0.0000      0.0000      0.0000      0.0000
 11      0.0000      0.0671      0.0000      0.0000      0.0000      0.0000      0.0000      0.1706      0.0000
 12      0.0000      0.0347      0.0000      0.0000      0.0000      0.0000      0.0000      0.0000      0.3828
 13      0.0000      0.0537      0.0000      0.0310      0.0000      0.0000      0.0000      0.0000      0.0749
 14      0.0000      0.1409      0.0000      0.0000      0.0000      0.0000      0.0000      0.0000      0.1005
 15      0.0000      0.2002      0.0000      0.0640      0.0000      0.1285      0.0000      0.0000      0.3403
 16      0.1266      0.6976      0.5750      1.7082      0.8390      0.7339      0.3964      0.2030      0.0000
 17      0.0000      0.2772      0.0000      0.3454      0.0000      1.2671      0.0877      0.0927      0.6455
 18      0.0000      0.0425      0.0062      0.0000      0.2649      0.0000      0.2382      0.0000      0.0000
 19      0.0000      0.0143      0.0000      0.0939      0.1119      0.0000      0.0000      0.0000      0.0000
 20      0.0000      0.0162      0.0000      0.0000      0.0000      0.0000      0.0000      0.0000      0.0000
 21      0.0000      0.0245      0.0000      0.0000      0.1116      0.0000      0.0799      0.0000      0.0630
 22      0.0000      0.0145      0.0000      0.0000      0.0000      0.0000      0.0000      0.0000      0.0000
 23      0.0000      0.0146      0.0000      0.0000      0.1239      0.0000      0.0770      0.0921      0.0000
 24      0.0000      0.0362      0.0000      0.0000      0.0000      0.0466      0.3255      0.0862      0.0000
 25      0.0000      0.0395      0.1199      0.0000      0.0000      0.0018      0.1929      0.0000      0.0000
 26      0.0000      0.0298      0.0000      0.2600      0.0000      0.0000      0.0000      0.0000      0.1737
 27      0.0000      0.0427      0.0000      0.0000      0.0000      0.0000      0.2044      0.0298      0.0000
 28      0.0000      0.0561      0.0000      0.0000      0.0000      0.0000      0.0000      0.0000      0.0000
 29      0.0000      0.0887      0.1842      0.0000      0.0000      0.0125      0.0000      0.0000      0.0000
 30      0.0197      0.1915      0.6729      0.0000      0.0000      0.0000      0.0000      0.0000      0.0300
 31      0.0000      0.1979      0.3126      0.0410      0.2917      0.2112      0.4577      0.0000      0.0000
 32      0.0001      0.4483      0.8597      0.0000      0.7111      0.8928      0.7840      1.0861      0.0515
 33      2.4614      0.7711      0.4420      0.0000      0.3608      2.7324      0.0000      1.0409      0.0000
 34      4.0012      1.5041      1.2653      0.9386      4.2375      4.1100      1.0192      2.4638      1.2772
 35      0.0000      0.0191      0.0000      0.0000      0.0000      0.0000      0.0000      0.0000      0.0279
 36      0.0000      0.0453      0.0000      0.0000      0.1219      0.0000      0.0000      0.0000      0.5582
 37      0.0000      0.0462      0.0001      0.0000      0.0000      0.0000      0.0000      0.0000      0.0913
 38      0.0000      0.0430      0.0000      0.2618      0.1263      0.0000      0.1391      0.0000      0.0000
 39      0.0000      0.0782      0.3768      0.0000      0.0000      0.0000      0.1086      0.0000      0.1901
 40      0.0000      0.0123      0.0000      0.0714      0.0000      0.0000      0.0000      0.0000      0.0000
 41      0.0000      0.0535      0.0329      0.1265      0.0000      0.0000      0.0000      0.0866      0.0000
 42      0.0000      0.0256      0.0000      0.0000      0.0000      0.0000      0.0000      0.0000      0.0000
 43      0.0000      0.0422      0.0000      0.0000      0.0000      0.0000      0.0000      0.0000      0.0000
 44      0.0000      0.0496      0.0752      0.0000      0.4388      0.0000      0.0000      0.0000      0.2071
 45      0.0000      0.0722      0.0000      0.5976      0.0000      0.0365      0.0000      0.5624      0.2172
 46      0.0000      0.1574      0.0000      0.3888      0.0000      0.0763      0.2917      0.9998      0.0000
 47      0.0000      0.1921      0.3701      0.0000      0.1726      0.0000      0.0000      0.1768      0.0000
 48      0.0000      0.4021      0.0819      0.0000      0.0000      0.0000      0.8353      0.0000      0.0000
 49      3.4073      1.0610      1.0087      0.8625      1.0808      0.9803      0.9379      0.1486      0.2817
 50      2.4778      1.2117      0.8775      0.0000      1.0301      1.6544      0.3497      0.2304      0.5826
 51      0.0000      0.0537      0.0000      0.5564      0.0000      0.0000      0.0000      0.3031      0.0000
 52      0.0000      0.0185      0.0951      0.0000      0.0000      0.0000      0.0000      0.0086      0.0000
 53      0.0000      0.0228      0.0000      0.0000      0.1371      0.0000      0.0000      0.2015      0.0000
 54      0.0000      0.0494      0.0000      0.0514      0.1258      0.1901      0.0000      0.0000      0.0000
 55      0.0000      0.0231      0.0000      0.0132      0.0000      0.0000      0.0203      0.0000      0.0000
 56      0.0000      0.0201      0.0000      0.0000      0.0334      0.0000      0.0000      0.0000      0.0000
 57      0.0000      0.0435      0.0019      0.0000      0.0000      0.3875      0.0301      0.0000      0.0000
 58      0.0003      0.0598      0.4866      0.0000      0.4754      0.0934      0.0000      0.0000      0.0000
 59      0.0000      0.0501      0.2764      0.2652      0.0000      0.1482      0.0000      0.0000      0.0000
 60      0.0000      0.0499      0.0000      0.0000      0.0000      0.0000      0.0188      0.0000      0.0000
 61     12.7363     12.6820      9.3931     15.3813     11.3377     11.4453     13.1309     13.2377     13.6057
 62      7.7678      5.4098      7.1268      2.1275      5.4857      6.1600      5.6262      4.9018      5.5874
 63      0.0000      0.3990      0.0000      0.0461      0.2216      0.2195      0.4661      0.3160      0.5180
 64      0.0712      2.1219      1.6216      1.6614      4.5725      1.7473      1.8267      0.6052      2.1358
 65     15.9662     26.9402     26.9191     27.2659     26.7816     26.4343     26.3002     28.0786     26.7350
 66     54.9297     47.8330     50.6139     51.5151     45.1404     44.9642     50.2829     49.0797     50.1539

# j      m_j: min, <> & last-chain-values for 1 ...  7 chains
  1  0.0000E+00  3.8446E-05  0.0000E+00  0.0000E+00  0.0000E+00  0.0000E+00  2.5307E-04  0.0000E+00  0.0000E+00
  2  0.0000E+00  5.0527E-06  0.0000E+00  0.0000E+00  0.0000E+00  0.0000E+00  0.0000E+00  1.0989E-06  0.0000E+00
  3  0.0000E+00  2.4396E-05  0.0000E+00  0.0000E+00  1.6346E-04  0.0000E+00  1.1678E-05  0.0000E+00  8.3293E-05
  4  0.0000E+00  8.5117E-06  0.0000E+00  5.6003E-05  0.0000E+00  0.0000E+00  0.0000E+00  1.1277E-04  0.0000E+00
  5  0.0000E+00  5.0724E-05  1.8225E-04  0.0000E+00  0.0000E+00  0.0000E+00  0.0000E+00  1.8443E-04  0.0000E+00
  6  0.0000E+00  4.2827E-05  0.0000E+00  0.0000E+00  0.0000E+00  0.0000E+00  1.4045E-05  3.3709E-05  0.0000E+00
  7  0.0000E+00  5.7544E-05  0.0000E+00  0.0000E+00  0.0000E+00  1.6573E-06  0.0000E+00  0.0000E+00  6.2124E-04
  8  0.0000E+00  7.0105E-05  0.0000E+00  0.0000E+00  3.1851E-04  0.0000E+00  2.1202E-04  0.0000E+00  3.4811E-04
  9  0.0000E+00  1.0568E-04  0.0000E+00  0.0000E+00  9.7463E-05  1.4439E-05  8.5569E-05  2.6771E-04  0.0000E+00
 10  0.0000E+00  1.6375E-04  0.0000E+00  0.0000E+00  0.0000E+00  0.0000E+00  0.0000E+00  0.0000E+00  0.0000E+00
 11  0.0000E+00  5.2596E-04  0.0000E+00  0.0000E+00  0.0000E+00  0.0000E+00  0.0000E+00  1.3200E-03  0.0000E+00
 12  0.0000E+00  4.3213E-04  0.0000E+00  0.0000E+00  0.0000E+00  0.0000E+00  0.0000E+00  0.0000E+00  4.6969E-03
 13  0.0000E+00  1.8840E-03  0.0000E+00  1.0522E-03  0.0000E+00  0.0000E+00  0.0000E+00  0.0000E+00  2.5905E-03
 14  0.0000E+00  1.6574E-02  0.0000E+00  0.0000E+00  0.0000E+00  0.0000E+00  0.0000E+00  0.0000E+00  1.1663E-02
 15  0.0000E+00  3.8326E-02  0.0000E+00  1.1869E-02  0.0000E+00  2.4954E-02  0.0000E+00  0.0000E+00  6.4259E-02
 16  4.0066E-02  2.2583E-01  1.8103E-01  5.3567E-01  2.7610E-01  2.4091E-01  1.2688E-01  6.4868E-02  0.0000E+00
 17  0.0000E+00  1.1641E-01  0.0000E+00  1.4049E-01  0.0000E+00  5.3963E-01  3.6410E-02  3.8416E-02  2.6736E-01
 18  0.0000E+00  4.4268E-05  6.3297E-06  0.0000E+00  2.8050E-04  0.0000E+00  2.4528E-04  0.0000E+00  0.0000E+00
 19  0.0000E+00  5.9816E-06  0.0000E+00  3.8040E-05  4.7542E-05  0.0000E+00  0.0000E+00  0.0000E+00  0.0000E+00
 20  0.0000E+00  7.3923E-06  0.0000E+00  0.0000E+00  0.0000E+00  0.0000E+00  0.0000E+00  0.0000E+00  0.0000E+00
 21  0.0000E+00  1.3585E-05  0.0000E+00  0.0000E+00  6.2864E-05  0.0000E+00  4.3746E-05  0.0000E+00  3.4433E-05
 22  0.0000E+00  1.3553E-05  0.0000E+00  0.0000E+00  0.0000E+00  0.0000E+00  0.0000E+00  0.0000E+00  0.0000E+00
 23  0.0000E+00  1.8413E-05  0.0000E+00  0.0000E+00  1.5938E-04  0.0000E+00  9.6276E-05  1.1496E-04  0.0000E+00
 24  0.0000E+00  6.8199E-05  0.0000E+00  0.0000E+00  0.0000E+00  8.8916E-05  6.0567E-04  1.6002E-04  0.0000E+00
 25  0.0000E+00  1.0242E-04  3.0250E-04  0.0000E+00  0.0000E+00  4.8101E-06  4.9495E-04  0.0000E+00  0.0000E+00
 26  0.0000E+00  1.2917E-04  0.0000E+00  1.0923E-03  0.0000E+00  0.0000E+00  0.0000E+00  0.0000E+00  7.4312E-04
 27  0.0000E+00  3.7049E-04  0.0000E+00  0.0000E+00  0.0000E+00  0.0000E+00  1.7548E-03  2.5499E-04  0.0000E+00
 28  0.0000E+00  1.4128E-03  0.0000E+00  0.0000E+00  0.0000E+00  0.0000E+00  0.0000E+00  0.0000E+00  0.0000E+00
 29  0.0000E+00  3.8930E-03  7.8629E-03  0.0000E+00  0.0000E+00  5.5653E-04  0.0000E+00  0.0000E+00  0.0000E+00
 30  1.7690E-03  1.7567E-02  6.0025E-02  0.0000E+00  0.0000E+00  0.0000E+00  0.0000E+00  0.0000E+00  2.7140E-03
 31  0.0000E+00  3.1924E-02  4.9054E-02  6.4142E-03  4.7844E-02  3.4558E-02  7.3022E-02  0.0000E+00  0.0000E+00
 32  2.8126E-05  9.7325E-02  1.8151E-01  0.0000E+00  1.5694E-01  1.9655E-01  1.6830E-01  2.3271E-01  1.1034E-02
 33  1.1561E+00  3.7057E-01  2.0656E-01  0.0000E+00  1.7629E-01  1.3317E+00  0.0000E+00  4.9369E-01  0.0000E+00
 34  2.5448E+00  9.7883E-01  8.0080E-01  5.9171E-01  2.8034E+00  2.7125E+00  6.5589E-01  1.5824E+00  8.1985E-01
 35  0.0000E+00  1.5990E-05  0.0000E+00  0.0000E+00  0.0000E+00  0.0000E+00  0.0000E+00  0.0000E+00  2.2940E-05
 36  0.0000E+00  1.5298E-05  0.0000E+00  0.0000E+00  4.1883E-05  0.0000E+00  0.0000E+00  0.0000E+00  1.8601E-04
 37  0.0000E+00  1.6877E-05  2.6178E-08  0.0000E+00  0.0000E+00  0.0000E+00  0.0000E+00  0.0000E+00  3.2906E-05
 38  0.0000E+00  4.2617E-05  0.0000E+00  2.5105E-04  1.2710E-04  0.0000E+00  1.3616E-04  0.0000E+00  0.0000E+00
 39  6.4446E-08  1.1150E-04  5.2228E-04  0.0000E+00  0.0000E+00  0.0000E+00  1.5312E-04  0.0000E+00  2.6735E-04
 40  0.0000E+00  2.8258E-05  0.0000E+00  1.5941E-04  0.0000E+00  0.0000E+00  0.0000E+00  0.0000E+00  0.0000E+00
 41  0.0000E+00  1.9178E-04  1.1457E-04  4.3912E-04  0.0000E+00  0.0000E+00  0.0000E+00  3.0626E-04  0.0000E+00
 42  0.0000E+00  1.6861E-04  0.0000E+00  0.0000E+00  0.0000E+00  0.0000E+00  0.0000E+00  0.0000E+00  0.0000E+00
 43  0.0000E+00  4.0494E-04  0.0000E+00  0.0000E+00  0.0000E+00  0.0000E+00  0.0000E+00  0.0000E+00  0.0000E+00
 44  0.0000E+00  8.1956E-04  1.2100E-03  0.0000E+00  7.3771E-03  0.0000E+00  0.0000E+00  0.0000E+00  3.3780E-03
 45  0.0000E+00  2.3698E-03  0.0000E+00  1.8994E-02  0.0000E+00  1.2138E-03  0.0000E+00  1.8211E-02  7.0300E-03
 46  0.0000E+00  9.4934E-03  0.0000E+00  2.2713E-02  0.0000E+00  4.6664E-03  1.7395E-02  5.9509E-02  0.0000E+00
 47  0.0000E+00  2.3478E-02  4.3990E-02  0.0000E+00  2.1448E-02  0.0000E+00  0.0000E+00  2.1329E-02  0.0000E+00
 48  0.0000E+00  8.6658E-02  1.7164E-02  0.0000E+00  0.0000E+00  0.0000E+00  1.7802E-01  0.0000E+00  0.0000E+00
 49  1.6312E+00  5.1974E-01  4.8051E-01  4.0925E-01  5.3817E-01  4.8697E-01  4.5431E-01  7.1842E-02  1.3611E-01
 50  2.1970E+00  1.0994E+00  7.7423E-01  0.0000E+00  9.5004E-01  1.5222E+00  3.1372E-01  2.0630E-01  5.2133E-01
 51  0.0000E+00  2.6719E-05  0.0000E+00  2.6806E-04  0.0000E+00  0.0000E+00  0.0000E+00  1.4877E-04  0.0000E+00
 52  0.0000E+00  4.7260E-06  2.3565E-05  0.0000E+00  0.0000E+00  0.0000E+00  0.0000E+00  2.1751E-06  0.0000E+00
 53  0.0000E+00  8.7663E-06  0.0000E+00  0.0000E+00  5.3521E-05  0.0000E+00  0.0000E+00  7.6339E-05  0.0000E+00
 54  0.0000E+00  3.8866E-05  0.0000E+00  3.9172E-05  1.0056E-04  1.5164E-04  0.0000E+00  0.0000E+00  0.0000E+00
 55  0.0000E+00  2.7945E-05  0.0000E+00  1.5465E-05  0.0000E+00  0.0000E+00  2.4363E-05  0.0000E+00  0.0000E+00
 56  0.0000E+00  4.8126E-05  0.0000E+00  0.0000E+00  8.1456E-05  0.0000E+00  0.0000E+00  0.0000E+00  0.0000E+00
 57  0.0000E+00  1.3828E-04  5.9532E-06  0.0000E+00  0.0000E+00  1.2502E-03  9.4733E-05  0.0000E+00  0.0000E+00
 58  1.4517E-06  3.2169E-04  2.5466E-03  0.0000E+00  2.6008E-03  5.0952E-04  0.0000E+00  0.0000E+00  0.0000E+00
 59  0.0000E+00  5.8048E-04  3.1135E-03  2.9750E-03  0.0000E+00  1.7408E-03  0.0000E+00  0.0000E+00  0.0000E+00
 60  0.0000E+00  1.0737E-03  0.0000E+00  0.0000E+00  0.0000E+00  0.0000E+00  4.0021E-04  0.0000E+00  0.0000E+00
 61  5.8505E-01  5.9609E-01  4.2937E-01  7.0034E-01  5.4173E-01  5.4556E-01  6.1031E-01  6.1407E-01  6.3079E-01
 62  6.5060E-01  4.6363E-01  5.9399E-01  1.7662E-01  4.7792E-01  5.3537E-01  4.7679E-01  4.1460E-01  4.7232E-01
 63  0.0000E+00  6.8035E-02  0.0000E+00  7.6096E-03  3.8413E-02  3.7954E-02  7.8584E-02  5.3171E-02  8.7127E-02
 64  3.2800E-02  1.0007E+00  7.4376E-01  7.5903E-01  2.1922E+00  8.3567E-01  8.5186E-01  2.8169E-01  9.9355E-01
 65  1.5556E+01  2.6857E+01  2.6099E+01  2.6331E+01  2.7141E+01  2.6725E+01  2.5927E+01  2.7626E+01  2.6290E+01
 66  7.5605E+01  6.7366E+01  6.9323E+01  7.0281E+01  6.4627E+01  6.4220E+01  7.0027E+01  6.8218E+01  6.9672E+01

# AV, chi2 & Mass for <> & i_chain = 1 ...  7 solutions
AV      -0.8586     -0.8434     -0.8480     -0.8650     -0.8425     -0.8516     -0.8451     -0.8528     -0.8375
chi2 4.6245E-02  1.4994E-05  1.5298E-05  1.5105E-05  3.2099E-05  5.1552E-05  1.7373E-05  1.5320E-05  6.3592E-05
Mass 6.0037E-13  5.9887E-13  6.1201E-13  6.0055E-13  5.8987E-13  5.8407E-13  6.0425E-13  5.9918E-13  6.1195E-13
-479.00                                  [v0_min (km/s) before EX0s...]
 322.33                                  [vd_min (km/s) before EX0s...]


## Synthetic spectrum (Best Model) ##l_obs f_obs f_syn wei
 3478    [Nl_obs]
 3741.00    0.30681   0.36150    0.000
 3742.00    0.37386   0.36485    0.000
 3743.00    0.39003   0.37308    0.000
 3744.00    0.34853   0.38790    0.000
 3745.00    0.27341   0.40642    0.057
 3746.00    0.25556   0.42455    0.055
 3747.00    0.26678   0.44001    0.053
 3748.00    0.23196   0.45331    0.053
 3749.00    0.17691   0.46243    0.054
 3750.00    0.19773   0.46582    0.053
 3751.00    0.24720   0.46337    0.052
 3752.00    0.45094   0.45749    0.052
 3753.00    0.70411   0.45328    0.054
 3754.00    0.75823   0.45032    0.054
 3755.00    0.75900   0.44702    0.053
 3756.00    0.67165   0.44608    0.052
 3757.00    0.56495   0.44775    0.051
 3758.00    0.53161   0.45266    0.051
 3759.00    0.51108   0.46220    0.051
 3760.00    0.50091   0.47233    0.063
 3761.00    0.49212   0.48370    0.087
 3762.00    0.53990   0.49982    0.066
 3763.00    0.59300   0.51702    0.051
 3764.00    0.58212   0.53229    0.050
 3765.00    0.56755   0.54807    0.049
 3766.00    0.50492   0.56377    0.051
 3767.00    0.44165   0.57735    0.053
 3768.00    0.43941   0.58922    0.053
 3769.00    0.43528   0.59906    0.053
 3770.00    0.38529   0.60803    0.050
 3771.00    0.34862   0.61629    0.047
 3772.00    0.48640   0.62142    0.048
 3773.00    0.61412   0.62553    0.049
 3774.00    0.65353   0.62736    0.048
 3775.00    0.67903   0.62349    0.048
 3776.00    0.61435   0.61658    0.049
 3777.00    0.55522   0.60562    0.049
 3778.00    0.52423   0.59107    0.048
 3779.00    0.49775   0.57343    0.047
 3780.00    0.48972   0.55231    0.047
 3781.00    0.45860   0.53248    0.048
 3782.00    0.34914   0.51388    0.048
 3783.00    0.25430   0.49595    0.048
 3784.00    0.20128   0.48079    0.047
 3785.00    0.20433   0.46937    0.047
 3786.00    0.34435   0.45927    0.048
 3787.00    0.45759   0.44996    0.049
 3788.00    0.51436   0.44381    0.050
 3789.00    0.53481   0.44057    0.051
 3790.00    0.48877   0.44103    0.049
 3791.00    0.41220   0.44390    0.048
 3792.00    0.28679   0.44945    0.047
 3793.00    0.22601   0.45948    0.047
 3794.00    0.25599   0.47270    0.047
 3795.00    0.31650   0.48650    0.047
 3796.00    0.41472   0.49955    0.047
 3797.00    0.42619   0.51293    0.047
 3798.00    0.34316   0.52413    0.048
 3799.00    0.29048   0.53177    0.048
 3800.00    0.26697   0.53610    0.048
 3801.00    0.29170   0.53624    0.049
 3802.00    0.35731   0.53395    0.050
 3803.00    0.40888   0.52886    0.050
 3804.00    0.44999   0.51942    0.050
 3805.00    0.53836   0.50731    0.049
 3806.00    0.65771   0.49352    0.048
 3807.00    0.68000   0.47704    0.048
 3808.00    0.64660   0.45958    0.047
 3809.00    0.58791   0.44202    0.048
 3810.00    0.51657   0.42507    0.049
 3811.00    0.41468   0.41093    0.049
 3812.00    0.29958   0.39730    0.050
 3813.00    0.35467   0.38363    0.049
 3814.00    0.47289   0.37230    0.047
 3815.00    0.49291   0.36281    0.046
 3816.00    0.48206   0.35480    0.046
 3817.00    0.50182   0.34719    0.047
 3818.00    0.52962   0.33948    0.050
 3819.00    0.55021   0.33385    0.048
 3820.00    0.56927   0.32959    0.046
 3821.00    0.36068   0.32535    0.045
 3822.00    0.11345   0.32214    0.044
 3823.00    0.10721   0.31951    0.043
 3824.00    0.13189   0.31763    0.043
 3825.00    0.11328   0.31659    0.043
 3826.00    0.09079   0.31502    0.043
 3827.00    0.13002   0.31460    0.045
 3828.00    0.17257   0.31587    0.046
 3829.00    0.23158   0.31813    0.046
 3830.00    0.29054   0.32231    0.047
 3831.00    0.31643   0.32865    0.047
 3832.00    0.34263   0.33660    0.048
 3833.00    0.37584   0.34719    0.048
 3834.00    0.40057   0.35988    0.047
 3835.00    0.31998   0.37317    0.047
 3836.00    0.24535   0.38809    0.047
 3837.00    0.22110   0.40176    0.048
 3838.00    0.20543   0.41349    0.049
 3839.00    0.24370   0.42417    0.048
 3840.00    0.28595   0.43207    0.047
 3841.00    0.34780   0.43760    0.046
 3842.00    0.40068   0.43997    0.046
 3843.00    0.41768   0.43979    0.048
 3844.00    0.43252   0.43843    0.049
 3845.00    0.44023   0.43540    0.051
 3846.00    0.46508   0.43137    0.052
 3847.00    0.53809   0.42549    0.000
 3848.00    0.56680   0.41912    0.000
 3849.00    0.48911   0.41417    0.000
 3850.00    0.43061   0.40916    0.000
 3851.00    0.41190   0.40585    0.000
 3852.00    0.40415   0.40435    0.000
 3853.00    0.41616   0.40452    0.000
 3854.00    0.40487   0.40817    0.000
 3855.00    0.35684   0.41328    0.000
 3856.00    0.34276   0.41899    0.000
 3857.00    0.37566   0.42449    0.000
 3858.00    0.43814   0.42901    0.000
 3859.00    0.53667   0.43255    0.000
 3860.00    0.62502   0.43440    0.000
 3861.00    0.70244   0.43482    0.000
 3862.00    0.71984   0.43377    0.000
 3863.00    0.68037   0.43259    0.000
 3864.00    0.62379   0.43136    0.000
 3865.00    0.55293   0.43055    0.000
 3866.00    0.55486   0.43137    0.000
 3867.00    0.61034   0.43256    0.000
 3868.00    0.62148   0.43400    0.000
 3869.00    0.60399   0.43503    0.000
 3870.00    0.60382   0.43479    0.000
 3871.00    0.61345   0.43554    0.000
 3872.00    0.55335   0.43598    0.000
 3873.00    0.45896   0.43533    0.000
 3874.00    0.37614   0.43485    0.000
 3875.00    0.29826   0.43440    0.000
 3876.00    0.38864   0.43625    0.000
 3877.00    0.54032   0.43899    0.000
 3878.00    0.55517   0.44234    0.000
 3879.00    0.52784   0.44834    0.000
 3880.00    0.48862   0.45646    0.000
 3881.00    0.44636   0.46801    0.045
 3882.00    0.51761   0.48138    0.045
 3883.00    0.61260   0.49596    0.045
 3884.00    0.49701   0.51236    0.046
 3885.00    0.34669   0.52761    0.048
 3886.00    0.35623   0.54158    0.047
 3887.00    0.38558   0.55273    0.047
 3888.00    0.42199   0.56206    0.046
 3889.00    0.45901   0.56933    0.045
 3890.00    0.54631   0.57272    0.046
 3891.00    0.63612   0.57479    0.047
 3892.00    0.66093   0.57434    0.047
 3893.00    0.68349   0.57508    0.046
 3894.00    0.62909   0.57599    0.046
 3895.00    0.57906   0.57599    0.046
 3896.00    0.61852   0.57882    0.046
 3897.00    0.65704   0.58117    0.045
 3898.00    0.68447   0.58671    0.045
 3899.00    0.70715   0.59555    0.044
 3900.00    0.69117   0.60511    0.043
 3901.00    0.67876   0.61756    0.042
 3902.00    0.68816   0.62925    0.041
 3903.00    0.68547   0.64013    0.040
 3904.00    0.62459   0.65075    0.039
 3905.00    0.56984   0.65760    0.038
 3906.00    0.53905   0.66049    0.038
 3907.00    0.51565   0.65908    0.038
 3908.00    0.51634   0.65196    0.039
 3909.00    0.51595   0.64177    0.039
 3910.00    0.51262   0.62790    0.041
 3911.00    0.52412   0.61071    0.042
 3912.00    0.57064   0.59184    0.043
 3913.00    0.62864   0.57131    0.044
 3914.00    0.71007   0.55148    0.044
 3915.00    0.74474   0.53120    0.045
 3916.00    0.69636   0.51111    0.045
 3917.00    0.66673   0.48960    0.046
 3918.00    0.66625   0.46649    0.045
 3919.00    0.69483   0.44276    0.046
 3920.00    0.76305   0.41678    0.046
 3921.00    0.76448   0.39097    0.047
 3922.00    0.68568   0.36464    0.048
 3923.00    0.59950   0.33962    0.047
 3924.00    0.50550   0.31809    0.046
 3925.00    0.45529   0.30071    0.046
 3926.00    0.44599   0.28980    0.046
 3927.00    0.47694   0.28523    0.046
 3928.00    0.54104   0.28797    0.047
 3929.00    0.57095   0.29758    0.047
 3930.00    0.57607   0.31288    0.047
 3931.00    0.52536   0.33296    0.047
 3932.00    0.43910   0.35628    0.047
 3933.00    0.46973   0.38117    0.047
 3934.00    0.56541   0.40689    0.048
 3935.00    0.62774   0.43236    0.048
 3936.00    0.67392   0.45721    0.047
 3937.00    0.60407   0.48326    0.047
 3938.00    0.48571   0.50941    0.047
 3939.00    0.54467   0.53301    0.047
 3940.00    0.66706   0.55494    0.048
 3941.00    0.63045   0.57686    0.047
 3942.00    0.54578   0.59803    0.047
 3943.00    0.55419   0.61686    0.047
 3944.00    0.58598   0.63022    0.047
 3945.00    0.63998   0.63990    0.047
 3946.00    0.69851   0.64773    0.047
 3947.00    0.62930   0.64950    0.047
 3948.00    0.53963   0.64447    0.047
 3949.00    0.60185   0.63452    0.047
 3950.00    0.68220   0.62011    0.048
 3951.00    0.74624   0.60158    0.048
 3952.00    0.80896   0.57675    0.048
 3953.00    0.82905   0.54583    0.048
 3954.00    0.84719   0.51347    0.047
 3955.00    0.78354   0.48093    0.047
 3956.00    0.72167   0.44804    0.047
 3957.00    0.80698   0.41584    0.048
 3958.00    0.88369   0.38540    0.048
 3959.00    0.79730   0.36041    0.048
 3960.00    0.71069   0.34275    0.000
 3961.00    0.62150   0.33252    0.000
 3962.00    0.54416   0.33094    0.000
 3963.00    0.55991   0.33777    0.000
 3964.00    0.56997   0.35337    0.000
 3965.00    0.54629   0.37730    0.000
 3966.00    0.50495   0.40787    0.000
 3967.00    0.38069   0.44451    0.000
 3968.00    0.29213   0.48409    0.000
 3969.00    0.34039   0.52504    0.000
 3970.00    0.40591   0.56649    0.000
 3971.00    0.52662   0.60554    0.000
 3972.00    0.60921   0.64238    0.000
 3973.00    0.58858   0.67471    0.000
 3974.00    0.58481   0.70226    0.000
 3975.00    0.62017   0.72752    0.000
 3976.00    0.64283   0.74868    0.000
 3977.00    0.63994   0.76770    0.000
 3978.00    0.67035   0.78416    0.000
 3979.00    0.75897   0.79709    0.000
 3980.00    0.83472   0.81048    0.000
 3981.00    0.89075   0.82105    0.047
 3982.00    0.92529   0.83003    0.048
 3983.00    0.93093   0.83896    0.048
 3984.00    0.93469   0.84527    0.048
 3985.00    0.93621   0.85182    0.048
 3986.00    0.91196   0.85546    0.048
 3987.00    0.86079   0.85813    0.048
 3988.00    0.90742   0.86193    0.048
 3989.00    1.04412   0.86563    0.047
 3990.00    1.10675   0.86999    0.048
 3991.00    1.10925   0.87484    0.048
 3992.00    1.06239   0.88034    0.048
 3993.00    0.98026   0.88465    0.047
 3994.00    0.93411   0.88825    0.046
 3995.00    0.91052   0.89054    0.046
 3996.00    0.96424   0.89251    0.046
 3997.00    1.06032   0.89351    0.047
 3998.00    1.06606   0.89430    0.047
 3999.00    1.02875   0.89727    0.047
 4000.00    1.03251   0.90152    0.047
 4001.00    1.05314   0.90678    0.047
 4002.00    1.05232   0.91264    0.047
 4003.00    1.04396   0.92178    0.047
 4004.00    0.96525   0.93313    0.047
 4005.00    0.86569   0.94478    0.047
 4006.00    0.89517   0.95536    0.047
 4007.00    0.95634   0.96413    0.047
 4008.00    0.90730   0.97235    0.047
 4009.00    0.83635   0.97841    0.047
 4010.00    0.90391   0.98329    0.047
 4011.00    0.99299   0.98697    0.046
 4012.00    1.00000   0.98858    0.047
 4013.00    0.99757   0.98913    0.048
 4014.00    0.91805   0.98676    0.047
 4015.00    0.83258   0.98378    0.047
 4016.00    0.95590   0.98074    0.047
 4017.00    1.08801   0.97517    0.047
 4018.00    1.04050   0.96812    0.047
 4019.00    0.99521   0.95862    0.047
 4020.00    1.11932   0.94604    0.047
 4021.00    1.23205   0.93127    0.048
 4022.00    1.14400   0.91554    0.047
 4023.00    1.05966   0.90060    0.046
 4024.00    1.01512   0.88841    0.047
 4025.00    0.97388   0.87910    0.047
 4026.00    0.95762   0.87508    0.047
 4027.00    0.93679   0.87527    0.046
 4028.00    0.88955   0.87995    0.047
 4029.00    0.85406   0.88960    0.047
 4030.00    0.87240   0.89898    0.047
 4031.00    0.90216   0.90775    0.047
 4032.00    0.97473   0.91500    0.046
 4033.00    1.03860   0.91721    0.046
 4034.00    1.07523   0.91404    0.046
 4035.00    1.08744   0.90502    0.045
 4036.00    1.03469   0.89332    0.045
 4037.00    1.01852   0.88353    0.045
 4038.00    1.08589   0.87565    0.046
 4039.00    1.10710   0.87262    0.046
 4040.00    1.03705   0.87342    0.047
 4041.00    0.97393   0.87634    0.047
 4042.00    0.92276   0.88199    0.047
 4043.00    0.88581   0.89019    0.047
 4044.00    0.87031   0.89991    0.046
 4045.00    0.85578   0.90678    0.047
 4046.00    0.84252   0.90983    0.047
 4047.00    0.83940   0.90823    0.047
 4048.00    0.84810   0.90320    0.047
 4049.00    0.87615   0.89570    0.047
 4050.00    0.92410   0.88687    0.047
 4051.00    1.00537   0.87727    0.048
 4052.00    1.11688   0.86558    0.048
 4053.00    1.14224   0.85433    0.048
 4054.00    1.09865   0.84438    0.048
 4055.00    1.06046   0.83813    0.047
 4056.00    1.02610   0.83428    0.047
 4057.00    1.02859   0.83239    0.047
 4058.00    1.05386   0.83324    0.047
 4059.00    1.04666   0.83568    0.048
 4060.00    1.02195   0.83837    0.048
 4061.00    1.02996   0.84106    0.048
 4062.00    1.05331   0.84701    0.048
 4063.00    0.99920   0.85367    0.048
 4064.00    0.91381   0.85692    0.047
 4065.00    1.05783   0.85923    0.048
 4066.00    1.28095   0.86064    0.048
 4067.00    1.18860   0.86066    0.048
 4068.00    1.00465   0.86173    0.047
 4069.00    0.99951   0.86608    0.048
 4070.00    1.03733   0.87569    0.049
 4071.00    0.98169   0.88710    0.050
 4072.00    0.90795   0.89850    0.051
 4073.00    0.86824   0.91128    0.050
 4074.00    0.83366   0.92642    0.050
 4075.00    0.75544   0.94357    0.049
 4076.00    0.67238   0.96222    0.049
 4077.00    0.69707   0.98029    0.049
 4078.00    0.72966   0.99671    0.049
 4079.00    0.89298   1.01012    0.048
 4080.00    1.06131   1.01923    0.048
 4081.00    1.00052   1.02702    0.047
 4082.00    0.93979   1.03100    0.046
 4083.00    0.92900   1.03111    0.046
 4084.00    0.91900   1.02771    0.046
 4085.00    0.92207   1.01787    0.046
 4086.00    0.92681   1.00382    0.046
 4087.00    0.94875   0.98589    0.046
 4088.00    0.96275   0.96615    0.046
 4089.00    0.91851   0.94546    0.045
 4090.00    0.89496   0.92460    0.045
 4091.00    0.98744   0.90604    0.046
 4092.00    1.06530   0.88965    0.000
 4093.00    1.07773   0.87773    0.000
 4094.00    1.08108   0.87152    0.000
 4095.00    1.05113   0.86982    0.000
 4096.00    1.00123   0.87274    0.000
 4097.00    0.88996   0.87833    0.000
 4098.00    0.80846   0.88602    0.000
 4099.00    0.80478   0.89575    0.000
 4100.00    0.78967   0.90626    0.000
 4101.00    0.74890   0.91625    0.000
 4102.00    0.75374   0.92452    0.000
 4103.00    0.84733   0.93241    0.000
 4104.00    0.92604   0.93809    0.000
 4105.00    0.97948   0.94224    0.000
 4106.00    1.00211   0.94544    0.000
 4107.00    0.97892   0.94735    0.000
 4108.00    0.96453   0.94891    0.000
 4109.00    0.96166   0.94898    0.000
 4110.00    0.96812   0.94915    0.000
 4111.00    0.98531   0.94785    0.000
 4112.00    0.99762   0.94570    0.000
 4113.00    1.00497   0.94329    0.045
 4114.00    0.99581   0.94036    0.045
 4115.00    0.97186   0.93744    0.045
 4116.00    0.94773   0.93314    0.045
 4117.00    0.92344   0.92987    0.045
 4118.00    0.91757   0.92496    0.064
 4119.00    0.92447   0.91868    0.232
 4120.00    0.89461   0.91094   -1.000
 4121.00    0.84238   0.90303   -1.000
 4122.00    0.83990   0.89478   -1.000
 4123.00    0.86386   0.88713   -1.000
 4124.00    0.87971   0.88151   -1.000
 4125.00    0.89183   0.87747   -1.000
 4126.00    0.88035   0.87721    0.128
 4127.00    0.85951   0.87803    0.053
 4128.00    0.90498   0.88157    0.046
 4129.00    0.97288   0.88485    0.046
 4130.00    0.96886   0.88776    0.046
 4131.00    0.94439   0.88904    0.046
 4132.00    1.08480   0.88751    0.046
 4133.00    1.26393   0.88500    0.046
 4134.00    1.05890   0.87907    0.046
 4135.00    0.78137   0.87191    0.046
 4136.00    0.89603   0.86468    0.047
 4137.00    1.06797   0.85709    0.047
 4138.00    1.08310   0.85072    0.046
 4139.00    1.08156   0.84628    0.046
 4140.00    1.06641   0.84334    0.046
 4141.00    1.05032   0.84301    0.046
 4142.00    1.05477   0.84352    0.046
 4143.00    1.05993   0.84472    0.047
 4144.00    1.03821   0.84523    0.047
 4145.00    1.01650   0.84625    0.047
 4146.00    0.99648   0.84923    0.047
 4147.00    0.97363   0.85274    0.047
 4148.00    0.90707   0.85930    0.047
 4149.00    0.85653   0.86628    0.046
 4150.00    0.96377   0.87607    0.046
 4151.00    1.04507   0.88634    0.046
 4152.00    0.94219   0.89640    0.046
 4153.00    0.87182   0.90670    0.046
 4154.00    0.97889   0.91484    0.046
 4155.00    1.05503   0.92115    0.046
 4156.00    0.99602   0.92428    0.046
 4157.00    0.93784   0.92490    0.045
 4158.00    0.88263   0.92182    0.044
 4159.00    0.86763   0.91582    0.043
 4160.00    0.97398   0.90712    0.044
 4161.00    1.06296   0.89656    0.045
 4162.00    1.10732   0.88512    0.045
 4163.00    1.12734   0.87378    0.045
 4164.00    1.09359   0.86294    0.045
 4165.00    1.05799   0.85265    0.045
 4166.00    1.01884   0.84458    0.044
 4167.00    0.96184   0.83784    0.044
 4168.00    0.87498   0.83350    0.043
 4169.00    0.85975   0.83195    0.044
 4170.00    0.94941   0.83283    0.045
 4171.00    0.98077   0.83718    0.045
 4172.00    0.93702   0.84252    0.044
 4173.00    0.90552   0.84911    0.044
 4174.00    0.88790   0.85631    0.044
 4175.00    0.90785   0.86305    0.044
 4176.00    0.96540   0.87044    0.045
 4177.00    0.95876   0.87675    0.045
 4178.00    0.89546   0.88295    0.044
 4179.00    0.88438   0.88788    0.044
 4180.00    0.91394   0.89253    0.043
 4181.00    0.91121   0.89613    0.043
 4182.00    0.88642   0.89722    0.043
 4183.00    0.95800   0.89785    0.044
 4184.00    1.08735   0.89614    0.044
 4185.00    1.14120   0.89342    0.045
 4186.00    1.15558   0.88874    0.045
 4187.00    1.18217   0.88193    0.045
 4188.00    1.21430   0.87429    0.044
 4189.00    1.24497   0.86555    0.044
 4190.00    1.27507   0.85761    0.044
 4191.00    1.11157   0.85089    0.044
 4192.00    0.88377   0.84707    0.043
 4193.00    0.84117   0.84678    0.043
 4194.00    0.85019   0.85064    0.043
 4195.00    0.81333   0.85842    0.043
 4196.00    0.76595   0.86863    0.043
 4197.00    0.85325   0.88112    0.043
 4198.00    0.96530   0.89516    0.043
 4199.00    1.06510   0.90869    0.044
 4200.00    1.16318   0.92106    0.045
 4201.00    1.12586   0.93150    0.044
 4202.00    1.07474   0.93923    0.044
 4203.00    0.97709   0.94551    0.043
 4204.00    0.87641   0.94940    0.043
 4205.00    1.01002   0.95181    0.043
 4206.00    1.15072   0.95392    0.043
 4207.00    1.22159   0.95640    0.044
 4208.00    1.28632   0.95814    0.045
 4209.00    1.17036   0.95957    0.044
 4210.00    1.06002   0.95910    0.044
 4211.00    1.03147   0.95625    0.044
 4212.00    1.00989   0.95113    0.043
 4213.00    1.05419   0.94093    0.043
 4214.00    1.08795   0.92735    0.043
 4215.00    1.04920   0.90927    0.044
 4216.00    1.02798   0.88930    0.044
 4217.00    1.09997   0.86890    0.044
 4218.00    1.14815   0.85092    0.044
 4219.00    1.09466   0.83771    0.044
 4220.00    1.01871   0.83052    0.044
 4221.00    0.86367   0.83049    0.043
 4222.00    0.74882   0.83651    0.043
 4223.00    0.75299   0.84950    0.043
 4224.00    0.77469   0.86539    0.043
 4225.00    0.84066   0.88235    0.044
 4226.00    0.90241   0.89899    0.044
 4227.00    0.95499   0.91407    0.044
 4228.00    0.98388   0.92739    0.043
 4229.00    0.96809   0.94079    0.043
 4230.00    0.99150   0.95455    0.043
 4231.00    1.07947   0.96743    0.043
 4232.00    1.09226   0.98194    0.043
 4233.00    0.99651   0.99542    0.042
 4234.00    0.96445   1.00776    0.042
 4235.00    1.01324   1.01813    0.042
 4236.00    1.06047   1.02519    0.042
 4237.00    1.10596   1.02828    0.042
 4238.00    1.09146   1.02585    0.041
 4239.00    1.01777   1.02014    0.041
 4240.00    1.04423   1.00993    0.041
 4241.00    1.15785   0.99644    0.042
 4242.00    1.16293   0.98175    0.042
 4243.00    1.08478   0.96713    0.042
 4244.00    1.08128   0.95470    0.043
 4245.00    1.12809   0.94413    0.044
 4246.00    1.14976   0.93748    0.044
 4247.00    1.15658   0.93540    0.045
 4248.00    1.13577   0.93573    0.045
 4249.00    1.10073   0.93823    0.045
 4250.00    1.13280   0.94423    0.045
 4251.00    1.19483   0.95292    0.046
 4252.00    1.16797   0.96401    0.046
 4253.00    1.10702   0.97440    0.045
 4254.00    1.05434   0.98469    0.044
 4255.00    1.00435   0.99404    0.044
 4256.00    0.94795   1.00133    0.043
 4257.00    0.88981   1.00683    0.043
 4258.00    0.98305   1.00683    0.043
 4259.00    1.11022   1.00096    0.044
 4260.00    1.14394   0.98906    0.044
 4261.00    1.16095   0.97349    0.045
 4262.00    1.11897   0.95439    0.044
 4263.00    1.06893   0.93497    0.043
 4264.00    1.13873   0.91826    0.044
 4265.00    1.22024   0.90552    0.044
 4266.00    1.17595   0.89833    0.043
 4267.00    1.12396   0.89767    0.043
 4268.00    1.06708   0.90494    0.042
 4269.00    1.01024   0.91543    0.042
 4270.00    0.98641   0.92818    0.041
 4271.00    0.95947   0.94280    0.041
 4272.00    0.85046   0.95603    0.041
 4273.00    0.75648   0.96523    0.041
 4274.00    0.86920   0.97068    0.042
 4275.00    0.98083   0.97032    0.043
 4276.00    1.08256   0.96719    0.043
 4277.00    1.17192   0.96152    0.043
 4278.00    1.17878   0.95204    0.043
 4279.00    1.18713   0.94240    0.043
 4280.00    1.20313   0.93026    0.043
 4281.00    1.19469   0.91901    0.043
 4282.00    1.08422   0.90876   -2.000
 4283.00    0.97252   0.89927   -2.000
 4284.00    0.85653   0.88998   -2.000
 4285.00    0.80313   0.88084   -2.000
 4286.00    0.93162   0.87370   -2.000
 4287.00    1.05293   0.86441   -2.000
 4288.00    1.15640   0.85409   -2.000
 4289.00    1.21439   0.83962   -2.000
 4290.00    1.17515   0.82348   -2.000
 4291.00    1.13687   0.80678   -2.000
 4292.00    1.10037   0.78794   -2.000
 4293.00    1.05317   0.77007   -2.000
 4294.00    0.98859   0.75283   -2.000
 4295.00    0.95907   0.73860   -2.000
 4296.00    0.97941   0.72827   -2.000
 4297.00    1.01939   0.72201   -2.000
 4298.00    1.08394   0.71949    0.043
 4299.00    1.08106   0.72326    0.043
 4300.00    1.00381   0.73264    0.042
 4301.00    0.93178   0.74823    0.042
 4302.00    0.86484   0.77182    0.042
 4303.00    0.80263   0.80155    0.042
 4304.00    0.74447   0.83880    0.042
 4305.00    0.72934   0.88037    0.042
 4306.00    0.74672   0.92480    0.042
 4307.00    0.80241   0.96866    0.042
 4308.00    0.88354   1.00950    0.042
 4309.00    0.98582   1.04549    0.042
 4310.00    1.10039   1.07280    0.042
 4311.00    1.08447   1.09256    0.042
 4312.00    1.00241   1.10126    0.041
 4313.00    1.01749   1.10159    0.041
 4314.00    1.07520   1.09428    0.041
 4315.00    1.10728   1.08446    0.041
 4316.00    1.12970   1.07240    0.041
 4317.00    1.15204   1.06319    0.041
 4318.00    1.17435   1.05787    0.041
 4319.00    1.17570   1.05789    0.041
 4320.00    1.17144   1.06542    0.042
 4321.00    1.13517   1.07770    0.042
 4322.00    1.09189   1.09428    0.042
 4323.00    1.10561   1.11026    0.043
 4324.00    1.12925   1.12365    0.043
 4325.00    1.11944   1.13247    0.043
 4326.00    1.10521   1.13542    0.044
 4327.00    1.18020   1.13325    0.043
 4328.00    1.26354   1.12510    0.043
 4329.00    1.19365   1.11323    0.043
 4330.00    1.11501   1.09824    0.000
 4331.00    1.08227   1.08399    0.000
 4332.00    1.05080   1.07210    0.000
 4333.00    1.04294   1.06451    0.000
 4334.00    1.03320   1.06337    0.000
 4335.00    0.97838   1.06755    0.000
 4336.00    0.93121   1.07631    0.000
 4337.00    0.98356   1.08738    0.000
 4338.00    1.02744   1.10030    0.000
 4339.00    0.99727   1.11152    0.000
 4340.00    0.98182   1.12107    0.000
 4341.00    1.06145   1.12815    0.000
 4342.00    1.13211   1.13248    0.000
 4343.00    1.15752   1.13430    0.000
 4344.00    1.15950   1.13390    0.000
 4345.00    1.06588   1.13363    0.000
 4346.00    1.03563   1.13516    0.000
 4347.00    1.21979   1.13913    0.000
 4348.00    1.36568   1.14548    0.000
 4349.00    1.40236   1.15456    0.000
 4350.00    1.38732   1.16530    0.000
 4351.00    1.24620   1.17700    0.044
 4352.00    1.15886   1.18849    0.044
 4353.00    1.18465   1.20037    0.044
 4354.00    1.21513   1.21096    0.054
 4355.00    1.25415   1.21970    0.143
 4356.00    1.26466   1.22481   -1.000
 4357.00    1.22960   1.22710 4219.947
 4358.00    1.20402   1.22581   -1.000
 4359.00    1.19173   1.22026   -1.000
 4360.00    1.21589   1.21120   -1.000
 4361.00    1.28503   1.19934   -1.000
 4362.00    1.33025   1.18660    0.181
 4363.00    1.34946   1.17234    0.059
 4364.00    1.30521   1.15789    0.044
 4365.00    1.20008   1.14356    0.044
 4366.00    1.21105   1.12917    0.044
 4367.00    1.32023   1.11453    0.043
 4368.00    1.30024   1.10028    0.043
 4369.00    1.18403   1.08613    0.043
 4370.00    1.13119   1.07207    0.043
 4371.00    1.11980   1.05599    0.044
 4372.00    1.13885   1.03822    0.043
 4373.00    1.17533   1.01930    0.043
 4374.00    1.12968   1.00093    0.043
 4375.00    1.04307   0.98431    0.044
 4376.00    1.09006   0.96972    0.044
 4377.00    1.19470   0.96125    0.043
 4378.00    1.12070   0.95964    0.044
 4379.00    0.98060   0.96478    0.044
 4380.00    0.94390   0.97405    0.043
 4381.00    0.93962   0.98706    0.043
 4382.00    0.82470   1.00355    0.043
 4383.00    0.68084   1.02170    0.043
 4384.00    0.78357   1.04075    0.042
 4385.00    0.93898   1.05946    0.042
 4386.00    1.00160   1.07644    0.042
 4387.00    1.04851   1.09066    0.043
 4388.00    1.14899   1.10177    0.043
 4389.00    1.25632   1.10935    0.043
 4390.00    1.20695   1.11321    0.043
 4391.00    1.14360   1.11147    0.043
 4392.00    1.19315   1.10583    0.044
 4393.00    1.24873   1.09699    0.044
 4394.00    1.26100   1.08617    0.044
 4395.00    1.27322   1.07537    0.044
 4396.00    1.35032   1.06515    0.045
 4397.00    1.41723   1.05729    0.045
 4398.00    1.25989   1.05367    0.044
 4399.00    1.11578   1.05544    0.043
 4400.00    1.13504   1.06163    0.044
 4401.00    1.14994   1.07138    0.044
 4402.00    1.12811   1.08393    0.044
 4403.00    1.11316   1.09821    0.044
 4404.00    1.14135   1.11197    0.044
 4405.00    1.16628   1.12443    0.044
 4406.00    1.17513   1.13474    0.044
 4407.00    1.17232   1.14410    0.044
 4408.00    1.12294   1.15149    0.043
 4409.00    1.08146   1.15867    0.042
 4410.00    1.06619   1.16487    0.042
 4411.00    1.06912   1.16998    0.042
 4412.00    1.12303   1.17390    0.042
 4413.00    1.19722   1.17641    0.042
 4414.00    1.31999   1.17787    0.043
 4415.00    1.36569   1.17880    0.044
 4416.00    1.25189   1.17840    0.043
 4417.00    1.19679   1.17745    0.043
 4418.00    1.24736   1.17556    0.043
 4419.00    1.25281   1.17320    0.043
 4420.00    1.18721   1.17073    0.043
 4421.00    1.11985   1.16690    0.043
 4422.00    1.05005   1.16409    0.043
 4423.00    1.07000   1.16150    0.043
 4424.00    1.19911   1.15928    0.042
 4425.00    1.32853   1.15764    0.042
 4426.00    1.45829   1.15737    0.043
 4427.00    1.46154   1.15921    0.043
 4428.00    1.34515   1.16364    0.043
 4429.00    1.27594   1.16917    0.043
 4430.00    1.24607   1.17621    0.042
 4431.00    1.25269   1.18320    0.042
 4432.00    1.28611   1.19047    0.042
 4433.00    1.32584   1.19786    0.042
 4434.00    1.36965   1.20564    0.042
 4435.00    1.35597   1.21373    0.043
 4436.00    1.30986   1.22157    0.043
 4437.00    1.29688   1.22879    0.043
 4438.00    1.30016   1.23382    0.043
 4439.00    1.23830   1.23743    0.043
 4440.00    1.14878   1.23847    0.043
 4441.00    1.16582   1.23569    0.042
 4442.00    1.22159   1.22946    0.042
 4443.00    1.27272   1.21944    0.043
 4444.00    1.32242   1.20545    0.044
 4445.00    1.36696   1.18906    0.043
 4446.00    1.41018   1.17059    0.043
 4447.00    1.34610   1.15258    0.043
 4448.00    1.25967   1.13509    0.043
 4449.00    1.24410   1.12021    0.043
 4450.00    1.24018   1.10812    0.043
 4451.00    1.26957   1.10022    0.042
 4452.00    1.30306   1.09709    0.042
 4453.00    1.19614   1.09802    0.041
 4454.00    1.07727   1.10327    0.041
 4455.00    1.11965   1.11182    0.041
 4456.00    1.16999   1.12294    0.041
 4457.00    1.12297   1.13641    0.041
 4458.00    1.07736   1.15070    0.041
 4459.00    1.21741   1.16666    0.041
 4460.00    1.35044   1.18272    0.041
 4461.00    1.34139   1.19978    0.000
 4462.00    1.32864   1.21663    0.000
 4463.00    1.27248   1.23367    0.000
 4464.00    1.23225   1.24958    0.000
 4465.00    1.32126   1.26473    0.000
 4466.00    1.39078   1.27845    0.000
 4467.00    1.34165   1.28962    0.000
 4468.00    1.30197   1.29798    0.000
 4469.00    1.30759   1.30290    0.000
 4470.00    1.31921   1.30582    0.000
 4471.00    1.35434   1.30603    0.000
 4472.00    1.37834   1.30565    0.000
 4473.00    1.36616   1.30392    0.000
 4474.00    1.35556   1.30239    0.000
 4475.00    1.34932   1.30054    0.000
 4476.00    1.33971   1.29905    0.000
 4477.00    1.32215   1.29723    0.000
 4478.00    1.31056   1.29540    0.000
 4479.00    1.31112   1.29271    0.000
 4480.00    1.32718   1.28955    0.000
 4481.00    1.37072   1.28491    0.000
 4482.00    1.37653   1.28013    0.040
 4483.00    1.32385   1.27475    0.040
 4484.00    1.31486   1.27069    0.041
 4485.00    1.36539   1.26795    0.041
 4486.00    1.38965   1.26767    0.041
 4487.00    1.38241   1.27029    0.040
 4488.00    1.34565   1.27572    0.040
 4489.00    1.27771   1.28497    0.040
 4490.00    1.27753   1.29721    0.040
 4491.00    1.34053   1.31233    0.040
 4492.00    1.40025   1.32883    0.041
 4493.00    1.45728   1.34647    0.040
 4494.00    1.43447   1.36379    0.040
 4495.00    1.35388   1.38020    0.039
 4496.00    1.32744   1.39456    0.039
 4497.00    1.33540   1.40624    0.040
 4498.00    1.39267   1.41464    0.040
 4499.00    1.47734   1.41948    0.040
 4500.00    1.44797   1.42089    0.040
 4501.00    1.36351   1.41911    0.040
 4502.00    1.32127   1.41464    0.040
 4503.00    1.29665   1.40798    0.040
 4504.00    1.38156   1.40015    0.040
 4505.00    1.50556   1.39143    0.040
 4506.00    1.57599   1.38305    0.040
 4507.00    1.63026   1.37448    0.040
 4508.00    1.58436   1.36690    0.040
 4509.00    1.51336   1.35928    0.041
 4510.00    1.49019   1.35206    0.040
 4511.00    1.47674   1.34384    0.040
 4512.00    1.42302   1.33457    0.040
 4513.00    1.36288   1.32333    0.040
 4514.00    1.38055   1.30969    0.040
 4515.00    1.40748   1.29408    0.039
 4516.00    1.38624   1.27587    0.040
 4517.00    1.36110   1.25712    0.040
 4518.00    1.37374   1.23724    0.040
 4519.00    1.38810   1.21932    0.039
 4520.00    1.40415   1.20278    0.040
 4521.00    1.41860   1.19043    0.040
 4522.00    1.35077   1.18147    0.039
 4523.00    1.28270   1.17772    0.038
 4524.00    1.21005   1.17823    0.039
 4525.00    1.14331   1.18325    0.039
 4526.00    1.14276   1.19198    0.039
 4527.00    1.15296   1.20326    0.039
 4528.00    1.24729   1.21663    0.039
 4529.00    1.31074   1.23024    0.038
 4530.00    1.19167   1.24389    0.039
 4531.00    1.11495   1.25596    0.039
 4532.00    1.23643   1.26641    0.039
 4533.00    1.33871   1.27442    0.039
 4534.00    1.36757   1.27997    0.039
 4535.00    1.36077   1.28330    0.039
 4536.00    1.24021   1.28437    0.039
 4537.00    1.17450   1.28400    0.039
 4538.00    1.25698   1.28233    0.039
 4539.00    1.31464   1.28022    0.039
 4540.00    1.31479   1.27812    0.039
 4541.00    1.31843   1.27646    0.039
 4542.00    1.32905   1.27613    0.039
 4543.00    1.32932   1.27696    0.039
 4544.00    1.31151   1.28005    0.039
 4545.00    1.29047   1.28462    0.039
 4546.00    1.26452   1.29160    0.039
 4547.00    1.25213   1.29976    0.039
 4548.00    1.25795   1.30953    0.039
 4549.00    1.27571   1.31949    0.039
 4550.00    1.30759   1.32954    0.000
 4551.00    1.33841   1.33861    0.000
 4552.00    1.36811   1.34643    0.000
 4553.00    1.35972   1.35257    0.000
 4554.00    1.31631   1.35705    0.000
 4555.00    1.31365   1.36012    0.000
 4556.00    1.34402   1.36205    0.000
 4557.00    1.38383   1.36337    0.000
 4558.00    1.43036   1.36436    0.000
 4559.00    1.53578   1.36536    0.000
 4560.00    1.67804   1.36639    0.000
 4561.00    1.66483   1.36741    0.000
 4562.00    1.56657   1.36815    0.000
 4563.00    1.47936   1.36835    0.000
 4564.00    1.39738   1.36762    0.000
 4565.00    1.38551   1.36573    0.000
 4566.00    1.40238   1.36241    0.000
 4567.00    1.39345   1.35769    0.000
 4568.00    1.37547   1.35151    0.000
 4569.00    1.35520   1.34434    0.000
 4570.00    1.33426   1.33643    0.000
 4571.00    1.33882   1.32851    0.000
 4572.00    1.34963   1.32109    0.000
 4573.00    1.38065   1.31480    0.000
 4574.00    1.41567   1.31016    0.000
 4575.00    1.38454   1.30727    0.000
 4576.00    1.34317   1.30640    0.000
 4577.00    1.28262   1.30694    0.000
 4578.00    1.21988   1.30883    0.000
 4579.00    1.23945   1.31101    0.000
 4580.00    1.26533   1.31325    0.000
 4581.00    1.31705   1.31459    0.000
 4582.00    1.36984   1.31493    0.000
 4583.00    1.38844   1.31382    0.000
 4584.00    1.40558   1.31152    0.000
 4585.00    1.37290   1.30815    0.000
 4586.00    1.33970   1.30430    0.000
 4587.00    1.29740   1.30036    0.000
 4588.00    1.26356   1.29700    0.000
 4589.00    1.32018   1.29457    0.000
 4590.00    1.37292   1.29356    0.000
 4591.00    1.39631   1.29422    0.000
 4592.00    1.40655   1.29669    0.000
 4593.00    1.34126   1.30124    0.000
 4594.00    1.29447   1.30757    0.000
 4595.00    1.33221   1.31605    0.000
 4596.00    1.37351   1.32593    0.000
 4597.00    1.42812   1.33754    0.000
 4598.00    1.43996   1.34980    0.000
 4599.00    1.31802   1.36277    0.000
 4600.00    1.23958   1.37535    0.000
 4601.00    1.27657   1.38746    0.000
 4602.00    1.31938   1.39828    0.000
 4603.00    1.37542   1.40772    0.000
 4604.00    1.40477   1.41558    0.000
 4605.00    1.38146   1.42180    0.000
 4606.00    1.37304   1.42675    0.000
 4607.00    1.39022   1.43029    0.000
 4608.00    1.41545   1.43311    0.000
 4609.00    1.45279   1.43490    0.000
 4610.00    1.46916   1.43629    0.000
 4611.00    1.45779   1.43687    0.000
 4612.00    1.41148   1.43712    0.000
 4613.00    1.32447   1.43659    0.000
 4614.00    1.30469   1.43566    0.000
 4615.00    1.35400   1.43397    0.000
 4616.00    1.38669   1.43178    0.000
 4617.00    1.40431   1.42887    0.000
 4618.00    1.40322   1.42538    0.000
 4619.00    1.38718   1.42114    0.000
 4620.00    1.39826   1.41619    0.000
 4621.00    1.42839   1.41039    0.000
 4622.00    1.49407   1.40367    0.000
 4623.00    1.58166   1.39600    0.000
 4624.00    1.54183   1.38731    0.000
 4625.00    1.43337   1.37775    0.000
 4626.00    1.43400   1.36734    0.000
 4627.00    1.48565   1.35641    0.000
 4628.00    1.44420   1.34508    0.000
 4629.00    1.36523   1.33370    0.000
 4630.00    1.36806   1.32245    0.000
 4631.00    1.39902   1.31149    0.000
 4632.00    1.38580   1.30109    0.000
 4633.00    1.35977   1.29117    0.000
 4634.00    1.35463   1.28218    0.000
 4635.00    1.35449   1.27395    0.000
 4636.00    1.34264   1.26713    0.000
 4637.00    1.32854   1.26168    0.000
 4638.00    1.34801   1.25829    0.000
 4639.00    1.37252   1.25693    0.000
 4640.00    1.34750   1.25807    0.000
 4641.00    1.31702   1.26147    0.000
 4642.00    1.31989   1.26723    0.000
 4643.00    1.32517   1.27478    0.000
 4644.00    1.33325   1.28390    0.000
 4645.00    1.34143   1.29375    0.000
 4646.00    1.29193   1.30400    0.000
 4647.00    1.24317   1.31368    0.000
 4648.00    1.23318   1.32238    0.000
 4649.00    1.22648   1.32918    0.000
 4650.00    1.27347   1.33361    0.000
 4651.00    1.31744   1.33504    0.000
 4652.00    1.33060   1.33312    0.000
 4653.00    1.33828   1.32788    0.000
 4654.00    1.30591   1.31947    0.000
 4655.00    1.27825   1.30872    0.000
 4656.00    1.27683   1.29643    0.000
 4657.00    1.27510   1.28403    0.000
 4658.00    1.27199   1.27258    0.000
 4659.00    1.27084   1.26335    0.000
 4660.00    1.27692   1.25708    0.000
 4661.00    1.30119   1.25417    0.000
 4662.00    1.38127   1.25461    0.000
 4663.00    1.43162   1.25786    0.000
 4664.00    1.40445   1.26319    0.000
 4665.00    1.37708   1.26958    0.000
 4666.00    1.34927   1.27618    0.000
 4667.00    1.32752   1.28217    0.000
 4668.00    1.31757   1.28697    0.000
 4669.00    1.29977   1.29044    0.000
 4670.00    1.26869   1.29246    0.000
 4671.00    1.27149   1.29344    0.000
 4672.00    1.32458   1.29357    0.000
 4673.00    1.37618   1.29336    0.000
 4674.00    1.42585   1.29308    0.000
 4675.00    1.43031   1.29298    0.000
 4676.00    1.38284   1.29322    0.000
 4677.00    1.34365   1.29375    0.000
 4678.00    1.31288   1.29458    0.000
 4679.00    1.31993   1.29554    0.000
 4680.00    1.36078   1.29655    0.000
 4681.00    1.37874   1.29745    0.000
 4682.00    1.37866   1.29814    0.000
 4683.00    1.35409   1.29845    0.000
 4684.00    1.31254   1.29822    0.000
 4685.00    1.34414   1.29724    0.000
 4686.00    1.42017   1.29543    0.000
 4687.00    1.42607   1.29249    0.000
 4688.00    1.39480   1.28866    0.000
 4689.00    1.34946   1.28367    0.000
 4690.00    1.29764   1.27815    0.000
 4691.00    1.32986   1.27199    0.000
 4692.00    1.39537   1.26603    0.000
 4693.00    1.43892   1.26036    0.000
 4694.00    1.47506   1.25565    0.000
 4695.00    1.40826   1.25210    0.000
 4696.00    1.31225   1.24992    0.000
 4697.00    1.34445   1.24949    0.000
 4698.00    1.40666   1.25045    0.000
 4699.00    1.39894   1.25330    0.000
 4700.00    1.37807   1.25740    0.000
 4701.00    1.38007   1.26328    0.000
 4702.00    1.38539   1.27033    0.000
 4703.00    1.39903   1.27891    0.000
 4704.00    1.41355   1.28863    0.000
 4705.00    1.36342   1.29951    0.000
 4706.00    1.30886   1.31132    0.000
 4707.00    1.39195   1.32362    0.000
 4708.00    1.47972   1.33615    0.000
 4709.00    1.41734   1.34812    0.000
 4710.00    1.35841   1.35914    0.000
 4711.00    1.41879   1.36821    0.000
 4712.00    1.46697   1.37501    0.000
 4713.00    1.32800   1.37869    0.000
 4714.00    1.21469   1.37928    0.000
 4715.00    1.35297   1.37640    0.000
 4716.00    1.46953   1.37059    0.000
 4717.00    1.43251   1.36222    0.000
 4718.00    1.41496   1.35221    0.000
 4719.00    1.50327   1.34152    0.000
 4720.00    1.56173   1.33103    0.000
 4721.00    1.49011   1.32196    0.000
 4722.00    1.42332   1.31474    0.000
 4723.00    1.37386   1.31023    0.000
 4724.00    1.33748   1.30835    0.000
 4725.00    1.34046   1.30927    0.000
 4726.00    1.35957   1.31256    0.000
 4727.00    1.41998   1.31784    0.000
 4728.00    1.43711   1.32465    0.000
 4729.00    1.35882   1.33229    0.000
 4730.00    1.30099   1.34054    0.000
 4731.00    1.28226   1.34875    0.000
 4732.00    1.25653   1.35685    0.000
 4733.00    1.21913   1.36443    0.000
 4734.00    1.23723   1.37142    0.000
 4735.00    1.33648   1.37766    0.000
 4736.00    1.37599   1.38286    0.000
 4737.00    1.33868   1.38716    0.000
 4738.00    1.30127   1.38994    0.000
 4739.00    1.26375   1.39169    0.000
 4740.00    1.30366   1.39158    0.000
 4741.00    1.42095   1.39042    0.000
 4742.00    1.42859   1.38740    0.000
 4743.00    1.33962   1.38348    0.000
 4744.00    1.34589   1.37815    0.000
 4745.00    1.42612   1.37217    0.000
 4746.00    1.44235   1.36540    0.000
 4747.00    1.41490   1.35820    0.000
 4748.00    1.43507   1.35068    0.000
 4749.00    1.48373   1.34286    0.000
 4750.00    1.49009   1.33490    0.000
 4751.00    1.47437   1.32684    0.000
 4752.00    1.52212   1.31889    0.000
 4753.00    1.59861   1.31135    0.000
 4754.00    1.57450   1.30452    0.000
 4755.00    1.51124   1.29890    0.000
 4756.00    1.48342   1.29495    0.000
 4757.00    1.46735   1.29298    0.000
 4758.00    1.44798   1.29349    0.000
 4759.00    1.42769   1.29625    0.000
 4760.00    1.42857   1.30157    0.000
 4761.00    1.43428   1.30869    0.039
 4762.00    1.38075   1.31753    0.038
 4763.00    1.31636   1.32718    0.038
 4764.00    1.34081   1.33710    0.038
 4765.00    1.37777   1.34665    0.038
 4766.00    1.37269   1.35498    0.038
 4767.00    1.36333   1.36187    0.038
 4768.00    1.35816   1.36658    0.037
 4769.00    1.35326   1.36919    0.037
 4770.00    1.30125   1.36941    0.037
 4771.00    1.24819   1.36762    0.038
 4772.00    1.37553   1.36394    0.038
 4773.00    1.49632   1.35914    0.038
 4774.00    1.42750   1.35353    0.038
 4775.00    1.36297   1.34815    0.038
 4776.00    1.36027   1.34332    0.038
 4777.00    1.35653   1.33996    0.037
 4778.00    1.34285   1.33824    0.037
 4779.00    1.32779   1.33872    0.037
 4780.00    1.30323   1.34123    0.036
 4781.00    1.28825   1.34584    0.035
 4782.00    1.32403   1.35197    0.036
 4783.00    1.34486   1.35940    0.036
 4784.00    1.30205   1.36721    0.036
 4785.00    1.28200   1.37504    0.036
 4786.00    1.34191   1.38201    0.036
 4787.00    1.38626   1.38785    0.036
 4788.00    1.38462   1.39229    0.036
 4789.00    1.38222   1.39493    0.036
 4790.00    1.37789   1.39631    0.036
 4791.00    1.37748   1.39589    0.036
 4792.00    1.38556   1.39482    0.036
 4793.00    1.40655   1.39228    0.036
 4794.00    1.45185   1.38979    0.036
 4795.00    1.46580   1.38638    0.036
 4796.00    1.42822   1.38347    0.036
 4797.00    1.40358   1.38035    0.035
 4798.00    1.39758   1.37810    0.035
 4799.00    1.39548   1.37640    0.036
 4800.00    1.39830   1.37581    0.036
 4801.00    1.40192   1.37637    0.036
 4802.00    1.40643   1.37803    0.036
 4803.00    1.43076   1.38100    0.035
 4804.00    1.47461   1.38470    0.035
 4805.00    1.46625   1.38919    0.036
 4806.00    1.41253   1.39373    0.036
 4807.00    1.34339   1.39794    0.036
 4808.00    1.26246   1.40149    0.036
 4809.00    1.25891   1.40395    0.036
 4810.00    1.30740   1.40511    0.036
 4811.00    1.34415   1.40449    0.035
 4812.00    1.37398   1.40251    0.035
 4813.00    1.38449   1.39886    0.035
 4814.00    1.38509   1.39438    0.036
 4815.00    1.41679   1.38888    0.036
 4816.00    1.46234   1.38318    0.037
 4817.00    1.43818   1.37748    0.037
 4818.00    1.38734   1.37202    0.036
 4819.00    1.43075   1.36741    0.036
 4820.00    1.50479   1.36326    0.037
 4821.00    1.51780   1.36024    0.036
 4822.00    1.51419   1.35740    0.036
 4823.00    1.42933   1.35574    0.036
 4824.00    1.32632   1.35397    0.036
 4825.00    1.31960   1.35292    0.036
 4826.00    1.33004   1.35160    0.036
 4827.00    1.34509   1.35070    0.036
 4828.00    1.36076   1.34964    0.036
 4829.00    1.40039   1.34828    0.036
 4830.00    1.44233   1.34722    0.037
 4831.00    1.40481   1.34612    0.036
 4832.00    1.36247   1.34532    0.036
 4833.00    1.42337   1.34433    0.036
 4834.00    1.48657   1.34351    0.036
 4835.00    1.47147   1.34268    0.036
 4836.00    1.45263   1.34216    0.036
 4837.00    1.33622   1.34099    0.036
 4838.00    1.22958   1.33926    0.036
 4839.00    1.25639   1.33653    0.035
 4840.00    1.28917   1.33233    0.035
 4841.00    1.37600   1.32623    0.036
 4842.00    1.44914   1.31854    0.036
 4843.00    1.43152   1.30893    0.035
 4844.00    1.40645   1.29739    0.035
 4845.00    1.34291   1.28415    0.035
 4846.00    1.30923   1.26926    0.036
 4847.00    1.39985   1.25332    0.037
 4848.00    1.44368   1.23718    0.000
 4849.00    1.32642   1.22173    0.000
 4850.00    1.24014   1.20731    0.000
 4851.00    1.24367   1.19563    0.000
 4852.00    1.24320   1.18559    0.000
 4853.00    1.23282   1.17923    0.000
 4854.00    1.23952   1.17497    0.000
 4855.00    1.28265   1.17444    0.000
 4856.00    1.32234   1.17520    0.000
 4857.00    1.35563   1.17863    0.000
 4858.00    1.33742   1.18275    0.000
 4859.00    1.23583   1.18764    0.000
 4860.00    1.18336   1.19322    0.000
 4861.00    1.20064   1.19960    0.000
 4862.00    1.20580   1.20629    0.000
 4863.00    1.19583   1.21307    0.000
 4864.00    1.22818   1.22045    0.000
 4865.00    1.30715   1.22886    0.000
 4866.00    1.27513   1.23692    0.000
 4867.00    1.13532   1.24629    0.000
 4868.00    1.09035   1.25457    0.000
 4869.00    1.12660   1.26197    0.000
 4870.00    1.17358   1.26790    0.000
 4871.00    1.22867   1.27296    0.000
 4872.00    1.30672   1.27531    0.000
 4873.00    1.39998   1.27535    0.000
 4874.00    1.41722   1.27350    0.000
 4875.00    1.39034   1.27044    0.037
 4876.00    1.36964   1.26688    0.037
 4877.00    1.35208   1.26289    0.038
 4878.00    1.30561   1.26031    0.038
 4879.00    1.24648   1.25812    0.038
 4880.00    1.28717   1.26045    0.037
 4881.00    1.36538   1.26473    0.037
 4882.00    1.38322   1.27323    0.038
 4883.00    1.38179   1.28414    0.038
 4884.00    1.38337   1.29747    0.038
 4885.00    1.38574   1.31218    0.038
 4886.00    1.38682   1.32729    0.038
 4887.00    1.38762   1.34195    0.038
 4888.00    1.33223   1.35467    0.038
 4889.00    1.26711   1.36611    0.038
 4890.00    1.30460   1.37420    0.038
 4891.00    1.35560   1.38019    0.038
 4892.00    1.37227   1.38333    0.038
 4893.00    1.38576   1.38422    0.039
 4894.00    1.49467   1.38340    0.039
 4895.00    1.60898   1.38089    0.038
 4896.00    1.61775   1.37740    0.038
 4897.00    1.62327   1.37234    0.038
 4898.00    1.53789   1.36661    0.038
 4899.00    1.45621   1.36041    0.037
 4900.00    1.46238   1.35382    0.038
 4901.00    1.46887   1.34726    0.038
 4902.00    1.47941   1.34024    0.037
 4903.00    1.47877   1.33299    0.037
 4904.00    1.38088   1.32458    0.037
 4905.00    1.30661   1.31594    0.038
 4906.00    1.38422   1.30591    0.038
 4907.00    1.45272   1.29532    0.038
 4908.00    1.47535   1.28403    0.037
 4909.00    1.48373   1.27335    0.037
 4910.00    1.43404   1.26460    0.037
 4911.00    1.38673   1.25832    0.036
 4912.00    1.34744   1.25604    0.037
 4913.00    1.33184   1.25635    0.037
 4914.00    1.38367   1.26027    0.037
 4915.00    1.41828   1.26709    0.037
 4916.00    1.41099   1.27794    0.037
 4917.00    1.38287   1.29032    0.037
 4918.00    1.31102   1.30303    0.036
 4919.00    1.26867   1.31634    0.036
 4920.00    1.28017   1.32722    0.036
 4921.00    1.29714   1.33623    0.036
 4922.00    1.32284   1.34221    0.036
 4923.00    1.35553   1.34454    0.036
 4924.00    1.39800   1.34415    0.036
 4925.00    1.40943   1.34323    0.036
 4926.00    1.38263   1.33999    0.035
 4927.00    1.36282   1.33620    0.035
 4928.00    1.35060   1.33229    0.035
 4929.00    1.36630   1.33051    0.035
 4930.00    1.40874   1.33138    0.035
 4931.00    1.40468   1.33531    0.035
 4932.00    1.36137   1.34072    0.036
 4933.00    1.34288   1.34882    0.035
 4934.00    1.34284   1.35806    0.035
 4935.00    1.34778   1.36787    0.035
 4936.00    1.35596   1.37725    0.035
 4937.00    1.32883   1.38667    0.034
 4938.00    1.28151   1.39380    0.034
 4939.00    1.31544   1.39930    0.034
 4940.00    1.38982   1.40151    0.000
 4941.00    1.42290   1.40131    0.000
 4942.00    1.43819   1.39762    0.000
 4943.00    1.41699   1.39091    0.000
 4944.00    1.38231   1.38234    0.000
 4945.00    1.40362   1.37118    0.000
 4946.00    1.44245   1.36008    0.000
 4947.00    1.45344   1.34692    0.000
 4948.00    1.45716   1.33609    0.000
 4949.00    1.43400   1.32683    0.000
 4950.00    1.40512   1.31954    0.000
 4951.00    1.38443   1.31523    0.000
 4952.00    1.36513   1.31159    0.000
 4953.00    1.34497   1.31029    0.000
 4954.00    1.32469   1.30907    0.000
 4955.00    1.35224   1.30944    0.000
 4956.00    1.38402   1.30983    0.000
 4957.00    1.34043   1.31125    0.000
 4958.00    1.29287   1.31239    0.000
 4959.00    1.36415   1.31495    0.000
 4960.00    1.43618   1.31688    0.000
 4961.00    1.38928   1.31909    0.000
 4962.00    1.34463   1.32105    0.000
 4963.00    1.34921   1.32152    0.000
 4964.00    1.35318   1.32161    0.000
 4965.00    1.34971   1.31902    0.000
 4966.00    1.34424   1.31484    0.000
 4967.00    1.32189   1.30834    0.000
 4968.00    1.30925   1.29912    0.000
 4969.00    1.35723   1.28894    0.000
 4970.00    1.39455   1.27691    0.000
 4971.00    1.37969   1.26508    0.000
 4972.00    1.35707   1.25353    0.000
 4973.00    1.30359   1.24352    0.000
 4974.00    1.27321   1.23508    0.000
 4975.00    1.31922   1.22970    0.000
 4976.00    1.35275   1.22791    0.000
 4977.00    1.35142   1.22905    0.000
 4978.00    1.32674   1.23218    0.000
 4979.00    1.24624   1.23746    0.000
 4980.00    1.21448   1.24361    0.000
 4981.00    1.28338   1.24912    0.000
 4982.00    1.30994   1.25505    0.000
 4983.00    1.26042   1.25904    0.000
 4984.00    1.21561   1.26239    0.000
 4985.00    1.17824   1.26390    0.000
 4986.00    1.19220   1.26213    0.000
 4987.00    1.27700   1.25950    0.000
 4988.00    1.33209   1.25450    0.000
 4989.00    1.35112   1.24709    0.000
 4990.00    1.33004   1.23880    0.000
 4991.00    1.26602   1.22855    0.000
 4992.00    1.27780   1.21802    0.000
 4993.00    1.36115   1.20801    0.000
 4994.00    1.39472   1.19837    0.000
 4995.00    1.38684   1.18954    0.000
 4996.00    1.38709   1.18155    0.000
 4997.00    1.39330   1.17398    0.000
 4998.00    1.36505   1.16731    0.000
 4999.00    1.31463   1.16254    0.000
 5000.00    1.28527   1.15944    0.000
 5001.00    1.26777   1.15630    0.000
 5002.00    1.29732   1.15220    0.000
 5003.00    1.34992   1.14970    0.000
 5004.00    1.38333   1.14577    0.000
 5005.00    1.40862   1.14389    0.000
 5006.00    1.38383   1.14214    0.000
 5007.00    1.34089   1.14266    0.000
 5008.00    1.30485   1.14464    0.000
 5009.00    1.27093   1.14724    0.000
 5010.00    1.26951   1.15064    0.000
 5011.00    1.27638   1.15615    0.000
 5012.00    1.28638   1.16250    0.000
 5013.00    1.29703   1.16973    0.000
 5014.00    1.30378   1.17736    0.000
 5015.00    1.30990   1.18564    0.000
 5016.00    1.25067   1.19572    0.000
 5017.00    1.18343   1.20412    0.000
 5018.00    1.22084   1.21357    0.000
 5019.00    1.26710   1.22090    0.000
 5020.00    1.32505   1.22748    0.000
 5021.00    1.38357   1.23406    0.000
 5022.00    1.32133   1.23762    0.000
 5023.00    1.25807   1.23995    0.000
 5024.00    1.24587   1.23960    0.000
 5025.00    1.23482   1.23758    0.000
 5026.00    1.24694   1.23283    0.000
 5027.00    1.26471   1.22647    0.000
 5028.00    1.34845   1.21849    0.000
 5029.00    1.42008   1.21203    0.035
 5030.00    1.39385   1.20613    0.034
 5031.00    1.36968   1.20094    0.033
 5032.00    1.35804   1.19856    0.034
 5033.00    1.35240   1.19678    0.034
 5034.00    1.37542   1.19956    0.034
 5035.00    1.37328   1.20443    0.034
 5036.00    1.27311   1.21045    0.034
 5037.00    1.19630   1.21797    0.034
 5038.00    1.19521   1.22498    0.034
 5039.00    1.19664   1.23200    0.034
 5040.00    1.20494   1.23776    0.034
 5041.00    1.20623   1.24380    0.034
 5042.00    1.19105   1.24991    0.034
 5043.00    1.19511   1.25675    0.034
 5044.00    1.23828   1.26362    0.034
 5045.00    1.26785   1.27123    0.035
 5046.00    1.27336   1.27844    0.035
 5047.00    1.29685   1.28579    0.034
 5048.00    1.34818   1.29191    0.034
 5049.00    1.36670   1.29662    0.034
 5050.00    1.34063   1.29969    0.034
 5051.00    1.32200   1.30096    0.034
 5052.00    1.31228   1.29991    0.034
 5053.00    1.32157   1.29725    0.035
 5054.00    1.35093   1.29223    0.035
 5055.00    1.35112   1.28610    0.035
 5056.00    1.32417   1.27821    0.035
 5057.00    1.34182   1.26926    0.035
 5058.00    1.39606   1.26159    0.035
 5059.00    1.40923   1.25326    0.035
 5060.00    1.39273   1.24636    0.035
 5061.00    1.35152   1.23977    0.035
 5062.00    1.29464   1.23349    0.035
 5063.00    1.27974   1.22775    0.035
 5064.00    1.28813   1.22157    0.035
 5065.00    1.30762   1.21613    0.035
 5066.00    1.33247   1.20991    0.035
 5067.00    1.36012   1.20401    0.035
 5068.00    1.38895   1.19881    0.036
 5069.00    1.34573   1.19337    0.036
 5070.00    1.27685   1.18921    0.036
 5071.00    1.24149   1.18532    0.035
 5072.00    1.21622   1.18403    0.035
 5073.00    1.21148   1.18365    0.035
 5074.00    1.21188   1.18609    0.036
 5075.00    1.25493   1.19123    0.036
 5076.00    1.30661   1.19815    0.036
 5077.00    1.28809   1.20602    0.035
 5078.00    1.25840   1.21426    0.035
 5079.00    1.23781   1.22317    0.035
 5080.00    1.21829   1.23082    0.035
 5081.00    1.22562   1.23749    0.034
 5082.00    1.23510   1.24223    0.034
 5083.00    1.23503   1.24579    0.034
 5084.00    1.23452   1.24710    0.034
 5085.00    1.25268   1.24656    0.034
 5086.00    1.27080   1.24409    0.034
 5087.00    1.27564   1.24029    0.034
 5088.00    1.28026   1.23503    0.034
 5089.00    1.28055   1.22865    0.033
 5090.00    1.27820   1.22240    0.033
 5091.00    1.24654   1.21587    0.033
 5092.00    1.22137   1.21096    0.032
 5093.00    1.24678   1.20572    0.033
 5094.00    1.26531   1.20310    0.033
 5095.00    1.24336   1.20113    0.033
 5096.00    1.22118   1.19953    0.033
 5097.00    1.19790   1.19832    0.033
 5098.00    1.18569   1.19824    0.032
 5099.00    1.21563   1.19931    0.033
 5100.00    1.23972   1.20164    0.033
 5101.00    1.24521   1.20511    0.033
 5102.00    1.24592   1.20882    0.033
 5103.00    1.23371   1.21451    0.033
 5104.00    1.23836   1.21924    0.033
 5105.00    1.28201   1.22435    0.033
 5106.00    1.30836   1.22894    0.033
 5107.00    1.30013   1.23113    0.033
 5108.00    1.28209   1.23195    0.033
 5109.00    1.24696   1.23108    0.033
 5110.00    1.20661   1.22730    0.033
 5111.00    1.15832   1.22210    0.033
 5112.00    1.14573   1.21504    0.033
 5113.00    1.18098   1.20600    0.034
 5114.00    1.22726   1.19722    0.034
 5115.00    1.28653   1.18773    0.034
 5116.00    1.29339   1.18002    0.034
 5117.00    1.24571   1.17290    0.034
 5118.00    1.25027   1.16812    0.034
 5119.00    1.30276   1.16582    0.034
 5120.00    1.32845   1.16537    0.034
 5121.00    1.33245   1.16594    0.033
 5122.00    1.27531   1.16700    0.033
 5123.00    1.17464   1.16999    0.032
 5124.00    1.12490   1.17226    0.033
 5125.00    1.10696   1.17533    0.033
 5126.00    1.15978   1.17697    0.033
 5127.00    1.25122   1.17765    0.034
 5128.00    1.26876   1.17673    0.034
 5129.00    1.25123   1.17566    0.034
 5130.00    1.16929   1.17328    0.034
 5131.00    1.06099   1.16820    0.034
 5132.00    1.08783   1.16473    0.034
 5133.00    1.16193   1.15980    0.034
 5134.00    1.20037   1.15645    0.034
 5135.00    1.22831   1.15420    0.034
 5136.00    1.22589   1.14977    0.034
 5137.00    1.21606   1.14660    0.034
 5138.00    1.18032   1.14643    0.034
 5139.00    1.13946   1.14575    0.034
 5140.00    1.20982   1.14578    0.035
 5141.00    1.29733   1.14771    0.035
 5142.00    1.20822   1.15026    0.035
 5143.00    1.09899   1.15486    0.034
 5144.00    1.12547   1.15869    0.034
 5145.00    1.16231   1.16238    0.033
 5146.00    1.19885   1.16584    0.033
 5147.00    1.23538   1.16796    0.033
 5148.00    1.24809   1.16803    0.034
 5149.00    1.25882   1.16596    0.034
 5150.00    1.19420   1.16020    0.034
 5151.00    1.13599   1.15019    0.033
 5152.00    1.18873   1.13617    0.034
 5153.00    1.23664   1.11832    0.034
 5154.00    1.23324   1.09771    0.035
 5155.00    1.22447   1.07577    0.036
 5156.00    1.17535   1.05036    0.035
 5157.00    1.14267   1.02506    0.034
 5158.00    1.20419   1.00223    0.035
 5159.00    1.25260   0.98142    0.035
 5160.00    1.24127   0.96496    0.034
 5161.00    1.22608   0.95154    0.034
 5162.00    1.19655   0.94468    0.034
 5163.00    1.17016   0.94330    0.034
 5164.00    1.15361   0.94614    0.034
 5165.00    1.12341   0.95038    0.034
 5166.00    1.05708   0.95500    0.033
 5167.00    1.00666   0.96229    0.033
 5168.00    0.99244   0.97093    0.033
 5169.00    0.97495   0.98034    0.032
 5170.00    0.95103   0.98900    0.032
 5171.00    0.95829   0.99643    0.032
 5172.00    1.01903   1.00366    0.033
 5173.00    1.04089   1.00899    0.033
 5174.00    1.00428   1.01506    0.033
 5175.00    1.00805   1.02182    0.033
 5176.00    1.06517   1.02797    0.033
 5177.00    1.10461   1.03435    0.032
 5178.00    1.12348   1.04359    0.032
 5179.00    1.09619   1.05740    0.032
 5180.00    1.02154   1.06977    0.031
 5181.00    1.00797   1.08258    0.031
 5182.00    1.04968   1.09406    0.032
 5183.00    1.06016   1.10435    0.032
 5184.00    1.04572   1.11500    0.031
 5185.00    1.04637   1.12242    0.031
 5186.00    1.05761   1.12842    0.031
 5187.00    1.08513   1.13397    0.031
 5188.00    1.12266   1.13937    0.031
 5189.00    1.16505   1.14120    0.032
 5190.00    1.21004   1.14111    0.000
 5191.00    1.19639   1.13968    0.000
 5192.00    1.15538   1.13604    0.000
 5193.00    1.19239   1.13065    0.000
 5194.00    1.26077   1.12453    0.000
 5195.00    1.28139   1.11803    0.000
 5196.00    1.28561   1.11205    0.000
 5197.00    1.26677   1.10839    0.000
 5198.00    1.24127   1.10557    0.000
 5199.00    1.25966   1.10545    0.000
 5200.00    1.28854   1.10729    0.000
 5201.00    1.27969   1.11361    0.000
 5202.00    1.26358   1.12066    0.000
 5203.00    1.23925   1.13112    0.000
 5204.00    1.21369   1.14363    0.000
 5205.00    1.16131   1.15560    0.000
 5206.00    1.10601   1.16909    0.000
 5207.00    1.14587   1.17931    0.000
 5208.00    1.19261   1.18844    0.000
 5209.00    1.22868   1.19359    0.000
 5210.00    1.26434   1.19670    0.000
 5211.00    1.21560   1.19759    0.034
 5212.00    1.16787   1.19614    0.034
 5213.00    1.17138   1.19503    0.033
 5214.00    1.17563   1.19145    0.033
 5215.00    1.19188   1.18874    0.034
 5216.00    1.21142   1.18587    0.034
 5217.00    1.26438   1.18248    0.034
 5218.00    1.30746   1.18060    0.033
 5219.00    1.27857   1.17996    0.033
 5220.00    1.25169   1.18160    0.033
 5221.00    1.23601   1.18623    0.033
 5222.00    1.21358   1.19434    0.033
 5223.00    1.16115   1.20489    0.033
 5224.00    1.12745   1.21526    0.033
 5225.00    1.16213   1.22662    0.034
 5226.00    1.18899   1.23693    0.034
 5227.00    1.19191   1.24573    0.034
 5228.00    1.18372   1.25568    0.034
 5229.00    1.14661   1.26358    0.033
 5230.00    1.13592   1.27123    0.033
 5231.00    1.18431   1.27714    0.033
 5232.00    1.21478   1.28006    0.033
 5233.00    1.21052   1.28056    0.033
 5234.00    1.22521   1.27778    0.033
 5235.00    1.27195   1.27459    0.033
 5236.00    1.31016   1.27030    0.033
 5237.00    1.33574   1.26415    0.033
 5238.00    1.33000   1.25879    0.033
 5239.00    1.28351   1.25348    0.032
 5240.00    1.24860   1.24772    0.032
 5241.00    1.22699   1.24251    0.032
 5242.00    1.25776   1.23764    0.032
 5243.00    1.34151   1.23560    0.032
 5244.00    1.32905   1.23364    0.032
 5245.00    1.23074   1.23260    0.032
 5246.00    1.19142   1.23074    0.032
 5247.00    1.19848   1.22633    0.032
 5248.00    1.21353   1.22137    0.032
 5249.00    1.23409   1.21200    0.032
 5250.00    1.25220   1.20172    0.032
 5251.00    1.26884   1.18878    0.032
 5252.00    1.27172   1.17460    0.032
 5253.00    1.26733   1.15852    0.032
 5254.00    1.28685   1.14190    0.032
 5255.00    1.31735   1.12579    0.033
 5256.00    1.30106   1.10779    0.033
 5257.00    1.26627   1.09340    0.033
 5258.00    1.22367   1.08460    0.033
 5259.00    1.17845   1.08089    0.033
 5260.00    1.22080   1.07954    0.033
 5261.00    1.28794   1.08428    0.033
 5262.00    1.22093   1.09184    0.033
 5263.00    1.12261   1.10228    0.034
 5264.00    1.05934   1.11800    0.034
 5265.00    1.00265   1.13497    0.034
 5266.00    1.00559   1.15366    0.034
 5267.00    1.01717   1.17226    0.034
 5268.00    1.07221   1.19100    0.034
 5269.00    1.13183   1.20722    0.035
 5270.00    1.14097   1.22260    0.035
 5271.00    1.14667   1.23783    0.035
 5272.00    1.16558   1.25257    0.035
 5273.00    1.18492   1.26747    0.035
 5274.00    1.23755   1.27982    0.035
 5275.00    1.28843   1.28980    0.035
 5276.00    1.28198   1.29870    0.034
 5277.00    1.27556   1.30738    0.034
 5278.00    1.26955   1.31467    0.034
 5279.00    1.26952   1.32123    0.034
 5280.00    1.32791   1.32543    0.034
 5281.00    1.38042   1.32830    0.034
 5282.00    1.39148   1.32873    0.034
 5283.00    1.39863   1.32542    0.034
 5284.00    1.38463   1.31985    0.034
 5285.00    1.36980   1.31316    0.034
 5286.00    1.35140   1.30870    0.033
 5287.00    1.33062   1.30376    0.033
 5288.00    1.30135   1.29874    0.033
 5289.00    1.27730   1.29573    0.033
 5290.00    1.26889   1.29461    0.033
 5291.00    1.26967   1.29654    0.032
 5292.00    1.29395   1.29990    0.033
 5293.00    1.31475   1.30600    0.033
 5294.00    1.32791   1.31346    0.032
 5295.00    1.33010   1.32284    0.032
 5296.00    1.31136   1.33345    0.032
 5297.00    1.26856   1.34258    0.032
 5298.00    1.18570   1.35159    0.032
 5299.00    1.16144   1.35925    0.032
 5300.00    1.22268   1.36505    0.031
 5301.00    1.26240   1.36849    0.031
 5302.00    1.27450   1.37007    0.031
 5303.00    1.29641   1.36917    0.031
 5304.00    1.32941   1.36621    0.031
 5305.00    1.35721   1.36252    0.031
 5306.00    1.37982   1.35620    0.031
 5307.00    1.40518   1.34823    0.031
 5308.00    1.43297   1.33795    0.032
 5309.00    1.43432   1.32693    0.032
 5310.00    1.41519   1.31477    0.031
 5311.00    1.38718   1.30098    0.031
 5312.00    1.35312   1.28813    0.031
 5313.00    1.32595   1.27405    0.031
 5314.00    1.30290   1.26090    0.031
 5315.00    1.33029   1.24656    0.031
 5316.00    1.38397   1.23510    0.032
 5317.00    1.36804   1.22632    0.032
 5318.00    1.32067   1.22027    0.031
 5319.00    1.31413   1.21805    0.031
 5320.00    1.32345   1.21630    0.032
 5321.00    1.32860   1.21904    0.032
 5322.00    1.33237   1.22303    0.032
 5323.00    1.30139   1.22925    0.032
 5324.00    1.26078   1.23608    0.032
 5325.00    1.23646   1.24480    0.032
 5326.00    1.21586   1.25476    0.031
 5327.00    1.20983   1.26133    0.032
 5328.00    1.20646   1.26700    0.032
 5329.00    1.22301   1.27150    0.032
 5330.00    1.24234   1.27552    0.032
 5331.00    1.28816   1.28019    0.033
 5332.00    1.33665   1.28271    0.033
 5333.00    1.33468   1.28470    0.033
 5334.00    1.32948   1.28742    0.033
 5335.00    1.35021   1.28903    0.033
 5336.00    1.37142   1.29263    0.032
 5337.00    1.27384   1.29725    0.032
 5338.00    1.18214   1.30480    0.032
 5339.00    1.25819   1.31328    0.032
 5340.00    1.32982   1.32123    0.032
 5341.00    1.33804   1.33117    0.031
 5342.00    1.34060   1.33988    0.031
 5343.00    1.29015   1.34991    0.031
 5344.00    1.25297   1.36004    0.031
 5345.00    1.30621   1.36783    0.031
 5346.00    1.35446   1.37593    0.031
 5347.00    1.37627   1.38147    0.031
 5348.00    1.38746   1.38481    0.031
 5349.00    1.35349   1.38473    0.031
 5350.00    1.32692   1.38220    0.030
 5351.00    1.32626   1.37775    0.031
 5352.00    1.31913   1.36989    0.031
 5353.00    1.29287   1.36146    0.031
 5354.00    1.29579   1.35053    0.030
 5355.00    1.37199   1.34054    0.031
 5356.00    1.42985   1.32913    0.031
 5357.00    1.44803   1.31805    0.030
 5358.00    1.45287   1.30782    0.030
 5359.00    1.43264   1.29841    0.030
 5360.00    1.39650   1.29320    0.030
 5361.00    1.33424   1.28936    0.030
 5362.00    1.27605   1.29113    0.030
 5363.00    1.22372   1.29279    0.030
 5364.00    1.20352   1.29596    0.030
 5365.00    1.22398   1.30049    0.030
 5366.00    1.23825   1.30461    0.030
 5367.00    1.24562   1.31153    0.030
 5368.00    1.26031   1.31858   -2.000
 5369.00    1.28220   1.32633   -2.000
 5370.00    1.27932   1.33076   -2.000
 5371.00    1.25495   1.33357   -2.000
 5372.00    1.29215   1.33439   -2.000
 5373.00    1.37640   1.33345   -2.000
 5374.00    1.40289   1.33273   -2.000
 5375.00    1.39061   1.32997   -2.000
 5376.00    1.35354   1.32504   -2.000
 5377.00    1.30188   1.31844   -2.000
 5378.00    1.31591   1.31067   -2.000
 5379.00    1.36364   1.30119   -2.000
 5380.00    1.32591   1.29267   -2.000
 5381.00    1.25021   1.28458   -2.000
 5382.00    1.29971   1.27587   -2.000
 5383.00    1.39700   1.26619    0.031
 5384.00    1.40394   1.25740    0.031
 5385.00    1.38158   1.24874    0.031
 5386.00    1.35701   1.23822    0.031
 5387.00    1.33185   1.23216    0.031
 5388.00    1.33505   1.22766    0.031
 5389.00    1.34457   1.22264    0.031
 5390.00    1.27205   1.21773    0.031
 5391.00    1.18496   1.21371    0.030
 5392.00    1.17064   1.20946    0.030
 5393.00    1.16621   1.20353    0.030
 5394.00    1.21376   1.20121    0.030
 5395.00    1.26633   1.20177    0.031
 5396.00    1.29731   1.20334    0.031
 5397.00    1.32699   1.20554    0.031
 5398.00    1.31995   1.20906    0.030
 5399.00    1.31204   1.21274    0.030
 5400.00    1.31613   1.21917    0.030
 5401.00    1.31929   1.22835    0.029
 5402.00    1.29857   1.23851    0.029
 5403.00    1.27731   1.25019    0.029
 5404.00    1.24876   1.26143    0.029
 5405.00    1.22339   1.27239    0.029
 5406.00    1.22655   1.28151    0.029
 5407.00    1.22713   1.29095    0.028
 5408.00    1.21060   1.29957    0.029
 5409.00    1.20006   1.30503    0.029
 5410.00    1.22038   1.30868    0.028
 5411.00    1.24440   1.31053    0.028
 5412.00    1.28377   1.31105    0.028
 5413.00    1.31693   1.30876    0.028
 5414.00    1.32876   1.30639    0.028
 5415.00    1.33255   1.30395    0.029
 5416.00    1.31306   1.29924    0.029
 5417.00    1.30837   1.29390    0.029
 5418.00    1.34022   1.28565    0.029
 5419.00    1.36656   1.27921    0.029
 5420.00    1.38113   1.27671    0.029
 5421.00    1.39039   1.27304    0.029
 5422.00    1.38984   1.27160    0.029
 5423.00    1.37809   1.26988    0.029
 5424.00    1.34824   1.26941    0.030
 5425.00    1.31002   1.27066    0.030
 5426.00    1.25996   1.27306    0.029
 5427.00    1.23246   1.28201    0.029
 5428.00    1.23310   1.28755    0.029
 5429.00    1.24504   1.29191    0.030
 5430.00    1.26939   1.29710    0.030
 5431.00    1.26580   1.30043    0.030
 5432.00    1.23511   1.30530    0.030
 5433.00    1.24428   1.30663    0.030
 5434.00    1.28751   1.30742    0.031
 5435.00    1.32580   1.30464    0.031
 5436.00    1.36036   1.29921    0.031
 5437.00    1.38968   1.29654    0.030
 5438.00    1.41554   1.29220    0.030
 5439.00    1.41188   1.28864    0.030
 5440.00    1.39112   1.28375    0.030
 5441.00    1.36384   1.27875    0.030
 5442.00    1.33326   1.27377    0.030
 5443.00    1.31793   1.26883    0.030
 5444.00    1.30926   1.26605    0.030
 5445.00    1.28473   1.26430    0.029
 5446.00    1.25426   1.26488    0.029
 5447.00    1.23405   1.26453    0.029
 5448.00    1.21711   1.26520    0.028
 5449.00    1.24150   1.26501    0.028
 5450.00    1.27688   1.26469    0.029
 5451.00    1.29491   1.26459    0.029
 5452.00    1.30916   1.26374    0.029
 5453.00    1.29250   1.26697    0.028
 5454.00    1.27049   1.26875    0.028
 5455.00    1.27657   1.26833    0.028
 5456.00    1.28633   1.26778    0.028
 5457.00    1.26143   1.26577    0.028
 5458.00    1.23333   1.26329    0.028
 5459.00    1.23218   1.25928    0.028
 5460.00    1.23254   1.25613    0.028
 5461.00    1.27494   1.25402    0.028
 5462.00    1.31819   1.24889    0.028
 5463.00    1.35152   1.24421    0.028
 5464.00    1.38291   1.24057    0.028
 5465.00    1.36876   1.23407    0.028
 5466.00    1.35455   1.22941    0.027
 5467.00    1.33973   1.22788    0.028
 5468.00    1.32371   1.22825    0.028
 5469.00    1.29734   1.22842    0.028
 5470.00    1.27633   1.22743    0.028
 5471.00    1.28976   1.22966    0.029
 5472.00    1.29582   1.23101    0.029
 5473.00    1.26492   1.23442    0.029
 5474.00    1.23792   1.24130    0.028
 5475.00    1.22672   1.24725    0.029
 5476.00    1.22579   1.25114    0.029
 5477.00    1.25943   1.25300    0.029
 5478.00    1.28273   1.25709   -2.000
 5479.00    1.27665   1.26087   -2.000
 5480.00    1.28166   1.26518   -2.000
 5481.00    1.31360   1.26860   -2.000
 5482.00    1.33984   1.26991   -2.000
 5483.00    1.35409   1.27059   -2.000
 5484.00    1.29966   1.27061   -2.000
 5485.00    1.12013   1.27139   -2.000
 5486.00    1.05516   1.27038   -2.000
 5487.00    1.17254   1.26999   -2.000
 5488.00    1.25977   1.26967   -2.000
 5489.00    1.30489   1.26739   -2.000
 5490.00    1.33343   1.26408   -2.000
 5491.00    1.34158   1.26154   -2.000
 5492.00    1.30571   1.25940   -2.000
 5493.00    1.22214   1.25534   -2.000
 5494.00    1.23649   1.25276   -2.000
 5495.00    1.34442   1.25003   -2.000
 5496.00    1.39413   1.24646   -2.000
 5497.00    1.39477   1.24323   -2.000
 5498.00    1.36188   1.24039   -2.000
 5499.00    1.30412   1.24035   -2.000
 5500.00    1.27683   1.23960   -2.000
 5501.00    1.26939   1.23838   -2.000
 5502.00    1.28819   1.23920    0.027
 5503.00    1.32197   1.24000    0.027
 5504.00    1.33592   1.24358    0.027
 5505.00    1.34003   1.24732    0.027
 5506.00    1.33154   1.25076    0.027
 5507.00    1.31765   1.25624    0.027
 5508.00    1.30254   1.25987    0.027
 5509.00    1.28698   1.26444    0.027
 5510.00    1.27509   1.26894    0.026
 5511.00    1.26434   1.27163    0.026
 5512.00    1.23754   1.27354    0.026
 5513.00    1.20656   1.27502    0.027
 5514.00    1.22669   1.27678    0.027
 5515.00    1.25767   1.27713    0.028
 5516.00    1.26494   1.27537    0.027
 5517.00    1.26823   1.27296    0.027
 5518.00    1.27149   1.27177    0.027
 5519.00    1.27474   1.26988    0.027
 5520.00    1.30614   1.27006    0.027
 5521.00    1.34002   1.27086    0.028
 5522.00    1.33889   1.27052    0.028
 5523.00    1.33592   1.27133    0.028
 5524.00    1.32401   1.27153    0.028
 5525.00    1.31163   1.27492    0.028
 5526.00    1.27646   1.27838    0.028
 5527.00    1.24290   1.28105    0.028
 5528.00    1.24394   1.28508    0.028
 5529.00    1.24714   1.28800    0.028
 5530.00    1.27682   1.29187    0.028
 5531.00    1.30309   1.29537    0.028
 5532.00    1.30089   1.29947    0.028
 5533.00    1.29996   1.30360    0.028
 5534.00    1.30699   1.30593    0.028
 5535.00    1.30946   1.30909    0.028
 5536.00    1.28963   1.31247    0.028
 5537.00    1.27289   1.31477    0.027
 5538.00    1.26846   1.31630    0.027
 5539.00    1.27289   1.31790    0.027
 5540.00    1.30653   1.31920    0.028
 5541.00    1.32201   1.31934    0.032
 5542.00    1.28685   1.31838    0.078
 5543.00    1.26626   1.31716   -1.000
 5544.00    1.28045   1.31560   -1.000
 5545.00    1.29418   1.31306   -1.000
 5546.00    1.30694   1.30962   -1.000
 5547.00    1.31169   1.30625   -1.000
 5548.00    1.30209   1.30262   -1.000
 5549.00    1.29795   1.29753    0.129
 5550.00    1.30238   1.29327    0.036
 5551.00    1.30522   1.28870    0.026
 5552.00    1.30587   1.28424    0.026
 5553.00    1.29462   1.27990    0.026
 5554.00    1.26892   1.27492    0.026
 5555.00    1.24221   1.27278    0.026
 5556.00    1.21440   1.26913    0.026
 5557.00    1.20165   1.26550    0.026
 5558.00    1.20308   1.26400    0.026
 5559.00    1.20152   1.26236    0.026
 5560.00    1.19747   1.26248    0.027
 5561.00    1.21190   1.26196    0.027
 5562.00    1.23984   1.26269    0.027
 5563.00    1.25906   1.26338    0.027
 5564.00    1.27267   1.26308    0.027
 5565.00    1.26188   1.26471    0.027
 5566.00    1.23738   1.26543    0.027
 5567.00    1.24386   1.26524    0.027
 5568.00    1.26551   1.26403    0.027
 5569.00    1.27874   1.26173    0.028
 5570.00    1.28841   1.25871    0.028
 5571.00    1.28179   1.25489    0.028
 5572.00    1.26927   1.24941    0.027
 5573.00    1.25500   1.24216    0.027
 5574.00    1.24019   1.23655    0.027
 5575.00    1.21690   1.22988    0.027
 5576.00    1.19146   1.22291    0.027
 5577.00    1.23801   1.21664    0.027
 5578.00    1.29948   1.20899    0.027
 5579.00    1.27419   1.20531    0.027
 5580.00    1.23476   1.20294    0.028
 5581.00    1.22668   1.20128    0.027
 5582.00    1.22244   1.20186    0.027
 5583.00    1.21278   1.20137    0.027
 5584.00    1.20267   1.20273    0.027
 5585.00    1.18974   1.20512    0.027
 5586.00    1.17667   1.20866    0.027
 5587.00    1.14405   1.21462    0.027
 5588.00    1.11195   1.21889    0.027
 5589.00    1.12889   1.22134    0.027
 5590.00    1.14630   1.22650    0.026
 5591.00    1.17309   1.23277    0.026
 5592.00    1.19613   1.23896    0.027
 5593.00    1.17564   1.24487    0.027
 5594.00    1.15801   1.24870    0.027
 5595.00    1.16337   1.25579    0.027
 5596.00    1.17085   1.26239    0.027
 5597.00    1.19103   1.26736    0.027
 5598.00    1.21386   1.27164    0.027
 5599.00    1.24926   1.27255    0.027
 5600.00    1.27502   1.27422    0.027
 5601.00    1.26331   1.27339    0.027
 5602.00    1.25392   1.27236    0.027
 5603.00    1.25206   1.27141    0.027
 5604.00    1.24439   1.26715    0.027
 5605.00    1.22076   1.26205    0.027
 5606.00    1.20534   1.25377    0.027
 5607.00    1.20921   1.24919    0.027
 5608.00    1.22606   1.24832    0.027
 5609.00    1.26925   1.24470    0.027
 5610.00    1.30850   1.24027    0.027
 5611.00    1.34078   1.23548    0.028
 5612.00    1.35637   1.23527    0.028
 5613.00    1.34616   1.23749    0.027
 5614.00    1.32231   1.23806    0.027
 5615.00    1.27997   1.23795    0.027
 5616.00    1.23386   1.23838    0.026
 5617.00    1.18326   1.24248    0.026
 5618.00    1.16962   1.24641    0.026
 5619.00    1.19492   1.24863    0.027
 5620.00    1.21089   1.25104    0.027
 5621.00    1.21820   1.25287    0.026
 5622.00    1.21625   1.25457    0.026
 5623.00    1.20670   1.25541    0.026
 5624.00    1.22301   1.25575    0.026
 5625.00    1.25797   1.25558    0.027
 5626.00    1.24049   1.25486    0.027
 5627.00    1.18983   1.25275    0.026
 5628.00    1.16142   1.25073    0.026
 5629.00    1.14532   1.24989    0.025
 5630.00    1.16719   1.24917    0.025
 5631.00    1.20733   1.24888    0.026
 5632.00    1.22055   1.24700    0.025
 5633.00    1.22259   1.24670    0.025
 5634.00    1.22696   1.24794    0.025
 5635.00    1.23216   1.24814    0.026
 5636.00    1.22732   1.24932    0.025
 5637.00    1.21946   1.25001    0.025
 5638.00    1.24006   1.25099    0.025
 5639.00    1.26773   1.25146    0.025
 5640.00    1.25999   1.25006    0.025
 5641.00    1.24510   1.24889    0.025
 5642.00    1.24384   1.24869    0.026
 5643.00    1.24474   1.24746    0.026
 5644.00    1.25926   1.24348    0.026
 5645.00    1.27539   1.23923    0.026
 5646.00    1.24188   1.23663    0.025
 5647.00    1.20440   1.23546    0.025
 5648.00    1.19233   1.23272    0.026
 5649.00    1.18139   1.22761    0.026
 5650.00    1.20184   1.22603    0.026
 5651.00    1.22264   1.22805    0.026
 5652.00    1.24228   1.22953    0.026
 5653.00    1.25904   1.22953    0.026
 5654.00    1.22279   1.23058    0.027
 5655.00    1.18633   1.23497    0.027
 5656.00    1.14765   1.24045    0.027
 5657.00    1.11141   1.24549    0.026
 5658.00    1.09412   1.24989    0.026
 5659.00    1.08874   1.25529    0.026
 5660.00    1.15329   1.26117    0.026
 5661.00    1.20640   1.26604    0.027
 5662.00    1.20629   1.27112    0.026
 5663.00    1.21559   1.27578    0.026
 5664.00    1.26063   1.27969    0.026
 5665.00    1.29104   1.28225    0.026
 5666.00    1.27500   1.28339    0.026
 5667.00    1.25825   1.28476    0.025
 5668.00    1.23959   1.28436    0.025
 5669.00    1.22343   1.28292    0.025
 5670.00    1.21304   1.28162    0.025
 5671.00    1.21199   1.28011    0.025
 5672.00    1.22959   1.27796    0.025
 5673.00    1.25241   1.27406    0.025
 5674.00    1.28430   1.27101    0.025
 5675.00    1.30423   1.26991    0.025
 5676.00    1.30594   1.26986    0.026
 5677.00    1.30602   1.26889    0.026
 5678.00    1.30391   1.26793    0.026
 5679.00    1.29136   1.26747    0.026
 5680.00    1.26651   1.26783    0.026
 5681.00    1.25562   1.26929    0.025
 5682.00    1.25921   1.26942    0.025
 5683.00    1.25196   1.26996    0.025
 5684.00    1.23476   1.26827    0.025
 5685.00    1.22716   1.26640    0.025
 5686.00    1.22730   1.26500    0.025
 5687.00    1.22060   1.26059    0.025
 5688.00    1.20903   1.25694    0.025
 5689.00    1.20606   1.25136    0.025
 5690.00    1.20846   1.24585    0.026
 5691.00    1.22040   1.24120    0.026
 5692.00    1.23755   1.23330    0.026
 5693.00    1.24485   1.22713    0.026
 5694.00    1.24749   1.22183    0.026
 5695.00    1.24283   1.21665    0.026
 5696.00    1.23519   1.21445    0.026
 5697.00    1.24448   1.21068    0.027
 5698.00    1.25967   1.20817    0.027
 5699.00    1.25301   1.20960    0.027
 5700.00    1.23993   1.21096    0.027
 5701.00    1.25654   1.21556    0.026
 5702.00    1.28039   1.22077    0.026
 5703.00    1.27124   1.22566    0.026
 5704.00    1.25560   1.23438    0.026
 5705.00    1.23445   1.24275    0.025
 5706.00    1.21245   1.25192    0.025
 5707.00    1.21028   1.26156    0.025
 5708.00    1.21036   1.26918    0.025
 5709.00    1.19246   1.27810    0.025
 5710.00    1.17320   1.28637    0.025
 5711.00    1.17067   1.29312    0.025
 5712.00    1.16881   1.29850    0.025
 5713.00    1.21122   1.30167    0.025
 5714.00    1.25296   1.30542    0.024
 5715.00    1.25242   1.30864    0.024
 5716.00    1.25213   1.31052    0.025
 5717.00    1.25595   1.31027    0.025
 5718.00    1.26215   1.30891    0.024
 5719.00    1.29351   1.30929    0.025
 5720.00    1.32132   1.30962    0.025
 5721.00    1.32239   1.30996    0.025
 5722.00    1.32087   1.30875    0.025
 5723.00    1.30454   1.30694    0.025
 5724.00    1.29473   1.30701    0.025
 5725.00    1.31451   1.30712    0.025
 5726.00    1.32764   1.30799    0.025
 5727.00    1.31598   1.30807    0.026
 5728.00    1.30953   1.30682    0.026
 5729.00    1.31926   1.30611    0.026
 5730.00    1.32644   1.30580    0.026
 5731.00    1.32690   1.30627    0.026
 5732.00    1.32099   1.30649    0.026
 5733.00    1.30063   1.30493    0.026
 5734.00    1.28166   1.30228    0.026
 5735.00    1.26542   1.30067    0.026
 5736.00    1.25962   1.30000    0.026
 5737.00    1.27171   1.29937    0.026
 5738.00    1.29265   1.29742    0.026
 5739.00    1.32687   1.29377    0.026
 5740.00    1.33838   1.29097    0.000
 5741.00    1.31998   1.28974    0.000
 5742.00    1.29407   1.28899    0.000
 5743.00    1.25944   1.28760    0.000
 5744.00    1.23268   1.28540    0.000
 5745.00    1.21399   1.28342    0.000
 5746.00    1.21250   1.28295    0.000
 5747.00    1.22657   1.28344    0.000
 5748.00    1.24598   1.28350    0.000
 5749.00    1.26965   1.28374    0.000
 5750.00    1.29774   1.28437    0.000
 5751.00    1.32893   1.28560    0.000
 5752.00    1.34330   1.28764    0.000
 5753.00    1.34734   1.28931    0.000
 5754.00    1.33888   1.29109    0.000
 5755.00    1.32372   1.29338    0.000
 5756.00    1.30400   1.29548    0.000
 5757.00    1.28215   1.29741    0.000
 5758.00    1.28371   1.29830    0.000
 5759.00    1.29467   1.29893    0.000
 5760.00    1.29788   1.29878    0.000
 5761.00    1.29845   1.29768    0.000
 5762.00    1.29087   1.29585    0.000
 5763.00    1.28095   1.29205    0.000
 5764.00    1.27057   1.28830    0.000
 5765.00    1.26008   1.28354    0.000
 5766.00    1.25391   1.27710    0.000
 5767.00    1.24857   1.27077    0.000
 5768.00    1.24799   1.26323    0.000
 5769.00    1.24812   1.25657    0.000
 5770.00    1.25768   1.25122    0.000
 5771.00    1.26828   1.24429    0.000
 5772.00    1.27611   1.23892    0.000
 5773.00    1.28374   1.23475    0.000
 5774.00    1.28229   1.23178    0.000
 5775.00    1.28050   1.23284    0.000
 5776.00    1.29785   1.23257    0.000
 5777.00    1.31452   1.23391    0.000
 5778.00    1.30380   1.23790    0.000
 5779.00    1.29377   1.24136    0.000
 5780.00    1.29479   1.24885    0.000
 5781.00    1.29440   1.25495    0.000
 5782.00    1.27971   1.26061    0.000
 5783.00    1.26635   1.26848    0.000
 5784.00    1.26269   1.27373    0.000
 5785.00    1.25875   1.28101    0.000
 5786.00    1.25333   1.28741    0.000
 5787.00    1.24723   1.29202    0.000
 5788.00    1.23814   1.29788    0.000
 5789.00    1.23264   1.30087    0.000
 5790.00    1.24020   1.30416    0.000
 5791.00    1.24692   1.30750   -2.000
 5792.00    1.25104   1.30886   -2.000
 5793.00    1.25478   1.31112   -2.000
 5794.00    1.25752   1.31174   -2.000
 5795.00    1.26944   1.31159   -2.000
 5796.00    1.30184   1.31240   -2.000
 5797.00    1.31822   1.31172   -2.000
 5798.00    1.30360   1.31167   -2.000
 5799.00    1.28383   1.31174   -2.000
 5800.00    1.25539   1.31080   -2.000
 5801.00    1.24686   1.31131   -2.000
 5802.00    1.26778   1.31108   -2.000
 5803.00    1.28661   1.31101   -2.000
 5804.00    1.30273   1.31202   -2.000
 5805.00    1.30997   1.31250   -2.000
 5806.00    1.30705   1.31431   -2.000
 5807.00    1.29983   1.31568   -2.000
 5808.00    1.28826   1.31692   -2.000
 5809.00    1.28222   1.31909   -2.000
 5810.00    1.28110   1.32090   -2.000
 5811.00    1.28608   1.32342    0.000
 5812.00    1.29585   1.32540    0.000
 5813.00    1.31009   1.32702    0.000
 5814.00    1.32742   1.32870    0.000
 5815.00    1.34029   1.32995    0.000
 5816.00    1.35047   1.33121    0.000
 5817.00    1.35040   1.33181    0.000
 5818.00    1.34492   1.33220    0.000
 5819.00    1.33027   1.33230    0.000
 5820.00    1.31144   1.33208    0.000
 5821.00    1.30927   1.33154    0.000
 5822.00    1.31368   1.33074    0.000
 5823.00    1.33314   1.33012    0.000
 5824.00    1.35765   1.32963    0.000
 5825.00    1.37072   1.32886    0.000
 5826.00    1.38056   1.32746    0.000
 5827.00    1.35472   1.32644    0.000
 5828.00    1.32057   1.32575    0.000
 5829.00    1.32319   1.32488    0.000
 5830.00    1.33268   1.32323    0.000
 5831.00    1.34302   1.32080    0.000
 5832.00    1.35348   1.31870    0.000
 5833.00    1.34067   1.31637    0.000
 5834.00    1.32544   1.31321    0.000
 5835.00    1.31806   1.30841    0.000
 5836.00    1.31121   1.30307    0.000
 5837.00    1.30718   1.29850    0.000
 5838.00    1.30325   1.29333    0.000
 5839.00    1.29560   1.28747    0.000
 5840.00    1.28863   1.27988    0.000
 5841.00    1.30288   1.27252    0.000
 5842.00    1.31584   1.26767    0.000
 5843.00    1.30937   1.26266    0.000
 5844.00    1.30533   1.25739    0.000
 5845.00    1.32485   1.25104    0.000
 5846.00    1.33819   1.24608    0.000
 5847.00    1.30827   1.24515    0.000
 5848.00    1.27865   1.24395    0.000
 5849.00    1.25074   1.24261    0.000
 5850.00    1.23122   1.24091    0.000
 5851.00    1.24812   1.24096    0.000
 5852.00    1.26106   1.24460    0.000
 5853.00    1.25991   1.24730    0.000
 5854.00    1.25511   1.24902    0.000
 5855.00    1.23936   1.25067    0.000
 5856.00    1.22428   1.25342    0.000
 5857.00    1.21088   1.25771    0.000
 5858.00    1.20177   1.26062    0.000
 5859.00    1.20206   1.26168    0.000
 5860.00    1.20883   1.26243    0.000
 5861.00    1.22795   1.26310    0.000
 5862.00    1.24180   1.26343    0.000
 5863.00    1.24690   1.26205    0.000
 5864.00    1.25867   1.25871    0.000
 5865.00    1.28013   1.25510    0.000
 5866.00    1.28358   1.24975    0.000
 5867.00    1.26395   1.24222    0.000
 5868.00    1.25017   1.23306    0.000
 5869.00    1.24300   1.22290    0.000
 5870.00    1.25313   1.21228    0.000
 5871.00    1.28047   1.19858    0.000
 5872.00    1.29470   1.18057    0.000
 5873.00    1.29741   1.16115    0.000
 5874.00    1.27828   1.14465    0.000
 5875.00    1.24228   1.12833    0.000
 5876.00    1.23817   1.10891    0.000
 5877.00    1.25576   1.08715    0.000
 5878.00    1.26031   1.06411    0.000
 5879.00    1.25709   1.04865    0.000
 5880.00    1.22728   1.03922    0.000
 5881.00    1.18363   1.02797    0.000
 5882.00    1.17655   1.01891    0.000
 5883.00    1.18596   1.01046    0.000
 5884.00    1.19319   1.00840    0.000
 5885.00    1.19958   1.01779    0.000
 5886.00    1.17843   1.02688    0.000
 5887.00    1.14820   1.03622    0.000
 5888.00    1.10658   1.04815    0.000
 5889.00    1.06182   1.06175    0.000
 5890.00    1.04256   1.08191    0.000
 5891.00    1.02910   1.10170    0.000
 5892.00    1.02506   1.11785    0.000
 5893.00    1.02273   1.13437    0.000
 5894.00    1.03535   1.15011    0.000
 5895.00    1.05005   1.16596    0.000
 5896.00    1.05526   1.17980    0.000
 5897.00    1.05951   1.18982    0.000
 5898.00    1.06265   1.19858    0.000
 5899.00    1.06572   1.20627    0.000
 5900.00    1.08100   1.21341    0.000
 5901.00    1.09676   1.21805    0.024
 5902.00    1.15209   1.21987    0.024
 5903.00    1.20621   1.22285    0.025
 5904.00    1.22624   1.22485    0.025
 5905.00    1.24334   1.22691    0.024
 5906.00    1.21868   1.22886    0.024
 5907.00    1.19471   1.22840    0.024
 5908.00    1.17711   1.23036    0.024
 5909.00    1.16286   1.23211    0.024
 5910.00    1.17138   1.23227    0.024
 5911.00    1.18171   1.23450    0.024
 5912.00    1.20163   1.23521    0.024
 5913.00    1.21467   1.23593    0.024
 5914.00    1.19858   1.23830    0.024
 5915.00    1.18574   1.23823    0.023
 5916.00    1.18424   1.23921    0.023
 5917.00    1.18664   1.23983    0.023
 5918.00    1.20049   1.23824    0.023
 5919.00    1.21148   1.24029    0.023
 5920.00    1.21528   1.24126    0.023
 5921.00    1.21263   1.24073    0.023
 5922.00    1.19603   1.24078    0.023
 5923.00    1.19350   1.23884    0.023
 5924.00    1.21732   1.24064    0.022
 5925.00    1.24152   1.24250    0.023
 5926.00    1.26633   1.24158    0.023
 5927.00    1.28573   1.24241    0.023
 5928.00    1.29735   1.24198    0.023
 5929.00    1.29460   1.24235    0.023
 5930.00    1.27370   1.24386    0.023
 5931.00    1.25353   1.24331    0.023
 5932.00    1.23417   1.24374    0.023
 5933.00    1.22431   1.24410    0.023
 5934.00    1.22377   1.24356    0.023
 5935.00    1.23142   1.24363    0.023
 5936.00    1.24618   1.24242    0.024
 5937.00    1.25301   1.24111    0.024
 5938.00    1.25379   1.24135    0.023
 5939.00    1.26325   1.24170    0.023
 5940.00    1.27853   1.24048    0.024
 5941.00    1.26569   1.23813    0.024
 5942.00    1.23634   1.23777    0.023
 5943.00    1.22377   1.23922    0.023
 5944.00    1.21980   1.24034    0.023
 5945.00    1.23530   1.23986    0.023
 5946.00    1.25943   1.23925    0.023
 5947.00    1.25333   1.24210    0.023
 5948.00    1.23570   1.24534    0.023
 5949.00    1.22497   1.24703    0.023
 5950.00    1.21646   1.24889    0.023
 5951.00    1.20082   1.25079    0.023
 5952.00    1.18326   1.25470    0.022
 5953.00    1.17127   1.25776    0.022
 5954.00    1.16052   1.25913    0.022
 5955.00    1.17654   1.26196    0.023
 5956.00    1.19731   1.26358    0.023
 5957.00    1.21268   1.26520    0.023
 5958.00    1.22733   1.26621    0.023
 5959.00    1.22764   1.26527    0.023
 5960.00    1.22658   1.26584    0.023
 5961.00    1.21370   1.26532    0.023
 5962.00    1.20012   1.26351    0.023
 5963.00    1.20722   1.26182    0.023
 5964.00    1.21484   1.25852    0.023
 5965.00    1.22109   1.25617    0.023
 5966.00    1.22715   1.25376    0.023
 5967.00    1.22847   1.25012    0.024
 5968.00    1.23003   1.24774    0.024
 5969.00    1.23501   1.24426    0.023
 5970.00    1.23965   1.24176    0.023
 5971.00    1.24118   1.24016    0.023
 5972.00    1.24107   1.23669    0.023
 5973.00    1.23019   1.23660    0.023
 5974.00    1.22129   1.23694    0.023
 5975.00    1.22259   1.23602    0.023
 5976.00    1.22593   1.23634    0.023
 5977.00    1.23776   1.23499    0.023
 5978.00    1.24746   1.23665    0.022
 5979.00    1.24982   1.23943    0.023
 5980.00    1.25000   1.23902    0.023
 5981.00    1.24387   1.24037    0.022
 5982.00    1.23672   1.24113    0.022
 5983.00    1.22702   1.24160    0.022
 5984.00    1.22050   1.24243    0.022
 5985.00    1.22072   1.24046    0.022
 5986.00    1.22482   1.24053    0.022
 5987.00    1.23606   1.24062    0.022
 5988.00    1.24869   1.23794    0.022
 5989.00    1.26357   1.23727    0.022
 5990.00    1.27050   1.23474    0.023
 5991.00    1.26619   1.23127    0.022
 5992.00    1.25215   1.23069    0.022
 5993.00    1.22599   1.22761    0.023
 5994.00    1.20179   1.22611    0.023
 5995.00    1.17975   1.22493    0.023
 5996.00    1.17200   1.21973    0.023
 5997.00    1.17807   1.21930    0.023
 5998.00    1.18429   1.21919    0.023
 5999.00    1.19063   1.21684    0.023
 6000.00    1.18082   1.21628    0.023
 6001.00    1.15887   1.21239    0.023
 6002.00    1.14640   1.21171    0.023
 6003.00    1.14019   1.21468    0.023
 6004.00    1.14913   1.21302    0.023
 6005.00    1.16684   1.21206    0.023
 6006.00    1.18301   1.21180    0.023
 6007.00    1.19840   1.21184    0.023
 6008.00    1.18608   1.21521    0.023
 6009.00    1.16169   1.21579    0.022
 6010.00    1.15961   1.21652    0.023
 6011.00    1.16589   1.22064    0.023
 6012.00    1.17241   1.22291    0.023
 6013.00    1.17899   1.22658    0.022
 6014.00    1.17712   1.23081    0.022
 6015.00    1.17301   1.23422    0.022
 6016.00    1.15880   1.23988    0.022
 6017.00    1.14240   1.24410    0.022
 6018.00    1.15356   1.24898    0.022
 6019.00    1.16947   1.25424    0.023
 6020.00    1.17991   1.25743    0.023
 6021.00    1.18964   1.26231    0.023
 6022.00    1.19425   1.26656    0.023
 6023.00    1.19840   1.26994    0.023
 6024.00    1.19800   1.27304    0.023
 6025.00    1.19734   1.27510    0.023
 6026.00    1.19046   1.27836    0.023
 6027.00    1.18348   1.28037    0.023
 6028.00    1.18087   1.28164    0.023
 6029.00    1.17908   1.28356    0.023
 6030.00    1.19622   1.28444    0.023
 6031.00    1.21460   1.28625    0.023
 6032.00    1.24863   1.28731    0.023
 6033.00    1.27883   1.28714    0.023
 6034.00    1.27608   1.28805    0.023
 6035.00    1.27314   1.28837    0.023
 6036.00    1.26899   1.28856    0.023
 6037.00    1.26592   1.28841    0.023
 6038.00    1.26828   1.28715    0.023
 6039.00    1.26689   1.28637    0.023
 6040.00    1.25034   1.28549    0.022
 6041.00    1.23643   1.28334    0.022
 6042.00    1.23142   1.28081    0.022
 6043.00    1.23260   1.27907    0.022
 6044.00    1.25138   1.27738    0.022
 6045.00    1.26277   1.27478    0.022
 6046.00    1.25626   1.27205    0.022
 6047.00    1.24967   1.27022    0.022
 6048.00    1.24292   1.26880    0.022
 6049.00    1.24631   1.26762    0.022
 6050.00    1.26813   1.26540    0.022
 6051.00    1.27889   1.26461    0.022
 6052.00    1.27206   1.26661    0.022
 6053.00    1.26122   1.26662    0.022
 6054.00    1.24481   1.26732    0.023
 6055.00    1.23715   1.26875    0.023
 6056.00    1.24022   1.26983    0.023
 6057.00    1.23567   1.27340    0.023
 6058.00    1.22288   1.27394    0.023
 6059.00    1.21432   1.27478    0.023
 6060.00    1.20979   1.27868    0.023
 6061.00    1.20451   1.27907    0.023
 6062.00    1.19859   1.27937    0.023
 6063.00    1.20174   1.27860    0.023
 6064.00    1.21160   1.27633    0.023
 6065.00    1.22445   1.27700    0.023
 6066.00    1.23923   1.27421    0.023
 6067.00    1.25022   1.26940    0.023
 6068.00    1.25905   1.26741    0.023
 6069.00    1.25632   1.26372    0.023
 6070.00    1.24785   1.25966    0.022
 6071.00    1.24974   1.25578    0.022
 6072.00    1.25607   1.25114    0.022
 6073.00    1.25889   1.24962    0.022
 6074.00    1.26042   1.24732    0.022
 6075.00    1.25371   1.24224    0.022
 6076.00    1.24443   1.24077    0.022
 6077.00    1.23921   1.24061    0.022
 6078.00    1.23504   1.23847    0.022
 6079.00    1.23582   1.23730    0.022
 6080.00    1.23765   1.23679    0.022
 6081.00    1.23137   1.23692    0.022
 6082.00    1.22373   1.23685    0.022
 6083.00    1.21393   1.23506    0.022
 6084.00    1.20386   1.23475    0.022
 6085.00    1.19942   1.23605    0.022
 6086.00    1.19548   1.23635    0.023
 6087.00    1.19171   1.23355    0.023
 6088.00    1.18794   1.23137    0.022
 6089.00    1.20090   1.23369    0.023
 6090.00    1.21412   1.23372    0.023
 6091.00    1.22474   1.23279    0.023
 6092.00    1.23434   1.23257    0.023
 6093.00    1.22254   1.23119    0.023
 6094.00    1.21211   1.23469    0.023
 6095.00    1.21827   1.23564    0.023
 6096.00    1.22517   1.23272    0.023
 6097.00    1.23828   1.23635    0.023
 6098.00    1.25021   1.23883    0.023
 6099.00    1.25473   1.23974    0.022
 6100.00    1.25220   1.24176    0.022
 6101.00    1.21527   1.23932    0.022
 6102.00    1.18279   1.24032    0.022
 6103.00    1.16792   1.24351    0.022
 6104.00    1.15977   1.24018    0.022
 6105.00    1.17375   1.23842    0.022
 6106.00    1.18582   1.23773    0.022
 6107.00    1.19259   1.23350    0.022
 6108.00    1.20040   1.23294    0.022
 6109.00    1.21073   1.23091    0.022
 6110.00    1.22085   1.22612    0.022
 6111.00    1.23055   1.22573    0.022
 6112.00    1.23355   1.22274    0.022
 6113.00    1.22456   1.21943    0.022
 6114.00    1.21378   1.21924    0.022
 6115.00    1.20017   1.21624    0.022
 6116.00    1.19149   1.21547    0.023
 6117.00    1.18959   1.21605    0.023
 6118.00    1.18785   1.21332    0.023
 6119.00    1.18629   1.21121    0.023
 6120.00    1.18092   1.21022    0.022
 6121.00    1.17148   1.20839    0.022
 6122.00    1.16867   1.20559    0.022
 6123.00    1.17211   1.20447    0.023
 6124.00    1.18123   1.20425    0.023
 6125.00    1.19507   1.20355    0.022
 6126.00    1.20664   1.20211    0.022
 6127.00    1.21656   1.19929    0.022
 6128.00    1.21430   1.20096    0.022
 6129.00    1.20422   1.20433    0.022
 6130.00    1.19265   1.20418    0.021
 6131.00    1.18024   1.20556    0.021
 6132.00    1.17034   1.20845    0.021
 6133.00    1.16167   1.21190    0.021
 6134.00    1.15611   1.21383    0.021
 6135.00    1.15187   1.21314    0.022
 6136.00    1.14644   1.21495    0.022
 6137.00    1.14058   1.21710    0.022
 6138.00    1.14020   1.21669    0.022
 6139.00    1.14150   1.21378    0.022
 6140.00    1.15430   1.20987    0.022
 6141.00    1.17003   1.20778    0.023
 6142.00    1.17068   1.20353    0.022
 6143.00    1.16822   1.19646    0.022
 6144.00    1.16214   1.18993    0.022
 6145.00    1.15547   1.18292    0.022
 6146.00    1.16758   1.17532    0.022
 6147.00    1.18198   1.16656    0.022
 6148.00    1.19862   1.15720    0.023
 6149.00    1.21545   1.15123    0.023
 6150.00    1.19795   1.14549    0.022
 6151.00    1.17879   1.13612    0.022
 6152.00    1.17188   1.12992    0.022
 6153.00    1.16522   1.12750    0.022
 6154.00    1.16299   1.12355    0.022
 6155.00    1.16048   1.12090    0.022
 6156.00    1.15263   1.12051    0.022
 6157.00    1.14687   1.12260    0.022
 6158.00    1.16518   1.12606    0.022
 6159.00    1.18034   1.12606    0.022
 6160.00    1.17031   1.12838    0.022
 6161.00    1.15723   1.13574    0.022
 6162.00    1.12579   1.14008    0.022
 6163.00    1.09819   1.14347    0.021
 6164.00    1.08879   1.14954    0.022
 6165.00    1.08275   1.15458    0.022
 6166.00    1.08970   1.15908    0.022
 6167.00    1.09587   1.16212    0.022
 6168.00    1.09952   1.16410    0.022
 6169.00    1.10391   1.16830    0.022
 6170.00    1.11036   1.16945    0.022
 6171.00    1.11349   1.16912    0.022
 6172.00    1.10886   1.17122    0.022
 6173.00    1.11221   1.16861    0.022
 6174.00    1.13170   1.16658    0.022
 6175.00    1.14578   1.16751    0.022
 6176.00    1.15034   1.16318    0.022
 6177.00    1.14344   1.16079    0.022
 6178.00    1.11889   1.15994    0.022
 6179.00    1.09945   1.15714    0.021
 6180.00    1.08693   1.15797    0.022
 6181.00    1.08345   1.15477    0.022
 6182.00    1.09075   1.15239    0.021
 6183.00    1.10353   1.15740    0.021
 6184.00    1.12205   1.15707    0.021
 6185.00    1.13340   1.15649    0.021
 6186.00    1.13809   1.16033    0.022
 6187.00    1.14471   1.16219    0.022
 6188.00    1.15291   1.16543    0.022
 6189.00    1.15683   1.16641    0.022
 6190.00    1.15768   1.16605    0.022
 6191.00    1.15838   1.17065    0.022
 6192.00    1.15898   1.17204    0.022
 6193.00    1.14605   1.17070    0.022
 6194.00    1.12566   1.17167    0.021
 6195.00    1.06129   1.17003    0.022
 6196.00    0.97580   1.16808   -2.000
 6197.00    0.97785   1.16580   -2.000
 6198.00    1.01618   1.16032   -2.000
 6199.00    1.13077   1.15760   -2.000
 6200.00    1.27238   1.15384   -2.000
 6201.00    1.34187   1.14668   -2.000
 6202.00    1.38977   1.14277   -2.000
 6203.00    1.30942   1.13695   -2.000
 6204.00    1.19721   1.13049   -2.000
 6205.00    1.15967   1.12750   -2.000
 6206.00    1.13716   1.12145   -2.000
 6207.00    1.14878   1.11795   -2.000
 6208.00    1.16579   1.11714    0.023
 6209.00    1.16018   1.11208    0.022
 6210.00    1.15192   1.11043    0.022
 6211.00    1.14033   1.11002    0.022
 6212.00    1.12847   1.10682    0.021
 6213.00    1.11437   1.10714    0.021
 6214.00    1.10017   1.10641    0.021
 6215.00    1.08743   1.10495    0.021
 6216.00    1.07486   1.10712    0.021
 6217.00    1.06966   1.10598    0.021
 6218.00    1.06471   1.10509    0.021
 6219.00    1.06416   1.10677    0.021
 6220.00    1.06555   1.10455    0.021
 6221.00    1.08836   1.10404    0.021
 6222.00    1.11105   1.10511    0.021
 6223.00    1.13279   1.10416    0.022
 6224.00    1.15178   1.10532    0.022
 6225.00    1.15463   1.10455    0.022
 6226.00    1.15488   1.10377    0.022
 6227.00    1.14302   1.10413    0.022
 6228.00    1.13350   1.10153    0.022
 6229.00    1.13283   1.10115    0.023
 6230.00    1.13455   1.09968    0.023
 6231.00    1.14387   1.09806    0.022
 6232.00    1.14748   1.09938    0.022
 6233.00    1.13581   1.09536    0.022
 6234.00    1.13027   1.09339    0.022
 6235.00    1.13886   1.09472    0.021
 6236.00    1.14613   1.09052    0.021
 6237.00    1.15078   1.08940    0.021
 6238.00    1.14403   1.08978    0.021
 6239.00    1.11748   1.08652    0.021
 6240.00    1.09800   1.08551    0.021
 6241.00    1.08925   1.08417    0.021
 6242.00    1.08578   1.08203    0.021
 6243.00    1.08935   1.08141    0.021
 6244.00    1.08957   1.08058    0.021
 6245.00    1.08584   1.08132    0.021
 6246.00    1.08874   1.08242    0.021
 6247.00    1.09851   1.08292    0.021
 6248.00    1.10167   1.08392    0.021
 6249.00    1.09878   1.08672    0.021
 6250.00    1.08263   1.09202    0.021
 6251.00    1.05579   1.09474    0.021
 6252.00    1.04802   1.09784    0.021
 6253.00    1.05377   1.10469    0.022
 6254.00    1.05052   1.10941    0.022
 6255.00    1.04166   1.11205    0.022
 6256.00    1.03625   1.11604    0.022
 6257.00    1.03272   1.12159    0.022
 6258.00    1.04533   1.12622    0.022
 6259.00    1.06557   1.12807    0.023
 6260.00    1.10754   1.13137    0.024
 6261.00    1.15836   1.13500    0.025
 6262.00    1.18764   1.13672    0.026
 6263.00    1.20944   1.13922    0.027
 6264.00    1.19226   1.14004    0.027
 6265.00    1.16365   1.14162    0.026
 6266.00    1.12838   1.14480    0.024
 6267.00    1.09150   1.14408    0.023
 6268.00    1.09860   1.14574    0.022
 6269.00    1.11434   1.14864    0.022
 6270.00    1.13741   1.14765    0.021
 6271.00    1.16159   1.15014    0.021
 6272.00    1.16069   1.15158    0.021
 6273.00    1.15695   1.15167    0.021
 6274.00    1.15175   1.15529    0.021
 6275.00    1.14644   1.15447    0.021
 6276.00    1.15127   1.15467    0.021
 6277.00    1.15650   1.15710    0.022
 6278.00    1.14050   1.15520    0.022
 6279.00    1.12431   1.15568    0.021
 6280.00    1.10698   1.15480    0.000
 6281.00    1.09127   1.15203    0.000
 6282.00    1.10309   1.15253    0.000
 6283.00    1.11431   1.14923    0.000
 6284.00    1.11923   1.14637    0.000
 6285.00    1.12346   1.14642    0.000
 6286.00    1.12261   1.14333    0.000
 6287.00    1.12347   1.14127    0.000
 6288.00    1.13407   1.14001    0.000
 6289.00    1.14681   1.13849    0.000
 6290.00    1.16925   1.13893    0.000
 6291.00    1.18602   1.13782    0.000
 6292.00    1.18175   1.13691    0.000
 6293.00    1.17528   1.13827    0.000
 6294.00    1.16200   1.13874    0.000
 6295.00    1.14900   1.13904    0.000
 6296.00    1.13675   1.13928    0.000
 6297.00    1.12852   1.13944    0.000
 6298.00    1.12938   1.14043    0.000
 6299.00    1.13114   1.13990    0.000
 6300.00    1.13465   1.13900    0.000
 6301.00    1.13634   1.13879    0.000
 6302.00    1.13491   1.13702    0.000
 6303.00    1.13510   1.13732    0.000
 6304.00    1.13773   1.13761    0.000
 6305.00    1.13820   1.13454    0.000
 6306.00    1.13585   1.13517    0.000
 6307.00    1.13056   1.13746    0.000
 6308.00    1.12187   1.13636    0.000
 6309.00    1.11704   1.13671    0.000
 6310.00    1.11615   1.13944    0.000
 6311.00    1.11854   1.14212    0.000
 6312.00    1.12387   1.14394    0.000
 6313.00    1.11093   1.14596    0.000
 6314.00    1.08345   1.14836    0.000
 6315.00    1.06699   1.15079    0.000
 6316.00    1.05821   1.15367    0.000
 6317.00    1.05817   1.15383    0.000
 6318.00    1.06348   1.15487    0.000
 6319.00    1.06596   1.15789    0.000
 6320.00    1.06692   1.15657    0.000
 6321.00    1.08974   1.15626    0.020
 6322.00    1.12273   1.15656    0.020
 6323.00    1.15226   1.15381    0.020
 6324.00    1.18041   1.15454    0.021
 6325.00    1.18921   1.15345    0.021
 6326.00    1.19141   1.14941    0.021
 6327.00    1.19552   1.15086    0.021
 6328.00    1.20017   1.15084    0.021
 6329.00    1.18901   1.14815    0.021
 6330.00    1.17410   1.14886    0.021
 6331.00    1.16161   1.14837    0.021
 6332.00    1.14958   1.14854    0.021
 6333.00    1.14447   1.14944    0.021
 6334.00    1.14038   1.14694    0.021
 6335.00    1.12721   1.14820    0.021
 6336.00    1.11307   1.15031    0.021
 6337.00    1.11477   1.14738    0.021
 6338.00    1.11759   1.14680    0.021
 6339.00    1.11497   1.14692    0.021
 6340.00    1.11215   1.14432    0.021
 6341.00    1.09513   1.14196    0.021
 6342.00    1.07855   1.13822    0.021
 6343.00    1.07954   1.13563    0.020
 6344.00    1.08084   1.13392    0.020
 6345.00    1.08715   1.12837    0.020
 6346.00    1.09367   1.12459    0.020
 6347.00    1.10229   1.12400    0.020
 6348.00    1.11232   1.12045    0.021
 6349.00    1.13251   1.11729    0.021
 6350.00    1.14879   1.11757    0.021
 6351.00    1.14341   1.11779    0.021
 6352.00    1.13751   1.11861    0.021
 6353.00    1.12934   1.12043    0.021
 6354.00    1.11930   1.12303    0.021
 6355.00    1.10243   1.12833    0.021
 6356.00    1.08785   1.13276    0.021
 6357.00    1.08025   1.13587    0.021
 6358.00    1.07397   1.14217    0.021
 6359.00    1.07114   1.14827    0.021
 6360.00    1.06434   1.15235    0.021
 6361.00    1.04872   1.15745    0.021
 6362.00    1.04498   1.16184    0.021
 6363.00    1.06418   1.16591    0.021
 6364.00    1.08608   1.16998    0.021
 6365.00    1.11254   1.17131    0.021
 6366.00    1.13079   1.17347    0.021
 6367.00    1.13693   1.17653    0.021
 6368.00    1.14097   1.17598    0.021
 6369.00    1.14229   1.17616    0.021
 6370.00    1.14668   1.17803    0.021
 6371.00    1.15458   1.17707    0.021
 6372.00    1.15735   1.17613    0.021
 6373.00    1.15494   1.17643    0.020
 6374.00    1.14947   1.17561    0.020
 6375.00    1.14127   1.17443    0.020
 6376.00    1.12250   1.17312    0.020
 6377.00    1.09545   1.17181    0.021
 6378.00    1.08189   1.17118    0.021
 6379.00    1.07763   1.16975    0.021
 6380.00    1.08591   1.16690    0.021
 6381.00    1.10174   1.16555    0.021
 6382.00    1.11596   1.16613    0.021
 6383.00    1.12932   1.16417    0.021
 6384.00    1.14159   1.16149    0.021
 6385.00    1.15336   1.16348    0.021
 6386.00    1.15517   1.16296    0.021
 6387.00    1.15305   1.15829    0.021
 6388.00    1.14698   1.16059    0.021
 6389.00    1.13957   1.16295    0.021
 6390.00    1.12804   1.16042    0.021
 6391.00    1.11534   1.16165    0.020
 6392.00    1.11103   1.16188    0.020
 6393.00    1.10867   1.16227    0.021
 6394.00    1.11054   1.16452    0.021
 6395.00    1.11320   1.16097    0.021
 6396.00    1.11246   1.16248    0.021
 6397.00    1.11122   1.16639    0.021
 6398.00    1.10864   1.16076    0.021
 6399.00    1.10592   1.16107    0.020
 6400.00    1.11524   1.16521    0.021
 6401.00    1.12537   1.16169    0.021
 6402.00    1.13345   1.16146    0.021
 6403.00    1.14147   1.16306    0.021
 6404.00    1.13450   1.16156    0.021
 6405.00    1.12759   1.16219    0.021
 6406.00    1.12246   1.16178    0.021
 6407.00    1.11819   1.16145    0.021
 6408.00    1.12699   1.16298    0.021
 6409.00    1.13450   1.16251    0.021
 6410.00    1.12953   1.16397    0.021
 6411.00    1.12345   1.16582    0.021
 6412.00    1.10958   1.16495    0.021
 6413.00    1.09979   1.16661    0.020
 6414.00    1.11198   1.16804    0.020
 6415.00    1.12410   1.16750    0.020
 6416.00    1.13591   1.16931    0.020
 6417.00    1.14099   1.16929    0.020
 6418.00    1.12218   1.16824    0.020
 6419.00    1.10192   1.17008    0.021
 6420.00    1.07732   1.17011    0.020
 6421.00    1.06256   1.17096    0.020
 6422.00    1.07285   1.17208    0.020
 6423.00    1.08688   1.17034    0.020
 6424.00    1.10913   1.17262    0.020
 6425.00    1.12735   1.17368    0.020
 6426.00    1.13792   1.17112    0.021
 6427.00    1.14163   1.17413    0.021
 6428.00    1.13394   1.17544    0.021
 6429.00    1.12887   1.17358    0.021
 6430.00    1.12759   1.17551    0.021
 6431.00    1.12825   1.17549    0.021
 6432.00    1.13140   1.17535    0.021
 6433.00    1.12618   1.17527    0.021
 6434.00    1.11153   1.17261    0.021
 6435.00    1.09851   1.17389    0.021
 6436.00    1.08710   1.17228    0.021
 6437.00    1.09066   1.16761    0.020
 6438.00    1.10734   1.16970    0.020
 6439.00    1.11793   1.16904    0.020
 6440.00    1.12384   1.16599    0.020
 6441.00    1.13296   1.16759    0.020
 6442.00    1.14426   1.16653    0.020
 6443.00    1.13821   1.16526    0.020
 6444.00    1.12186   1.16704    0.020
 6445.00    1.09545   1.16745    0.020
 6446.00    1.06381   1.16767    0.020
 6447.00    1.05922   1.16833    0.020
 6448.00    1.06679   1.16961    0.021
 6449.00    1.08248   1.17076    0.021
 6450.00    1.10133   1.17118    0.021
 6451.00    1.10517   1.17361    0.021
 6452.00    1.10407   1.17507    0.021
 6453.00    1.10318   1.17489    0.021
 6454.00    1.10234   1.17650    0.021
 6455.00    1.11409   1.17723    0.021
 6456.00    1.12870   1.17754    0.021
 6457.00    1.12146   1.17921    0.021
 6458.00    1.11026   1.17891    0.021
 6459.00    1.09746   1.17859    0.021
 6460.00    1.08444   1.17962    0.021
 6461.00    1.08846   1.17883    0.021
 6462.00    1.09418   1.17795    0.020
 6463.00    1.10592   1.17804    0.020
 6464.00    1.11804   1.17717    0.020
 6465.00    1.12801   1.17539    0.020
 6466.00    1.13787   1.17332    0.020
 6467.00    1.13454   1.17119    0.020
 6468.00    1.13195   1.16923    0.020
 6469.00    1.14999   1.16618    0.020
 6470.00    1.16835   1.16237    0.021
 6471.00    1.19131   1.15949    0.021
 6472.00    1.21078   1.15613    0.021
 6473.00    1.19794   1.15108    0.021
 6474.00    1.18424   1.14587    0.021
 6475.00    1.16468   1.14095    0.021
 6476.00    1.14876   1.13591    0.021
 6477.00    1.15193   1.12958    0.021
 6478.00    1.15427   1.12203    0.021
 6479.00    1.15319   1.11678    0.021
 6480.00    1.15071   1.11097    0.021
 6481.00    1.14335   1.10375    0.021
 6482.00    1.13769   1.10039    0.021
 6483.00    1.13702   1.09614    0.021
 6484.00    1.13890   1.09192    0.021
 6485.00    1.14719   1.09188    0.020
 6486.00    1.15364   1.09006    0.020
 6487.00    1.15615   1.09046    0.020
 6488.00    1.15366   1.09420    0.020
 6489.00    1.14182   1.09521    0.020
 6490.00    1.12543   1.09995    0.020
 6491.00    1.10162   1.10659    0.020
 6492.00    1.07706   1.10972    0.020
 6493.00    1.05143   1.11574    0.020
 6494.00    1.03707   1.12285    0.020
 6495.00    1.03693   1.12813    0.020
 6496.00    1.04363   1.13385    0.020
 6497.00    1.05793   1.13857    0.020
 6498.00    1.07332   1.14334    0.020
 6499.00    1.08976   1.14708    0.021
 6500.00    1.10001   1.14941    0.021
 6501.00    1.10489   1.15300    0.021
 6502.00    1.10657   1.15457    0.021
 6503.00    1.10580   1.15525    0.020
 6504.00    1.11084   1.15760    0.020
 6505.00    1.11978   1.15826    0.021
 6506.00    1.12119   1.15888    0.021
 6507.00    1.11819   1.15954    0.020
 6508.00    1.11403   1.15945    0.020
 6509.00    1.10927   1.16138    0.020
 6510.00    1.11444   1.16144    0.020
 6511.00    1.12399   1.16050    0.020
 6512.00    1.13245   1.16286    0.020
 6513.00    1.14051   1.16299    0.020
 6514.00    1.13844   1.16223    0.020
 6515.00    1.13310   1.16427    0.020
 6516.00    1.13687   1.16423    0.020
 6517.00    1.14309   1.16393    0.020
 6518.00    1.14585   1.16515    0.020
 6519.00    1.14785   1.16521    0.020
 6520.00    1.13813   1.16594    0.020
 6521.00    1.12636   1.16594    0.020
 6522.00    1.11366   1.16514    0.020
 6523.00    1.10085   1.16625    0.020
 6524.00    1.08723   1.16572    0.021
 6525.00    1.07354   1.16437    0.021
 6526.00    1.06428   1.16448    0.020
 6527.00    1.05528   1.16270    0.020
 6528.00    1.05987   1.16121    0.000
 6529.00    1.06489   1.16014    0.000
 6530.00    1.08332   1.15658    0.000
 6531.00    1.10194   1.15427    0.000
 6532.00    1.12530   1.15159    0.000
 6533.00    1.14783   1.14711    0.000
 6534.00    1.15939   1.14418    0.000
 6535.00    1.16886   1.13939    0.000
 6536.00    1.15973   1.13364    0.000
 6537.00    1.15107   1.12965    0.000
 6538.00    1.14542   1.12352    0.000
 6539.00    1.14111   1.11762    0.000
 6540.00    1.14366   1.11180    0.000
 6541.00    1.14130   1.10391    0.000
 6542.00    1.11873   1.09899    0.000
 6543.00    1.09582   1.09144    0.000
 6544.00    1.07174   1.08120    0.000
 6545.00    1.06429   1.07804    0.000
 6546.00    1.10468   1.07119    0.000
 6547.00    1.13401   1.06099    0.000
 6548.00    1.13616   1.05958    0.000
 6549.00    1.12977   1.05459    0.000
 6550.00    1.10523   1.04702    0.000
 6551.00    1.09044   1.04769    0.000
 6552.00    1.09360   1.04568    0.000
 6553.00    1.09704   1.04320    0.000
 6554.00    1.10096   1.04637    0.000
 6555.00    1.09953   1.04675    0.000
 6556.00    1.09056   1.04961    0.000
 6557.00    1.07556   1.05567    0.000
 6558.00    1.05307   1.05718    0.000
 6559.00    1.04140   1.06310    0.000
 6560.00    1.04157   1.07125    0.000
 6561.00    1.05163   1.07271    0.000
 6562.00    1.07124   1.07855    0.000
 6563.00    1.08068   1.08808    0.000
 6564.00    1.08145   1.09057    0.000
 6565.00    1.07096   1.09456    0.000
 6566.00    1.05201   1.10223    0.000
 6567.00    1.03522   1.10411    0.000
 6568.00    1.01985   1.10697    0.000
 6569.00    1.01322   1.11302    0.000
 6570.00    1.01162   1.11390    0.000
 6571.00    1.01857   1.11566    0.000
 6572.00    1.02981   1.11970    0.000
 6573.00    1.03761   1.11920    0.000
 6574.00    1.04392   1.11959    0.000
 6575.00    1.05289   1.12175    0.000
 6576.00    1.06285   1.12063    0.000
 6577.00    1.06422   1.12002    0.000
 6578.00    1.06287   1.12038    0.000
 6579.00    1.08850   1.11864    0.000
 6580.00    1.12126   1.11764    0.000
 6581.00    1.14611   1.11747    0.000
 6582.00    1.16924   1.11602    0.000
 6583.00    1.17593   1.11533    0.000
 6584.00    1.17980   1.11521    0.000
 6585.00    1.16605   1.11400    0.000
 6586.00    1.15002   1.11406    0.000
 6587.00    1.13127   1.11467    0.000
 6588.00    1.11226   1.11365    0.000
 6589.00    1.09517   1.11422    0.000
 6590.00    1.07818   1.11546    0.000
 6591.00    1.06638   1.11454    0.000
 6592.00    1.05472   1.11521    0.000
 6593.00    1.04564   1.11698    0.000
 6594.00    1.03760   1.11670    0.000
 6595.00    1.05338   1.11719    0.000
 6596.00    1.06886   1.11874    0.000
 6597.00    1.08042   1.11904    0.000
 6598.00    1.09110   1.11972    0.000
 6599.00    1.09421   1.12143    0.000
 6600.00    1.09733   1.12236    0.000
 6601.00    1.10053   1.12315    0.000
 6602.00    1.10283   1.12454    0.000
 6603.00    1.10062   1.12549    0.000
 6604.00    1.09611   1.12650    0.000
 6605.00    1.08231   1.12721    0.000
 6606.00    1.07009   1.12741    0.000
 6607.00    1.06313   1.12817    0.000
 6608.00    1.05508   1.12752    0.000
 6609.00    1.04393   1.12632    0.020
 6610.00    1.04345   1.12659    0.020
 6611.00    1.06875   1.12453    0.020
 6612.00    1.08818   1.12187    0.020
 6613.00    1.09539   1.12121    0.020
 6614.00    1.09442   1.11838    0.020
 6615.00    1.07862   1.11563    0.021
 6616.00    1.07144   1.11429    0.021
 6617.00    1.07794   1.11090    0.021
 6618.00    1.08615   1.10875    0.021
 6619.00    1.09673   1.10766    0.021
 6620.00    1.10837   1.10460    0.021
 6621.00    1.12130   1.10326    0.020
 6622.00    1.13031   1.10274    0.020
 6623.00    1.13509   1.10061    0.020
 6624.00    1.13489   1.10024    0.020
 6625.00    1.12995   1.10045    0.020
 6626.00    1.12272   1.09924    0.020
 6627.00    1.11357   1.09952    0.019
 6628.00    1.10543   1.10016    0.019
 6629.00    1.09801   1.09932    0.020
 6630.00    1.08681   1.10008    0.020
 6631.00    1.07315   1.10114    0.020
 6632.00    1.06426   1.10014    0.020
 6633.00    1.05807   1.10094    0.020
 6634.00    1.05883   1.10218    0.020
 6635.00    1.06303   1.10085    0.020
 6636.00    1.07228   1.10128    0.020
 6637.00    1.08368   1.10225    0.021
 6638.00    1.08885   1.10055    0.021
 6639.00    1.09174   1.10035    0.021
 6640.00    1.07483   1.10074    0.020
 6641.00    1.05176   1.09902    0.020
 6642.00    1.04038   1.09821    0.020
 6643.00    1.03202   1.09736    0.020
 6644.00    1.04824   1.09569    0.020
 6645.00    1.06964   1.09490    0.020
 6646.00    1.07817   1.09289    0.020
 6647.00    1.08455   1.09100    0.020
 6648.00    1.08820   1.09060    0.020
 6649.00    1.09151   1.08821    0.020
 6650.00    1.08336   1.08643    0.020
 6651.00    1.07422   1.08677    0.020
 6652.00    1.06890   1.08453    0.020
 6653.00    1.06377   1.08311    0.020
 6654.00    1.06317   1.08449    0.020
 6655.00    1.06267   1.08281    0.020
 6656.00    1.06368   1.08171    0.020
 6657.00    1.06375   1.08383    0.020
 6658.00    1.04378   1.08267    0.020
 6659.00    1.02634   1.08170    0.020
 6660.00    1.03934   1.08390    0.020
 6661.00    1.05282   1.08305    0.020
 6662.00    1.07037   1.08218    0.020
 6663.00    1.08429   1.08390    0.020
 6664.00    1.07584   1.08299    0.020
 6665.00    1.06627   1.08253    0.020
 6666.00    1.05125   1.08390    0.020
 6667.00    1.03839   1.08263    0.020
 6668.00    1.03409   1.08269    0.020
 6669.00    1.03088   1.08431    0.020
 6670.00    1.03122   1.08287    0.020
 6671.00    1.03500   1.08329    0.020
 6672.00    1.04832   1.08531    0.020
 6673.00    1.05777   1.08384    0.020
 6674.00    1.05802   1.08414    0.020
 6675.00    1.05314   1.08636    0.020
 6676.00    1.03773   1.08510    0.020
 6677.00    1.02856   1.08468    0.020
 6678.00    1.03055   1.08633    0.020
 6679.00    1.03700   1.08526    0.020
 6680.00    1.05042   1.08424    0.020
 6681.00    1.06551   1.08491    0.020
 6682.00    1.08286   1.08350    0.021
 6683.00    1.08983   1.08242    0.021
 6684.00    1.08425   1.08253    0.020
 6685.00    1.08277   1.08062    0.020
 6686.00    1.08566   1.07990    0.020
 6687.00    1.08636   1.07979    0.020
 6688.00    1.08501   1.07747    0.020
 6689.00    1.08180   1.07726    0.020
 6690.00    1.07703   1.07692    0.020
 6691.00    1.07876   1.07430    0.020
 6692.00    1.08523   1.07430    0.020
 6693.00    1.08156   1.07347    0.020
 6694.00    1.07139   1.07074    0.020
 6695.00    1.06046   1.07063    0.020
 6696.00    1.04909   1.06899    0.000
 6697.00    1.04832   1.06620    0.000
 6698.00    1.05271   1.06576    0.000
 6699.00    1.05362   1.06346    0.000
 6700.00    1.05306   1.06077    0.000
 6701.00    1.04379   1.06025    0.000
 6702.00    1.03137   1.05814    0.000
 6703.00    1.01970   1.05597    0.000
 6704.00    1.00824   1.05571    0.000
 6705.00    1.02897   1.05461    0.000
 6706.00    1.05785   1.05343    0.000
 6707.00    1.05587   1.05372    0.000
 6708.00    1.04754   1.05408    0.000
 6709.00    1.03837   1.05401    0.000
 6710.00    1.02907   1.05487    0.000
 6711.00    1.03616   1.05644    0.000
 6712.00    1.04524   1.05710    0.000
 6713.00    1.05446   1.05830    0.000
 6714.00    1.06369   1.06033    0.000
 6715.00    1.06542   1.06115    0.000
 6716.00    1.06680   1.06238    0.000
 6717.00    1.06975   1.06381    0.000
 6718.00    1.07273   1.06400    0.000
 6719.00    1.07572   1.06496    0.000
 6720.00    1.07777   1.06555    0.000
 6721.00    1.06145   1.06472    0.000
 6722.00    1.04545   1.06493    0.000
 6723.00    1.03321   1.06477    0.000
 6724.00    1.02564   1.06332    0.000
 6725.00    1.05530   1.06275    0.000
 6726.00    1.08296   1.06187    0.000
 6727.00    1.09859   1.06019    0.000
 6728.00    1.10796   1.05920    0.000
 6729.00    1.08763   1.05791    0.000
 6730.00    1.06910   1.05631    0.000
 6731.00    1.05755   1.05553    0.000
 6732.00    1.04820   1.05442    0.000
 6733.00    1.04591   1.05303    0.000
 6734.00    1.04600   1.05283    0.000
 6735.00    1.05257   1.05247    0.000
 6736.00    1.05463   1.05153    0.000
 6737.00    1.04615   1.05238    0.000
 6738.00    1.03799   1.05305    0.000
 6739.00    1.03046   1.05227    0.000
 6740.00    1.02700   1.05437    0.000
 6741.00    1.03072   1.05632    0.000
 6742.00    1.03036   1.05540    0.000
 6743.00    1.02373   1.05822    0.000
 6744.00    1.01734   1.06104    0.000
 6745.00    1.01129   1.05990    0.000
 6746.00    1.00535   1.06281    0.000
 6747.00    0.99954   1.06564    0.000
 6748.00    0.99567   1.06420    0.000
 6749.00    0.99384   1.06655    0.000
 6750.00    0.99796   1.06867    0.000
 6751.00    1.00759   1.06707    0.000
 6752.00    1.02174   1.06863    0.000
 6753.00    1.03958   1.06991    0.022
 6754.00    1.04742   1.06831    0.022
 6755.00    1.04807   1.06932    0.022
 6756.00    1.03671   1.07013    0.023
 6757.00    1.01776   1.06876    0.022
 6758.00    1.00357   1.06956    0.022
 6759.00    0.99200   1.07041    0.022
 6760.00    1.04833   1.06941    0.023
 6761.00    1.13722   1.07000    0.023
 6762.00    1.18667   1.07090    0.024
 6763.00    1.21981   1.06989    0.024
 6764.00    1.22984   1.06998    0.024
 6765.00    1.23170   1.07094    0.024
 6766.00    1.24128   1.06956    0.024
 6767.00    1.25317   1.06846    0.024
 6768.00    1.23449   1.06916    0.024
 6769.00    1.20823   1.06755    0.024
 6770.00    1.18530   1.06541    0.023
 6771.00    1.16304   1.06572    0.023
 6772.00    1.17260   1.06402    0.022
 6773.00    1.18717   1.06136    0.022
 6774.00    1.17217   1.06177    0.022
 6775.00    1.15372   1.06059    0.022
 6776.00    1.10153   1.05799    0.021
 6777.00    1.04667   1.05878    0.021
 6778.00    1.06260   1.05842    0.021
 6779.00    1.08161   1.05620    0.022
 6780.00    1.07860   1.05756    0.022
 6781.00    1.07517   1.05814    0.022
 6782.00    1.06255   1.05648    0.022
 6783.00    1.05078   1.05812    0.022
 6784.00    1.05431   1.05916    0.022
 6785.00    1.05842   1.05797    0.022
 6786.00    1.06874   1.05947    0.022
 6787.00    1.07727   1.06044    0.022
 6788.00    1.07195   1.05993    0.022
 6789.00    1.07171   1.06110    0.022
 6790.00    1.10111   1.06132    0.022
 6791.00    1.12680   1.06158    0.022
 6792.00    1.13535   1.06253    0.022
 6793.00    1.14191   1.06171    0.022
 6794.00    1.14094   1.06263    0.022
 6795.00    1.13217   1.06338    0.022
 6796.00    1.09879   1.06175    0.022
 6797.00    1.07682   1.06318    0.021
 6798.00    1.08543   1.06385    0.021
 6799.00    1.08996   1.06201    0.021
 6800.00    1.08513   1.06368    0.021
 6801.00    1.08207   1.06435    0.021
 6802.00    1.08254   1.06303    0.022
 6803.00    1.07999   1.06472    0.022
 6804.00    1.07218   1.06529    0.022
 6805.00    1.05937   1.06481    0.022
 6806.00    1.03898   1.06640    0.022
 6807.00    1.03227   1.06674    0.021
 6808.00    1.04379   1.06690    0.021
 6809.00    1.05265   1.06830    0.021
 6810.00    1.05838   1.06842    0.021
 6811.00    1.05855   1.06862    0.022
 6812.00    1.05295   1.06961    0.022
 6813.00    1.06440   1.06951    0.022
 6814.00    1.09140   1.06933    0.023
 6815.00    1.09516   1.06975    0.023
 6816.00    1.08022   1.06923    0.022
 6817.00    1.06651   1.06842    0.022
 6818.00    1.05367   1.06834    0.021
 6819.00    1.06112   1.06727    0.021
 6820.00    1.08116   1.06576    0.021
 6821.00    1.08657   1.06523    0.021
 6822.00    1.08403   1.06365    0.021
 6823.00    1.08045   1.06178    0.021
 6824.00    1.07636   1.06112    0.021
 6825.00    1.07599   1.05923    0.021
 6826.00    1.07713   1.05723    0.021
 6827.00    1.08145   1.05688    0.021
 6828.00    1.08688   1.05529    0.021
 6829.00    1.09715   1.05339    0.022
 6830.00    1.10882   1.05346    0.022
 6831.00    1.10697   1.05267    0.022
 6832.00    1.10183   1.05102    0.022
 6833.00    1.09261   1.05142    0.022
 6834.00    1.08257   1.05150    0.021
 6835.00    1.08730   1.04981    0.022
 6836.00    1.09427   1.05034    0.022
 6837.00    1.09280   1.05106    0.022
 6838.00    1.09038   1.04872    0.023
 6839.00    1.05752   1.04890    0.023
 6840.00    1.02239   1.04989    0.022
 6841.00    1.00284   1.04669    0.022
 6842.00    0.98391   1.04640    0.022
 6843.00    0.98253   1.04762    0.021
 6844.00    0.98255   1.04384    0.021
 6845.00    1.03381   1.04317    0.021
 6846.00    1.08245   1.04481    0.021
 6847.00    1.08685   1.04117    0.021
 6848.00    1.09095   1.04004    0.021
 6849.00    1.09197   1.04220    0.021
 6850.00    1.08883   1.03975    0.022
 6851.00    1.05483   1.03822    0.021
 6852.00    1.02297   1.04046    0.021
 6853.00    1.00318   1.03959    0.021
 6854.00    0.98806   1.03787    0.021
 6855.00    0.99401   1.03980    0.021
 6856.00    0.99884   1.04042    0.021
 6857.00    0.99951   1.03897    0.021
 6858.00    0.99874   1.04031    0.021
 6859.00    0.99352   1.04175    0.021
 6860.00    0.99275   1.04103    0.021
 6861.00    1.00371   1.04205    0.021
 6862.00    1.00995   1.04368    0.021
 6863.00    1.00551   1.04381    0.021
 6864.00    1.00922   1.04503    0.021
 6865.00    1.02889   1.04653    0.021
 6866.00    1.04009   1.04703    0.021
 6867.00    1.03684   1.04888    0.022
 6868.00    1.02349   1.05063    0.022
 6869.00    0.99503   1.05093    0.022
 6870.00    0.98101   1.05323    0.022
 6871.00    0.98597   1.05575    0.022
 6872.00    1.00093   1.05563    0.022
 6873.00    1.02747   1.05798    0.021
 6874.00    1.04732   1.06158    0.021
 6875.00    1.06034   1.06119    0.021
 6876.00    1.06394   1.06294    0.021
 6877.00    1.05907   1.06719    0.021
 6878.00    1.03995   1.06691    0.021
 6879.00    1.00953   1.06778    0.021
 6880.00    1.00513   1.07187    0.021
 6881.00    1.01888   1.07193    0.021
 6882.00    1.02330   1.07205    0.021
 6883.00    1.02202   1.07523    0.021
 6884.00    1.02180   1.07575    0.020
 6885.00    1.02216   1.07553    0.021
 6886.00    1.02804   1.07747    0.021
 6887.00    1.03649   1.07829    0.021
 6888.00    1.03613   1.07806    0.021
 6889.00    1.03224   1.07898    0.021
 6890.00    1.02897   1.07991    0.021
 6891.00    1.02590   1.07945    0.021
 6892.00    1.01118   1.07968    0.021
 6893.00    0.99313   1.08070    0.021
 6894.00    0.99186   1.07966    0.021
 6895.00    0.99456   1.07946    0.021
 6896.00    0.99248   1.08047    0.021
 6897.00    0.98950   1.07858    0.021
 6898.00    1.01321   1.07813    0.021
 6899.00    1.04087   1.07916    0.021
 6900.00    1.03696   1.07654    0.021
 6901.00    1.02963   1.07589    0.021
 6902.00    1.02128   1.07694    0.021
 6903.00    1.01285   1.07403    0.021
 6904.00    1.02063   1.07323    0.021
 6905.00    1.02898   1.07419    0.021
 6906.00    1.02806   1.07151    0.021
 6907.00    1.02693   1.07058    0.021
 6908.00    1.01975   1.07139    0.021
 6909.00    1.01275   1.06929    0.021
 6910.00    1.00871   1.06824    0.021
 6911.00    1.00532   1.06884    0.021
 6912.00    1.00856   1.06757    0.021
 6913.00    1.01267   1.06645    0.021
 6914.00    1.02304   1.06692    0.021
 6915.00    1.03080   1.06654    0.021
 6916.00    1.02411   1.06540    0.021
 6917.00    1.01739   1.06590    0.021
 6918.00    1.01050   1.06640    0.021
 6919.00    1.00886   1.06523    0.021
 6920.00    1.02620   1.06579    0.021
 6921.00    1.04141   1.06701    0.021
 6922.00    1.05010   1.06569    0.021
 6923.00    1.04827   1.06620    0.021
 6924.00    1.01921   1.06787    0.021
 6925.00    0.99188   1.06619    0.021
 6926.00    0.96836   1.06650    0.021
 6927.00    0.95780   1.06837    0.021
 6928.00    0.97222   1.06617    0.021
 6929.00    0.98795   1.06623    0.021
 6930.00    1.00585   1.06821    0.021
 6931.00    1.01656   1.06552    0.021
 6932.00    1.01667   1.06545    0.022
 6933.00    1.00837   1.06762    0.022
 6934.00    0.98916   1.06471    0.022
 6935.00    0.99022   1.06470    0.022
 6936.00    1.01440   1.06724    0.022
 6937.00    1.02325   1.06454    0.022
 6938.00    1.01666   1.06483    0.022
 6939.00    1.00886   1.06779    0.022
 6940.00    0.99999   1.06571    0.021
 6941.00    0.99330   1.06646    0.021
 6942.00    0.98833   1.06969    0.021
 6943.00    1.00096   1.06839    0.021
 6944.00    1.02570   1.06966    0.021
 6945.00    1.03420   1.07284    0.021
 6946.00    1.03292   1.07213    0.021
 6947.00    1.02556   1.07381    0.021
 6948.00    1.01500   1.07653    0.021
 6949.00    1.01949   1.07591    0.022
 6950.00    1.03085   1.07774    0.022
 6951.00    1.03033   1.07963    0.022
 6952.00    1.02513   1.07847    0.022
 6953.00    1.01406   1.08006    0.022
 6954.00    1.00102   1.08094    0.022
 6955.00    1.00935   1.07874    0.022
 6956.00    1.02369   1.07976    0.022
 6957.00    1.01982   1.07980    0.022
 6958.00    1.01174   1.07648    0.022
 6959.00    1.02089   1.07680    0.022
 6960.00    1.03324   1.07657    0.022
 6961.00    1.02450   1.07258    0.022
 6962.00    1.01274   1.07238    0.022
 6963.00    1.01021   1.07267    0.022
 6964.00    1.00864   1.06894    0.021
 6965.00    1.01380   1.06864    0.022
 6966.00    1.01941   1.07006    0.022
 6967.00    1.05378   1.06753    0.022
 6968.00    1.08907   1.06754    0.022
 6969.00    1.07343   1.07009    0.022
 6970.00    1.05707   1.06919    0.022
 6971.00    1.01892   1.06965    0.022
 6972.00    0.98275   1.07268    0.022
 6973.00    0.97606   1.07308    0.022
 6974.00    0.97089   1.07378    0.022
 6975.00    0.98029   1.07641    0.022
 6976.00    0.99171   1.07727    0.022
 6977.00    1.01720   1.07779    0.022
 6978.00    1.03637   1.07941    0.022
 6979.00    1.02162   1.07996    0.022
 6980.00    1.00967   1.07991    0.022
 6981.00    1.00979   1.08038    0.022
 6982.00    1.01107   1.08030    0.022
 6983.00    1.01647   1.07955    0.022
 6984.00    1.02340   1.07911    0.022
 6985.00    1.03488   1.07853    0.022
 6986.00    1.04908   1.07726    0.022
 6987.00    1.07017   1.07627    0.022
 6988.00    1.07162   1.07549    0.022
 6989.00    1.03014   1.07413    0.022
 6990.00    0.99883   1.07287    0.022
 6991.00    0.98680   1.07212    0.022
 6992.00    0.99368   1.07107    0.022
 6993.00    1.03186   1.06971    0.022
 6994.00    1.04814   1.06904    0.022
 6995.00    1.03262   1.06855    0.022
 6996.00    1.02477   1.06715    0.022
 6997.00    1.02670   1.06648    0.022
 6998.00    1.02574   1.06664    0.022
 6999.00    1.02152   1.06524    0.022
 7000.00    1.00457   1.06451    0.022
 7001.00    0.97498   1.06532    0.022
 7002.00    0.97428   1.06405    0.022
 7003.00    0.99885   1.06331    0.022
 7004.00    1.00076   1.06473    0.022
 7005.00    0.98519   1.06385    0.022
 7006.00    0.98559   1.06320    0.022
 7007.00    0.99681   1.06510    0.023
 7008.00    1.00175   1.06487    0.023
 7009.00    1.00297   1.06448    0.023
 7010.00    0.99196   1.06667    0.023
 7011.00    0.97462   1.06717    0.023
 7012.00    0.96042   1.06714    0.023
 7013.00    0.94764   1.06944    0.023
 7014.00    0.96144   1.07063    0.023
 7015.00    0.98550   1.07088    0.023
 7016.00    1.00067   1.07330    0.023
 7017.00    1.01293   1.07508    0.023
 7018.00    1.00417   1.07539    0.023
 7019.00    0.98962   1.07798    0.023
 7020.00    0.98440   1.08040    0.023
 7021.00    0.98129   1.08052    0.023
 7022.00    0.96926   1.08317    0.023
 7023.00    0.95562   1.08634    0.023
 7024.00    0.97456   1.08611    0.023
 7025.00    0.99800   1.08845    0.023
 7026.00    1.01011   1.09218    0.023
 7027.00    1.02109   1.09157    0.023
 7028.00    1.00276   1.09297    0.023
 7029.00    0.98260   1.09649    0.023
 7030.00    0.97399   1.09535    0.023
 7031.00    0.96575   1.09517    0.023
 7032.00    0.96569   1.09735    0.023
 7033.00    0.96690   1.09525    0.024
 7034.00    1.00265   1.09313    0.024
 7035.00    1.03559   1.09295    0.024
 7036.00    1.02919   1.08939    0.024
 7037.00    1.02643   1.08542    0.023
 7038.00    1.05732   1.08271    0.024
 7039.00    1.08148   1.07751    0.024
 7040.00    1.06022   1.07223    0.024
 7041.00    1.03843   1.06780    0.023
 7042.00    1.01380   1.06147    0.023
 7043.00    1.00169   1.05566    0.023
 7044.00    1.04226   1.05089    0.023
 7045.00    1.06784   1.04450    0.024
 7046.00    1.04126   1.03893    0.024
 7047.00    1.02161   1.03516    0.024
 7048.00    1.02224   1.02987    0.024
 7049.00    1.00975   1.02513    0.024
 7050.00    0.96453   1.02313   -2.000
 7051.00    0.94207   1.01975   -2.000
 7052.00    0.96854   1.01615   -2.000
 7053.00    0.99608   1.01599   -2.000
 7054.00    1.02562   1.01473   -2.000
 7055.00    1.04914   1.01227   -2.000
 7056.00    1.06283   1.01343   -2.000
 7057.00    1.07540   1.01386   -2.000
 7058.00    1.08638   1.01221   -2.000
 7059.00    1.07280   1.01381   -2.000
 7060.00    1.02831   1.01506   -2.000
 7061.00    1.02444   1.01360   -2.000
 7062.00    1.06561   1.01457   -2.000
 7063.00    1.09658   1.01558   -2.000
 7064.00    1.11758   1.01355   -2.000
 7065.00    1.11105   1.01305   -2.000
 7066.00    1.08079   1.01296   -2.000
 7067.00    1.06395   1.00982   -2.000
 7068.00    1.05730   1.00752   -2.000
 7069.00    1.04977   1.00609   -2.000
 7070.00    1.04164   1.00176   -2.000
 7071.00    1.06941   0.99800   -2.000
 7072.00    1.11818   0.99571   -2.000
 7073.00    1.12183   0.99073   -2.000
 7074.00    1.10247   0.98636   -2.000
 7075.00    1.11097   0.98410   -2.000
 7076.00    1.13176   0.97936   -2.000
 7077.00    1.13413   0.97538   -2.000
 7078.00    1.12951   0.97397   -2.000
 7079.00    1.12666   0.97028   -2.000
 7080.00    1.12438   0.96736   -2.000
 7081.00    1.12081   0.96715   -2.000
 7082.00    1.11689   0.96489   -2.000
 7083.00    1.10731   0.96321   -2.000
 7084.00    1.09648   0.96394   -2.000
 7085.00    1.07951   0.96299   -2.000
 7086.00    1.06145   0.96227   -2.000
 7087.00    1.03929   0.96335   -2.000
 7088.00    1.01657   0.96329   -2.000
 7089.00    1.03907   0.96306   -2.000
 7090.00    1.06586   0.96389   -2.000
 7091.00    1.06302   0.96421   -2.000
 7092.00    1.05844   0.96414   -2.000
 7093.00    1.03360   0.96441   -2.000
 7094.00    1.00850   0.96472   -2.000
 7095.00    1.01641   0.96468   -2.000
 7096.00    1.02282   0.96442   -2.000
 7097.00    0.99201   0.96449   -2.000
 7098.00    0.96195   0.96441   -2.000
 7099.00    0.94191   0.96382   -2.000
 7100.00    0.92408   0.96356   -2.000
 7101.00    0.92591   0.96331   -2.000
 7102.00    0.92958   0.96250   -2.000
 7103.00    0.94528   0.96186   -2.000
 7104.00    0.96046   0.96129   -2.000
 7105.00    0.97301   0.96017   -2.000
 7106.00    0.98310   0.95905   -2.000
 7107.00    0.98310   0.95811   -2.000
 7108.00    0.97185   0.95663   -2.000
 7109.00    0.92224   0.95496   -2.000
 7110.00    0.89573   0.95377   -2.000
 7111.00    0.93554   0.95218   -2.000
 7112.00    0.96712   0.95007   -2.000
 7113.00    0.97849   0.94884   -2.000
 7114.00    0.98083   0.94773   -2.000
 7115.00    0.96405   0.94556   -2.000
 7116.00    0.95572   0.94446   -2.000
 7117.00    0.96293   0.94443   -2.000
 7118.00    0.97051   0.94278   -2.000
 7119.00    0.97871   0.94178   -2.000
 7120.00    1.00114   0.94308   -2.000
 7121.00    1.04366   0.94238   -2.000
 7122.00    1.06283   0.94130   -2.000
 7123.00    1.05304   0.94365   -2.000
 7124.00    1.05104   0.94398   -2.000
 7125.00    1.05757   0.94259   -2.000
 7126.00    1.05766   0.94538   -2.000
 7127.00    1.05156   0.94653   -2.000
 7128.00    1.03288   0.94468   -2.000
 7129.00    1.00352   0.94734   -2.000
 7130.00    0.96175   0.94910   -2.000
 7131.00    0.91068   0.94685   -2.000
 7132.00    0.93357   0.94904   -2.000
 7133.00    1.00513   0.95136   -2.000
 7134.00    1.00035   0.94898   -2.000
 7135.00    0.95162   0.95059   -2.000
 7136.00    0.94061   0.95353   -2.000
 7137.00    0.94853   0.95139   -2.000
 7138.00    0.95252   0.95234   -2.000
 7139.00    0.95480   0.95577   -2.000
 7140.00    0.97333   0.95424   -2.000
 7141.00    0.99791   0.95442   -2.000
 7142.00    0.98718   0.95794   -2.000
 7143.00    0.96529   0.95723   -2.000
 7144.00    0.96953   0.95664   -2.000
 7145.00    0.98065   0.95973   -2.000
 7146.00    0.96663   0.95987   -2.000
 7147.00    0.94718   0.95879   -2.000
 7148.00    0.94742   0.96120   -2.000
 7149.00    0.95104   0.96208   -2.000
 7150.00    0.96842   0.96094   -2.000
 7151.00    0.98758   0.96277   -2.000
 7152.00    0.98506   0.96417   -2.000
 7153.00    0.98058   0.96335   -2.000
 7154.00    0.98357   0.96488   -2.000
 7155.00    0.98697   0.96654   -2.000
 7156.00    0.97045   0.96603   -2.000
 7157.00    0.95362   0.96733   -2.000
 7158.00    0.94707   0.96893   -2.000
 7159.00    0.94334   0.96848   -2.000
 7160.00    1.00371   0.96927   -2.000
 7161.00    1.05939   0.97048   -2.000
 7162.00    1.05593   0.96988   -2.000
 7163.00    1.05498   0.96980   -2.000
 7164.00    1.07539   0.97035   -2.000
 7165.00    1.07632   0.96958   -2.000
 7166.00    0.95381   0.96856   -2.000
 7167.00    0.87045   0.96829   -2.000
 7168.00    0.98148   0.96760   -2.000
 7169.00    1.06965   0.96601   -2.000
 7170.00    1.06579   0.96492   -2.000
 7171.00    1.06023   0.96450   -2.000
 7172.00    1.04897   0.96306   -2.000
 7173.00    1.02526   0.96139   -2.000
 7174.00    0.96638   0.96135   -2.000
 7175.00    0.93785   0.96066   -2.000
 7176.00    0.98251   0.95878   -2.000
 7177.00    1.01020   0.95906   -2.000
 7178.00    1.00251   0.95951   -2.000
 7179.00    0.99191   0.95778   -2.000
 7180.00    0.97602   0.95805   -2.000
 7181.00    0.97084   0.95956   -2.000
 7182.00    0.98263   0.95834   -2.000
 7183.00    0.96461   0.95830   -2.000
 7184.00    0.90516   0.96047   -2.000
 7185.00    0.87993   0.95992   -2.000
 7186.00    0.89656   0.95923   -2.000
 7187.00    0.93968   0.96155   -2.000
 7188.00    1.01137   0.96180   -2.000
 7189.00    1.02604   0.96042   -2.000
 7190.00    0.98650   0.96232   -2.000
 7191.00    0.96587   0.96343   -2.000
 7192.00    0.96112   0.96173   -2.000
 7193.00    0.93853   0.96297   -2.000
 7194.00    0.90277   0.96499   -2.000
 7195.00    0.88959   0.96361   -2.000
 7196.00    0.89105   0.96412   -2.000
 7197.00    0.90217   0.96691   -2.000
 7198.00    0.91879   0.96649   -2.000
 7199.00    0.97321   0.96641   -2.000
 7200.00    1.04631   0.96974   -2.000
 7201.00    1.08232   0.97073   -2.000
 7202.00    1.10250   0.97029   -2.000
 7203.00    1.07132   0.97372   -2.000
 7204.00    1.02136   0.97615   -2.000
 7205.00    0.93928   0.97562   -2.000
 7206.00    0.84725   0.97865   -2.000
 7207.00    0.85725   0.98226   -2.000
 7208.00    0.89358   0.98216   -2.000
 7209.00    0.89573   0.98443   -2.000
 7210.00    0.89069   0.98861   -2.000
 7211.00    0.90827   0.98929   -2.000
 7212.00    0.92961   0.99062   -2.000
 7213.00    0.94029   0.99468   -2.000
 7214.00    0.94964   0.99637   -2.000
 7215.00    0.96704   0.99697   -2.000
 7216.00    0.98514   1.00024   -2.000
 7217.00    0.91377   1.00264   -2.000
 7218.00    0.83786   1.00276   -2.000
