###################################################################
## OUTPUT of StarlightChains_v04.for    [Cid@UFSC - 01/Apr/2007] ##
###################################################################

## Some input info
KUG0210-078._31_38.txt                   [arq_obs]
Base.CB07.vall.4m                        [arq_base]
Masks.EmLines.NEW.gm                     [arq_masks]
StCv04.C11.config                        [arq_config]
   66                                    [N_base]
    0                                    [N_YAV_components = # of components with extra extinction!]
    0                                    [i_FitPowerLaw (1/0 = Yes/No)]
-9.99                                    [alpha_PowerLaw]
CCM                                      [red_law_option]
 1.458241                                [q_norm = A(l_norm)/A(V)]

## (Re)Sampling Parameters
 3741.00                                 [l_ini (A)]
 7218.00                                 [l_fin (A)]
    1.00                                 [dl    (A)]     (OBS: dl_cushion =    50.00 A)

## Normalization info
 4020.00                                 [l_norm (A) - for base]
 4010.00                                 [llow_norm (A) - window for f_obs]
 4060.00                                 [lupp_norm (A) - window for f_obs]
2.613483E-17                             [fobs_norm (in input units)]

## S/N
 3691.00                                 [llow_SN (A) - window for S/N]
 7268.00                                 [lupp_SN (A) - window for S/N]
   6.256                                 [S/N in S/N window]
   5.772                                 [S/N in norm. window]
   0.037                                 [S/N_err in S/N window]
   0.034                                 [S/N_err in norm. window]
  1.0000                                 [fscale_chi2]

## etc...
    -2007463                             [idum_orig]
  2431                                   [NOl_eff]
  2413                                   [Nl_eff]
    18    NSIGMA                         [Ntot_cliped & clip_method]
  1954260                                [Nglobal_steps]
   7                                     [N_chains]
  42                                     [NEX0s_base = N_base in EX0s-fits]
 0   0   1       18   2.0   4.602E+03    [Clip-Bug, RC-Crash & Burn-In warning-flags, n_censored_weights, wei_nsig_threshold & wei_limit]
    56     55.576     54.868      0.707  [idt_all, wdt_TotTime, wdt_UsrTime & wdt_SysTime (sec)]

## Synthesis Results - Best model ##

 1.39276E-05                             [chi2/Nl_eff]
     6.98460                             [adev (%)]

   106.35768                             [sum-of-x (%)]
 3.02674E-17                             [Flux_tot (units of input spectrum!)]
 1.26805E-12                             [Mini_tot (???)]
 6.44700E-13                             [Mcor_tot (???)]

 102.39                                  [v0_min  (km/s)]
 442.72                                  [vd_min  (km/s)]
 0.0634                                  [AV_min  (mag)]
 0.0000                                  [YAV_min (mag)]

# j     x_j(%)      Mini_j(%)     Mcor_j(%)     age_j(yr)     Z_j      (L/M)_j    YAV?  Mstars   component_j        a/Fe...       SSP_chi2r SSP_adev(%)   SSP_AV   SSP_x(%)
  1      0.0000     0.0000E+00    0.0000E+00    1.000000E+06  0.00400  1.094E-02    0   1.0000   age020_m42            0.0000     3.5569E-05    10.4291   3.4605    87.1379
  2      0.0000     0.0000E+00    0.0000E+00    3.160000E+06  0.00400  4.007E-02    0   0.9999   age045_m42            0.0000     2.7659E-05     9.1426   2.7118    94.2260
  3      0.0000     0.0000E+00    0.0000E+00    5.010000E+06  0.00400  2.539E-02    0   0.9488   age055_m42            0.0000     3.0675E-05     9.6607   3.0422    91.4404
  4      0.0000     0.0000E+00    0.0000E+00    6.610000E+06  0.00400  2.620E-02    0   0.9220   age061_m42            0.0000     2.7115E-05     8.9500   2.6379    94.4841
  5      0.0000     0.0000E+00    0.0000E+00    1.000000E+07  0.00400  1.322E-02    0   0.8862   age070_m42            0.0000     2.8819E-05     9.1170   2.3829    95.7709
  6      0.0000     0.0000E+00    0.0000E+00    1.445000E+07  0.00400  7.883E-03    0   0.8571   age078_m42            0.0000     3.0861E-05     9.4151   2.7118    93.1697
  7      0.0000     0.0000E+00    0.0000E+00    2.512000E+07  0.00400  5.251E-03    0   0.8174   age090_m42            0.0000     2.8916E-05     9.1796   2.2550    96.3295
  8      0.0000     0.0000E+00    0.0000E+00    4.000000E+07  0.00400  3.649E-03    0   0.7851   age104_m42            0.0000     2.7144E-05     8.8777   2.0221    97.3591
  9      0.0000     0.0000E+00    0.0000E+00    5.500000E+07  0.00400  3.098E-03    0   0.7629   age110_m42            0.0000     2.5659E-05     8.4628   2.1596    97.8987
 10      0.0000     0.0000E+00    0.0000E+00    1.015200E+08  0.00400  2.228E-03    0   0.7207   age116_m42            0.0000     2.4659E-05     8.2322   2.1678    98.4985
 11      0.0000     0.0000E+00    0.0000E+00    2.861200E+08  0.00400  1.093E-03    0   0.6648   age125_m42            0.0000     2.2836E-05     8.0053   1.5981   101.4940
 12     11.8365     4.0267E-01    5.0411E-01    5.088000E+08  0.00400  6.597E-04    0   0.6365   age130_m42            0.0000     2.1125E-05     7.6075   1.5727   102.8678
 13     12.1258     1.2764E+00    1.4556E+00    1.434000E+09  0.00400  2.132E-04    0   0.5798   age139_m42            0.0000     1.5799E-05     6.9076   0.5996   104.7991
 14      2.2767     8.6676E-01    9.1668E-01    4.250000E+09  0.00400  5.895E-05    0   0.5377   age158_m42            0.0000     1.5483E-05     7.2722   0.1519   100.5403
 15      0.0000     0.0000E+00    0.0000E+00    7.500000E+09  0.00400  3.510E-05    0   0.5212   age171_m42            0.0000     1.5642E-05     7.4088  -0.0422    99.9130
 16      6.6611     7.4559E+00    7.3823E+00    1.300000E+10  0.00400  2.005E-05    0   0.5034   age193_m42            0.0000     1.6204E-05     7.6208  -0.2129    99.4148
 17      5.9797     8.8000E+00    8.5971E+00    1.800000E+10  0.00400  1.525E-05    0   0.4967   age213_m42            0.0000     1.6367E-05     7.6211  -0.2337    98.9252
 18      0.0000     0.0000E+00    0.0000E+00    1.000000E+06  0.00800  1.238E-02    0   1.0000   age020_m52            0.0000     3.5582E-05    10.4363   3.4560    87.3247
 19      0.0000     0.0000E+00    0.0000E+00    3.160000E+06  0.00800  3.074E-02    0   0.9966   age045_m52            0.0000     3.4707E-05    10.3717   3.3783    88.1378
 20      0.0000     0.0000E+00    0.0000E+00    5.010000E+06  0.00800  2.668E-02    0   0.9443   age055_m52            0.0000     3.1617E-05     9.8018   3.1285    90.4354
 21      0.0000     0.0000E+00    0.0000E+00    6.610000E+06  0.00800  2.136E-02    0   0.9177   age061_m52            0.0000     2.7157E-05     8.9415   1.8878    96.5548
 22      0.0000     0.0000E+00    0.0000E+00    1.000000E+07  0.00800  1.215E-02    0   0.8827   age070_m52            0.0000     3.0985E-05     9.5341   2.5707    95.2550
 23      0.0000     0.0000E+00    0.0000E+00    1.445000E+07  0.00800  8.717E-03    0   0.8552   age078_m52            0.0000     3.0100E-05     9.3081   2.6771    94.5152
 24      0.0000     0.0000E+00    0.0000E+00    2.512000E+07  0.00800  5.592E-03    0   0.8162   age090_m52            0.0000     2.8841E-05     9.1736   2.3186    97.5276
 25      0.0000     0.0000E+00    0.0000E+00    4.000000E+07  0.00800  3.896E-03    0   0.7841   age104_m52            0.0000     2.6837E-05     8.7579   2.2203    98.6547
 26      0.0000     0.0000E+00    0.0000E+00    1.015200E+08  0.00800  2.148E-03    0   0.7226   age116_m52            0.0000     2.4108E-05     8.2308   2.1427    98.9965
 27      0.0000     0.0000E+00    0.0000E+00    2.861200E+08  0.00800  9.925E-04    0   0.6683   age125_m52            0.0000     2.1101E-05     7.5844   1.6379   103.8585
 28      0.0000     0.0000E+00    0.0000E+00    9.047900E+08  0.00800  3.141E-04    0   0.6138   age135_m52            0.0000     1.6059E-05     6.8945   0.8198   108.6711
 29      0.0000     0.0000E+00    0.0000E+00    1.434000E+09  0.00800  1.719E-04    0   0.5853   age139_m52            0.0000     1.4257E-05     6.8033   0.2453   105.9320
 30      3.4420     9.8129E-01    1.0808E+00    2.500000E+09  0.00800  7.872E-05    0   0.5600   age150_m52            0.0000     1.4687E-05     7.2770  -0.0343   103.1714
 31      0.0000     0.0000E+00    0.0000E+00    4.250000E+09  0.00800  4.336E-05    0   0.5426   age158_m52            0.0000     1.5220E-05     7.3906  -0.0488   102.1062
 32      0.0000     0.0000E+00    0.0000E+00    6.250000E+09  0.00800  3.159E-05    0   0.5319   age166_m52            0.0000     1.5729E-05     7.7070  -0.2638   102.3757
 33      7.3430     1.2108E+01    1.2082E+01    1.300000E+10  0.00800  1.361E-05    0   0.5073   age193_m52            0.0000     1.7437E-05     8.3008  -0.7469   102.0300
 34      0.0000     0.0000E+00    0.0000E+00    1.800000E+10  0.00800  9.886E-06    0   0.4990   age213_m52            0.0000     1.9331E-05     8.8519  -0.8704   101.8960
 35      3.0932     4.4960E-03    8.8431E-03    1.000000E+06  0.02000  1.544E-02    0   1.0000   age020_m62            0.0000     3.5790E-05    10.4694   3.4546    87.4394
 36      0.0000     0.0000E+00    0.0000E+00    3.160000E+06  0.02000  3.762E-02    0   0.9858   age045_m62            0.0000     3.5534E-05    10.4611   3.3902    88.2769
 37      0.0000     0.0000E+00    0.0000E+00    5.010000E+06  0.02000  3.296E-02    0   0.9342   age055_m62            0.0000     2.9087E-05     9.4381   2.9941    92.8743
 38      0.0000     0.0000E+00    0.0000E+00    8.710000E+06  0.02000  1.154E-02    0   0.8861   age067_m62            0.0000     4.3640E-05    12.2534   2.0696    96.5187
 39      0.0000     0.0000E+00    0.0000E+00    1.445000E+07  0.02000  7.663E-03    0   0.8472   age078_m62            0.0000     3.2925E-05    10.0865   2.2291    97.0764
 40      0.0000     0.0000E+00    0.0000E+00    2.512000E+07  0.02000  4.532E-03    0   0.8099   age090_m62            0.0000     3.2958E-05    10.1415   2.2203    96.8858
 41      0.0000     0.0000E+00    0.0000E+00    5.500000E+07  0.02000  2.733E-03    0   0.7595   age110_m62            0.0000     2.6639E-05     8.7618   2.2048    97.8070
 42      0.0000     0.0000E+00    0.0000E+00    1.609000E+08  0.02000  1.369E-03    0   0.6985   age120_m62            0.0000     2.3206E-05     7.9285   2.0148   101.6436
 43      0.0000     0.0000E+00    0.0000E+00    2.861200E+08  0.02000  9.013E-04    0   0.6714   age125_m62            0.0000     2.1688E-05     7.5834   1.7480   105.2518
 44     13.5586     6.0519E-01    7.6764E-01    5.088000E+08  0.02000  5.028E-04    0   0.6449   age130_m62            0.0000     1.9119E-05     7.3578   1.3488   108.6941
 45     10.0535     9.2926E-01    1.1294E+00    9.047900E+08  0.02000  2.428E-04    0   0.6179   age135_m62            0.0000     1.4932E-05     7.0445   0.7591   107.7665
 46      1.4297     2.5405E-01    2.9521E-01    1.434000E+09  0.02000  1.263E-04    0   0.5908   age139_m62            0.0000     1.4478E-05     7.1718   0.3150   105.9048
 47      0.0000     0.0000E+00    0.0000E+00    2.500000E+09  0.02000  5.985E-05    0   0.5673   age150_m62            0.0000     1.5638E-05     7.7446  -0.0626   104.5917
 48      0.3848     2.6399E-01    2.8392E-01    4.250000E+09  0.02000  3.271E-05    0   0.5468   age158_m62            0.0000     1.7393E-05     8.4108  -0.3867   104.1440
 49      0.0000     0.0000E+00    0.0000E+00    1.000000E+10  0.02000  1.360E-05    0   0.5167   age181_m62            0.0000     2.1090E-05     9.2682  -0.7589   104.2574
 50     12.4463     3.9209E+01    3.8660E+01    1.800000E+10  0.02000  7.124E-06    0   0.5013   age213_m62            0.0000     2.5090E-05    10.0772  -0.9876   103.8498
 51      0.0000     0.0000E+00    0.0000E+00    1.000000E+06  0.05000  2.592E-02    0   0.9998   age020_m72            0.0000     3.6537E-05    10.5683   3.4487    87.3408
 52      0.0000     0.0000E+00    0.0000E+00    3.160000E+06  0.05000  4.845E-02    0   0.9577   age045_m72            0.0000     3.2762E-05    10.1192   3.2632    89.8487
 53      0.0000     0.0000E+00    0.0000E+00    5.010000E+06  0.05000  3.072E-02    0   0.9147   age055_m72            0.0000     3.3251E-05     9.9314   2.8027    93.4003
 54      0.0000     0.0000E+00    0.0000E+00    6.610000E+06  0.05000  1.455E-02    0   0.8877   age061_m72            0.0000     5.5106E-05    14.2515   2.1116    97.1618
 55      0.0000     0.0000E+00    0.0000E+00    1.000000E+07  0.05000  9.074E-03    0   0.8524   age070_m72            0.0000     3.5230E-05    10.4786   2.9727    93.3085
 56      0.0000     0.0000E+00    0.0000E+00    2.512000E+07  0.05000  4.250E-03    0   0.7902   age090_m72            0.0000     3.0910E-05     9.6478   2.6703    95.5582
 57      0.0000     0.0000E+00    0.0000E+00    4.000000E+07  0.05000  3.087E-03    0   0.7618   age104_m72            0.0000     3.0304E-05     9.5826   2.4405    97.3818
 58      0.0000     0.0000E+00    0.0000E+00    1.015200E+08  0.05000  1.700E-03    0   0.7096   age116_m72            0.0000     2.4812E-05     8.2682   2.1641   101.0011
 59      0.5901     1.7934E-02    2.3398E-02    2.861200E+08  0.05000  7.384E-04    0   0.6633   age125_m72            0.0000     2.0496E-05     7.4011   1.6037   107.1355
 60      0.0000     0.0000E+00    0.0000E+00    5.088000E+08  0.05000  3.819E-04    0   0.6372   age130_m72            0.0000     1.6736E-05     7.2881   1.0976   109.1196
 61      5.9034     7.9049E-01    9.4998E-01    9.047900E+08  0.05000  1.676E-04    0   0.6110   age135_m72            0.0000     1.5518E-05     7.8079   0.3895   106.9459
 62      1.8116     4.6006E-01    5.3153E-01    1.434000E+09  0.05000  8.837E-05    0   0.5874   age139_m72            0.0000     1.5863E-05     7.8134  -0.0705   106.3879
 63      0.0000     0.0000E+00    0.0000E+00    2.500000E+09  0.05000  4.233E-05    0   0.5598   age150_m72            0.0000     1.8303E-05     8.6781  -0.3968   105.3204
 64      0.0000     0.0000E+00    0.0000E+00    6.250000E+09  0.05000  1.435E-05    0   0.5249   age166_m72            0.0000     2.2199E-05     9.5425  -0.8630   104.0284
 65      7.4218     2.5574E+01    2.5332E+01    1.300000E+10  0.05000  6.513E-06    0   0.5036   age193_m72            0.0000     2.9285E-05    10.1201  -1.0000   100.3259
 66      0.0000     0.0000E+00    0.0000E+00    1.800000E+10  0.05000  4.527E-06    0   0.4945   age213_m72            0.0000     3.7852E-05    10.8328  -1.0000    94.9229


## Synthesis Results - Average & Chains ##

# j      x_j: min, <> & last-chain-values for 1 ...  7 chains
  1      0.0000      1.1763      0.3280      1.6603      1.4855      0.6116      0.0447      0.8441      1.6174
  2      0.0000      0.7801      2.1942      0.0000      0.0000      0.6001      0.1703      0.0000      0.1285
  3      0.0000      3.5105      1.5474      5.0245      2.6893      3.9394      3.4601      4.7784      5.4878
  4      0.0000      0.8806      1.4031      0.0000      0.7527      1.1660      0.0808      0.0000      0.0000
  5      0.0000      1.1306      1.8294      1.2955      0.7111      2.1441      0.3971      0.6794      0.1720
  6      0.0000      0.8984      0.0000      0.5373      0.6311      1.1903      2.1125      1.4636      0.8028
  7      0.0000      1.2044      1.6142      0.5763      0.7586      1.4709      1.6757      0.9004      0.0000
  8      0.0000      0.8310      0.2928      0.0924      0.0705      0.0000      0.9756      0.0000      0.4978
  9      0.0000      0.9812      0.0000      0.0000      0.7854      0.0000      1.0470      0.0000      0.0000
 10      0.0000      0.8458      1.3601      0.0000      1.3007      0.4831      0.7013      1.4558      0.1079
 11      0.0000      0.8745      2.0293      0.0000      0.0000      1.1016      0.2822      0.0534      0.2997
 12     11.8365      1.0160      0.0000      0.0029      1.4856      0.0000      3.3056      2.3481      0.0000
 13     12.1258      0.8005      0.8110      0.2541      0.0000      0.5442      0.3881      2.5896      0.0882
 14      2.2767      0.9956      1.4568      0.0000      0.0000      0.5561      2.7063      0.8983      0.0325
 15      0.0000     12.1621      6.4124     22.1736     16.5872     18.9136     12.4366     12.7885     20.2430
 16      6.6611     11.2713      8.6560     20.8240     12.8353     17.9868     15.7772     10.9124     20.1149
 17      5.9797      6.6489      3.6103     10.7200      9.2616      9.2465      8.7193      7.9572     11.2583
 18      0.0000      1.1969      1.1005      1.8043      0.0000      0.0000      0.0000      0.1912      1.0679
 19      0.0000      2.6582      5.4909      4.3341      2.7292      1.7734      1.4770      1.2419      3.0875
 20      0.0000      2.2853      2.4799      2.0696      2.8856      3.2237      2.7003      1.9547      2.7466
 21      0.0000      0.5299      1.2323      0.2942      0.0831      0.0000      0.0000      0.3198      0.4222
 22      0.0000      1.0253      0.0000      0.0821      0.0017      1.7767      0.6979      0.0000      0.0000
 23      0.0000      1.1577      0.3339      0.1141      1.8742      0.3880      0.0000      0.0803      0.0000
 24      0.0000      1.1015      0.9551      0.0000      1.4100      0.3518      1.2781      0.6053      0.0000
 25      0.0000      0.6917      0.0000      0.2500      0.5013      0.0381      0.2903      1.2562      1.0364
 26      0.0000      1.2245      0.0000      0.0000      0.5057      0.5805      1.0567      0.8430      0.0000
 27      0.0000      0.9458      0.1113      0.0585      0.0000      0.9723      0.7975      0.0000      0.0636
 28      0.0000      1.0800      0.0000      0.0000      1.5114      0.7849      0.9191      2.8111      1.4202
 29      0.0000      0.9655      1.8208      0.0000      0.1275      0.7978      1.3159      0.1672      0.0082
 30      3.4420      0.8855      1.2015      0.0000      2.4312      0.9447      0.5238      0.8401      0.0542
 31      0.0000      0.9687      1.6513      0.0000      0.0000      0.9222      0.6846      0.2923      0.0457
 32      0.0000      1.1445     11.1082      0.3040      1.0228      0.1484      2.0354      1.2617      1.4218
 33      7.3430      3.0754      4.7986      5.2053      6.3317      3.3955      3.3173      7.2963      5.3086
 34      0.0000      1.0364      0.0664      0.0247      2.3974      0.1068      0.5504      0.0000      1.0905
 35      3.0932      2.2341      0.6373      3.1997      1.9675      3.1866      1.4886      1.1788      2.9717
 36      0.0000      3.1782      1.9656      5.2850      3.2057      3.2501      0.8109      2.9122      4.4581
 37      0.0000      1.4095      1.1180      0.9256      0.8813      0.2736      1.6627      0.0680      1.1114
 38      0.0000      0.7766      0.7224      0.0562      0.0933      0.0000      0.0000      0.0000      0.0332
 39      0.0000      1.4316      0.0000      0.0000      0.4707      0.5778      2.0899      0.4828      0.0000
 40      0.0000      0.9208      2.3236      0.3803      0.9906      0.1970      0.6848      0.1574      0.0000
 41      0.0000      1.2099      3.0315      0.0000      0.2487      0.7261      1.2276      0.9424      0.2868
 42      0.0000      1.2138      3.8052      0.2886      1.2586      0.0000      0.0000      0.0000      0.0000
 43      0.0000      0.9509      2.1821      0.0000      0.3201      0.0000      0.2642      0.6763      0.0000
 44     13.5586      0.9529      1.3041      0.0000      0.8545      0.8345      0.0000      2.5919      0.8715
 45     10.0535      1.0130      2.3781      0.0000      0.0492      3.0728      0.9321      0.8106      1.1923
 46      1.4297      1.0779      0.2133      0.4499      0.0000      0.0000      0.9087      1.5174      0.2461
 47      0.0000      1.0177      2.2736      0.0000      1.6449      0.1587      0.8396      0.0000      0.1224
 48      0.3848      1.0166      0.4951      0.8624      0.7068      0.0533      1.6089      3.9366      0.6051
 49      0.0000      1.5269      1.6211      1.8000      0.7292      1.9893      1.6581      0.0000      1.1629
 50     12.4463      0.8500      0.8709      1.0106      1.1208      0.9114      1.3179      1.1369      1.1127
 51      0.0000      1.9167      1.5571      3.1570      3.0609      1.3961      0.0000      3.6804      2.1378
 52      0.0000      1.3454      0.0000      1.9022      2.6239      1.3006      1.1109      1.8116      0.3278
 53      0.0000      1.6307      0.0000      2.1701      2.9155      0.0000      1.7219      0.8159      1.7964
 54      0.0000      1.1890      1.6721      0.1207      0.6006      0.2277      2.0479      1.8093      1.2444
 55      0.0000      1.6790      0.0000      1.3823      1.2182      2.2902      1.4039      0.5215      2.0906
 56      0.0000      0.9273      0.0000      0.8814      1.1068      2.3115      0.0000      0.2819      0.0672
 57      0.0000      0.9681      0.5380      0.0014      0.0000      0.5528      1.5839      0.0000      1.0433
 58      0.0000      0.8332      1.1091      0.2507      0.0000      2.1097      1.0490      0.0000      0.5479
 59      0.5901      1.1507      0.3097      0.0000      0.1093      0.0000      0.6199      2.6578      0.0000
 60      0.0000      1.2143      1.3627      0.0000      0.2430      0.3261      0.9443      2.2900      1.0619
 61      5.9034      0.7589      0.0000      0.0954      2.2924      0.0000      0.8774      0.5778      0.0971
 62      1.8116      0.7876      3.1954      0.8664      1.8714      0.0000      2.0554      0.5905      0.2345
 63      0.0000      1.3022      2.5546      1.7086      0.6194      1.1491      1.6639      2.4902      1.1843
 64      0.0000      1.0595      3.5927      1.3353      1.2869      1.1684      0.5407      0.0000      0.5985
 65      7.4218      1.0263      0.0000      1.0719      1.7549      2.7509      1.5024      3.6082      1.1367
 66      0.0000      1.0555      1.0378      0.6945      0.7006      0.0000      3.3728      0.5586      0.7721

# j      m_j: min, <> & last-chain-values for 1 ...  7 chains
  1  0.0000E+00  8.1173E-03  2.2666E-03  8.4457E-03  8.0129E-03  3.4413E-03  2.2161E-04  4.8339E-03  8.1739E-03
  2  0.0000E+00  1.4696E-03  4.1392E-03  0.0000E+00  0.0000E+00  9.2184E-04  2.3028E-04  0.0000E+00  1.7723E-04
  3  0.0000E+00  9.9041E-03  4.3713E-03  1.0449E-02  5.9305E-03  9.0620E-03  7.0057E-03  1.1187E-02  1.1338E-02
  4  0.0000E+00  2.3396E-03  3.7327E-03  0.0000E+00  1.5632E-03  2.5258E-03  1.5404E-04  0.0000E+00  0.0000E+00
  5  0.0000E+00  5.7216E-03  9.2709E-03  4.8327E-03  2.8132E-03  8.8474E-03  1.4423E-03  2.8534E-03  6.3748E-04
  6  0.0000E+00  7.3747E-03  0.0000E+00  3.2509E-03  4.0490E-03  7.9667E-03  1.2445E-02  9.9692E-03  4.8258E-03
  7  0.0000E+00  1.4154E-02  1.8996E-02  4.9921E-03  6.9690E-03  1.4095E-02  1.4133E-02  8.7809E-03  0.0000E+00
  8  0.0000E+00  1.3499E-02  4.7619E-03  1.1067E-03  8.9539E-04  0.0000E+00  1.1373E-02  0.0000E+00  5.9212E-03
  9  0.0000E+00  1.8242E-02  0.0000E+00  0.0000E+00  1.1414E-02  0.0000E+00  1.3970E-02  0.0000E+00  0.0000E+00
 10  0.0000E+00  2.0655E-02  3.3260E-02  0.0000E+00  2.4830E-02  9.6191E-03  1.2292E-02  2.9502E-02  1.9305E-03
 11  0.0000E+00  4.0157E-02  9.3308E-02  0.0000E+00  0.0000E+00  4.1244E-02  9.2999E-03  2.0337E-03  1.0078E-02
 12  5.0411E-01  7.4009E-02  0.0000E+00  1.5586E-04  8.4583E-02  0.0000E+00  1.7280E-01  1.4193E-01  0.0000E+00
 13  1.4556E+00  1.6435E-01  1.6673E-01  3.8452E-02  0.0000E+00  9.1098E-02  5.7182E-02  4.4120E-01  1.3263E-02
 14  9.1668E-01  6.8556E-01  1.0045E+00  0.0000E+00  0.0000E+00  3.1223E-01  1.3375E+00  5.1334E-01  1.6407E-02
 15  0.0000E+00  1.3634E+01  7.1982E+00  1.8323E+01  1.4535E+01  1.7288E+01  1.0006E+01  1.1897E+01  1.6619E+01
 16  7.3823E+00  2.1365E+01  1.6430E+01  2.9096E+01  1.9017E+01  2.7799E+01  2.1463E+01  1.7164E+01  2.7923E+01
 17  8.5971E+00  1.6349E+01  8.8895E+00  1.9431E+01  1.7801E+01  1.8539E+01  1.5387E+01  1.6237E+01  2.0274E+01
 18  0.0000E+00  7.2993E-03  6.7204E-03  8.1105E-03  0.0000E+00  0.0000E+00  0.0000E+00  9.6736E-04  4.7691E-03
 19  0.0000E+00  6.5062E-03  1.3458E-02  7.8196E-03  5.2215E-03  3.5391E-03  2.5944E-03  2.5224E-03  5.5343E-03
 20  0.0000E+00  6.1067E-03  6.6355E-03  4.0764E-03  6.0270E-03  7.0236E-03  5.1782E-03  4.3343E-03  5.3749E-03
 21  0.0000E+00  1.7188E-03  4.0024E-03  7.0347E-04  2.1075E-04  0.0000E+00  0.0000E+00  8.6075E-04  1.0030E-03
 22  0.0000E+00  5.6237E-03  0.0000E+00  3.3205E-04  7.1950E-06  7.9459E-03  2.7473E-03  0.0000E+00  0.0000E+00
 23  0.0000E+00  8.5747E-03  2.4761E-03  6.2319E-04  1.0850E-02  2.3430E-03  0.0000E+00  4.9380E-04  0.0000E+00
 24  0.0000E+00  1.2138E-02  1.0539E-02  0.0000E+00  1.2145E-02  3.1608E-03  1.0107E-02  5.5345E-03  0.0000E+00
 25  0.0000E+00  1.0510E-02  0.0000E+00  2.8002E-03  5.9533E-03  4.7140E-04  3.1650E-03  1.5839E-02  1.1533E-02
 26  0.0000E+00  3.1100E-02  0.0000E+00  0.0000E+00  1.0038E-02  1.2021E-02  1.9260E-02  1.7766E-02  0.0000E+00
 27  0.0000E+00  4.8078E-02  5.6634E-03  2.1905E-03  0.0000E+00  4.0299E-02  2.9096E-02  0.0000E+00  2.3696E-03
 28  0.0000E+00  1.5933E-01  0.0000E+00  0.0000E+00  1.7429E-01  9.4422E-02  9.7318E-02  3.4415E-01  1.5345E-01
 29  0.0000E+00  2.4819E-01  4.6868E-01  0.0000E+00  2.5608E-02  1.6721E-01  2.4277E-01  3.5663E-02  1.5359E-03
 30  1.0808E+00  4.7559E-01  6.4614E-01  0.0000E+00  1.0206E+00  4.1369E-01  2.0188E-01  3.7440E-01  2.1329E-02
 31  0.0000E+00  9.1515E-01  1.5622E+00  0.0000E+00  0.0000E+00  7.1038E-01  4.6418E-01  2.2914E-01  3.1647E-02
 32  0.0000E+00  1.4548E+00  1.4140E+01  2.8485E-01  1.0162E+00  1.5381E-01  1.8569E+00  1.3309E+00  1.3236E+00
 33  1.2082E+01  8.6543E+00  1.3522E+01  1.0797E+01  1.3927E+01  7.7910E+00  6.6996E+00  1.7038E+01  1.0940E+01
 34  0.0000E+00  3.9494E+00  2.5335E-01  6.9390E-02  7.1410E+00  3.3177E-01  1.5053E+00  0.0000E+00  3.0432E+00
 35  8.8431E-03  1.0924E-02  3.1204E-03  1.1533E-02  7.5199E-03  1.2705E-02  5.2238E-03  4.7829E-03  1.0641E-02
 36  0.0000E+00  6.2875E-03  3.8939E-03  7.7069E-03  4.9571E-03  5.2425E-03  1.1512E-03  4.7807E-03  6.4590E-03
 37  0.0000E+00  3.0162E-03  2.3956E-03  1.4600E-03  1.4741E-03  4.7732E-04  2.5535E-03  1.2083E-04  1.7417E-03
 38  0.0000E+00  4.5021E-03  4.1935E-03  2.4034E-04  4.2288E-04  0.0000E+00  0.0000E+00  0.0000E+00  1.4084E-04
 39  0.0000E+00  1.1949E-02  0.0000E+00  0.0000E+00  3.0711E-03  3.9322E-03  1.2519E-02  3.3438E-03  0.0000E+00
 40  0.0000E+00  1.2423E-02  3.1392E-02  3.7825E-03  1.0447E-02  2.1673E-03  6.6309E-03  1.7618E-03  0.0000E+00
 41  0.0000E+00  2.5384E-02  6.3688E-02  0.0000E+00  4.0781E-03  1.2422E-02  1.8485E-02  1.6408E-02  4.4068E-03
 42  0.0000E+00  4.6755E-02  1.4678E-01  8.1951E-03  3.7895E-02  0.0000E+00  0.0000E+00  0.0000E+00  0.0000E+00
 43  0.0000E+00  5.3481E-02  1.2289E-01  0.0000E+00  1.4072E-02  0.0000E+00  1.0664E-02  3.1561E-02  0.0000E+00
 44  7.6764E-01  9.2270E-02  1.2645E-01  0.0000E+00  6.4677E-02  6.5887E-02  0.0000E+00  2.0826E-01  6.1804E-02
 45  1.1294E+00  1.9463E-01  4.5753E-01  0.0000E+00  7.3904E-03  4.8138E-01  1.2852E-01  1.2924E-01  1.6776E-01
 46  2.9521E-01  3.8068E-01  7.5445E-02  1.1712E-01  0.0000E+00  0.0000E+00  2.3031E-01  4.4466E-01  6.3656E-02
 47  0.0000E+00  7.2829E-01  1.6292E+00  0.0000E+00  9.2010E-01  9.2584E-02  4.3120E-01  0.0000E+00  6.4136E-02
 48  2.8392E-01  1.2830E+00  6.2569E-01  8.0226E-01  6.9727E-01  5.4829E-02  1.4572E+00  4.1227E+00  5.5926E-01
 49  0.0000E+00  4.3795E+00  4.6560E+00  3.8057E+00  1.6350E+00  4.6525E+00  3.4133E+00  0.0000E+00  2.4427E+00
 50  3.8660E+01  4.5158E+00  4.6327E+00  3.9576E+00  4.6540E+00  3.9480E+00  5.0247E+00  5.0121E+00  4.3291E+00
 51  0.0000E+00  5.5817E-03  4.5405E-03  6.7768E-03  6.9674E-03  3.3150E-03  0.0000E+00  8.8937E-03  4.5592E-03
 52  0.0000E+00  2.0077E-03  0.0000E+00  2.0925E-03  3.0606E-03  1.5825E-03  1.1898E-03  2.2434E-03  3.5829E-04
 53  0.0000E+00  3.6657E-03  0.0000E+00  3.5959E-03  5.1229E-03  0.0000E+00  2.7780E-03  1.5219E-03  2.9574E-03
 54  0.0000E+00  5.4766E-03  7.7121E-03  4.0994E-04  2.1625E-03  8.5515E-04  6.7696E-03  6.9155E-03  4.1975E-03
 55  0.0000E+00  1.1907E-02  0.0000E+00  7.2261E-03  6.7529E-03  1.3243E-02  7.1456E-03  3.0689E-03  1.0858E-02
 56  0.0000E+00  1.3016E-02  0.0000E+00  9.1195E-03  1.2144E-02  2.6456E-02  0.0000E+00  3.2831E-03  6.9089E-04
 57  0.0000E+00  1.8037E-02  1.0036E-02  1.9208E-05  0.0000E+00  8.3968E-03  2.1178E-02  0.0000E+00  1.4235E-02
 58  0.0000E+00  2.6256E-02  3.4998E-02  5.8236E-03  0.0000E+00  5.4209E-02  2.3724E-02  0.0000E+00  1.2644E-02
 59  2.3398E-02  7.8035E-02  2.1031E-02  0.0000E+00  5.7947E-03  0.0000E+00  3.0173E-02  1.4957E-01  0.0000E+00
 60  0.0000E+00  1.5296E-01  1.7189E-01  0.0000E+00  2.3921E-02  3.3494E-02  8.5366E-02  2.3936E-01  9.7957E-02
 61  9.4998E-01  2.0886E-01  0.0000E+00  1.9363E-02  4.9318E-01  0.0000E+00  1.7330E-01  1.3196E-01  1.9573E-02
 62  5.3153E-01  3.9524E-01  1.6057E+00  3.2051E-01  7.3408E-01  0.0000E+00  7.4027E-01  2.4592E-01  8.6184E-02
 63  0.0000E+00  1.3001E+00  2.5540E+00  1.2575E+00  4.8336E-01  9.3545E-01  1.1922E+00  2.0631E+00  8.6594E-01
 64  0.0000E+00  2.9257E+00  9.9347E+00  2.7181E+00  2.7778E+00  2.6309E+00  1.0717E+00  0.0000E+00  1.2104E+00
 65  2.5332E+01  5.9913E+00  0.0000E+00  4.6122E+00  8.0075E+00  1.3094E+01  6.2943E+00  1.7479E+01  4.8597E+00
 66  0.0000E+00  8.7043E+00  8.5702E+00  4.2217E+00  4.5163E+00  0.0000E+00  1.9962E+01  3.8224E+00  4.6630E+00

# AV, chi2 & Mass for <> & i_chain = 1 ...  7 solutions
AV       0.0634      0.2472      0.3933      0.2457      0.2951      0.3404      0.2334      0.3612      0.2427
chi2 1.3928E-05  4.2526E-05  2.0413E-05  2.4228E-05  2.2577E-05  2.1667E-05  2.0117E-05  1.8596E-05  2.2394E-05
Mass 6.4470E-13  4.8249E-13  5.8627E-13  6.5325E-13  6.5830E-13  6.7064E-13  6.5996E-13  6.7765E-13  6.5487E-13
 102.39                                  [v0_min (km/s) before EX0s...]
 442.72                                  [vd_min (km/s) before EX0s...]


## Synthetic spectrum (Best Model) ##l_obs f_obs f_syn wei
 3478    [Nl_obs]
 3741.00    0.41018   0.49387    0.000
 3742.00    0.45075   0.49526    0.000
 3743.00    0.50545   0.49591    0.000
 3744.00    0.48512   0.49645    0.000
 3745.00    0.42108   0.49499    0.062
 3746.00    0.43225   0.49467    0.061
 3747.00    0.48161   0.49301    0.060
 3748.00    0.44338   0.49280    0.061
 3749.00    0.36663   0.49395    0.063
 3750.00    0.38006   0.49709    0.061
 3751.00    0.42752   0.50234    0.059
 3752.00    0.43467   0.50841    0.058
 3753.00    0.42889   0.51709    0.057
 3754.00    0.47456   0.52541    0.057
 3755.00    0.53400   0.53466    0.057
 3756.00    0.57407   0.54270    0.057
 3757.00    0.60989   0.55010    0.057
 3758.00    0.55276   0.55765    0.057
 3759.00    0.47941   0.56412    0.057
 3760.00    0.44212   0.56899    0.074
 3761.00    0.40961   0.57198    0.111
 3762.00    0.45364   0.57389    0.076
 3763.00    0.50486   0.57392    0.055
 3764.00    0.55897   0.57398    0.055
 3765.00    0.61325   0.57264    0.056
 3766.00    0.62007   0.57141    0.056
 3767.00    0.62564   0.57149    0.057
 3768.00    0.61545   0.57283    0.056
 3769.00    0.60857   0.57484    0.056
 3770.00    0.68201   0.57873    0.057
 3771.00    0.74252   0.58504    0.057
 3772.00    0.63342   0.59262    0.055
 3773.00    0.52860   0.60229    0.054
 3774.00    0.46129   0.61314    0.052
 3775.00    0.40975   0.62506    0.052
 3776.00    0.46046   0.63853    0.053
 3777.00    0.50230   0.65185    0.053
 3778.00    0.49927   0.66467    0.053
 3779.00    0.48796   0.67687    0.054
 3780.00    0.44272   0.68720    0.054
 3781.00    0.41277   0.69561    0.054
 3782.00    0.43469   0.70072    0.053
 3783.00    0.44306   0.70336    0.053
 3784.00    0.41266   0.70247    0.054
 3785.00    0.42904   0.69791    0.054
 3786.00    0.55973   0.69132    0.055
 3787.00    0.65314   0.68170    0.055
 3788.00    0.66797   0.67077    0.056
 3789.00    0.67279   0.65737    0.056
 3790.00    0.65928   0.64359    0.056
 3791.00    0.62120   0.62882    0.055
 3792.00    0.54381   0.61374    0.054
 3793.00    0.47329   0.59945    0.053
 3794.00    0.41242   0.58557    0.053
 3795.00    0.36683   0.57508    0.052
 3796.00    0.34010   0.56616    0.051
 3797.00    0.34169   0.56082    0.051
 3798.00    0.37411   0.55899    0.052
 3799.00    0.44988   0.56147    0.053
 3800.00    0.56732   0.56724    0.055
 3801.00    0.63803   0.57487    0.056
 3802.00    0.66916   0.58612    0.057
 3803.00    0.66884   0.59815    0.057
 3804.00    0.64506   0.61206    0.056
 3805.00    0.61542   0.62570    0.055
 3806.00    0.58194   0.63924    0.055
 3807.00    0.47512   0.65306    0.054
 3808.00    0.32622   0.66533    0.052
 3809.00    0.33938   0.67557    0.052
 3810.00    0.43353   0.68225    0.053
 3811.00    0.52570   0.68695    0.055
 3812.00    0.61702   0.68835    0.058
 3813.00    0.65509   0.68807    0.057
 3814.00    0.67342   0.68578    0.054
 3815.00    0.61054   0.68187    0.053
 3816.00    0.52215   0.67733    0.052
 3817.00    0.51287   0.67097    0.055
 3818.00    0.52434   0.66275    0.058
 3819.00    0.55213   0.65280    0.056
 3820.00    0.58340   0.64331    0.053
 3821.00    0.60687   0.63299    0.052
 3822.00    0.62902   0.62203    0.052
 3823.00    0.60886   0.60948    0.052
 3824.00    0.58328   0.59646    0.052
 3825.00    0.51446   0.58331    0.052
 3826.00    0.44177   0.56939    0.051
 3827.00    0.50759   0.55524    0.053
 3828.00    0.58086   0.54069    0.055
 3829.00    0.52821   0.52704    0.054
 3830.00    0.47338   0.51342    0.053
 3831.00    0.44800   0.50000    0.053
 3832.00    0.42566   0.48840    0.052
 3833.00    0.47064   0.47904    0.052
 3834.00    0.51214   0.47252    0.052
 3835.00    0.51027   0.46932    0.052
 3836.00    0.51299   0.46914    0.053
 3837.00    0.55453   0.47196    0.055
 3838.00    0.60241   0.47852    0.057
 3839.00    0.69017   0.48829    0.056
 3840.00    0.72790   0.50105    0.055
 3841.00    0.51873   0.51740    0.053
 3842.00    0.34180   0.53530    0.052
 3843.00    0.29389   0.55455    0.052
 3844.00    0.25482   0.57385    0.053
 3845.00    0.24513   0.59323    0.053
 3846.00    0.27952   0.61187    0.054
 3847.00    0.43768   0.62938    0.000
 3848.00    0.55343   0.64509    0.000
 3849.00    0.56729   0.65827    0.000
 3850.00    0.56968   0.67089    0.000
 3851.00    0.54827   0.68074    0.000
 3852.00    0.51213   0.68857    0.000
 3853.00    0.44943   0.69443    0.000
 3854.00    0.41465   0.69916    0.000
 3855.00    0.42389   0.70209    0.000
 3856.00    0.46034   0.70479    0.000
 3857.00    0.53444   0.70705    0.000
 3858.00    0.60751   0.70831    0.000
 3859.00    0.67930   0.71025    0.000
 3860.00    0.75995   0.71272    0.000
 3861.00    0.85013   0.71555    0.000
 3862.00    0.82485   0.71733    0.000
 3863.00    0.69018   0.71946    0.000
 3864.00    0.56719   0.72068    0.000
 3865.00    0.45395   0.72164    0.000
 3866.00    0.43979   0.72269    0.000
 3867.00    0.49850   0.72279    0.000
 3868.00    0.54631   0.72219    0.000
 3869.00    0.58707   0.71968    0.000
 3870.00    0.55872   0.71620    0.000
 3871.00    0.49131   0.71135    0.000
 3872.00    0.44294   0.70629    0.000
 3873.00    0.40394   0.70131    0.000
 3874.00    0.43644   0.69515    0.000
 3875.00    0.49935   0.68778    0.000
 3876.00    0.48386   0.67917    0.000
 3877.00    0.43982   0.66897    0.000
 3878.00    0.44143   0.65925    0.000
 3879.00    0.45710   0.64982    0.000
 3880.00    0.45332   0.63923    0.000
 3881.00    0.44454   0.62816    0.049
 3882.00    0.54698   0.61717    0.050
 3883.00    0.67269   0.60708    0.050
 3884.00    0.70753   0.59576    0.051
 3885.00    0.72738   0.58549    0.053
 3886.00    0.67175   0.57834    0.053
 3887.00    0.60676   0.57247    0.052
 3888.00    0.53805   0.56885    0.051
 3889.00    0.46901   0.56937    0.051
 3890.00    0.50224   0.57265    0.051
 3891.00    0.54057   0.57830    0.052
 3892.00    0.58822   0.58495    0.052
 3893.00    0.63587   0.59505    0.051
 3894.00    0.67387   0.60627    0.052
 3895.00    0.71026   0.61883    0.052
 3896.00    0.71370   0.63449    0.052
 3897.00    0.71723   0.64825    0.051
 3898.00    0.72194   0.66290    0.050
 3899.00    0.71774   0.67636    0.048
 3900.00    0.64104   0.69075    0.047
 3901.00    0.56823   0.70364    0.045
 3902.00    0.51917   0.71479    0.044
 3903.00    0.48048   0.72814    0.043
 3904.00    0.49167   0.73828    0.042
 3905.00    0.49705   0.74857    0.042
 3906.00    0.47970   0.75954    0.042
 3907.00    0.47227   0.77062    0.043
 3908.00    0.49711   0.78051    0.044
 3909.00    0.52731   0.78839    0.044
 3910.00    0.57225   0.79659    0.045
 3911.00    0.61195   0.80293    0.046
 3912.00    0.63926   0.80704    0.047
 3913.00    0.65431   0.81048    0.048
 3914.00    0.64435   0.81331    0.048
 3915.00    0.63593   0.81242    0.049
 3916.00    0.63024   0.81041    0.050
 3917.00    0.64137   0.80589    0.051
 3918.00    0.67863   0.79941    0.051
 3919.00    0.72671   0.79068    0.051
 3920.00    0.78956   0.77975    0.051
 3921.00    0.78451   0.76940    0.051
 3922.00    0.69791   0.75531    0.051
 3923.00    0.63320   0.74104    0.051
 3924.00    0.59167   0.72427    0.051
 3925.00    0.58717   0.70534    0.051
 3926.00    0.61727   0.68602    0.052
 3927.00    0.63882   0.66530    0.052
 3928.00    0.65333   0.64605    0.052
 3929.00    0.62544   0.62626    0.052
 3930.00    0.56681   0.60817    0.052
 3931.00    0.52529   0.59132    0.051
 3932.00    0.49465   0.57642    0.051
 3933.00    0.53144   0.56614    0.052
 3934.00    0.60577   0.56006    0.053
 3935.00    0.62643   0.55923    0.053
 3936.00    0.62111   0.56212    0.052
 3937.00    0.65865   0.56955    0.053
 3938.00    0.71410   0.58045    0.054
 3939.00    0.74357   0.59420    0.054
 3940.00    0.76373   0.61041    0.053
 3941.00    0.73608   0.62885    0.053
 3942.00    0.69397   0.64864    0.052
 3943.00    0.61005   0.66752    0.051
 3944.00    0.51562   0.68692    0.051
 3945.00    0.53027   0.70552    0.052
 3946.00    0.56715   0.72192    0.052
 3947.00    0.61272   0.73557    0.052
 3948.00    0.65968   0.74750    0.053
 3949.00    0.72413   0.75808    0.052
 3950.00    0.79068   0.76581    0.052
 3951.00    0.81630   0.77109    0.052
 3952.00    0.83858   0.77377    0.052
 3953.00    0.78012   0.77370    0.052
 3954.00    0.71794   0.76940    0.052
 3955.00    0.68817   0.76141    0.052
 3956.00    0.66083   0.75153    0.052
 3957.00    0.73848   0.73868    0.053
 3958.00    0.80968   0.72225    0.053
 3959.00    0.75871   0.70219    0.052
 3960.00    0.70797   0.67874    0.000
 3961.00    0.65995   0.65366    0.000
 3962.00    0.62715   0.62727    0.000
 3963.00    0.71392   0.60087    0.000
 3964.00    0.77803   0.57528    0.000
 3965.00    0.70764   0.54984    0.000
 3966.00    0.63424   0.52647    0.000
 3967.00    0.54673   0.50603    0.000
 3968.00    0.48598   0.49083    0.000
 3969.00    0.52778   0.48232    0.000
 3970.00    0.56687   0.47955    0.000
 3971.00    0.59733   0.48273    0.000
 3972.00    0.63013   0.49132    0.000
 3973.00    0.66926   0.50507    0.000
 3974.00    0.69531   0.52459    0.000
 3975.00    0.69100   0.54811    0.000
 3976.00    0.71701   0.57522    0.000
 3977.00    0.80393   0.60538    0.000
 3978.00    0.83082   0.63596    0.000
 3979.00    0.75272   0.66706    0.000
 3980.00    0.73138   0.69683    0.000
 3981.00    0.79694   0.72462    0.053
 3982.00    0.85943   0.75172    0.054
 3983.00    0.91778   0.77645    0.054
 3984.00    0.96076   0.79997    0.054
 3985.00    0.98551   0.82084    0.055
 3986.00    0.96622   0.83858    0.054
 3987.00    0.90092   0.85613    0.054
 3988.00    0.92593   0.86942    0.053
 3989.00    1.03412   0.88148    0.053
 3990.00    1.07299   0.89333    0.053
 3991.00    1.05558   0.90340    0.052
 3992.00    1.05436   0.91309    0.052
 3993.00    1.06470   0.91956    0.052
 3994.00    1.03522   0.92647    0.052
 3995.00    0.98078   0.93203    0.052
 3996.00    0.93517   0.93576    0.052
 3997.00    0.89439   0.94006    0.052
 3998.00    0.95110   0.94484    0.051
 3999.00    1.05424   0.94939    0.051
 4000.00    1.06709   0.95200    0.052
 4001.00    1.04281   0.95500    0.052
 4002.00    0.99348   0.95858    0.052
 4003.00    0.93534   0.96106    0.051
 4004.00    0.93912   0.96188    0.051
 4005.00    0.96124   0.96524    0.052
 4006.00    1.01922   0.97015    0.052
 4007.00    1.08601   0.97441    0.052
 4008.00    1.11083   0.97817    0.052
 4009.00    1.12731   0.98150    0.052
 4010.00    1.06818   0.98619    0.052
 4011.00    0.99730   0.98967    0.051
 4012.00    0.95756   0.99483    0.051
 4013.00    0.92139   1.00036    0.051
 4014.00    0.97764   1.00547    0.051
 4015.00    1.04103   1.01028    0.051
 4016.00    1.08666   1.01211    0.052
 4017.00    1.13154   1.01550    0.053
 4018.00    1.07019   1.01911    0.053
 4019.00    1.00823   1.02130    0.052
 4020.00    0.96233   1.02272    0.052
 4021.00    0.92664   1.02278    0.053
 4022.00    1.07094   1.02304    0.053
 4023.00    1.20507   1.02104    0.053
 4024.00    1.22975   1.01849    0.053
 4025.00    1.24445   1.01756    0.053
 4026.00    1.18349   1.01524    0.053
 4027.00    1.12491   1.01234    0.053
 4028.00    1.08002   1.00894    0.053
 4029.00    1.03773   1.00392    0.053
 4030.00    1.00733   1.00039    0.053
 4031.00    0.96600   0.99825    0.053
 4032.00    0.88366   0.99604    0.052
 4033.00    0.82279   0.99508    0.051
 4034.00    0.82923   0.99411    0.051
 4035.00    0.86396   0.99442    0.051
 4036.00    0.97396   0.99556    0.052
 4037.00    1.03868   0.99587    0.052
 4038.00    1.00000   0.99661    0.051
 4039.00    0.95298   0.99641    0.051
 4040.00    0.88947   0.99639    0.052
 4041.00    0.90549   0.99824    0.052
 4042.00    1.05852   0.99844    0.052
 4043.00    1.11309   0.99636    0.052
 4044.00    1.01914   0.99252    0.052
 4045.00    0.96534   0.98956    0.052
 4046.00    0.96477   0.99067    0.052
 4047.00    0.99720   0.99101    0.052
 4048.00    1.06817   0.99005    0.052
 4049.00    1.11729   0.98908    0.053
 4050.00    1.14390   0.98785    0.053
 4051.00    1.09909   0.98712    0.053
 4052.00    0.98942   0.98728    0.052
 4053.00    0.95916   0.98804    0.052
 4054.00    0.99246   0.98786    0.052
 4055.00    0.92127   0.98684    0.052
 4056.00    0.77650   0.98363    0.051
 4057.00    0.82560   0.98027    0.051
 4058.00    0.99444   0.97821    0.051
 4059.00    1.10142   0.97688    0.052
 4060.00    1.17501   0.97467    0.052
 4061.00    1.08747   0.97014    0.052
 4062.00    0.92440   0.96509    0.051
 4063.00    0.85108   0.96180    0.051
 4064.00    0.81400   0.96171    0.052
 4065.00    0.77452   0.96002    0.051
 4066.00    0.73420   0.95721    0.050
 4067.00    0.86126   0.95656    0.051
 4068.00    1.03693   0.95651    0.052
 4069.00    1.06058   0.95591    0.052
 4070.00    1.04771   0.95301    0.052
 4071.00    1.04494   0.95168    0.051
 4072.00    1.04412   0.95402    0.051
 4073.00    1.09896   0.95479    0.052
 4074.00    1.16219   0.95428    0.052
 4075.00    1.08737   0.95308    0.053
 4076.00    0.99728   0.95156    0.055
 4077.00    1.04563   0.95272    0.056
 4078.00    1.10412   0.95471    0.057
 4079.00    1.22355   0.95794    0.057
 4080.00    1.34531   0.96185    0.057
 4081.00    1.30512   0.96309    0.057
 4082.00    1.26287   0.96441    0.057
 4083.00    1.17662   0.96680    0.057
 4084.00    1.09854   0.96976    0.057
 4085.00    1.15493   0.97321    0.056
 4086.00    1.19371   0.97427    0.055
 4087.00    1.05126   0.97379    0.053
 4088.00    0.92602   0.97137    0.052
 4089.00    0.92709   0.96580    0.052
 4090.00    0.93398   0.95991    0.051
 4091.00    0.97349   0.95150    0.052
 4092.00    1.02259   0.94170    0.000
 4093.00    1.11461   0.93040    0.000
 4094.00    1.18118   0.91418    0.000
 4095.00    1.15428   0.89712    0.000
 4096.00    1.11397   0.88042    0.000
 4097.00    1.03240   0.86494    0.000
 4098.00    0.98734   0.85043    0.000
 4099.00    1.03768   0.83501    0.000
 4100.00    1.06796   0.82045    0.000
 4101.00    1.05317   0.80973    0.000
 4102.00    1.04030   0.80424    0.000
 4103.00    1.03113   0.80157    0.000
 4104.00    1.03539   0.80165    0.000
 4105.00    1.06240   0.80462    0.000
 4106.00    1.05884   0.81004    0.000
 4107.00    1.00986   0.81933    0.000
 4108.00    0.96972   0.83054    0.000
 4109.00    0.94115   0.84343    0.000
 4110.00    1.00719   0.85744    0.000
 4111.00    1.18213   0.87088    0.000
 4112.00    1.23497   0.88467    0.000
 4113.00    1.16387   0.89773    0.051
 4114.00    1.12655   0.91058    0.051
 4115.00    1.11947   0.92262    0.051
 4116.00    1.10809   0.93272    0.050
 4117.00    1.09331   0.94088    0.050
 4118.00    1.07258   0.94798    0.050
 4119.00    1.04772   0.95571    0.050
 4120.00    1.05474   0.96139    0.050
 4121.00    1.08116   0.96506    0.050
 4122.00    1.09440   0.96744    0.050
 4123.00    1.10063   0.96983    0.050
 4124.00    1.05289   0.97289    0.050
 4125.00    0.98026   0.97376    0.050
 4126.00    1.05610   0.97297    0.050
 4127.00    1.19089   0.97262    0.050
 4128.00    1.16468   0.97260    0.050
 4129.00    1.08399   0.97330    0.050
 4130.00    1.03143   0.97365    0.050
 4131.00    0.98688   0.97132    0.050
 4132.00    0.95610   0.97167    0.049
 4133.00    0.92856   0.97226    0.049
 4134.00    0.94150   0.97386    0.049
 4135.00    0.96208   0.97715    0.050
 4136.00    1.07444   0.97575    0.050
 4137.00    1.20020   0.97675    0.051
 4138.00    1.18996   0.97801    0.051
 4139.00    1.16527   0.98004    0.051
 4140.00    1.18672   0.98331    0.051
 4141.00    1.21136   0.98145    0.051
 4142.00    1.13090   0.97983    0.051
 4143.00    1.04681   0.97894    0.051
 4144.00    1.11836   0.97997    0.051
 4145.00    1.18553   0.98147    0.051
 4146.00    1.09808   0.97981    0.051
 4147.00    1.01453   0.97840    0.051
 4148.00    0.99138   0.97677    0.051
 4149.00    0.97290   0.97746    0.051
 4150.00    1.00041   0.97933    0.051
 4151.00    1.02388   0.97979    0.051
 4152.00    1.01861   0.98140    0.052
 4153.00    1.01286   0.98152    0.052
 4154.00    1.00445   0.98357    0.052
 4155.00    0.98352   0.98633    0.051
 4156.00    0.90783   0.98864    0.050
 4157.00    0.84367   0.99297    0.049
 4158.00    0.82099   0.99521    0.049
 4159.00    0.81978   0.99842    0.050
 4160.00    0.88339   1.00089    0.050
 4161.00    0.94550   1.00273    0.050
 4162.00    1.00377   1.00607    0.050
 4163.00    1.05893   1.00716    0.051
 4164.00    1.10723   1.00802    0.051
 4165.00    1.10596   1.00714    0.051
 4166.00    1.00974   1.00366    0.051
 4167.00    0.99205   1.00153    0.051
 4168.00    1.10563   0.99938    0.051
 4169.00    1.06013   0.99619    0.051
 4170.00    0.78160   0.99189    0.050
 4171.00    0.66946   0.98436    0.049
 4172.00    0.77163   0.97898    0.049
 4173.00    0.84138   0.97683    0.050
 4174.00    0.87434   0.97442    0.051
 4175.00    0.89041   0.97182    0.051
 4176.00    0.88957   0.96684    0.051
 4177.00    0.95391   0.96448    0.051
 4178.00    1.07580   0.96606    0.051
 4179.00    1.06728   0.96854    0.050
 4180.00    0.95733   0.96980    0.049
 4181.00    0.86968   0.96862    0.049
 4182.00    0.79728   0.97066    0.049
 4183.00    0.83085   0.97480    0.049
 4184.00    0.92794   0.97952    0.049
 4185.00    1.00208   0.98157    0.049
 4186.00    1.06422   0.98084    0.050
 4187.00    1.13639   0.98405    0.050
 4188.00    1.21312   0.98740    0.049
 4189.00    1.16499   0.98980    0.049
 4190.00    1.06814   0.98945    0.048
 4191.00    0.97309   0.98749    0.048
 4192.00    0.87865   0.98841    0.048
 4193.00    0.84951   0.98859    0.048
 4194.00    0.83857   0.98763    0.048
 4195.00    0.88735   0.98436    0.048
 4196.00    0.94983   0.98132    0.048
 4197.00    0.98597   0.98037    0.049
 4198.00    1.01727   0.97890    0.049
 4199.00    0.94251   0.97807    0.049
 4200.00    0.85274   0.97636    0.048
 4201.00    0.88089   0.97572    0.048
 4202.00    0.92105   0.97796    0.048
 4203.00    0.93906   0.97972    0.048
 4204.00    0.95563   0.98218    0.047
 4205.00    0.97256   0.98577    0.047
 4206.00    0.98955   0.98949    0.047
 4207.00    1.03533   0.99517    0.047
 4208.00    1.07894   0.99963    0.047
 4209.00    1.05880   1.00168    0.048
 4210.00    1.04478   1.00608    0.048
 4211.00    1.11992   1.01067    0.048
 4212.00    1.18232   1.01413    0.048
 4213.00    1.12434   1.01632    0.048
 4214.00    1.07491   1.01426    0.049
 4215.00    1.08435   1.01416    0.049
 4216.00    1.08636   1.01573    0.048
 4217.00    1.04892   1.01462    0.048
 4218.00    1.01154   1.01215    0.047
 4219.00    0.97440   1.00629    0.047
 4220.00    0.94343   1.00081    0.047
 4221.00    0.93417   0.99684    0.046
 4222.00    0.91568   0.99252    0.046
 4223.00    0.86985   0.98727    0.047
 4224.00    0.83519   0.98023    0.047
 4225.00    0.82870   0.97366    0.047
 4226.00    0.85329   0.96797    0.046
 4227.00    0.94539   0.96601    0.048
 4228.00    0.99846   0.96564    0.048
 4229.00    0.97793   0.96377    0.047
 4230.00    0.96672   0.96318    0.046
 4231.00    0.97085   0.96354    0.046
 4232.00    0.94206   0.96691    0.046
 4233.00    0.86575   0.97360    0.045
 4234.00    0.84074   0.97807    0.045
 4235.00    0.88086   0.98215    0.045
 4236.00    0.91222   0.98725    0.045
 4237.00    0.93376   0.99192    0.045
 4238.00    0.94129   0.99929    0.045
 4239.00    0.93498   1.00486    0.046
 4240.00    0.91869   1.00862    0.046
 4241.00    0.89372   1.01255    0.046
 4242.00    0.91310   1.01482    0.046
 4243.00    0.96648   1.01889    0.046
 4244.00    0.98200   1.02047    0.046
 4245.00    0.97200   1.02070    0.047
 4246.00    1.01449   1.02070    0.048
 4247.00    1.08795   1.01873    0.049
 4248.00    1.13800   1.01854    0.050
 4249.00    1.17598   1.01503    0.050
 4250.00    1.19759   1.01211    0.051
 4251.00    1.21191   1.01175    0.051
 4252.00    1.12889   1.00860    0.051
 4253.00    1.00854   1.00655    0.050
 4254.00    0.95997   1.00284    0.049
 4255.00    0.93479   1.00176    0.048
 4256.00    0.90083   1.00585    0.048
 4257.00    0.86446   1.00565    0.048
 4258.00    0.94647   1.00454    0.049
 4259.00    1.05501   1.00392    0.050
 4260.00    1.04111   1.00558    0.050
 4261.00    1.00531   1.01152    0.050
 4262.00    1.03392   1.01304    0.050
 4263.00    1.07134   1.01150    0.051
 4264.00    1.04711   1.01075    0.050
 4265.00    1.01685   1.01006    0.049
 4266.00    0.91944   1.01078    0.049
 4267.00    0.81792   1.01002    0.049
 4268.00    0.81934   1.00546    0.049
 4269.00    0.82363   1.00118    0.048
 4270.00    0.84789   0.99666    0.048
 4271.00    0.87206   0.99223    0.047
 4272.00    0.89355   0.99165    0.048
 4273.00    0.91864   0.98790    0.049
 4274.00    0.99315   0.98343    0.049
 4275.00    1.05607   0.98206    0.050
 4276.00    1.01363   0.98023    0.049
 4277.00    0.99192   0.98372    0.049
 4278.00    1.10823   0.98440    0.049
 4279.00    1.20069   0.98071    0.050
 4280.00    1.16961   0.98284    0.050
 4281.00    1.14765   0.98377    0.050
 4282.00    1.16377   0.98524   -2.000
 4283.00    1.14363   0.98495   -2.000
 4284.00    0.99837   0.97837   -2.000
 4285.00    0.88362   0.97625   -2.000
 4286.00    0.85758   0.97497   -2.000
 4287.00    0.87682   0.97162   -2.000
 4288.00    1.00838   0.96554   -2.000
 4289.00    1.11054   0.95656   -2.000
 4290.00    1.14986   0.95068   -2.000
 4291.00    1.14024   0.94677   -2.000
 4292.00    1.03976   0.94202   -2.000
 4293.00    1.00255   0.93055   -2.000
 4294.00    1.06793   0.92032   -2.000
 4295.00    1.09006   0.91490   -2.000
 4296.00    1.05068   0.90755   -2.000
 4297.00    1.01990   0.90115   -2.000
 4298.00    0.99989   0.88835    0.049
 4299.00    1.01110   0.87713    0.049
 4300.00    1.05672   0.87355    0.049
 4301.00    1.05563   0.86509    0.049
 4302.00    1.00908   0.85806    0.048
 4303.00    0.96053   0.85172    0.048
 4304.00    0.91026   0.84539    0.048
 4305.00    0.86751   0.84725    0.047
 4306.00    0.83044   0.84694    0.046
 4307.00    0.81314   0.84681    0.046
 4308.00    0.80895   0.85298    0.047
 4309.00    0.87425   0.85949    0.048
 4310.00    0.97996   0.87056    0.048
 4311.00    1.02595   0.88205    0.048
 4312.00    1.04167   0.89259    0.046
 4313.00    1.03705   0.90718    0.046
 4314.00    1.02351   0.92177    0.046
 4315.00    1.08760   0.93817    0.046
 4316.00    1.18093   0.95288    0.046
 4317.00    1.12585   0.96335    0.046
 4318.00    1.02333   0.97431    0.046
 4319.00    1.00586   0.98245    0.046
 4320.00    1.01111   0.99012    0.046
 4321.00    0.98140   0.99714    0.046
 4322.00    0.94402   0.99751    0.046
 4323.00    0.99677   0.99764    0.047
 4324.00    1.06519   0.99548    0.047
 4325.00    1.09409   0.99148    0.047
 4326.00    1.11777   0.99230    0.047
 4327.00    1.11851   0.98911    0.047
 4328.00    1.11711   0.98342    0.047
 4329.00    1.11405   0.97705    0.047
 4330.00    1.11091   0.96999    0.000
 4331.00    1.10628   0.96707    0.000
 4332.00    1.10141   0.96223    0.000
 4333.00    1.07198   0.95381    0.000
 4334.00    1.03925   0.94452    0.000
 4335.00    0.92745   0.93589    0.000
 4336.00    0.82470   0.92715    0.000
 4337.00    0.83965   0.91786    0.000
 4338.00    0.86324   0.90970    0.000
 4339.00    0.96235   0.90142    0.000
 4340.00    1.05406   0.89618    0.000
 4341.00    1.09790   0.89310    0.000
 4342.00    1.12591   0.89010    0.000
 4343.00    1.07399   0.89103    0.000
 4344.00    1.01593   0.89437    0.000
 4345.00    0.93282   0.89930    0.000
 4346.00    0.86811   0.90774    0.000
 4347.00    0.86563   0.91693    0.000
 4348.00    0.90913   0.92742    0.000
 4349.00    1.08385   0.93991    0.000
 4350.00    1.19997   0.94934    0.000
 4351.00    1.17324   0.95898    0.048
 4352.00    1.11146   0.97305    0.047
 4353.00    0.97598   0.98638    0.046
 4354.00    0.91086   0.99692    0.046
 4355.00    0.97437   1.00601    0.047
 4356.00    1.05058   1.01594    0.048
 4357.00    1.14711   1.02800    0.049
 4358.00    1.19595   1.03787    0.048
 4359.00    1.17792   1.04583    0.048
 4360.00    1.18938   1.05572    0.048
 4361.00    1.23725   1.06466    0.048
 4362.00    1.22629   1.07036    0.048
 4363.00    1.15136   1.07537    0.048
 4364.00    1.15639   1.08102    0.048
 4365.00    1.23810   1.08579    0.048
 4366.00    1.20958   1.08708    0.048
 4367.00    1.08780   1.08626    0.047
 4368.00    1.02899   1.08702    0.048
 4369.00    1.01709   1.08638    0.048
 4370.00    1.03824   1.08319    0.048
 4371.00    1.08101   1.07912    0.047
 4372.00    1.04976   1.07492    0.048
 4373.00    0.97610   1.07061    0.048
 4374.00    0.97132   1.06369    0.048
 4375.00    1.00090   1.05772    0.048
 4376.00    1.02067   1.05400    0.048
 4377.00    1.03621   1.04835    0.048
 4378.00    1.05421   1.04059    0.048
 4379.00    1.07312   1.03234    0.048
 4380.00    1.08146   1.02802    0.048
 4381.00    1.08649   1.02461    0.048
 4382.00    1.03065   1.01730    0.048
 4383.00    0.95889   1.01126    0.048
 4384.00    0.92052   1.00868    0.047
 4385.00    0.88927   1.00935    0.047
 4386.00    0.99534   1.00856    0.047
 4387.00    1.12464   1.00557    0.047
 4388.00    1.05459   1.00722    0.047
 4389.00    0.95907   1.01140    0.047
 4390.00    1.02262   1.01663    0.047
 4391.00    1.10036   1.02128    0.048
 4392.00    1.14131   1.02566    0.048
 4393.00    1.18030   1.03250    0.047
 4394.00    1.13487   1.03635    0.048
 4395.00    1.08728   1.04046    0.049
 4396.00    0.99793   1.04709    0.048
 4397.00    0.91212   1.05122    0.048
 4398.00    0.90381   1.05415    0.048
 4399.00    0.90003   1.05342    0.048
 4400.00    0.95220   1.05381    0.048
 4401.00    1.00431   1.05914    0.049
 4402.00    1.05587   1.05971    0.049
 4403.00    1.09632   1.05647    0.049
 4404.00    1.06722   1.05535    0.048
 4405.00    1.03789   1.05725    0.047
 4406.00    1.00740   1.06080    0.048
 4407.00    0.99407   1.06106    0.049
 4408.00    1.04926   1.05984    0.049
 4409.00    1.08651   1.06377    0.048
 4410.00    1.06421   1.06964    0.048
 4411.00    1.02274   1.07255    0.048
 4412.00    0.92755   1.07568    0.048
 4413.00    0.90582   1.07863    0.048
 4414.00    1.06019   1.08264    0.048
 4415.00    1.17304   1.08896    0.048
 4416.00    1.19995   1.09172    0.048
 4417.00    1.21795   1.09524    0.048
 4418.00    1.21991   1.09924    0.049
 4419.00    1.21712   1.10069    0.049
 4420.00    1.20684   1.10476    0.049
 4421.00    1.20692   1.10506    0.049
 4422.00    1.22130   1.10570    0.050
 4423.00    1.21758   1.11028    0.050
 4424.00    1.19185   1.11060    0.049
 4425.00    1.15177   1.11095    0.049
 4426.00    1.09632   1.10896    0.049
 4427.00    1.04054   1.10854    0.049
 4428.00    0.98447   1.11227    0.049
 4429.00    1.03815   1.10897    0.049
 4430.00    1.18337   1.10798    0.049
 4431.00    1.20832   1.10964    0.049
 4432.00    1.14498   1.10863    0.049
 4433.00    1.10341   1.10965    0.049
 4434.00    1.07588   1.10629    0.049
 4435.00    1.12795   1.10667    0.049
 4436.00    1.22491   1.11255    0.050
 4437.00    1.20698   1.11213    0.050
 4438.00    1.13266   1.11242    0.049
 4439.00    1.14343   1.11445    0.049
 4440.00    1.19032   1.11588    0.049
 4441.00    1.18045   1.11918    0.049
 4442.00    1.14996   1.12018    0.049
 4443.00    1.08957   1.12150    0.049
 4444.00    1.01999   1.12611    0.050
 4445.00    1.06505   1.12725    0.049
 4446.00    1.13945   1.12450    0.049
 4447.00    1.11679   1.12522    0.049
 4448.00    1.07391   1.12601    0.049
 4449.00    1.14401   1.12379    0.050
 4450.00    1.23268   1.12212    0.050
 4451.00    1.12514   1.11837    0.049
 4452.00    0.99342   1.11505    0.048
 4453.00    1.00473   1.11152    0.048
 4454.00    1.02820   1.10391    0.048
 4455.00    1.04828   1.09975    0.048
 4456.00    1.06819   1.09781    0.049
 4457.00    1.00941   1.09253    0.048
 4458.00    0.95155   1.08786    0.047
 4459.00    1.03067   1.08596    0.048
 4460.00    1.10431   1.08409    0.049
 4461.00    1.06697   1.08314    0.000
 4462.00    1.03622   1.08466    0.000
 4463.00    1.08273   1.08627    0.000
 4464.00    1.13418   1.09018    0.000
 4465.00    1.22568   1.09411    0.000
 4466.00    1.29200   1.09700    0.000
 4467.00    1.20506   1.10454    0.000
 4468.00    1.13149   1.11089    0.000
 4469.00    1.12208   1.11632    0.000
 4470.00    1.12166   1.12460    0.000
 4471.00    1.15636   1.13071    0.000
 4472.00    1.20412   1.13719    0.000
 4473.00    1.29430   1.14375    0.000
 4474.00    1.32088   1.14849    0.000
 4475.00    1.17246   1.15434    0.000
 4476.00    1.08420   1.15900    0.000
 4477.00    1.13769   1.16248    0.000
 4478.00    1.15602   1.16568    0.000
 4479.00    1.10272   1.16682    0.000
 4480.00    1.07957   1.16762    0.000
 4481.00    1.10986   1.16890    0.000
 4482.00    1.14245   1.17029    0.048
 4483.00    1.17861   1.17093    0.048
 4484.00    1.23289   1.17011    0.048
 4485.00    1.31185   1.16944    0.047
 4486.00    1.32597   1.16929    0.047
 4487.00    1.26232   1.16873    0.047
 4488.00    1.20152   1.16828    0.047
 4489.00    1.14373   1.16806    0.046
 4490.00    1.14457   1.16869    0.046
 4491.00    1.20011   1.17055    0.048
 4492.00    1.25859   1.17055    0.048
 4493.00    1.31951   1.16999    0.047
 4494.00    1.26933   1.17273    0.047
 4495.00    1.13875   1.17558    0.046
 4496.00    1.09889   1.17890    0.046
 4497.00    1.11664   1.18271    0.047
 4498.00    1.14088   1.18634    0.047
 4499.00    1.16874   1.19299    0.046
 4500.00    1.17826   1.19729    0.046
 4501.00    1.17894   1.20130    0.047
 4502.00    1.14521   1.20911    0.046
 4503.00    1.09712   1.21428    0.046
 4504.00    1.17481   1.21948    0.047
 4505.00    1.29740   1.22371    0.048
 4506.00    1.22091   1.22637    0.047
 4507.00    1.08440   1.23146    0.046
 4508.00    1.10047   1.23224    0.046
 4509.00    1.15476   1.23253    0.045
 4510.00    1.21163   1.23453    0.045
 4511.00    1.26904   1.23218    0.046
 4512.00    1.24315   1.23119    0.047
 4513.00    1.20398   1.22809    0.048
 4514.00    1.18577   1.22298    0.047
 4515.00    1.17005   1.22175    0.046
 4516.00    1.18571   1.21593    0.046
 4517.00    1.20392   1.21025    0.046
 4518.00    1.19663   1.20611    0.046
 4519.00    1.18817   1.19782    0.046
 4520.00    1.15386   1.19407    0.045
 4521.00    1.12059   1.18692    0.045
 4522.00    1.15703   1.17661    0.045
 4523.00    1.18746   1.17319    0.046
 4524.00    1.10516   1.16493    0.046
 4525.00    1.03321   1.15673    0.046
 4526.00    1.07726   1.15140    0.046
 4527.00    1.12609   1.14242    0.045
 4528.00    1.21239   1.13972    0.046
 4529.00    1.27071   1.13515    0.046
 4530.00    1.16365   1.12795    0.046
 4531.00    1.08004   1.12847    0.045
 4532.00    1.10624   1.12625    0.046
 4533.00    1.11673   1.12558    0.046
 4534.00    1.06715   1.12765    0.045
 4535.00    1.03657   1.12753    0.045
 4536.00    1.06654   1.13349    0.046
 4537.00    1.11730   1.13687    0.046
 4538.00    1.22421   1.13867    0.047
 4539.00    1.26385   1.14531    0.047
 4540.00    1.14764   1.14706    0.047
 4541.00    1.10079   1.15096    0.046
 4542.00    1.19297   1.15613    0.047
 4543.00    1.24053   1.15626    0.046
 4544.00    1.21022   1.16022    0.046
 4545.00    1.17228   1.16151    0.046
 4546.00    1.12269   1.16101    0.046
 4547.00    1.14194   1.16466    0.046
 4548.00    1.25362   1.16201    0.046
 4549.00    1.27673   1.16157    0.046
 4550.00    1.19513   1.16623    0.000
 4551.00    1.16721   1.16410    0.000
 4552.00    1.19524   1.16482    0.000
 4553.00    1.21593   1.16791    0.000
 4554.00    1.22987   1.16795    0.000
 4555.00    1.27022   1.17270    0.000
 4556.00    1.33198   1.17488    0.000
 4557.00    1.27553   1.17639    0.000
 4558.00    1.13477   1.18380    0.000
 4559.00    1.13948   1.18536    0.000
 4560.00    1.23521   1.18741    0.000
 4561.00    1.23080   1.19409    0.000
 4562.00    1.17161   1.19493    0.000
 4563.00    1.12736   1.19826    0.000
 4564.00    1.09021   1.20268    0.000
 4565.00    1.14615   1.20309    0.000
 4566.00    1.24028   1.20797    0.000
 4567.00    1.23157   1.20808    0.000
 4568.00    1.18683   1.20667    0.000
 4569.00    1.13919   1.21217    0.000
 4570.00    1.09069   1.20992    0.000
 4571.00    1.07049   1.20750    0.000
 4572.00    1.05723   1.21106    0.000
 4573.00    1.20516   1.20890    0.000
 4574.00    1.38504   1.20809    0.000
 4575.00    1.33642   1.20741    0.000
 4576.00    1.25244   1.20317    0.000
 4577.00    1.21282   1.20347    0.000
 4578.00    1.17827   1.20087    0.000
 4579.00    1.17328   1.19497    0.000
 4580.00    1.17055   1.19519    0.000
 4581.00    1.10689   1.19461    0.000
 4582.00    1.04068   1.18994    0.000
 4583.00    1.07341   1.18857    0.000
 4584.00    1.10689   1.18819    0.000
 4585.00    1.13588   1.18586    0.000
 4586.00    1.16725   1.18567    0.000
 4587.00    1.24030   1.18494    0.000
 4588.00    1.30612   1.18335    0.000
 4589.00    1.29464   1.18554    0.000
 4590.00    1.27811   1.18538    0.000
 4591.00    1.22347   1.18340    0.000
 4592.00    1.17161   1.18590    0.000
 4593.00    1.13582   1.18571    0.000
 4594.00    1.11456   1.18477    0.000
 4595.00    1.15975   1.18781    0.000
 4596.00    1.19099   1.18705    0.000
 4597.00    1.17006   1.18742    0.000
 4598.00    1.15485   1.19070    0.000
 4599.00    1.15750   1.18931    0.000
 4600.00    1.17021   1.19181    0.000
 4601.00    1.20958   1.19561    0.000
 4602.00    1.24866   1.19604    0.000
 4603.00    1.28707   1.20087    0.000
 4604.00    1.29262   1.20396    0.000
 4605.00    1.23334   1.20702    0.000
 4606.00    1.20508   1.21314    0.000
 4607.00    1.23017   1.21518    0.000
 4608.00    1.24583   1.22002    0.000
 4609.00    1.24728   1.22490    0.000
 4610.00    1.26394   1.22708    0.000
 4611.00    1.30072   1.23298    0.000
 4612.00    1.28794   1.23451    0.000
 4613.00    1.21740   1.23718    0.000
 4614.00    1.21906   1.24268    0.000
 4615.00    1.29492   1.24157    0.000
 4616.00    1.32487   1.24480    0.000
 4617.00    1.31320   1.24853    0.000
 4618.00    1.32685   1.24530    0.000
 4619.00    1.36073   1.24792    0.000
 4620.00    1.34570   1.24978    0.000
 4621.00    1.29629   1.24720    0.000
 4622.00    1.27395   1.24904    0.000
 4623.00    1.26828   1.24843    0.000
 4624.00    1.20750   1.24697    0.000
 4625.00    1.11703   1.24719    0.000
 4626.00    1.04438   1.24423    0.000
 4627.00    0.98006   1.24356    0.000
 4628.00    1.02046   1.24288    0.000
 4629.00    1.10307   1.23858    0.000
 4630.00    1.16896   1.23675    0.000
 4631.00    1.22910   1.23494    0.000
 4632.00    1.29914   1.23103    0.000
 4633.00    1.37205   1.22672    0.000
 4634.00    1.30834   1.22346    0.000
 4635.00    1.21190   1.22142    0.000
 4636.00    1.24457   1.21528    0.000
 4637.00    1.30219   1.21089    0.000
 4638.00    1.17872   1.21029    0.000
 4639.00    1.02808   1.20410    0.000
 4640.00    1.06841   1.19987    0.000
 4641.00    1.12975   1.19857    0.000
 4642.00    1.08820   1.19286    0.000
 4643.00    1.03918   1.19076    0.000
 4644.00    1.09329   1.18887    0.000
 4645.00    1.15131   1.18464    0.000
 4646.00    1.16629   1.18539    0.000
 4647.00    1.17893   1.18334    0.000
 4648.00    1.11295   1.18175    0.000
 4649.00    1.05892   1.18551    0.000
 4650.00    1.20004   1.18364    0.000
 4651.00    1.31886   1.18365    0.000
 4652.00    1.20943   1.18837    0.000
 4653.00    1.12278   1.18748    0.000
 4654.00    1.20258   1.18940    0.000
 4655.00    1.26498   1.19359    0.000
 4656.00    1.23013   1.19378    0.000
 4657.00    1.19892   1.19641    0.000
 4658.00    1.18396   1.19816    0.000
 4659.00    1.16063   1.19724    0.000
 4660.00    1.10667   1.19830    0.000
 4661.00    1.09229   1.19801    0.000
 4662.00    1.19935   1.19533    0.000
 4663.00    1.25745   1.19297    0.000
 4664.00    1.18785   1.19164    0.000
 4665.00    1.15686   1.18942    0.000
 4666.00    1.21240   1.18609    0.000
 4667.00    1.22536   1.18470    0.000
 4668.00    1.15566   1.18276    0.000
 4669.00    1.11332   1.18065    0.000
 4670.00    1.11732   1.18016    0.000
 4671.00    1.14711   1.17866    0.000
 4672.00    1.21516   1.17960    0.000
 4673.00    1.26017   1.18108    0.000
 4674.00    1.27515   1.17953    0.000
 4675.00    1.28591   1.18183    0.000
 4676.00    1.29183   1.18516    0.000
 4677.00    1.24903   1.18472    0.000
 4678.00    1.15685   1.18661    0.000
 4679.00    1.14352   1.18984    0.000
 4680.00    1.20068   1.19036    0.000
 4681.00    1.21779   1.19129    0.000
 4682.00    1.20336   1.19347    0.000
 4683.00    1.22194   1.19418    0.000
 4684.00    1.26337   1.19451    0.000
 4685.00    1.20061   1.19606    0.000
 4686.00    1.07457   1.19636    0.000
 4687.00    1.06920   1.19640    0.000
 4688.00    1.12781   1.19774    0.000
 4689.00    1.15279   1.19758    0.000
 4690.00    1.16230   1.19772    0.000
 4691.00    1.21500   1.19851    0.000
 4692.00    1.28481   1.19777    0.000
 4693.00    1.26545   1.19792    0.000
 4694.00    1.21597   1.19680    0.000
 4695.00    1.20944   1.19460    0.000
 4696.00    1.21509   1.19465    0.000
 4697.00    1.26348   1.19270    0.000
 4698.00    1.32188   1.18946    0.000
 4699.00    1.25194   1.18791    0.000
 4700.00    1.15785   1.18612    0.000
 4701.00    1.12662   1.18430    0.000
 4702.00    1.10454   1.18165    0.000
 4703.00    1.09295   1.17973    0.000
 4704.00    1.08247   1.17997    0.000
 4705.00    1.12168   1.17773    0.000
 4706.00    1.16430   1.17691    0.000
 4707.00    1.14424   1.17951    0.000
 4708.00    1.12205   1.17924    0.000
 4709.00    1.20031   1.18074    0.000
 4710.00    1.27644   1.18390    0.000
 4711.00    1.27827   1.18557    0.000
 4712.00    1.27846   1.19084    0.000
 4713.00    1.25362   1.19462    0.000
 4714.00    1.23409   1.19683    0.000
 4715.00    1.26659   1.20363    0.000
 4716.00    1.29542   1.20795    0.000
 4717.00    1.29829   1.21051    0.000
 4718.00    1.30565   1.21569    0.000
 4719.00    1.33744   1.21871    0.000
 4720.00    1.34307   1.22134    0.000
 4721.00    1.23464   1.22420    0.000
 4722.00    1.14394   1.22529    0.000
 4723.00    1.11685   1.22579    0.000
 4724.00    1.12107   1.22482    0.000
 4725.00    1.21957   1.22449    0.000
 4726.00    1.27305   1.22346    0.000
 4727.00    1.21119   1.22048    0.000
 4728.00    1.17353   1.22017    0.000
 4729.00    1.18923   1.21761    0.000
 4730.00    1.21353   1.21385    0.000
 4731.00    1.25425   1.21538    0.000
 4732.00    1.28455   1.21256    0.000
 4733.00    1.29745   1.20928    0.000
 4734.00    1.30410   1.21295    0.000
 4735.00    1.30159   1.21200    0.000
 4736.00    1.26443   1.21131    0.000
 4737.00    1.18272   1.21513    0.000
 4738.00    1.15162   1.21462    0.000
 4739.00    1.17786   1.21765    0.000
 4740.00    1.18080   1.22211    0.000
 4741.00    1.16047   1.22113    0.000
 4742.00    1.23136   1.22592    0.000
 4743.00    1.38263   1.23015    0.000
 4744.00    1.32368   1.22853    0.000
 4745.00    1.10153   1.23274    0.000
 4746.00    1.05367   1.23562    0.000
 4747.00    1.12478   1.23367    0.000
 4748.00    1.16345   1.23576    0.000
 4749.00    1.18272   1.23669    0.000
 4750.00    1.19926   1.23467    0.000
 4751.00    1.21439   1.23436    0.000
 4752.00    1.24497   1.23245    0.000
 4753.00    1.28254   1.23039    0.000
 4754.00    1.27304   1.22886    0.000
 4755.00    1.24521   1.22453    0.000
 4756.00    1.20014   1.22209    0.000
 4757.00    1.14935   1.21998    0.000
 4758.00    1.19841   1.21416    0.000
 4759.00    1.27523   1.21120    0.000
 4760.00    1.27096   1.20942    0.000
 4761.00    1.24813   1.20416    0.042
 4762.00    1.21517   1.20160    0.041
 4763.00    1.18035   1.20055    0.041
 4764.00    1.13744   1.19717    0.041
 4765.00    1.09339   1.19652    0.041
 4766.00    1.12274   1.19683    0.041
 4767.00    1.15954   1.19568    0.041
 4768.00    1.19911   1.19664    0.041
 4769.00    1.23886   1.19784    0.041
 4770.00    1.30626   1.19983    0.041
 4771.00    1.37424   1.20291    0.042
 4772.00    1.31677   1.20371    0.041
 4773.00    1.25761   1.20648    0.041
 4774.00    1.14919   1.21087    0.041
 4775.00    1.05256   1.21163    0.041
 4776.00    1.12628   1.21290    0.041
 4777.00    1.18859   1.21682    0.041
 4778.00    1.14351   1.21800    0.041
 4779.00    1.09380   1.21655    0.040
 4780.00    1.01235   1.21869    0.040
 4781.00    0.96114   1.22074    0.040
 4782.00    1.07019   1.21702    0.041
 4783.00    1.17125   1.21739    0.041
 4784.00    1.23833   1.22022    0.040
 4785.00    1.27997   1.21637    0.040
 4786.00    1.23220   1.21649    0.041
 4787.00    1.18121   1.21934    0.041
 4788.00    1.12070   1.21698    0.040
 4789.00    1.08538   1.21855    0.040
 4790.00    1.11348   1.22102    0.040
 4791.00    1.15176   1.22053    0.041
 4792.00    1.21210   1.22359    0.040
 4793.00    1.22865   1.22514    0.040
 4794.00    1.16277   1.22563    0.040
 4795.00    1.13998   1.22925    0.040
 4796.00    1.18798   1.23012    0.041
 4797.00    1.22788   1.23068    0.041
 4798.00    1.25610   1.23355    0.041
 4799.00    1.25518   1.23420    0.042
 4800.00    1.21731   1.23393    0.043
 4801.00    1.20366   1.23440    0.043
 4802.00    1.21707   1.23514    0.042
 4803.00    1.23392   1.23463    0.042
 4804.00    1.25416   1.23349    0.041
 4805.00    1.23533   1.23429    0.041
 4806.00    1.18256   1.23396    0.042
 4807.00    1.13970   1.23264    0.041
 4808.00    1.10443   1.23353    0.041
 4809.00    1.13492   1.23357    0.041
 4810.00    1.20965   1.23294    0.042
 4811.00    1.23731   1.23405    0.042
 4812.00    1.23723   1.23478    0.041
 4813.00    1.19055   1.23477    0.041
 4814.00    1.11993   1.23585    0.042
 4815.00    1.15540   1.23718    0.042
 4816.00    1.23810   1.23660    0.042
 4817.00    1.22490   1.23696    0.042
 4818.00    1.17501   1.23837    0.043
 4819.00    1.21055   1.23620    0.043
 4820.00    1.27386   1.23558    0.043
 4821.00    1.32780   1.23663    0.043
 4822.00    1.37919   1.23310    0.043
 4823.00    1.37135   1.23209    0.043
 4824.00    1.35027   1.23180    0.042
 4825.00    1.31823   1.22677    0.042
 4826.00    1.28423   1.22613    0.042
 4827.00    1.22417   1.22501    0.042
 4828.00    1.16057   1.21940    0.041
 4829.00    1.14962   1.21908    0.042
 4830.00    1.14379   1.21754    0.043
 4831.00    1.17651   1.21273    0.043
 4832.00    1.21157   1.21228    0.044
 4833.00    1.17913   1.20989    0.087
 4834.00    1.14488   1.20651   -1.000
 4835.00    1.10815   1.20589   -1.000
 4836.00    1.07327   1.20223   -1.000
 4837.00    1.08644   1.19995   -1.000
 4838.00    1.10146   1.19919   -1.000
 4839.00    1.14167   1.19454   -1.000
 4840.00    1.18198   1.19266   -1.000
 4841.00    1.22310   1.19072   -1.000
 4842.00    1.25491   1.18488   -1.000
 4843.00    1.22492   1.18306   -1.000
 4844.00    1.19836   1.17921   -1.000
 4845.00    1.18946   1.17141   -1.000
 4846.00    1.18948   1.16882    0.440
 4847.00    1.22659   1.16278    0.071
 4848.00    1.23749   1.15219    0.000
 4849.00    1.15816   1.14746    0.000
 4850.00    1.11234   1.13905    0.000
 4851.00    1.16371   1.12541    0.000
 4852.00    1.18200   1.11801    0.000
 4853.00    1.11843   1.10757    0.000
 4854.00    1.06825   1.09138    0.000
 4855.00    1.04662   1.08239    0.000
 4856.00    1.03990   1.07211    0.000
 4857.00    1.06080   1.05562    0.000
 4858.00    1.09884   1.04709    0.000
 4859.00    1.16461   1.03981    0.000
 4860.00    1.19152   1.02685    0.000
 4861.00    1.16325   1.02120    0.000
 4862.00    1.14230   1.01858    0.000
 4863.00    1.13051   1.01221    0.000
 4864.00    1.10449   1.01126    0.000
 4865.00    1.06281   1.01340    0.000
 4866.00    1.09910   1.01480    0.000
 4867.00    1.21111   1.01935    0.000
 4868.00    1.26067   1.02482    0.000
 4869.00    1.25674   1.03214    0.000
 4870.00    1.19231   1.04101    0.000
 4871.00    1.08225   1.04781    0.000
 4872.00    1.02357   1.05818    0.000
 4873.00    0.99894   1.06929    0.000
 4874.00    1.07183   1.07562    0.000
 4875.00    1.20134   1.08596    0.043
 4876.00    1.19639   1.09705    0.043
 4877.00    1.12343   1.10228    0.043
 4878.00    1.12608   1.11049    0.043
 4879.00    1.16184   1.11975    0.043
 4880.00    1.20394   1.12398    0.043
 4881.00    1.24842   1.12945    0.044
 4882.00    1.22850   1.13636    0.044
 4883.00    1.18805   1.13966    0.043
 4884.00    1.16387   1.14227    0.043
 4885.00    1.14402   1.14795    0.042
 4886.00    1.11491   1.15165    0.042
 4887.00    1.08379   1.15308    0.042
 4888.00    1.09830   1.15902    0.042
 4889.00    1.12072   1.16336    0.041
 4890.00    1.25082   1.16490    0.042
 4891.00    1.39509   1.17261    0.042
 4892.00    1.36581   1.17771    0.042
 4893.00    1.32041   1.17967    0.042
 4894.00    1.36547   1.18904    0.042
 4895.00    1.41566   1.19453    0.041
 4896.00    1.34583   1.19662    0.041
 4897.00    1.27379   1.20568    0.041
 4898.00    1.25861   1.21028    0.042
 4899.00    1.24170   1.21207    0.042
 4900.00    1.18366   1.21887    0.042
 4901.00    1.13042   1.22123    0.041
 4902.00    1.13926   1.22192    0.041
 4903.00    1.14940   1.22529    0.041
 4904.00    1.17072   1.22518    0.041
 4905.00    1.18045   1.22485    0.041
 4906.00    1.11551   1.22497    0.041
 4907.00    1.07105   1.22267    0.041
 4908.00    1.12958   1.22120    0.042
 4909.00    1.18852   1.21888    0.041
 4910.00    1.24909   1.21511    0.041
 4911.00    1.28313   1.21233    0.040
 4912.00    1.22760   1.20864    0.040
 4913.00    1.17790   1.20439    0.040
 4914.00    1.14480   1.20053    0.041
 4915.00    1.12815   1.19674    0.041
 4916.00    1.15154   1.19333    0.040
 4917.00    1.16972   1.18893    0.040
 4918.00    1.17698   1.18596    0.041
 4919.00    1.18461   1.18484    0.041
 4920.00    1.19290   1.18114    0.040
 4921.00    1.16914   1.18001    0.039
 4922.00    1.09426   1.18216    0.039
 4923.00    1.06080   1.17983    0.039
 4924.00    1.08529   1.18076    0.040
 4925.00    1.11148   1.18621    0.040
 4926.00    1.13977   1.18520    0.041
 4927.00    1.15515   1.18745    0.041
 4928.00    1.15652   1.19470    0.040
 4929.00    1.16808   1.19390    0.040
 4930.00    1.18940   1.19651    0.041
 4931.00    1.18935   1.20391    0.041
 4932.00    1.17125   1.20214    0.041
 4933.00    1.14846   1.20437    0.040
 4934.00    1.12219   1.21105    0.040
 4935.00    1.10080   1.20824    0.040
 4936.00    1.08259   1.21020    0.040
 4937.00    1.12852   1.21630    0.040
 4938.00    1.21112   1.21353    0.041
 4939.00    1.23622   1.21594    0.040
 4940.00    1.23270   1.22196    0.000
 4941.00    1.22296   1.22021    0.000
 4942.00    1.21054   1.22334    0.000
 4943.00    1.19704   1.22931    0.000
 4944.00    1.18313   1.22840    0.000
 4945.00    1.20472   1.23154    0.000
 4946.00    1.23742   1.23683    0.000
 4947.00    1.28933   1.23546    0.000
 4948.00    1.34625   1.23720    0.000
 4949.00    1.30295   1.24098    0.000
 4950.00    1.23830   1.23812    0.000
 4951.00    1.27015   1.23761    0.000
 4952.00    1.31827   1.23926    0.000
 4953.00    1.24506   1.23451    0.000
 4954.00    1.15643   1.23211    0.000
 4955.00    1.12625   1.23210    0.000
 4956.00    1.10126   1.22635    0.000
 4957.00    1.08827   1.22325    0.000
 4958.00    1.07591   1.22255    0.000
 4959.00    1.11181   1.21739    0.000
 4960.00    1.14754   1.21490    0.000
 4961.00    1.09811   1.21430    0.000
 4962.00    1.05678   1.21089    0.000
 4963.00    1.19162   1.20962    0.000
 4964.00    1.31211   1.20941    0.000
 4965.00    1.25635   1.20791    0.000
 4966.00    1.20116   1.20746    0.000
 4967.00    1.15074   1.20758    0.000
 4968.00    1.10429   1.20726    0.000
 4969.00    1.08268   1.20654    0.000
 4970.00    1.08943   1.20662    0.000
 4971.00    1.23525   1.20633    0.000
 4972.00    1.34681   1.20424    0.000
 4973.00    1.32196   1.20381    0.000
 4974.00    1.28212   1.20261    0.000
 4975.00    1.19271   1.19851    0.000
 4976.00    1.12683   1.19728    0.000
 4977.00    1.12673   1.19500    0.000
 4978.00    1.11955   1.18912    0.000
 4979.00    1.09542   1.18741    0.000
 4980.00    1.08107   1.18481    0.000
 4981.00    1.08692   1.17828    0.000
 4982.00    1.07120   1.17706    0.000
 4983.00    1.01674   1.17533    0.000
 4984.00    0.99847   1.16947    0.000
 4985.00    1.03706   1.16984    0.000
 4986.00    1.07088   1.16964    0.000
 4987.00    1.09812   1.16516    0.000
 4988.00    1.12686   1.16755    0.000
 4989.00    1.15743   1.16842    0.000
 4990.00    1.16506   1.16496    0.000
 4991.00    1.14814   1.16873    0.000
 4992.00    1.10883   1.16933    0.000
 4993.00    1.04836   1.16585    0.000
 4994.00    1.04825   1.16968    0.000
 4995.00    1.09837   1.16871    0.000
 4996.00    1.09945   1.16428    0.000
 4997.00    1.06458   1.16701    0.000
 4998.00    1.04758   1.16403    0.000
 4999.00    1.04207   1.15839    0.000
 5000.00    1.05614   1.15958    0.000
 5001.00    1.08124   1.15518    0.000
 5002.00    1.12847   1.14875    0.000
 5003.00    1.18653   1.14871    0.000
 5004.00    1.22525   1.14401    0.000
 5005.00    1.25577   1.13752    0.000
 5006.00    1.20310   1.13692    0.000
 5007.00    1.12027   1.13292    0.000
 5008.00    1.12602   1.12706    0.000
 5009.00    1.15894   1.12654    0.000
 5010.00    1.13531   1.12381    0.000
 5011.00    1.09725   1.11907    0.000
 5012.00    1.10409   1.11910    0.000
 5013.00    1.12027   1.11798    0.000
 5014.00    1.12181   1.11473    0.000
 5015.00    1.12097   1.11563    0.000
 5016.00    1.12861   1.11643    0.000
 5017.00    1.13729   1.11492    0.000
 5018.00    1.09641   1.11680    0.000
 5019.00    1.05133   1.11976    0.000
 5020.00    1.09039   1.11998    0.000
 5021.00    1.13355   1.12269    0.000
 5022.00    1.15962   1.12760    0.000
 5023.00    1.18448   1.12905    0.000
 5024.00    1.15105   1.13215    0.000
 5025.00    1.12164   1.13802    0.000
 5026.00    1.17291   1.13982    0.000
 5027.00    1.21753   1.14271    0.000
 5028.00    1.18447   1.14795    0.000
 5029.00    1.15884   1.14907    0.039
 5030.00    1.19319   1.15124    0.039
 5031.00    1.21232   1.15426    0.040
 5032.00    1.13915   1.15405    0.040
 5033.00    1.08297   1.15544    0.040
 5034.00    1.10809   1.15546    0.040
 5035.00    1.12721   1.15405    0.040
 5036.00    1.12303   1.15521    0.040
 5037.00    1.10741   1.15276    0.040
 5038.00    1.05471   1.15101    0.039
 5039.00    1.02542   1.15289    0.040
 5040.00    1.06035   1.14956    0.041
 5041.00    1.06644   1.14862    0.041
 5042.00    1.00470   1.15196    0.040
 5043.00    0.98009   1.14954    0.040
 5044.00    1.03097   1.15005    0.040
 5045.00    1.05510   1.15486    0.040
 5046.00    1.03193   1.15442    0.040
 5047.00    1.05046   1.15634    0.040
 5048.00    1.13355   1.16190    0.041
 5049.00    1.18865   1.16345    0.041
 5050.00    1.20569   1.16630    0.040
 5051.00    1.18614   1.17159    0.040
 5052.00    1.12280   1.17429    0.041
 5053.00    1.10807   1.17745    0.041
 5054.00    1.14464   1.18166    0.041
 5055.00    1.14572   1.18423    0.041
 5056.00    1.11376   1.18715    0.041
 5057.00    1.08354   1.18973    0.041
 5058.00    1.05476   1.19086    0.040
 5059.00    1.09527   1.19297    0.040
 5060.00    1.18584   1.19371    0.041
 5061.00    1.20873   1.19252    0.041
 5062.00    1.18873   1.19332    0.041
 5063.00    1.12938   1.19244    0.041
 5064.00    1.04822   1.18891    0.040
 5065.00    1.07510   1.18815    0.041
 5066.00    1.15406   1.18625    0.041
 5067.00    1.18733   1.18125    0.041
 5068.00    1.20157   1.17901    0.041
 5069.00    1.18733   1.17671    0.041
 5070.00    1.16295   1.17156    0.041
 5071.00    1.15781   1.16829    0.040
 5072.00    1.15845   1.16588    0.040
 5073.00    1.17861   1.16173    0.040
 5074.00    1.20364   1.15828    0.042
 5075.00    1.18638   1.15581    0.041
 5076.00    1.16055   1.15321    0.041
 5077.00    1.15125   1.15071    0.041
 5078.00    1.14457   1.14848    0.040
 5079.00    1.06019   1.14750    0.039
 5080.00    0.96661   1.14691    0.039
 5081.00    0.98679   1.14561    0.038
 5082.00    1.01611   1.14605    0.038
 5083.00    1.01030   1.14760    0.038
 5084.00    1.00290   1.14782    0.037
 5085.00    0.95029   1.14928    0.037
 5086.00    0.90003   1.15227    0.037
 5087.00    0.99333   1.15385    0.037
 5088.00    1.08256   1.15564    0.036
 5089.00    1.09601   1.15869    0.037
 5090.00    1.11159   1.16071    0.038
 5091.00    1.15076   1.16192    0.041
 5092.00    1.19131   1.16374    0.044
 5093.00    1.24251   1.16515    0.049
 5094.00    1.29152   1.16507    0.054
 5095.00    1.32761   1.16511    0.056
 5096.00    1.35991   1.16544    0.059
 5097.00    1.37449   1.16394    0.059
 5098.00    1.37724   1.16262    0.058
 5099.00    1.33493   1.16221    0.055
 5100.00    1.26164   1.15972    0.050
 5101.00    1.08977   1.15811    0.042
 5102.00    0.97310   1.15780    0.038
 5103.00    1.00525   1.15492    0.037
 5104.00    1.04422   1.15419    0.037
 5105.00    1.09892   1.15479    0.038
 5106.00    1.12899   1.15195    0.038
 5107.00    1.10976   1.15275    0.038
 5108.00    1.09694   1.15466    0.038
 5109.00    1.09530   1.15199    0.038
 5110.00    1.09029   1.15406    0.038
 5111.00    1.08012   1.15705    0.038
 5112.00    1.11014   1.15443    0.039
 5113.00    1.19401   1.15674    0.040
 5114.00    1.22567   1.15989    0.040
 5115.00    1.19573   1.15712    0.040
 5116.00    1.19040   1.15834    0.040
 5117.00    1.21068   1.16040    0.040
 5118.00    1.19016   1.15742    0.040
 5119.00    1.13219   1.15669    0.040
 5120.00    1.08965   1.15672    0.040
 5121.00    1.05961   1.15386    0.040
 5122.00    1.09889   1.15133    0.039
 5123.00    1.18752   1.14918    0.039
 5124.00    1.17954   1.14716    0.039
 5125.00    1.11122   1.14394    0.039
 5126.00    1.07595   1.14019    0.039
 5127.00    1.05874   1.13965    0.040
 5128.00    1.07914   1.13719    0.040
 5129.00    1.11738   1.13248    0.041
 5130.00    0.57325   1.13354    0.039
 5131.00   -0.20923   1.13286    0.000
 5132.00    0.09098   1.12739    0.037
 5133.00    0.76972   1.12944    0.039
 5134.00    1.01861   1.13081    0.040
 5135.00    1.14079   1.12433    0.041
 5136.00    1.08379   1.12637    0.041
 5137.00    0.98302   1.12955    0.040
 5138.00    1.05794   1.12190    0.041
 5139.00    1.16755   1.12312    0.041
 5140.00    1.11842   1.12772    0.041
 5141.00    1.04481   1.11933    0.041
 5142.00    1.06909   1.11951    0.040
 5143.00    1.10451   1.12509    0.040
 5144.00    1.10999   1.11703    0.040
 5145.00    1.11318   1.11655    0.040
 5146.00    1.15542   1.12254    0.040
 5147.00    1.19926   1.11593    0.040
 5148.00    1.15442   1.11542    0.039
 5149.00    1.11115   1.12097    0.039
 5150.00    1.16410   1.11637    0.039
 5151.00    1.21287   1.11612    0.040
 5152.00    1.18938   1.12010    0.040
 5153.00    1.17193   1.11702    0.039
 5154.00    1.21893   1.11664    0.039
 5155.00    1.25775   1.11766    0.039
 5156.00    1.23512   1.11470    0.039
 5157.00    1.21064   1.11319    0.039
 5158.00    1.17559   1.10997    0.039
 5159.00    1.13564   1.10545    0.039
 5160.00    1.07333   1.10194    0.038
 5161.00    1.03707   1.09412    0.038
 5162.00    1.09801   1.08700    0.038
 5163.00    1.13458   1.08158    0.038
 5164.00    1.09510   1.07054    0.038
 5165.00    1.04412   1.06123    0.038
 5166.00    0.96265   1.05518    0.037
 5167.00    0.91202   1.04398    0.037
 5168.00    0.93151   1.03435    0.037
 5169.00    0.93298   1.02944    0.037
 5170.00    0.89894   1.02147    0.037
 5171.00    0.90258   1.01400    0.037
 5172.00    0.97087   1.01136    0.037
 5173.00    1.02180   1.00847    0.037
 5174.00    1.04663   1.00493    0.037
 5175.00    1.05135   1.00452    0.038
 5176.00    1.02953   1.00606    0.038
 5177.00    1.01554   1.00684    0.038
 5178.00    1.01066   1.00791    0.037
 5179.00    1.01174   1.01164    0.037
 5180.00    1.01892   1.01593    0.037
 5181.00    1.03373   1.01803    0.037
 5182.00    1.05542   1.02171    0.037
 5183.00    1.03197   1.02847    0.037
 5184.00    0.97250   1.03163    0.037
 5185.00    0.97118   1.03424    0.037
 5186.00    1.01065   1.04275    0.037
 5187.00    1.00852   1.04701    0.037
 5188.00    0.98080   1.04827    0.037
 5189.00    1.00862   1.05826    0.037
 5190.00    1.06629   1.06375    0.000
 5191.00    1.07335   1.06315    0.000
 5192.00    1.05679   1.07356    0.000
 5193.00    1.10779   1.08008    0.000
 5194.00    1.18597   1.07732    0.000
 5195.00    1.15838   1.08652    0.000
 5196.00    1.09450   1.09371    0.000
 5197.00    1.03635   1.08894    0.000
 5198.00    0.97985   1.09509    0.000
 5199.00    1.02552   1.10242    0.000
 5200.00    1.09558   1.09672    0.000
 5201.00    1.05891   1.09869    0.000
 5202.00    1.00169   1.10580    0.000
 5203.00    1.01490   1.10100    0.000
 5204.00    1.03865   1.09895    0.000
 5205.00    1.00045   1.10575    0.000
 5206.00    0.95545   1.10427    0.000
 5207.00    1.01425   1.10000    0.000
 5208.00    1.08054   1.10610    0.000
 5209.00    1.04604   1.10885    0.000
 5210.00    1.00779   1.10483    0.000
 5211.00    1.04804   1.11020    0.039
 5212.00    1.08877   1.11625    0.039
 5213.00    1.13399   1.11375    0.040
 5214.00    1.17422   1.11838    0.040
 5215.00    1.13365   1.12573    0.039
 5216.00    1.09894   1.12445    0.038
 5217.00    1.12384   1.12797    0.039
 5218.00    1.14460   1.13472    0.040
 5219.00    1.13520   1.13361    0.039
 5220.00    1.12408   1.13567    0.039
 5221.00    1.10340   1.14093    0.039
 5222.00    1.08798   1.13897    0.038
 5223.00    1.09594   1.13938    0.038
 5224.00    1.10190   1.14409    0.038
 5225.00    1.10054   1.14144    0.038
 5226.00    1.09741   1.14021    0.038
 5227.00    1.08892   1.14603    0.038
 5228.00    1.09123   1.14429    0.038
 5229.00    1.12166   1.14188    0.037
 5230.00    1.13748   1.14967    0.037
 5231.00    1.12062   1.15049    0.037
 5232.00    1.10240   1.14738    0.037
 5233.00    1.08155   1.15630    0.037
 5234.00    1.08487   1.16022    0.037
 5235.00    1.12906   1.15725    0.037
 5236.00    1.17273   1.16551    0.037
 5237.00    1.21565   1.17159    0.038
 5238.00    1.21125   1.16966    0.038
 5239.00    1.14525   1.17500    0.037
 5240.00    1.09706   1.18072    0.037
 5241.00    1.06929   1.18019    0.037
 5242.00    1.06048   1.18167    0.037
 5243.00    1.07086   1.18496    0.037
 5244.00    1.10149   1.18596    0.037
 5245.00    1.15021   1.18441    0.038
 5246.00    1.16491   1.18413    0.038
 5247.00    1.15286   1.18585    0.037
 5248.00    1.13890   1.18285    0.038
 5249.00    1.12361   1.17915    0.038
 5250.00    1.12312   1.18077    0.039
 5251.00    1.13160   1.17785    0.039
 5252.00    1.12771   1.17150    0.039
 5253.00    1.11728   1.17207    0.038
 5254.00    1.11505   1.16982    0.039
 5255.00    1.11659   1.16151    0.039
 5256.00    1.11348   1.15962    0.039
 5257.00    1.10854   1.15786    0.039
 5258.00    1.10914   1.14907    0.039
 5259.00    1.11161   1.14389    0.039
 5260.00    1.10343   1.14162    0.039
 5261.00    1.09223   1.13352    0.039
 5262.00    1.10954   1.12549    0.040
 5263.00    1.13349   1.12314    0.040
 5264.00    1.12576   1.11703    0.040
 5265.00    1.11209   1.10715    0.041
 5266.00    1.04791   1.10667    0.041
 5267.00    0.97641   1.10533    0.041
 5268.00    1.02281   1.09485    0.041
 5269.00    1.08161   1.09621    0.042
 5270.00    1.08353   1.10222    0.041
 5271.00    1.08157   1.09425    0.040
 5272.00    1.08003   1.09661    0.041
 5273.00    1.07851   1.10994    0.042
 5274.00    1.07103   1.10696    0.041
 5275.00    1.06576   1.10908    0.039
 5276.00    1.13162   1.12647    0.040
 5277.00    1.19483   1.12939    0.040
 5278.00    1.21777   1.13083    0.040
 5279.00    1.23696   1.14735    0.040
 5280.00    1.21961   1.15461    0.039
 5281.00    1.20171   1.15716    0.039
 5282.00    1.17997   1.16992    0.039
 5283.00    1.16383   1.17724    0.039
 5284.00    1.17814   1.18089    0.039
 5285.00    1.19072   1.18996    0.038
 5286.00    1.19579   1.19527    0.038
 5287.00    1.18833   1.19894    0.038
 5288.00    1.13604   1.20476    0.038
 5289.00    1.10909   1.20718    0.038
 5290.00    1.15825   1.20944    0.037
 5291.00    1.19538   1.21321    0.036
 5292.00    1.20177   1.21404    0.036
 5293.00    1.21138   1.21395    0.037
 5294.00    1.22809   1.21556    0.037
 5295.00    1.21714   1.21644    0.037
 5296.00    1.15340   1.21499    0.037
 5297.00    1.09430   1.21455    0.036
 5298.00    1.04294   1.21633    0.036
 5299.00    1.05170   1.21556    0.036
 5300.00    1.14822   1.21423    0.037
 5301.00    1.20318   1.21738    0.038
 5302.00    1.20479   1.21826    0.037
 5303.00    1.22157   1.21656    0.037
 5304.00    1.25551   1.22089    0.037
 5305.00    1.23084   1.22413    0.037
 5306.00    1.14772   1.22245    0.037
 5307.00    1.10998   1.22601    0.037
 5308.00    1.11217   1.23026    0.037
 5309.00    1.12969   1.22895    0.037
 5310.00    1.15909   1.23050    0.038
 5311.00    1.16546   1.23349    0.038
 5312.00    1.15613   1.23141    0.037
 5313.00    1.18333   1.23040    0.038
 5314.00    1.23234   1.23131    0.038
 5315.00    1.26271   1.22798    0.038
 5316.00    1.28338   1.22435    0.039
 5317.00    1.26034   1.22266    0.038
 5318.00    1.21755   1.21820    0.038
 5319.00    1.22051   1.21286    0.038
 5320.00    1.24126   1.20876    0.038
 5321.00    1.22238   1.20371    0.038
 5322.00    1.19041   1.19841    0.038
 5323.00    1.17711   1.19271    0.038
 5324.00    1.16899   1.18796    0.038
 5325.00    1.18473   1.18489    0.038
 5326.00    1.20591   1.17880    0.038
 5327.00    1.20083   1.17445    0.038
 5328.00    1.19096   1.17504    0.038
 5329.00    1.18445   1.17059    0.038
 5330.00    1.17842   1.16664    0.037
 5331.00    1.17759   1.17068    0.038
 5332.00    1.17728   1.16976    0.038
 5333.00    1.18195   1.16615    0.037
 5334.00    1.18695   1.17111    0.036
 5335.00    1.18009   1.17384    0.036
 5336.00    1.17272   1.17316    0.037
 5337.00    1.10100   1.17812    0.036
 5338.00    1.03342   1.18086    0.036
 5339.00    1.08437   1.18114    0.037
 5340.00    1.13401   1.18709    0.037
 5341.00    1.16479   1.19041    0.036
 5342.00    1.19249   1.18948    0.036
 5343.00    1.19132   1.19567    0.036
 5344.00    1.19031   1.20078    0.036
 5345.00    1.19034   1.19886    0.036
 5346.00    1.18537   1.20438    0.036
 5347.00    1.15404   1.21130    0.036
 5348.00    1.13676   1.21029    0.036
 5349.00    1.17915   1.21548    0.036
 5350.00    1.21310   1.22233    0.035
 5351.00    1.21745   1.22158    0.035
 5352.00    1.21769   1.22608    0.035
 5353.00    1.20583   1.23281    0.035
 5354.00    1.20377   1.23230    0.035
 5355.00    1.22633   1.23429    0.035
 5356.00    1.23127   1.23996    0.035
 5357.00    1.19807   1.23983    0.035
 5358.00    1.17241   1.23875    0.035
 5359.00    1.16091   1.24156    0.035
 5360.00    1.16175   1.24050    0.035
 5361.00    1.18285   1.23748    0.035
 5362.00    1.18210   1.23788    0.035
 5363.00    1.14991   1.23467    0.036
 5364.00    1.14911   1.23032    0.036
 5365.00    1.18802   1.23014    0.036
 5366.00    1.19412   1.22569    0.035
 5367.00    1.16364   1.22034    0.036
 5368.00    1.17751   1.22105   -2.000
 5369.00    1.23501   1.21748   -2.000
 5370.00    1.23785   1.21235   -2.000
 5371.00    1.19331   1.21461   -2.000
 5372.00    1.18631   1.21302   -2.000
 5373.00    1.20797   1.20882   -2.000
 5374.00    1.19008   1.21262   -2.000
 5375.00    1.14563   1.21333   -2.000
 5376.00    1.15647   1.20906   -2.000
 5377.00    1.19983   1.21336   -2.000
 5378.00    1.19614   1.21720   -2.000
 5379.00    1.16832   1.21337   -2.000
 5380.00    1.12320   1.21626   -2.000
 5381.00    1.07039   1.22020   -2.000
 5382.00    1.10730   1.21543   -2.000
 5383.00    1.17847   1.21574    0.037
 5384.00    1.23123   1.21982    0.037
 5385.00    1.27803   1.21466    0.037
 5386.00    1.25422   1.21102    0.037
 5387.00    1.21124   1.21414    0.036
 5388.00    1.14732   1.20974    0.036
 5389.00    1.07874   1.20283    0.035
 5390.00    1.06015   1.20382    0.035
 5391.00    1.05044   1.20134    0.035
 5392.00    1.05862   1.19263    0.034
 5393.00    1.06924   1.19006    0.034
 5394.00    1.08943   1.18972    0.034
 5395.00    1.11055   1.18173    0.035
 5396.00    1.16030   1.17570    0.035
 5397.00    1.21178   1.17749    0.036
 5398.00    1.17258   1.17280    0.034
 5399.00    1.13123   1.16377    0.033
 5400.00    1.12495   1.16602    0.033
 5401.00    1.11808   1.16627    0.034
 5402.00    1.09618   1.15694    0.034
 5403.00    1.07624   1.15760    0.033
 5404.00    1.08289   1.16227    0.034
 5405.00    1.08734   1.15686    0.034
 5406.00    1.07195   1.15577    0.034
 5407.00    1.06264   1.16151    0.034
 5408.00    1.09354   1.16083    0.034
 5409.00    1.12534   1.16006    0.034
 5410.00    1.16173   1.16546    0.034
 5411.00    1.18388   1.16840    0.034
 5412.00    1.14687   1.16940    0.034
 5413.00    1.11606   1.17480    0.034
 5414.00    1.10654   1.17980    0.034
 5415.00    1.10807   1.18115    0.034
 5416.00    1.14161   1.18497    0.034
 5417.00    1.17646   1.19076    0.035
 5418.00    1.21455   1.19281    0.035
 5419.00    1.23180   1.19398    0.035
 5420.00    1.20466   1.19801    0.036
 5421.00    1.16134   1.20041    0.036
 5422.00    1.08810   1.19958    0.035
 5423.00    1.06502   1.20109    0.035
 5424.00    1.12299   1.20323    0.035
 5425.00    1.16580   1.20056    0.036
 5426.00    1.18714   1.19979    0.036
 5427.00    1.20017   1.20265    0.036
 5428.00    1.20285   1.19940    0.035
 5429.00    1.17597   1.19727    0.035
 5430.00    1.11660   1.20083    0.035
 5431.00    1.11200   1.19730    0.035
 5432.00    1.16049   1.19500    0.035
 5433.00    1.18545   1.20024    0.035
 5434.00    1.19031   1.19766    0.035
 5435.00    1.18545   1.19391    0.035
 5436.00    1.17328   1.19900    0.035
 5437.00    1.15377   1.20070    0.035
 5438.00    1.12942   1.19782    0.035
 5439.00    1.15915   1.19978    0.034
 5440.00    1.22022   1.20341    0.034
 5441.00    1.22727   1.20227    0.034
 5442.00    1.20704   1.20193    0.034
 5443.00    1.18261   1.20526    0.034
 5444.00    1.15633   1.20470    0.034
 5445.00    1.14852   1.20244    0.033
 5446.00    1.14764   1.20404    0.033
 5447.00    1.13557   1.20420    0.033
 5448.00    1.11994   1.20066    0.033
 5449.00    1.13375   1.19978    0.033
 5450.00    1.15539   1.20125    0.033
 5451.00    1.14791   1.19790    0.033
 5452.00    1.13409   1.19475    0.033
 5453.00    1.16464   1.19711    0.033
 5454.00    1.20285   1.19562    0.033
 5455.00    1.18754   1.19195    0.033
 5456.00    1.16521   1.19365    0.033
 5457.00    1.13343   1.19307    0.033
 5458.00    1.10078   1.18950    0.033
 5459.00    1.13268   1.19048    0.033
 5460.00    1.16820   1.19191    0.033
 5461.00    1.18450   1.18940    0.033
 5462.00    1.20025   1.18755    0.034
 5463.00    1.20379   1.19066    0.034
 5464.00    1.20664   1.19121    0.033
 5465.00    1.19305   1.18512    0.033
 5466.00    1.17930   1.18611    0.034
 5467.00    1.16353   1.19077    0.034
 5468.00    1.15107   1.18455    0.034
 5469.00    1.16717   1.18081    0.034
 5470.00    1.17604   1.18663    0.035
 5471.00    1.13851   1.18449    0.034
 5472.00    1.10511   1.17660    0.033
 5473.00    1.09235   1.17945    0.034
 5474.00    1.09057   1.18297    0.034
 5475.00    1.13332   1.17460    0.034
 5476.00    1.17593   1.17262    0.035
 5477.00    1.21805   1.18028    0.035
 5478.00    1.22706   1.17565   -2.000
 5479.00    1.14204   1.16910   -2.000
 5480.00    1.09618   1.17664   -2.000
 5481.00    1.14540   1.17938   -2.000
 5482.00    1.21636   1.17222   -2.000
 5483.00    1.33287   1.17482   -2.000
 5484.00    1.39862   1.18325   -2.000
 5485.00    1.37196   1.18019   -2.000
 5486.00    1.39036   1.17697   -2.000
 5487.00    1.48050   1.18583   -2.000
 5488.00    1.39385   1.18853   -2.000
 5489.00    1.06021   1.18231   -2.000
 5490.00    0.84932   1.18732   -2.000
 5491.00    0.78933   1.19451   -2.000
 5492.00    0.82879   1.18849   -2.000
 5493.00    0.97604   1.18786   -2.000
 5494.00    1.05512   1.19643   -2.000
 5495.00    1.06903   1.19311   -2.000
 5496.00    1.08694   1.18802   -2.000
 5497.00    1.10820   1.19490   -2.000
 5498.00    1.13299   1.19498   -2.000
 5499.00    1.16041   1.18745   -2.000
 5500.00    1.16105   1.19039   -2.000
 5501.00    1.14425   1.19356   -2.000
 5502.00    1.11156   1.18706    0.032
 5503.00    1.06979   1.18579    0.032
 5504.00    1.07860   1.18921    0.032
 5505.00    1.11255   1.18517    0.032
 5506.00    1.14018   1.18272    0.032
 5507.00    1.16509   1.18589    0.032
 5508.00    1.15709   1.18303    0.033
 5509.00    1.13695   1.18069    0.033
 5510.00    1.14543   1.18478    0.032
 5511.00    1.16283   1.18347    0.032
 5512.00    1.14692   1.18114    0.032
 5513.00    1.12235   1.18488    0.033
 5514.00    1.10999   1.18550    0.033
 5515.00    1.10023   1.18419    0.032
 5516.00    1.10505   1.18670    0.033
 5517.00    1.11232   1.18844    0.034
 5518.00    1.14004   1.18848    0.034
 5519.00    1.17035   1.19000    0.034
 5520.00    1.17066   1.19190    0.033
 5521.00    1.16834   1.19261    0.033
 5522.00    1.14015   1.19394    0.033
 5523.00    1.11060   1.19506    0.033
 5524.00    1.11113   1.19491    0.033
 5525.00    1.11226   1.19664    0.033
 5526.00    1.11595   1.19733    0.033
 5527.00    1.12061   1.19518    0.033
 5528.00    1.14601   1.19732    0.033
 5529.00    1.17073   1.19929    0.032
 5530.00    1.18719   1.19585    0.032
 5531.00    1.20286   1.19701    0.032
 5532.00    1.21200   1.20122    0.032
 5533.00    1.21736   1.19948    0.032
 5534.00    1.19928   1.19857    0.032
 5535.00    1.18014   1.20283    0.032
 5536.00    1.15586   1.20412    0.032
 5537.00    1.13627   1.20231    0.032
 5538.00    1.13530   1.20523    0.032
 5539.00    1.13234   1.20876    0.031
 5540.00    1.12283   1.20808    0.031
 5541.00    1.12359   1.20956    0.031
 5542.00    1.15299   1.21296    0.031
 5543.00    1.16904   1.21417    0.031
 5544.00    1.15324   1.21501    0.032
 5545.00    1.14120   1.21621    0.038
 5546.00    1.13692   1.21803    0.097
 5547.00    1.13125   1.21955   -1.000
 5548.00    1.12308   1.21907   -1.000
 5549.00    1.13253   1.21947   -1.000
 5550.00    1.16964   1.22144   -1.000
 5551.00    1.19627   1.22097   -1.000
 5552.00    1.20847   1.21950   -1.000
 5553.00    1.20241   1.22056    0.137
 5554.00    1.17423   1.22022    0.043
 5555.00    1.14031   1.21714    0.032
 5556.00    1.10026   1.21669    0.033
 5557.00    1.09058   1.21661    0.033
 5558.00    1.10951   1.21291    0.032
 5559.00    1.12937   1.21109    0.032
 5560.00    1.14998   1.21150    0.032
 5561.00    1.16853   1.20746    0.032
 5562.00    1.18555   1.20437    0.032
 5563.00    1.16955   1.20638    0.032
 5564.00    1.13233   1.20237    0.032
 5565.00    1.14648   1.19672    0.033
 5566.00    1.18949   1.20031    0.033
 5567.00    1.18719   1.19903    0.033
 5568.00    1.16274   1.19116    0.033
 5569.00    1.16972   1.19387    0.033
 5570.00    1.18998   1.19678    0.033
 5571.00    1.19940   1.18867    0.033
 5572.00    1.20489   1.18820    0.033
 5573.00    1.17209   1.19482    0.032
 5574.00    1.12756   1.18856    0.032
 5575.00    1.10907   1.18337    0.032
 5576.00    1.09722   1.19074    0.032
 5577.00    1.10549   1.18879    0.031
 5578.00    1.11793   1.18043    0.031
 5579.00    1.09910   1.18415    0.031
 5580.00    1.07516   1.18531    0.030
 5581.00    1.09317   1.17731    0.031
 5582.00    1.11630   1.17722    0.031
 5583.00    1.11867   1.17918    0.031
 5584.00    1.11930   1.17295    0.031
 5585.00    1.14074   1.17013    0.031
 5586.00    1.16318   1.17079    0.031
 5587.00    1.11429   1.16702    0.031
 5588.00    1.06496   1.16427    0.031
 5589.00    1.05316   1.16365    0.031
 5590.00    1.04424   1.16068    0.031
 5591.00    1.09254   1.15912    0.031
 5592.00    1.13568   1.16005    0.032
 5593.00    1.11875   1.15822    0.031
 5594.00    1.10838   1.15729    0.031
 5595.00    1.15070   1.16026    0.032
 5596.00    1.18589   1.15978    0.032
 5597.00    1.17795   1.15897    0.032
 5598.00    1.16820   1.16425    0.033
 5599.00    1.14978   1.16637    0.033
 5600.00    1.13282   1.16433    0.033
 5601.00    1.12147   1.16859    0.033
 5602.00    1.11508   1.17391    0.033
 5603.00    1.12471   1.17332    0.033
 5604.00    1.14238   1.17477    0.033
 5605.00    1.18205   1.18078    0.032
 5606.00    1.19919   1.18290    0.032
 5607.00    1.16350   1.18147    0.032
 5608.00    1.13754   1.18570    0.033
 5609.00    1.13132   1.19011    0.032
 5610.00    1.12523   1.18762    0.032
 5611.00    1.11936   1.18818    0.032
 5612.00    1.10186   1.19242    0.032
 5613.00    1.06640   1.19089    0.032
 5614.00    1.05047   1.18845    0.031
 5615.00    1.06106   1.19160    0.032
 5616.00    1.06836   1.19133    0.031
 5617.00    1.07173   1.18567    0.031
 5618.00    1.08084   1.18699    0.030
 5619.00    1.09598   1.18981    0.030
 5620.00    1.10225   1.18532    0.030
 5621.00    1.10028   1.18456    0.030
 5622.00    1.11122   1.18742    0.030
 5623.00    1.13275   1.18511    0.030
 5624.00    1.12958   1.18423    0.030
 5625.00    1.10859   1.18721    0.030
 5626.00    1.10958   1.18537    0.030
 5627.00    1.12447   1.18323    0.030
 5628.00    1.15492   1.18716    0.030
 5629.00    1.19397   1.18763    0.030
 5630.00    1.18106   1.18509    0.030
 5631.00    1.14315   1.18842    0.031
 5632.00    1.12362   1.19007    0.031
 5633.00    1.11174   1.18710    0.030
 5634.00    1.12983   1.18900    0.030
 5635.00    1.15856   1.19149    0.030
 5636.00    1.15821   1.18816    0.030
 5637.00    1.14913   1.18786    0.031
 5638.00    1.16442   1.19117    0.031
 5639.00    1.18576   1.18913    0.031
 5640.00    1.15981   1.18672    0.031
 5641.00    1.12430   1.18989    0.031
 5642.00    1.12194   1.19003    0.031
 5643.00    1.12484   1.18599    0.031
 5644.00    1.12535   1.18744    0.031
 5645.00    1.12559   1.18992    0.031
 5646.00    1.16269   1.18614    0.032
 5647.00    1.20274   1.18466    0.032
 5648.00    1.15876   1.18821    0.032
 5649.00    1.11105   1.18687    0.031
 5650.00    1.16661   1.18194    0.032
 5651.00    1.22145   1.18386    0.032
 5652.00    1.18374   1.18634    0.032
 5653.00    1.14769   1.18068    0.031
 5654.00    1.14207   1.17862    0.031
 5655.00    1.13845   1.18353    0.031
 5656.00    1.15709   1.18068    0.031
 5657.00    1.17261   1.17441    0.031
 5658.00    1.16403   1.17869    0.030
 5659.00    1.15498   1.18125    0.030
 5660.00    1.14320   1.17333    0.030
 5661.00    1.12851   1.17324    0.030
 5662.00    1.10027   1.18063    0.030
 5663.00    1.08095   1.17769    0.030
 5664.00    1.09559   1.17368    0.030
 5665.00    1.10507   1.18023    0.030
 5666.00    1.09815   1.18300    0.029
 5667.00    1.09437   1.17910    0.029
 5668.00    1.09906   1.18298    0.029
 5669.00    1.11262   1.18864    0.029
 5670.00    1.14665   1.18609    0.029
 5671.00    1.17509   1.18666    0.029
 5672.00    1.19238   1.19347    0.029
 5673.00    1.18758   1.19440    0.029
 5674.00    1.14436   1.19233    0.030
 5675.00    1.12066   1.19666    0.030
 5676.00    1.12670   1.20002    0.030
 5677.00    1.12242   1.19749    0.030
 5678.00    1.10432   1.19827    0.031
 5679.00    1.08767   1.20187    0.031
 5680.00    1.07272   1.20031    0.031
 5681.00    1.06853   1.19823    0.031
 5682.00    1.07550   1.20073    0.032
 5683.00    1.09022   1.20109    0.031
 5684.00    1.11203   1.19804    0.031
 5685.00    1.11969   1.19831    0.030
 5686.00    1.11592   1.19940    0.031
 5687.00    1.10604   1.19764    0.031
 5688.00    1.09181   1.19691    0.031
 5689.00    1.09644   1.19711    0.031
 5690.00    1.11283   1.19519    0.031
 5691.00    1.13467   1.19462    0.031
 5692.00    1.15949   1.19558    0.031
 5693.00    1.17341   1.19298    0.031
 5694.00    1.18217   1.19131    0.030
 5695.00    1.16335   1.19281    0.030
 5696.00    1.13327   1.19045    0.030
 5697.00    1.12029   1.18654    0.030
 5698.00    1.11328   1.18764    0.031
 5699.00    1.11119   1.18755    0.031
 5700.00    1.11055   1.18124    0.031
 5701.00    1.12769   1.17942    0.030
 5702.00    1.14915   1.18216    0.029
 5703.00    1.14178   1.17738    0.029
 5704.00    1.12874   1.17218    0.029
 5705.00    1.11227   1.17529    0.030
 5706.00    1.09527   1.17549    0.030
 5707.00    1.09289   1.16980    0.030
 5708.00    1.09217   1.17041    0.029
 5709.00    1.09047   1.17450    0.029
 5710.00    1.08870   1.17145    0.029
 5711.00    1.10103   1.16995    0.029
 5712.00    1.11394   1.17592    0.029
 5713.00    1.12602   1.17742    0.029
 5714.00    1.13768   1.17613    0.029
 5715.00    1.13162   1.18179    0.029
 5716.00    1.12715   1.18667    0.029
 5717.00    1.14989   1.18728    0.029
 5718.00    1.17140   1.19104    0.030
 5719.00    1.17988   1.19573    0.030
 5720.00    1.18694   1.19788    0.031
 5721.00    1.18344   1.20136    0.031
 5722.00    1.18583   1.20529    0.031
 5723.00    1.22186   1.20705    0.031
 5724.00    1.25315   1.21054    0.031
 5725.00    1.26297   1.21435    0.031
 5726.00    1.26368   1.21436    0.031
 5727.00    1.23047   1.21626    0.031
 5728.00    1.20244   1.22003    0.031
 5729.00    1.19055   1.21900    0.031
 5730.00    1.18356   1.21870    0.031
 5731.00    1.18952   1.22285    0.030
 5732.00    1.19118   1.22344    0.030
 5733.00    1.18310   1.22048    0.030
 5734.00    1.17561   1.22211    0.030
 5735.00    1.16926   1.22471    0.030
 5736.00    1.17006   1.22265    0.030
 5737.00    1.18310   1.22219    0.029
 5738.00    1.20082   1.22415    0.029
 5739.00    1.22555   1.22288    0.030
 5740.00    1.23882   1.22126    0.000
 5741.00    1.23698   1.22279    0.000
 5742.00    1.23102   1.22293    0.000
 5743.00    1.22028   1.22064    0.000
 5744.00    1.22565   1.22056    0.000
 5745.00    1.24751   1.22105    0.000
 5746.00    1.26035   1.21933    0.000
 5747.00    1.26504   1.21850    0.000
 5748.00    1.24843   1.21903    0.000
 5749.00    1.21485   1.21739    0.000
 5750.00    1.20110   1.21514    0.000
 5751.00    1.20123   1.21570    0.000
 5752.00    1.21276   1.21611    0.000
 5753.00    1.23129   1.21466    0.000
 5754.00    1.22248   1.21355    0.000
 5755.00    1.19899   1.21310    0.000
 5756.00    1.20138   1.21220    0.000
 5757.00    1.21582   1.21160    0.000
 5758.00    1.23973   1.21211    0.000
 5759.00    1.26744   1.21298    0.000
 5760.00    1.25097   1.21299    0.000
 5761.00    1.21936   1.21224    0.000
 5762.00    1.20822   1.21253    0.000
 5763.00    1.20298   1.21342    0.000
 5764.00    1.20023   1.21265    0.000
 5765.00    1.19808   1.21198    0.000
 5766.00    1.21839   1.21371    0.000
 5767.00    1.24299   1.21434    0.000
 5768.00    1.33627   1.21338    0.000
 5769.00    1.43977   1.21315    0.000
 5770.00    1.48271   1.21314    0.000
 5771.00    1.51905   1.21223    0.000
 5772.00    1.47743   1.21073    0.000
 5773.00    1.43022   1.20935    0.000
 5774.00    1.33443   1.20843    0.000
 5775.00    1.23684   1.20732    0.000
 5776.00    1.18064   1.20393    0.000
 5777.00    1.12677   1.20154    0.000
 5778.00    1.15030   1.20196    0.000
 5779.00    1.17225   1.19930    0.000
 5780.00    1.16876   1.19488    0.000
 5781.00    1.16599   1.19521    0.000
 5782.00    1.17043   1.19481    0.000
 5783.00    1.17350   1.18951    0.000
 5784.00    1.16667   1.18901    0.000
 5785.00    1.16353   1.19206    0.000
 5786.00    1.18092   1.18933    0.000
 5787.00    1.19816   1.18715    0.000
 5788.00    1.21473   1.19126    0.000
 5789.00    1.22712   1.19252    0.000
 5790.00    1.22428   1.19068    0.000
 5791.00    1.21131   1.19493   -2.000
 5792.00    1.16741   1.19791   -2.000
 5793.00    1.13542   1.19580   -2.000
 5794.00    1.13434   1.19963   -2.000
 5795.00    1.13576   1.20546   -2.000
 5796.00    1.14273   1.20523   -2.000
 5797.00    1.14214   1.20703   -2.000
 5798.00    1.12691   1.21325   -2.000
 5799.00    1.12591   1.21353   -2.000
 5800.00    1.14890   1.21173   -2.000
 5801.00    1.16455   1.21742   -2.000
 5802.00    1.16932   1.22154   -2.000
 5803.00    1.17890   1.21947   -2.000
 5804.00    1.19474   1.22130   -2.000
 5805.00    1.21138   1.22579   -2.000
 5806.00    1.22893   1.22482   -2.000
 5807.00    1.22989   1.22320   -2.000
 5808.00    1.21407   1.22641   -2.000
 5809.00    1.22933   1.22866   -2.000
 5810.00    1.27226   1.22710   -2.000
 5811.00    1.29545   1.22698    0.000
 5812.00    1.30314   1.22954    0.000
 5813.00    1.29130   1.23052    0.000
 5814.00    1.26598   1.22941    0.000
 5815.00    1.23617   1.23009    0.000
 5816.00    1.20364   1.23231    0.000
 5817.00    1.19720   1.23246    0.000
 5818.00    1.20455   1.23117    0.000
 5819.00    1.21156   1.23264    0.000
 5820.00    1.21842   1.23572    0.000
 5821.00    1.19597   1.23570    0.000
 5822.00    1.16194   1.23511    0.000
 5823.00    1.15434   1.23697    0.000
 5824.00    1.15563   1.23864    0.000
 5825.00    1.16709   1.23785    0.000
 5826.00    1.18142   1.23759    0.000
 5827.00    1.20119   1.24013    0.000
 5828.00    1.22223   1.24130    0.000
 5829.00    1.21426   1.23986    0.000
 5830.00    1.20088   1.23967    0.000
 5831.00    1.19344   1.24195    0.000
 5832.00    1.18686   1.24203    0.000
 5833.00    1.20659   1.23945    0.000
 5834.00    1.22908   1.24003    0.000
 5835.00    1.22038   1.24187    0.000
 5836.00    1.20957   1.23985    0.000
 5837.00    1.20486   1.23742    0.000
 5838.00    1.20036   1.23890    0.000
 5839.00    1.19243   1.23899    0.000
 5840.00    1.18493   1.23510    0.000
 5841.00    1.19121   1.23341    0.000
 5842.00    1.19729   1.23395    0.000
 5843.00    1.20044   1.23198    0.000
 5844.00    1.20267   1.22849    0.000
 5845.00    1.19599   1.22698    0.000
 5846.00    1.18952   1.22584    0.000
 5847.00    1.18446   1.22239    0.000
 5848.00    1.18165   1.21830    0.000
 5849.00    1.19096   1.21614    0.000
 5850.00    1.19623   1.21479    0.000
 5851.00    1.18396   1.21135    0.000
 5852.00    1.17443   1.20714    0.000
 5853.00    1.17469   1.20564    0.000
 5854.00    1.17322   1.20379    0.000
 5855.00    1.16657   1.19919    0.000
 5856.00    1.16079   1.19724    0.000
 5857.00    1.15725   1.19766    0.000
 5858.00    1.16028   1.19535    0.000
 5859.00    1.17778   1.19213    0.000
 5860.00    1.19129   1.19238    0.000
 5861.00    1.19725   1.19223    0.000
 5862.00    1.18773   1.19025    0.000
 5863.00    1.15250   1.19161    0.000
 5864.00    1.13920   1.19252    0.000
 5865.00    1.15784   1.19103    0.000
 5866.00    1.17369   1.19170    0.000
 5867.00    1.18596   1.19357    0.000
 5868.00    1.19653   1.19194    0.000
 5869.00    1.20519   1.19120    0.000
 5870.00    1.18878   1.19410    0.000
 5871.00    1.14741   1.19304    0.000
 5872.00    1.13013   1.19015    0.000
 5873.00    1.13399   1.19098    0.000
 5874.00    1.13493   1.19015    0.000
 5875.00    1.13360   1.18475    0.000
 5876.00    1.13214   1.18221    0.000
 5877.00    1.13058   1.18085    0.000
 5878.00    1.15332   1.17421    0.000
 5879.00    1.19053   1.16869    0.000
 5880.00    1.18790   1.16558    0.000
 5881.00    1.16455   1.15834    0.000
 5882.00    1.12659   1.15013    0.000
 5883.00    1.08205   1.14479    0.000
 5884.00    1.05723   1.13491    0.000
 5885.00    1.04006   1.12357    0.000
 5886.00    1.03636   1.12008    0.000
 5887.00    1.03710   1.11391    0.000
 5888.00    1.05012   1.10242    0.000
 5889.00    1.06654   1.09878    0.000
 5890.00    1.07552   1.09489    0.000
 5891.00    1.08281   1.07993    0.000
 5892.00    1.06491   1.07330    0.000
 5893.00    1.04244   1.08022    0.000
 5894.00    1.03956   1.07658    0.000
 5895.00    1.03942   1.06956    0.000
 5896.00    1.05037   1.07776    0.000
 5897.00    1.06244   1.07993    0.000
 5898.00    1.05483   1.06960    0.000
 5899.00    1.04598   1.07557    0.000
 5900.00    1.08680   1.09145    0.000
 5901.00    1.12901   1.09173    0.030
 5902.00    1.14605   1.09263    0.030
 5903.00    1.16214   1.10782    0.029
 5904.00    1.15160   1.11363    0.030
 5905.00    1.14063   1.11028    0.030
 5906.00    1.12366   1.12109    0.029
 5907.00    1.10900   1.13490    0.029
 5908.00    1.11593   1.13579    0.029
 5909.00    1.12309   1.13846    0.029
 5910.00    1.13177   1.14962    0.029
 5911.00    1.13800   1.15375    0.029
 5912.00    1.13126   1.15308    0.028
 5913.00    1.12351   1.15950    0.028
 5914.00    1.11147   1.16610    0.027
 5915.00    1.10813   1.16635    0.027
 5916.00    1.13525   1.16703    0.027
 5917.00    1.16253   1.17132    0.027
 5918.00    1.19024   1.17298    0.027
 5919.00    1.20320   1.17347    0.027
 5920.00    1.17915   1.17599    0.027
 5921.00    1.16640   1.17785    0.028
 5922.00    1.17806   1.17802    0.028
 5923.00    1.18309   1.17840    0.028
 5924.00    1.17569   1.17942    0.028
 5925.00    1.16951   1.17922    0.028
 5926.00    1.16533   1.18048    0.028
 5927.00    1.17339   1.18288    0.028
 5928.00    1.19903   1.18297    0.028
 5929.00    1.22101   1.18146    0.028
 5930.00    1.23838   1.18241    0.029
 5931.00    1.23177   1.18426    0.029
 5932.00    1.19848   1.18245    0.029
 5933.00    1.17431   1.18224    0.029
 5934.00    1.15912   1.18603    0.029
 5935.00    1.14404   1.18671    0.029
 5936.00    1.12906   1.18243    0.029
 5937.00    1.14380   1.18247    0.029
 5938.00    1.18119   1.18672    0.028
 5939.00    1.20061   1.18524    0.028
 5940.00    1.20797   1.18226    0.029
 5941.00    1.19402   1.18558    0.028
 5942.00    1.16757   1.18821    0.028
 5943.00    1.16414   1.18330    0.028
 5944.00    1.17248   1.18074    0.028
 5945.00    1.17381   1.18563    0.028
 5946.00    1.17202   1.18677    0.027
 5947.00    1.16061   1.18215    0.027
 5948.00    1.14555   1.18240    0.028
 5949.00    1.14634   1.18688    0.027
 5950.00    1.15227   1.18483    0.027
 5951.00    1.16351   1.18020    0.027
 5952.00    1.17620   1.18330    0.027
 5953.00    1.18379   1.18732    0.027
 5954.00    1.19024   1.18405    0.027
 5955.00    1.20602   1.18223    0.028
 5956.00    1.22345   1.18696    0.028
 5957.00    1.22610   1.18839    0.028
 5958.00    1.22676   1.18490    0.028
 5959.00    1.18925   1.18635    0.027
 5960.00    1.14807   1.19046    0.027
 5961.00    1.15106   1.18963    0.028
 5962.00    1.15669   1.18901    0.028
 5963.00    1.16402   1.19219    0.028
 5964.00    1.17117   1.19371    0.028
 5965.00    1.14392   1.19256    0.028
 5966.00    1.11706   1.19374    0.028
 5967.00    1.10029   1.19523    0.028
 5968.00    1.08726   1.19460    0.028
 5969.00    1.12455   1.19539    0.028
 5970.00    1.16097   1.19660    0.029
 5971.00    1.18959   1.19551    0.029
 5972.00    1.21136   1.19433    0.029
 5973.00    1.18808   1.19531    0.028
 5974.00    1.16321   1.19491    0.028
 5975.00    1.13019   1.19294    0.028
 5976.00    1.10428   1.19296    0.027
 5977.00    1.10786   1.19354    0.027
 5978.00    1.11451   1.19121    0.027
 5979.00    1.13173   1.18810    0.027
 5980.00    1.14281   1.18872    0.027
 5981.00    1.13617   1.18972    0.027
 5982.00    1.13194   1.18736    0.027
 5983.00    1.13366   1.18559    0.027
 5984.00    1.13747   1.18736    0.027
 5985.00    1.14570   1.18701    0.027
 5986.00    1.15469   1.18268    0.026
 5987.00    1.16507   1.18269    0.026
 5988.00    1.18341   1.18655    0.026
 5989.00    1.21460   1.18562    0.027
 5990.00    1.23831   1.18238    0.028
 5991.00    1.25146   1.18432    0.028
 5992.00    1.24231   1.18641    0.028
 5993.00    1.20540   1.18282    0.028
 5994.00    1.17323   1.18145    0.028
 5995.00    1.14626   1.18535    0.028
 5996.00    1.13016   1.18580    0.028
 5997.00    1.12459   1.18200    0.028
 5998.00    1.13582   1.18197    0.028
 5999.00    1.16139   1.18420    0.028
 6000.00    1.17965   1.18198    0.028
 6001.00    1.19242   1.17945    0.028
 6002.00    1.18248   1.18114    0.028
 6003.00    1.15754   1.18113    0.029
 6004.00    1.12809   1.17749    0.028
 6005.00    1.09603   1.17680    0.028
 6006.00    1.07970   1.17885    0.028
 6007.00    1.07128   1.17678    0.028
 6008.00    1.08685   1.17333    0.027
 6009.00    1.11290   1.17474    0.027
 6010.00    1.14930   1.17525    0.026
 6011.00    1.18959   1.17141    0.026
 6012.00    1.20325   1.17099    0.027
 6013.00    1.20847   1.17493    0.027
 6014.00    1.19769   1.17348    0.027
 6015.00    1.18266   1.16855    0.027
 6016.00    1.16929   1.17117    0.027
 6017.00    1.15629   1.17528    0.027
 6018.00    1.16263   1.17191    0.027
 6019.00    1.17230   1.16994    0.028
 6020.00    1.18208   1.17616    0.028
 6021.00    1.19188   1.17824    0.028
 6022.00    1.18935   1.17317    0.028
 6023.00    1.18569   1.17546    0.028
 6024.00    1.17561   1.18268    0.028
 6025.00    1.16517   1.18221    0.028
 6026.00    1.15918   1.17924    0.028
 6027.00    1.15355   1.18518    0.029
 6028.00    1.17529   1.19049    0.028
 6029.00    1.19635   1.18774    0.028
 6030.00    1.20141   1.18858    0.029
 6031.00    1.20573   1.19540    0.029
 6032.00    1.20073   1.19762    0.028
 6033.00    1.19787   1.19535    0.028
 6034.00    1.21348   1.19869    0.027
 6035.00    1.22532   1.20383    0.027
 6036.00    1.21304   1.20351    0.027
 6037.00    1.19960   1.20279    0.028
 6038.00    1.18035   1.20678    0.027
 6039.00    1.16774   1.20966    0.027
 6040.00    1.18194   1.20818    0.027
 6041.00    1.19612   1.20866    0.026
 6042.00    1.21021   1.21182    0.026
 6043.00    1.22033   1.21240    0.026
 6044.00    1.21918   1.21051    0.027
 6045.00    1.22248   1.21196    0.027
 6046.00    1.23657   1.21424    0.027
 6047.00    1.24180   1.21290    0.027
 6048.00    1.22851   1.21140    0.026
 6049.00    1.21215   1.21276    0.026
 6050.00    1.19020   1.21333    0.027
 6051.00    1.18000   1.21099    0.027
 6052.00    1.18847   1.21059    0.028
 6053.00    1.19747   1.21151    0.028
 6054.00    1.20718   1.21065    0.028
 6055.00    1.20402   1.20887    0.028
 6056.00    1.18505   1.20850    0.028
 6057.00    1.17984   1.20857    0.028
 6058.00    1.18949   1.20756    0.028
 6059.00    1.20145   1.20675    0.028
 6060.00    1.21561   1.20556    0.029
 6061.00    1.21350   1.20561    0.029
 6062.00    1.19770   1.20624    0.028
 6063.00    1.18501   1.20550    0.028
 6064.00    1.17463   1.20454    0.028
 6065.00    1.16779   1.20530    0.027
 6066.00    1.16326   1.20582    0.027
 6067.00    1.16711   1.20382    0.027
 6068.00    1.17573   1.20399    0.027
 6069.00    1.18379   1.20605    0.027
 6070.00    1.19156   1.20576    0.027
 6071.00    1.20008   1.20456    0.026
 6072.00    1.20891   1.20526    0.026
 6073.00    1.21193   1.20502    0.026
 6074.00    1.21282   1.20337    0.026
 6075.00    1.21300   1.20417    0.026
 6076.00    1.21296   1.20429    0.026
 6077.00    1.21214   1.20156    0.026
 6078.00    1.21113   1.20082    0.026
 6079.00    1.19320   1.20223    0.026
 6080.00    1.17170   1.19930    0.027
 6081.00    1.14764   1.19569    0.027
 6082.00    1.12316   1.19771    0.027
 6083.00    1.13188   1.19821    0.027
 6084.00    1.14479   1.19282    0.027
 6085.00    1.16868   1.19074    0.027
 6086.00    1.19353   1.19381    0.028
 6087.00    1.17723   1.19189    0.028
 6088.00    1.15881   1.18692    0.027
 6089.00    1.13451   1.18803    0.027
 6090.00    1.11038   1.19076    0.027
 6091.00    1.10604   1.18711    0.027
 6092.00    1.10301   1.18369    0.027
 6093.00    1.12779   1.18576    0.027
 6094.00    1.15378   1.18649    0.027
 6095.00    1.19433   1.18392    0.027
 6096.00    1.23065   1.18368    0.027
 6097.00    1.23193   1.18466    0.027
 6098.00    1.22851   1.18300    0.027
 6099.00    1.19592   1.18227    0.027
 6100.00    1.16569   1.18326    0.027
 6101.00    1.14693   1.18331    0.026
 6102.00    1.13093   1.18287    0.026
 6103.00    1.12589   1.18339    0.026
 6104.00    1.12007   1.18250    0.026
 6105.00    1.11169   1.18092    0.026
 6106.00    1.11022   1.18217    0.027
 6107.00    1.12794   1.18395    0.026
 6108.00    1.14580   1.18370    0.027
 6109.00    1.16398   1.18249    0.027
 6110.00    1.18207   1.18250    0.027
 6111.00    1.20000   1.18328    0.027
 6112.00    1.21548   1.18341    0.027
 6113.00    1.22659   1.18231    0.028
 6114.00    1.22947   1.18194    0.028
 6115.00    1.21948   1.18311    0.028
 6116.00    1.20984   1.18231    0.028
 6117.00    1.20069   1.17934    0.028
 6118.00    1.19727   1.17932    0.028
 6119.00    1.20077   1.18159    0.028
 6120.00    1.19648   1.17935    0.028
 6121.00    1.18389   1.17542    0.027
 6122.00    1.17358   1.17680    0.027
 6123.00    1.16543   1.17758    0.027
 6124.00    1.16715   1.17229    0.027
 6125.00    1.17706   1.17045    0.027
 6126.00    1.18406   1.17442    0.026
 6127.00    1.18893   1.17285    0.026
 6128.00    1.18403   1.16661    0.026
 6129.00    1.17287   1.16695    0.026
 6130.00    1.15452   1.17043    0.025
 6131.00    1.13212   1.16681    0.025
 6132.00    1.12233   1.16155    0.026
 6133.00    1.11869   1.16407    0.026
 6134.00    1.13638   1.16691    0.027
 6135.00    1.16307   1.16243    0.027
 6136.00    1.17331   1.15929    0.027
 6137.00    1.17762   1.16319    0.027
 6138.00    1.16952   1.16428    0.027
 6139.00    1.15762   1.15849    0.027
 6140.00    1.15116   1.15772    0.027
 6141.00    1.14608   1.16354    0.028
 6142.00    1.14769   1.16403    0.028
 6143.00    1.15069   1.15842    0.028
 6144.00    1.15572   1.15855    0.028
 6145.00    1.16109   1.16295    0.028
 6146.00    1.16377   1.16187    0.028
 6147.00    1.16612   1.15887    0.027
 6148.00    1.16395   1.16023    0.027
 6149.00    1.16140   1.16053    0.026
 6150.00    1.13741   1.15665    0.027
 6151.00    1.11238   1.15579    0.027
 6152.00    1.08244   1.15613    0.026
 6153.00    1.05276   1.15262    0.025
 6154.00    1.04191   1.14993    0.025
 6155.00    1.03298   1.15015    0.026
 6156.00    1.06162   1.14553    0.026
 6157.00    1.09078   1.13889    0.026
 6158.00    1.12596   1.13972    0.026
 6159.00    1.15639   1.13999    0.026
 6160.00    1.14891   1.13118    0.026
 6161.00    1.14083   1.12586    0.027
 6162.00    1.12915   1.13056    0.026
 6163.00    1.11630   1.12793    0.026
 6164.00    1.09794   1.11625    0.026
 6165.00    1.08445   1.11602    0.027
 6166.00    1.08990   1.12432    0.027
 6167.00    1.09806   1.11950    0.027
 6168.00    1.11500   1.10957    0.027
 6169.00    1.13064   1.11567    0.027
 6170.00    1.14272   1.12332    0.027
 6171.00    1.15125   1.11501    0.028
 6172.00    1.15149   1.11044    0.028
 6173.00    1.14626   1.12200    0.028
 6174.00    1.12998   1.12623    0.027
 6175.00    1.11369   1.11666    0.027
 6176.00    1.09737   1.11834    0.027
 6177.00    1.08301   1.13017    0.027
 6178.00    1.07168   1.12926    0.027
 6179.00    1.06769   1.12248    0.027
 6180.00    1.07366   1.12963    0.026
 6181.00    1.07607   1.13712    0.026
 6182.00    1.07424   1.13021    0.026
 6183.00    1.08012   1.12726    0.025
 6184.00    1.09409   1.13688    0.025
 6185.00    1.12067   1.13916    0.025
 6186.00    1.15896   1.13094    0.026
 6187.00    1.17631   1.13219    0.026
 6188.00    1.17653   1.13992    0.026
 6189.00    1.16308   1.13696    0.026
 6190.00    1.13979   1.13060    0.026
 6191.00    1.13239   1.13538    0.026
 6192.00    1.13503   1.14061    0.026
 6193.00    1.12258   1.13449    0.026
 6194.00    1.10179   1.13072    0.026
 6195.00    1.02919   1.13741    0.027
 6196.00    0.93172   1.14040   -2.000
 6197.00    0.94156   1.13466   -2.000
 6198.00    0.99587   1.13367   -2.000
 6199.00    1.15814   1.13957   -2.000
 6200.00    1.35867   1.14025   -2.000
 6201.00    1.48995   1.13557   -2.000
 6202.00    1.60052   1.13600   -2.000
 6203.00    1.52739   1.14039   -2.000
 6204.00    1.40864   1.13932   -2.000
 6205.00    1.32563   1.13560   -2.000
 6206.00    1.24980   1.13622   -2.000
 6207.00    1.21408   1.13801   -2.000
 6208.00    1.18468   1.13621    0.028
 6209.00    1.16741   1.13361    0.027
 6210.00    1.15156   1.13291    0.027
 6211.00    1.13202   1.13194    0.026
 6212.00    1.11218   1.12975    0.026
 6213.00    1.09575   1.12775    0.025
 6214.00    1.07947   1.12608    0.025
 6215.00    1.07865   1.12366    0.025
 6216.00    1.07812   1.12184    0.025
 6217.00    1.08382   1.11974    0.025
 6218.00    1.09001   1.11694    0.026
 6219.00    1.10498   1.11576    0.026
 6220.00    1.11808   1.11537    0.026
 6221.00    1.11067   1.11195    0.026
 6222.00    1.10426   1.10841    0.026
 6223.00    1.10565   1.10914    0.026
 6224.00    1.11052   1.10952    0.027
 6225.00    1.13571   1.10621    0.027
 6226.00    1.15772   1.10380    0.027
 6227.00    1.16502   1.10501    0.028
 6228.00    1.16719   1.10440    0.028
 6229.00    1.14991   1.10184    0.028
 6230.00    1.13244   1.10190    0.027
 6231.00    1.11438   1.10270    0.027
 6232.00    1.10162   1.10069    0.026
 6233.00    1.10308   1.09879    0.026
 6234.00    1.11019   1.09950    0.026
 6235.00    1.13029   1.09976    0.026
 6236.00    1.14994   1.09877    0.025
 6237.00    1.16865   1.09750    0.026
 6238.00    1.16688   1.09687    0.025
 6239.00    1.12953   1.09698    0.025
 6240.00    1.09807   1.09701    0.025
 6241.00    1.07552   1.09542    0.024
 6242.00    1.06842   1.09391    0.024
 6243.00    1.08194   1.09452    0.025
 6244.00    1.09429   1.09408    0.025
 6245.00    1.10524   1.09118    0.025
 6246.00    1.11366   1.09087    0.026
 6247.00    1.11945   1.09265    0.026
 6248.00    1.11137   1.09056    0.026
 6249.00    1.09059   1.08729    0.026
 6250.00    1.06589   1.08903    0.026
 6251.00    1.03803   1.09103    0.026
 6252.00    1.02947   1.08767    0.026
 6253.00    1.03462   1.08602    0.027
 6254.00    1.04945   1.08933    0.027
 6255.00    1.07029   1.09003    0.027
 6256.00    1.08101   1.08630    0.027
 6257.00    1.08623   1.08760    0.026
 6258.00    1.08587   1.09252    0.027
 6259.00    1.08288   1.09173    0.027
 6260.00    1.09975   1.08845    0.029
 6261.00    1.12471   1.09248    0.030
 6262.00    1.15309   1.09842    0.031
 6263.00    1.18266   1.09663    0.032
 6264.00    1.18871   1.09516    0.032
 6265.00    1.18787   1.10117    0.031
 6266.00    1.18719   1.10585    0.030
 6267.00    1.18654   1.10316    0.029
 6268.00    1.18053   1.10389    0.027
 6269.00    1.17345   1.11090    0.026
 6270.00    1.18058   1.11343    0.026
 6271.00    1.18988   1.11042    0.026
 6272.00    1.20569   1.11232    0.026
 6273.00    1.22224   1.11841    0.026
 6274.00    1.21296   1.11960    0.026
 6275.00    1.20174   1.11807    0.026
 6276.00    1.18597   1.11998    0.026
 6277.00    1.17002   1.12362    0.026
 6278.00    1.16384   1.12400    0.026
 6279.00    1.15728   1.12380    0.026
 6280.00    1.13281   1.12576    0.000
 6281.00    1.11077   1.12753    0.000
 6282.00    1.13028   1.12721    0.000
 6283.00    1.14919   1.12705    0.000
 6284.00    1.16172   1.12833    0.000
 6285.00    1.17304   1.12980    0.000
 6286.00    1.17535   1.13030    0.000
 6287.00    1.17604   1.12928    0.000
 6288.00    1.16758   1.12876    0.000
 6289.00    1.15934   1.13000    0.000
 6290.00    1.15215   1.13154    0.000
 6291.00    1.14620   1.13033    0.000
 6292.00    1.14486   1.12832    0.000
 6293.00    1.14284   1.12882    0.000
 6294.00    1.13875   1.13015    0.000
 6295.00    1.13399   1.12883    0.000
 6296.00    1.12746   1.12692    0.000
 6297.00    1.12250   1.12761    0.000
 6298.00    1.12109   1.12813    0.000
 6299.00    1.12553   1.12592    0.000
 6300.00    1.14146   1.12484    0.000
 6301.00    1.14690   1.12665    0.000
 6302.00    1.13439   1.12654    0.000
 6303.00    1.12757   1.12391    0.000
 6304.00    1.12929   1.12355    0.000
 6305.00    1.13852   1.12523    0.000
 6306.00    1.15766   1.12513    0.000
 6307.00    1.16789   1.12408    0.000
 6308.00    1.16779   1.12406    0.000
 6309.00    1.16197   1.12384    0.000
 6310.00    1.15032   1.12384    0.000
 6311.00    1.14495   1.12555    0.000
 6312.00    1.14527   1.12563    0.000
 6313.00    1.14528   1.12311    0.000
 6314.00    1.14504   1.12360    0.000
 6315.00    1.13674   1.12760    0.000
 6316.00    1.12280   1.12684    0.000
 6317.00    1.11164   1.12296    0.000
 6318.00    1.10220   1.12511    0.000
 6319.00    1.09957   1.13005    0.000
 6320.00    1.10059   1.12790    0.000
 6321.00    1.10819   1.12437    0.025
 6322.00    1.11884   1.12834    0.025
 6323.00    1.12510   1.13261    0.025
 6324.00    1.12961   1.12995    0.025
 6325.00    1.13026   1.12799    0.025
 6326.00    1.12959   1.13178    0.025
 6327.00    1.13121   1.13443    0.025
 6328.00    1.13349   1.13289    0.025
 6329.00    1.13215   1.13183    0.026
 6330.00    1.12995   1.13386    0.026
 6331.00    1.12374   1.13583    0.026
 6332.00    1.11678   1.13570    0.026
 6333.00    1.12187   1.13415    0.026
 6334.00    1.12876   1.13395    0.026
 6335.00    1.14930   1.13618    0.026
 6336.00    1.17131   1.13736    0.026
 6337.00    1.16715   1.13434    0.026
 6338.00    1.16112   1.13235    0.025
 6339.00    1.14744   1.13588    0.025
 6340.00    1.13348   1.13804    0.025
 6341.00    1.13787   1.13312    0.025
 6342.00    1.14213   1.13030    0.024
 6343.00    1.13977   1.13518    0.025
 6344.00    1.13789   1.13717    0.025
 6345.00    1.14370   1.13099    0.025
 6346.00    1.14934   1.12849    0.024
 6347.00    1.15327   1.13420    0.025
 6348.00    1.15863   1.13500    0.025
 6349.00    1.17422   1.12781    0.025
 6350.00    1.19128   1.12628    0.025
 6351.00    1.21644   1.13221    0.026
 6352.00    1.23275   1.13109    0.026
 6353.00    1.20997   1.12356    0.026
 6354.00    1.19159   1.12416    0.027
 6355.00    1.18919   1.12977    0.027
 6356.00    1.18458   1.12632    0.027
 6357.00    1.17319   1.11932    0.027
 6358.00    1.15542   1.12226    0.026
 6359.00    1.12110   1.12750    0.026
 6360.00    1.09511   1.12263    0.026
 6361.00    1.08770   1.11697    0.026
 6362.00    1.08974   1.12192    0.027
 6363.00    1.11001   1.12682    0.026
 6364.00    1.13023   1.12207    0.026
 6365.00    1.15037   1.11883    0.026
 6366.00    1.16333   1.12484    0.025
 6367.00    1.16571   1.12890    0.025
 6368.00    1.16459   1.12524    0.025
 6369.00    1.15896   1.12456    0.025
 6370.00    1.15899   1.13082    0.025
 6371.00    1.16550   1.13384    0.025
 6372.00    1.16495   1.13098    0.024
 6373.00    1.15729   1.13188    0.024
 6374.00    1.14860   1.13786    0.025
 6375.00    1.13898   1.13963    0.025
 6376.00    1.13963   1.13683    0.026
 6377.00    1.14834   1.13831    0.026
 6378.00    1.14733   1.14332    0.026
 6379.00    1.13963   1.14365    0.025
 6380.00    1.13746   1.14082    0.025
 6381.00    1.13863   1.14265    0.026
 6382.00    1.14955   1.14612    0.026
 6383.00    1.16560   1.14443    0.026
 6384.00    1.17960   1.14210    0.026
 6385.00    1.19267   1.14488    0.025
 6386.00    1.19198   1.14615    0.025
 6387.00    1.18589   1.14196    0.025
 6388.00    1.17466   1.14137    0.025
 6389.00    1.16173   1.14579    0.024
 6390.00    1.14921   1.14443    0.025
 6391.00    1.13681   1.13831    0.025
 6392.00    1.14190   1.13991    0.025
 6393.00    1.15105   1.14538    0.025
 6394.00    1.16985   1.14159    0.025
 6395.00    1.19044   1.13503    0.025
 6396.00    1.18803   1.13930    0.025
 6397.00    1.18230   1.14465    0.025
 6398.00    1.16581   1.13829    0.025
 6399.00    1.14820   1.13314    0.025
 6400.00    1.13614   1.14028    0.025
 6401.00    1.12446   1.14355    0.025
 6402.00    1.13138   1.13501    0.026
 6403.00    1.13891   1.13388    0.027
 6404.00    1.15185   1.14317    0.027
 6405.00    1.16411   1.14254    0.027
 6406.00    1.15533   1.13292    0.027
 6407.00    1.14739   1.13530    0.026
 6408.00    1.15209   1.14442    0.026
 6409.00    1.15731   1.14130    0.025
 6410.00    1.16754   1.13392    0.025
 6411.00    1.17484   1.13824    0.025
 6412.00    1.16161   1.14458    0.025
 6413.00    1.15015   1.13983    0.025
 6414.00    1.14817   1.13509    0.025
 6415.00    1.14611   1.14046    0.024
 6416.00    1.14376   1.14454    0.024
 6417.00    1.13916   1.13969    0.024
 6418.00    1.12654   1.13730    0.024
 6419.00    1.11614   1.14191    0.024
 6420.00    1.11237   1.14415    0.025
 6421.00    1.11478   1.14114    0.025
 6422.00    1.13297   1.14012    0.025
 6423.00    1.15029   1.14300    0.025
 6424.00    1.16569   1.14475    0.025
 6425.00    1.17522   1.14331    0.026
 6426.00    1.17359   1.14219    0.026
 6427.00    1.16822   1.14416    0.026
 6428.00    1.15663   1.14578    0.027
 6429.00    1.15467   1.14474    0.027
 6430.00    1.16668   1.14459    0.027
 6431.00    1.17718   1.14726    0.027
 6432.00    1.18573   1.14726    0.027
 6433.00    1.18936   1.14443    0.026
 6434.00    1.18746   1.14615    0.026
 6435.00    1.18176   1.15068    0.026
 6436.00    1.17230   1.14838    0.026
 6437.00    1.16542   1.14329    0.026
 6438.00    1.16079   1.14694    0.025
 6439.00    1.15348   1.15266    0.025
 6440.00    1.14409   1.14890    0.025
 6441.00    1.13626   1.14352    0.025
 6442.00    1.12947   1.14808    0.025
 6443.00    1.12223   1.15301    0.025
 6444.00    1.11472   1.14780    0.025
 6445.00    1.10637   1.14303    0.025
 6446.00    1.09759   1.14803    0.025
 6447.00    1.08867   1.15145    0.025
 6448.00    1.07969   1.14624    0.025
 6449.00    1.07058   1.14351    0.026
 6450.00    1.06142   1.14757    0.026
 6451.00    1.06198   1.14864    0.026
 6452.00    1.06575   1.14405    0.026
 6453.00    1.06947   1.14321    0.026
 6454.00    1.07317   1.14673    0.026
 6455.00    1.07860   1.14677    0.026
 6456.00    1.08442   1.14259    0.026
 6457.00    1.08238   1.14201    0.026
 6458.00    1.07891   1.14516    0.025
 6459.00    1.06633   1.14680    0.025
 6460.00    1.05248   1.14418    0.025
 6461.00    1.06342   1.14187    0.025
 6462.00    1.07682   1.14414    0.024
 6463.00    1.09339   1.14730    0.024
 6464.00    1.11015   1.14521    0.024
 6465.00    1.10627   1.14197    0.024
 6466.00    1.10183   1.14483    0.025
 6467.00    1.10690   1.14861    0.024
 6468.00    1.11252   1.14550    0.024
 6469.00    1.13342   1.14118    0.024
 6470.00    1.15364   1.14436    0.025
 6471.00    1.16419   1.14845    0.025
 6472.00    1.17349   1.14540    0.026
 6473.00    1.17124   1.14040    0.026
 6474.00    1.17022   1.14241    0.026
 6475.00    1.17747   1.14623    0.026
 6476.00    1.18198   1.14290    0.027
 6477.00    1.17208   1.13677    0.026
 6478.00    1.15802   1.13786    0.026
 6479.00    1.12637   1.14159    0.026
 6480.00    1.10450   1.13718    0.026
 6481.00    1.11677   1.13018    0.026
 6482.00    1.12773   1.13103    0.025
 6483.00    1.13485   1.13367    0.024
 6484.00    1.14131   1.12776    0.024
 6485.00    1.14616   1.12096    0.024
 6486.00    1.15105   1.12213    0.024
 6487.00    1.15606   1.12313    0.024
 6488.00    1.15671   1.11602    0.024
 6489.00    1.14922   1.10999    0.024
 6490.00    1.13844   1.11166    0.024
 6491.00    1.12227   1.11201    0.025
 6492.00    1.11256   1.10523    0.025
 6493.00    1.11211   1.10048    0.025
 6494.00    1.11446   1.10267    0.025
 6495.00    1.12032   1.10330    0.025
 6496.00    1.11529   1.09814    0.025
 6497.00    1.09816   1.09519    0.025
 6498.00    1.09277   1.09816    0.025
 6499.00    1.09889   1.09984    0.025
 6500.00    1.11655   1.09718    0.026
 6501.00    1.14419   1.09604    0.026
 6502.00    1.16349   1.09926    0.026
 6503.00    1.17646   1.10222    0.025
 6504.00    1.18606   1.10284    0.025
 6505.00    1.19342   1.10309    0.026
 6506.00    1.19501   1.10548    0.025
 6507.00    1.19321   1.10906    0.025
 6508.00    1.19290   1.11184    0.025
 6509.00    1.19335   1.11264    0.024
 6510.00    1.18880   1.11368    0.024
 6511.00    1.18204   1.11710    0.024
 6512.00    1.17628   1.12054    0.024
 6513.00    1.17090   1.12087    0.024
 6514.00    1.17534   1.12075    0.024
 6515.00    1.18295   1.12388    0.024
 6516.00    1.19482   1.12682    0.024
 6517.00    1.20785   1.12597    0.024
 6518.00    1.21315   1.12555    0.025
 6519.00    1.21675   1.12874    0.025
 6520.00    1.20036   1.13040    0.025
 6521.00    1.18044   1.12826    0.025
 6522.00    1.16901   1.12834    0.026
 6523.00    1.15871   1.13176    0.026
 6524.00    1.16133   1.13191    0.026
 6525.00    1.16518   1.12893    0.026
 6526.00    1.17196   1.12991    0.026
 6527.00    1.17890   1.13324    0.026
 6528.00    1.18405   1.13210    0.000
 6529.00    1.18907   1.12889    0.000
 6530.00    1.18118   1.13035    0.000
 6531.00    1.17357   1.13298    0.000
 6532.00    1.17300   1.13085    0.000
 6533.00    1.17254   1.12769    0.000
 6534.00    1.17356   1.12895    0.000
 6535.00    1.17479   1.13030    0.000
 6536.00    1.17787   1.12728    0.000
 6537.00    1.18191   1.12410    0.000
 6538.00    1.19227   1.12465    0.000
 6539.00    1.20110   1.12442    0.000
 6540.00    1.20209   1.12024    0.000
 6541.00    1.20072   1.11634    0.000
 6542.00    1.18960   1.11589    0.000
 6543.00    1.17965   1.11449    0.000
 6544.00    1.17374   1.10873    0.000
 6545.00    1.17383   1.10289    0.000
 6546.00    1.19125   1.10144    0.000
 6547.00    1.20129   1.09992    0.000
 6548.00    1.19320   1.09238    0.000
 6549.00    1.18483   1.08345    0.000
 6550.00    1.17586   1.08116    0.000
 6551.00    1.17213   1.08082    0.000
 6552.00    1.17808   1.07173    0.000
 6553.00    1.18088   1.05947    0.000
 6554.00    1.17861   1.05735    0.000
 6555.00    1.16736   1.05949    0.000
 6556.00    1.14342   1.04937    0.000
 6557.00    1.12733   1.03479    0.000
 6558.00    1.12099   1.03474    0.000
 6559.00    1.12268   1.04033    0.000
 6560.00    1.13315   1.03001    0.000
 6561.00    1.13631   1.01520    0.000
 6562.00    1.13241   1.01921    0.000
 6563.00    1.12460   1.02838    0.000
 6564.00    1.11347   1.01858    0.000
 6565.00    1.10659   1.00624    0.000
 6566.00    1.10289   1.01540    0.000
 6567.00    1.11188   1.02706    0.000
 6568.00    1.12924   1.01863    0.000
 6569.00    1.14249   1.01072    0.000
 6570.00    1.15337   1.02391    0.000
 6571.00    1.15671   1.03596    0.000
 6572.00    1.15626   1.02957    0.000
 6573.00    1.14938   1.02643    0.000
 6574.00    1.13969   1.04055    0.000
 6575.00    1.14735   1.05067    0.000
 6576.00    1.16147   1.04776    0.000
 6577.00    1.18830   1.04951    0.000
 6578.00    1.21916   1.06091    0.000
 6579.00    1.23483   1.06660    0.000
 6580.00    1.24648   1.06575    0.000
 6581.00    1.23588   1.07025    0.000
 6582.00    1.22046   1.07873    0.000
 6583.00    1.21301   1.08082    0.000
 6584.00    1.20692   1.08040    0.000
 6585.00    1.20338   1.08555    0.000
 6586.00    1.20017   1.09153    0.000
 6587.00    1.18593   1.09086    0.000
 6588.00    1.17069   1.09017    0.000
 6589.00    1.16982   1.09538    0.000
 6590.00    1.16975   1.09940    0.000
 6591.00    1.16171   1.09654    0.000
 6592.00    1.15347   1.09542    0.000
 6593.00    1.14252   1.10074    0.000
 6594.00    1.13235   1.10376    0.000
 6595.00    1.13975   1.09973    0.000
 6596.00    1.14773   1.09830    0.000
 6597.00    1.16301   1.10369    0.000
 6598.00    1.17763   1.10633    0.000
 6599.00    1.18667   1.10192    0.000
 6600.00    1.19262   1.10054    0.000
 6601.00    1.17889   1.10602    0.000
 6602.00    1.16654   1.10856    0.000
 6603.00    1.16111   1.10413    0.000
 6604.00    1.15873   1.10281    0.000
 6605.00    1.16865   1.10834    0.000
 6606.00    1.17579   1.11111    0.000
 6607.00    1.17360   1.10701    0.000
 6608.00    1.16733   1.10559    0.000
 6609.00    1.14953   1.11092    0.025
 6610.00    1.13538   1.11374    0.025
 6611.00    1.13008   1.10980    0.025
 6612.00    1.13023   1.10845    0.025
 6613.00    1.14178   1.11365    0.025
 6614.00    1.15049   1.11603    0.025
 6615.00    1.15406   1.11182    0.026
 6616.00    1.15479   1.11058    0.026
 6617.00    1.15104   1.11562    0.025
 6618.00    1.15263   1.11724    0.025
 6619.00    1.16165   1.11266    0.025
 6620.00    1.16430   1.11148    0.025
 6621.00    1.15915   1.11592    0.024
 6622.00    1.15390   1.11661    0.024
 6623.00    1.14856   1.11204    0.024
 6624.00    1.14732   1.11095    0.024
 6625.00    1.14999   1.11427    0.024
 6626.00    1.14869   1.11401    0.024
 6627.00    1.14407   1.11002    0.024
 6628.00    1.14378   1.10926    0.024
 6629.00    1.14671   1.11123    0.024
 6630.00    1.15607   1.11012    0.024
 6631.00    1.16961   1.10720    0.024
 6632.00    1.17093   1.10716    0.025
 6633.00    1.16531   1.10791    0.025
 6634.00    1.15383   1.10614    0.025
 6635.00    1.13945   1.10463    0.025
 6636.00    1.14535   1.10554    0.025
 6637.00    1.15992   1.10524    0.026
 6638.00    1.14988   1.10298    0.026
 6639.00    1.13081   1.10300    0.025
 6640.00    1.12848   1.10485    0.025
 6641.00    1.13136   1.10355    0.025
 6642.00    1.14994   1.10093    0.025
 6643.00    1.17258   1.10242    0.025
 6644.00    1.17620   1.10493    0.024
 6645.00    1.17581   1.10263    0.024
 6646.00    1.17202   1.09964    0.024
 6647.00    1.16766   1.10212    0.024
 6648.00    1.17121   1.10499    0.024
 6649.00    1.17576   1.10190    0.023
 6650.00    1.15741   1.09860    0.024
 6651.00    1.13706   1.10150    0.024
 6652.00    1.12366   1.10436    0.024
 6653.00    1.11062   1.10081    0.024
 6654.00    1.12454   1.09736    0.024
 6655.00    1.13888   1.10012    0.024
 6656.00    1.14997   1.10261    0.025
 6657.00    1.15992   1.09902    0.025
 6658.00    1.14605   1.09579    0.025
 6659.00    1.13170   1.09815    0.025
 6660.00    1.11163   1.10001    0.025
 6661.00    1.09434   1.09672    0.025
 6662.00    1.10000   1.09415    0.025
 6663.00    1.10749   1.09611    0.025
 6664.00    1.12627   1.09718    0.025
 6665.00    1.14172   1.09438    0.025
 6666.00    1.14094   1.09288    0.025
 6667.00    1.13706   1.09453    0.024
 6668.00    1.12093   1.09461    0.024
 6669.00    1.10726   1.09243    0.024
 6670.00    1.10171   1.09234    0.024
 6671.00    1.10303   1.09362    0.024
 6672.00    1.12342   1.09251    0.024
 6673.00    1.14619   1.09111    0.024
 6674.00    1.17462   1.09254    0.025
 6675.00    1.19205   1.09325    0.025
 6676.00    1.18688   1.09099    0.025
 6677.00    1.17404   1.09047    0.025
 6678.00    1.14746   1.09310    0.024
 6679.00    1.13230   1.09319    0.025
 6680.00    1.13496   1.09020    0.025
 6681.00    1.14503   1.09044    0.026
 6682.00    1.16526   1.09362    0.026
 6683.00    1.16418   1.09319    0.026
 6684.00    1.13737   1.09018    0.025
 6685.00    1.12208   1.09093    0.025
 6686.00    1.11908   1.09376    0.025
 6687.00    1.12417   1.09302    0.025
 6688.00    1.13687   1.09067    0.025
 6689.00    1.13834   1.09150    0.025
 6690.00    1.13052   1.09326    0.024
 6691.00    1.12722   1.09243    0.024
 6692.00    1.12721   1.09107    0.024
 6693.00    1.12933   1.09160    0.024
 6694.00    1.13283   1.09203    0.024
 6695.00    1.13361   1.09121    0.024
 6696.00    1.13287   1.09070    0.000
 6697.00    1.12834   1.09081    0.000
 6698.00    1.12195   1.09014    0.000
 6699.00    1.11544   1.08929    0.000
 6700.00    1.10887   1.08916    0.000
 6701.00    1.10740   1.08893    0.000
 6702.00    1.10778   1.08773    0.000
 6703.00    1.09157   1.08669    0.000
 6704.00    1.07031   1.08636    0.000
 6705.00    1.05870   1.08602    0.000
 6706.00    1.04953   1.08496    0.000
 6707.00    1.05716   1.08352    0.000
 6708.00    1.06825   1.08245    0.000
 6709.00    1.09078   1.08236    0.000
 6710.00    1.11516   1.08208    0.000
 6711.00    1.14814   1.08014    0.000
 6712.00    1.18216   1.07807    0.000
 6713.00    1.18799   1.07856    0.000
 6714.00    1.19147   1.07948    0.000
 6715.00    1.18844   1.07718    0.000
 6716.00    1.18510   1.07423    0.000
 6717.00    1.16470   1.07547    0.000
 6718.00    1.14447   1.07774    0.000
 6719.00    1.14726   1.07542    0.000
 6720.00    1.14897   1.07193    0.000
 6721.00    1.12995   1.07377    0.000
 6722.00    1.11220   1.07715    0.000
 6723.00    1.10912   1.07522    0.000
 6724.00    1.10797   1.07159    0.000
 6725.00    1.12224   1.07353    0.000
 6726.00    1.13759   1.07746    0.000
 6727.00    1.15937   1.07620    0.000
 6728.00    1.17576   1.07270    0.000
 6729.00    1.16663   1.07408    0.000
 6730.00    1.16009   1.07790    0.000
 6731.00    1.16357   1.07741    0.000
 6732.00    1.16197   1.07414    0.000
 6733.00    1.14400   1.07446    0.000
 6734.00    1.12636   1.07766    0.000
 6735.00    1.10959   1.07788    0.000
 6736.00    1.09823   1.07488    0.000
 6737.00    1.09950   1.07404    0.000
 6738.00    1.10120   1.07646    0.000
 6739.00    1.10375   1.07724    0.000
 6740.00    1.11153   1.07460    0.000
 6741.00    1.12851   1.07295    0.000
 6742.00    1.13787   1.07475    0.000
 6743.00    1.13552   1.07591    0.000
 6744.00    1.13419   1.07374    0.000
 6745.00    1.13425   1.07193    0.000
 6746.00    1.13542   1.07344    0.000
 6747.00    1.13792   1.07476    0.000
 6748.00    1.14374   1.07317    0.000
 6749.00    1.15306   1.07178    0.000
 6750.00    1.15562   1.07326    0.000
 6751.00    1.15193   1.07463    0.000
 6752.00    1.15452   1.07365    0.000
 6753.00    1.16224   1.07288    0.026
 6754.00    1.15742   1.07439    0.027
 6755.00    1.14360   1.07582    0.028
 6756.00    1.12409   1.07535    0.028
 6757.00    1.10099   1.07492    0.027
 6758.00    1.09916   1.07632    0.027
 6759.00    1.10904   1.07792    0.027
 6760.00    1.14652   1.07783    0.028
 6761.00    1.19723   1.07726    0.029
 6762.00    1.24247   1.07829    0.030
 6763.00    1.28544   1.08014    0.030
 6764.00    1.30206   1.08034    0.030
 6765.00    1.30937   1.07928    0.030
 6766.00    1.31275   1.07975    0.030
 6767.00    1.31496   1.08182    0.029
 6768.00    1.30778   1.08223    0.029
 6769.00    1.29827   1.08070    0.029
 6770.00    1.27845   1.08060    0.028
 6771.00    1.25655   1.08264    0.027
 6772.00    1.23328   1.08314    0.027
 6773.00    1.20980   1.08141    0.026
 6774.00    1.20703   1.08093    0.026
 6775.00    1.20668   1.08260    0.025
 6776.00    1.18922   1.08295    0.025
 6777.00    1.17040   1.08134    0.025
 6778.00    1.19888   1.08076    0.026
 6779.00    1.22942   1.08180    0.027
 6780.00    1.21174   1.08174    0.027
 6781.00    1.19339   1.08045    0.027
 6782.00    1.16759   1.08006    0.027
 6783.00    1.14345   1.08047    0.027
 6784.00    1.14931   1.07989    0.027
 6785.00    1.15454   1.07895    0.027
 6786.00    1.15285   1.07897    0.027
 6787.00    1.15226   1.07902    0.027
 6788.00    1.16009   1.07802    0.027
 6789.00    1.16958   1.07737    0.027
 6790.00    1.18879   1.07787    0.028
 6791.00    1.20486   1.07795    0.028
 6792.00    1.20646   1.07681    0.027
 6793.00    1.20930   1.07628    0.027
 6794.00    1.21683   1.07718    0.026
 6795.00    1.21430   1.07762    0.026
 6796.00    1.17995   1.07656    0.026
 6797.00    1.15525   1.07593    0.026
 6798.00    1.15635   1.07701    0.026
 6799.00    1.16121   1.07800    0.026
 6800.00    1.17473   1.07717    0.026
 6801.00    1.17969   1.07620    0.026
 6802.00    1.16764   1.07720    0.027
 6803.00    1.15159   1.07879    0.027
 6804.00    1.12859   1.07826    0.026
 6805.00    1.11286   1.07680    0.026
 6806.00    1.10814   1.07753    0.027
 6807.00    1.10413   1.07965    0.027
 6808.00    1.10109   1.07949    0.027
 6809.00    1.10160   1.07759    0.026
 6810.00    1.10627   1.07785    0.026
 6811.00    1.11361   1.08031    0.026
 6812.00    1.12371   1.08072    0.026
 6813.00    1.14388   1.07864    0.027
 6814.00    1.17325   1.07824    0.027
 6815.00    1.17725   1.08067    0.027
 6816.00    1.16083   1.08183    0.026
 6817.00    1.13843   1.08001    0.026
 6818.00    1.11179   1.07880    0.025
 6819.00    1.11840   1.08068    0.025
 6820.00    1.14564   1.08257    0.025
 6821.00    1.16576   1.08146    0.025
 6822.00    1.18200   1.07949    0.025
 6823.00    1.19826   1.08030    0.026
 6824.00    1.21453   1.08257    0.026
 6825.00    1.20534   1.08240    0.026
 6826.00    1.18580   1.07999    0.026
 6827.00    1.19442   1.07947    0.026
 6828.00    1.21281   1.08151    0.027
 6829.00    1.23541   1.08217    0.028
 6830.00    1.25923   1.07986    0.028
 6831.00    1.23853   1.07817    0.028
 6832.00    1.20703   1.07938    0.028
 6833.00    1.18454   1.08045    0.027
 6834.00    1.16380   1.07877    0.026
 6835.00    1.18942   1.07652    0.026
 6836.00    1.22209   1.07659    0.026
 6837.00    1.23230   1.07752    0.027
 6838.00    1.23998   1.07678    0.027
 6839.00    1.23042   1.07477    0.027
 6840.00    1.21957   1.07378    0.028
 6841.00    1.17727   1.07410    0.027
 6842.00    1.13372   1.07429    0.026
 6843.00    1.12550   1.07313    0.026
 6844.00    1.11894   1.07147    0.026
 6845.00    1.16870   1.07096    0.026
 6846.00    1.21456   1.07176    0.026
 6847.00    1.19447   1.07164    0.026
 6848.00    1.17447   1.06981    0.027
 6849.00    1.15548   1.06855    0.027
 6850.00    1.13961   1.06950    0.026
 6851.00    1.14699   1.07018    0.027
 6852.00    1.15390   1.06856    0.027
 6853.00    1.15806   1.06687    0.026
 6854.00    1.16499   1.06758    0.026
 6855.00    1.18439   1.06864    0.025
 6856.00    1.19289   1.06750    0.025
 6857.00    1.16102   1.06577    0.025
 6858.00    1.12876   1.06605    0.025
 6859.00    1.09527   1.06715    0.025
 6860.00    1.07939   1.06667    0.025
 6861.00    1.10987   1.06524    0.025
 6862.00    1.13184   1.06505    0.025
 6863.00    1.13459   1.06602    0.025
 6864.00    1.13609   1.06630    0.026
 6865.00    1.13515   1.06536    0.026
 6866.00    1.14368   1.06482    0.027
 6867.00    1.16840   1.06563    0.027
 6868.00    1.17447   1.06659    0.028
 6869.00    1.15268   1.06624    0.028
 6870.00    1.13004   1.06557    0.028
 6871.00    1.10626   1.06622    0.027
 6872.00    1.10098   1.06760    0.027
 6873.00    1.11711   1.06784    0.026
 6874.00    1.13227   1.06737    0.026
 6875.00    1.14644   1.06790    0.026
 6876.00    1.14557   1.06933    0.026
 6877.00    1.13117   1.07001    0.025
 6878.00    1.12971   1.07003    0.025
 6879.00    1.13851   1.07059    0.025
 6880.00    1.13872   1.07182    0.025
 6881.00    1.13296   1.07271    0.025
 6882.00    1.13118   1.07323    0.025
 6883.00    1.13185   1.07398    0.025
 6884.00    1.13480   1.07508    0.025
 6885.00    1.13897   1.07598    0.025
 6886.00    1.12958   1.07668    0.025
 6887.00    1.11389   1.07759    0.025
 6888.00    1.11739   1.07886    0.026
 6889.00    1.12855   1.07976    0.026
 6890.00    1.15015   1.08014    0.026
 6891.00    1.17531   1.08092    0.027
 6892.00    1.17272   1.08258    0.026
 6893.00    1.16218   1.08370    0.026
 6894.00    1.14738   1.08348    0.026
 6895.00    1.13158   1.08367    0.026
 6896.00    1.14197   1.08563    0.026
 6897.00    1.15737   1.08724    0.026
 6898.00    1.16093   1.08648    0.025
 6899.00    1.16274   1.08572    0.025
 6900.00    1.15192   1.08753    0.025
 6901.00    1.13973   1.08972    0.025
 6902.00    1.13133   1.08887    0.025
 6903.00    1.12320   1.08708    0.025
 6904.00    1.13047   1.08825    0.025
 6905.00    1.13829   1.09082    0.026
 6906.00    1.15132   1.09026    0.026
 6907.00    1.16394   1.08778    0.026
 6908.00    1.16202   1.08802    0.026
 6909.00    1.15880   1.09056    0.026
 6910.00    1.13514   1.09046    0.026
 6911.00    1.11249   1.08772    0.026
 6912.00    1.09994   1.08710    0.026
 6913.00    1.08786   1.08934    0.026
 6914.00    1.07916   1.08965    0.025
 6915.00    1.07294   1.08700    0.025
 6916.00    1.08044   1.08593    0.025
 6917.00    1.09123   1.08783    0.025
 6918.00    1.11647   1.08830    0.025
 6919.00    1.13411   1.08581    0.025
 6920.00    1.12417   1.08472    0.025
 6921.00    1.12036   1.08660    0.025
 6922.00    1.13521   1.08709    0.025
 6923.00    1.14576   1.08465    0.025
 6924.00    1.14521   1.08371    0.025
 6925.00    1.13957   1.08585    0.025
 6926.00    1.12261   1.08644    0.025
 6927.00    1.11671   1.08394    0.026
 6928.00    1.13210   1.08307    0.026
 6929.00    1.14205   1.08556    0.027
 6930.00    1.14282   1.08638    0.027
 6931.00    1.14327   1.08378    0.027
 6932.00    1.14324   1.08283    0.027
 6933.00    1.14084   1.08551    0.027
 6934.00    1.13536   1.08662    0.027
 6935.00    1.13600   1.08412    0.026
 6936.00    1.14362   1.08296    0.026
 6937.00    1.14531   1.08546    0.026
 6938.00    1.14104   1.08684    0.026
 6939.00    1.13502   1.08472    0.026
 6940.00    1.12745   1.08336    0.025
 6941.00    1.10768   1.08532    0.025
 6942.00    1.07837   1.08691    0.025
 6943.00    1.08539   1.08539    0.025
 6944.00    1.11737   1.08390    0.026
 6945.00    1.13926   1.08529    0.026
 6946.00    1.15506   1.08704    0.026
 6947.00    1.15924   1.08622    0.027
 6948.00    1.15731   1.08472    0.027
 6949.00    1.16603   1.08562    0.027
 6950.00    1.17961   1.08755    0.027
 6951.00    1.18820   1.08744    0.028
 6952.00    1.19482   1.08598    0.028
 6953.00    1.18353   1.08649    0.028
 6954.00    1.16626   1.08870    0.027
 6955.00    1.16288   1.08922    0.027
 6956.00    1.16341   1.08768    0.026
 6957.00    1.13275   1.08773    0.026
 6958.00    1.09486   1.09023    0.026
 6959.00    1.09525   1.09139    0.026
 6960.00    1.10275   1.08962    0.026
 6961.00    1.11727   1.08886    0.026
 6962.00    1.13279   1.09150    0.026
 6963.00    1.14916   1.09336    0.026
 6964.00    1.16562   1.09117    0.026
 6965.00    1.19070   1.08928    0.026
 6966.00    1.21635   1.09192    0.027
 6967.00    1.20915   1.09442    0.027
 6968.00    1.20090   1.09171    0.027
 6969.00    1.18101   1.08856    0.028
 6970.00    1.16135   1.09104    0.028
 6971.00    1.14854   1.09422    0.028
 6972.00    1.13764   1.09150    0.027
 6973.00    1.15528   1.08749    0.027
 6974.00    1.16600   1.08938    0.027
 6975.00    1.11032   1.09291    0.027
 6976.00    1.06331   1.09078    0.026
 6977.00    1.07665   1.08664    0.026
 6978.00    1.08891   1.08784    0.026
 6979.00    1.09529   1.09142    0.026
 6980.00    1.09816   1.09025    0.025
 6981.00    1.08586   1.08664    0.025
 6982.00    1.08331   1.08734    0.025
 6983.00    1.11541   1.09081    0.026
 6984.00    1.14875   1.09056    0.026
 6985.00    1.18577   1.08760    0.026
 6986.00    1.20666   1.08786    0.027
 6987.00    1.18660   1.09114    0.027
 6988.00    1.17127   1.09165    0.027
 6989.00    1.16627   1.08907    0.028
 6990.00    1.15540   1.08869    0.028
 6991.00    1.13339   1.09170    0.028
 6992.00    1.11437   1.09281    0.028
 6993.00    1.10030   1.09035    0.027
 6994.00    1.09561   1.08910    0.027
 6995.00    1.10452   1.09168    0.027
 6996.00    1.12018   1.09322    0.027
 6997.00    1.14444   1.09071    0.027
 6998.00    1.15589   1.08849    0.027
 6999.00    1.15292   1.09065    0.027
 7000.00    1.14234   1.09276    0.027
 7001.00    1.12422   1.09020    0.026
 7002.00    1.11917   1.08683    0.026
 7003.00    1.12556   1.08851    0.026
 7004.00    1.13724   1.09158    0.027
 7005.00    1.15300   1.08936    0.027
 7006.00    1.14581   1.08472    0.027
 7007.00    1.12305   1.08563    0.027
 7008.00    1.12299   1.08997    0.028
 7009.00    1.13639   1.08861    0.028
 7010.00    1.12791   1.08305    0.028
 7011.00    1.10811   1.08312    0.028
 7012.00    1.10368   1.08846    0.028
 7013.00    1.10616   1.08823    0.029
 7014.00    1.09657   1.08234    0.028
 7015.00    1.08232   1.08152    0.028
 7016.00    1.09337   1.08737    0.027
 7017.00    1.11271   1.08857    0.027
 7018.00    1.10325   1.08312    0.027
 7019.00    1.08586   1.08134    0.027
 7020.00    1.11498   1.08688    0.027
 7021.00    1.15463   1.08966    0.027
 7022.00    1.15372   1.08562    0.027
 7023.00    1.14549   1.08310    0.027
 7024.00    1.14107   1.08733    0.027
 7025.00    1.13718   1.09125    0.027
 7026.00    1.15060   1.08950    0.028
 7027.00    1.16573   1.08686    0.028
 7028.00    1.15917   1.08902    0.028
 7029.00    1.15125   1.09324    0.029
 7030.00    1.15256   1.09407    0.029
 7031.00    1.15397   1.09208    0.030
 7032.00    1.11412   1.09222    0.029
 7033.00    1.07671   1.09582    0.028
 7034.00    1.10650   1.09846    0.028
 7035.00    1.13419   1.09751    0.028
 7036.00    1.13237   1.09648    0.028
 7037.00    1.12999   1.09882    0.028
 7038.00    1.12229   1.10191    0.028
 7039.00    1.11555   1.10198    0.028
 7040.00    1.11518   1.10052    0.028
 7041.00    1.11897   1.10117    0.028
 7042.00    1.14449   1.10349    0.028
 7043.00    1.17062   1.10407    0.028
 7044.00    1.19925   1.10248    0.028
 7045.00    1.21250   1.10147    0.028
 7046.00    1.17218   1.10237    0.029
 7047.00    1.14687   1.10291    0.029
 7048.00    1.16546   1.10116    0.029
 7049.00    1.18338   1.09855    0.030
 7050.00    1.19964   1.09787   -2.000
 7051.00    1.19967   1.09819   -2.000
 7052.00    1.16481   1.09634   -2.000
 7053.00    1.14326   1.09256   -2.000
 7054.00    1.14658   1.09047   -2.000
 7055.00    1.16156   1.09038   -2.000
 7056.00    1.19555   1.08867   -2.000
 7057.00    1.20686   1.08465   -2.000
 7058.00    1.18571   1.08167   -2.000
 7059.00    1.19013   1.08111   -2.000
 7060.00    1.22671   1.08004   -2.000
 7061.00    1.24883   1.07676   -2.000
 7062.00    1.25490   1.07313   -2.000
 7063.00    1.28770   1.07210   -2.000
 7064.00    1.34663   1.07231   -2.000
 7065.00    1.33134   1.07030   -2.000
 7066.00    1.25202   1.06642   -2.000
 7067.00    1.20307   1.06507   -2.000
 7068.00    1.17718   1.06637   -2.000
 7069.00    1.18526   1.06551   -2.000
 7070.00    1.21601   1.06161   -2.000
 7071.00    1.26886   1.05994   -2.000
 7072.00    1.33462   1.06187   -2.000
 7073.00    1.33678   1.06178   -2.000
 7074.00    1.30651   1.05783   -2.000
 7075.00    1.27864   1.05558   -2.000
 7076.00    1.25184   1.05750   -2.000
 7077.00    1.28005   1.05771   -2.000
 7078.00    1.32912   1.05351   -2.000
 7079.00    1.31245   1.05033   -2.000
 7080.00    1.27460   1.05174   -2.000
 7081.00    1.28555   1.05214   -2.000
 7082.00    1.30965   1.04806   -2.000
 7083.00    1.29052   1.04383   -2.000
 7084.00    1.26184   1.04403   -2.000
 7085.00    1.26415   1.04481   -2.000
 7086.00    1.27190   1.04154   -2.000
 7087.00    1.26167   1.03664   -2.000
 7088.00    1.24902   1.03562   -2.000
 7089.00    1.21626   1.03688   -2.000
 7090.00    1.18158   1.03481   -2.000
 7091.00    1.19417   1.03022   -2.000
 7092.00    1.20954   1.02805   -2.000
 7093.00    1.18497   1.02963   -2.000
 7094.00    1.15969   1.02938   -2.000
 7095.00    1.17236   1.02623   -2.000
 7096.00    1.18462   1.02331   -2.000
 7097.00    1.18666   1.02417   -2.000
 7098.00    1.18648   1.02565   -2.000
 7099.00    1.15688   1.02493   -2.000
 7100.00    1.12915   1.02198   -2.000
 7101.00    1.11805   1.02138   -2.000
 7102.00    1.10825   1.02368   -2.000
 7103.00    1.10689   1.02545   -2.000
 7104.00    1.10760   1.02340   -2.000
 7105.00    1.11889   1.02116   -2.000
 7106.00    1.12722   1.02306   -2.000
 7107.00    1.12340   1.02624   -2.000
 7108.00    1.11230   1.02552   -2.000
 7109.00    1.07642   1.02273   -2.000
 7110.00    1.05526   1.02369   -2.000
 7111.00    1.07642   1.02656   -2.000
 7112.00    1.08410   1.02662   -2.000
 7113.00    1.05871   1.02423   -2.000
 7114.00    1.05614   1.02456   -2.000
 7115.00    1.10186   1.02634   -2.000
 7116.00    1.12653   1.02604   -2.000
 7117.00    1.11250   1.02438   -2.000
 7118.00    1.10485   1.02487   -2.000
 7119.00    1.10744   1.02570   -2.000
 7120.00    1.13515   1.02429   -2.000
 7121.00    1.19827   1.02255   -2.000
 7122.00    1.22744   1.02385   -2.000
 7123.00    1.21449   1.02501   -2.000
 7124.00    1.19927   1.02244   -2.000
 7125.00    1.18158   1.01944   -2.000
 7126.00    1.17342   1.02132   -2.000
 7127.00    1.17447   1.02407   -2.000
 7128.00    1.17231   1.02157   -2.000
 7129.00    1.16744   1.01702   -2.000
 7130.00    1.14898   1.01835   -2.000
 7131.00    1.12034   1.02316   -2.000
 7132.00    1.14330   1.02189   -2.000
 7133.00    1.20021   1.01594   -2.000
 7134.00    1.17302   1.01593   -2.000
 7135.00    1.09739   1.02219   -2.000
 7136.00    1.11629   1.02312   -2.000
 7137.00    1.18263   1.01722   -2.000
 7138.00    1.21343   1.01532   -2.000
 7139.00    1.22881   1.02147   -2.000
 7140.00    1.20631   1.02497   -2.000
 7141.00    1.16969   1.02032   -2.000
 7142.00    1.14501   1.01631   -2.000
 7143.00    1.12408   1.02140   -2.000
 7144.00    1.08946   1.02687   -2.000
 7145.00    1.05123   1.02387   -2.000
 7146.00    1.06822   1.01921   -2.000
 7147.00    1.09711   1.02297   -2.000
 7148.00    1.14025   1.02898   -2.000
 7149.00    1.18582   1.02714   -2.000
 7150.00    1.17812   1.02225   -2.000
 7151.00    1.16353   1.02489   -2.000
 7152.00    1.17919   1.03116   -2.000
 7153.00    1.19760   1.03031   -2.000
 7154.00    1.18012   1.02502   -2.000
 7155.00    1.16067   1.02598   -2.000
 7156.00    1.14518   1.03271   -2.000
 7157.00    1.12981   1.03332   -2.000
 7158.00    1.11716   1.02758   -2.000
 7159.00    1.10913   1.02608   -2.000
 7160.00    1.20572   1.03259   -2.000
 7161.00    1.29856   1.03520   -2.000
 7162.00    1.34404   1.02999   -2.000
 7163.00    1.37764   1.02676   -2.000
 7164.00    1.30993   1.03192   -2.000
 7165.00    1.24229   1.03544   -2.000
 7166.00    1.17513   1.03124   -2.000
 7167.00    1.13637   1.02734   -2.000
 7168.00    1.23863   1.03092   -2.000
 7169.00    1.32166   1.03474   -2.000
 7170.00    1.32731   1.03136   -2.000
 7171.00    1.30326   1.02715   -2.000
 7172.00    1.17998   1.02942   -2.000
 7173.00    1.09331   1.03345   -2.000
 7174.00    1.10992   1.03086   -2.000
 7175.00    1.12392   1.02636   -2.000
 7176.00    1.13162   1.02732   -2.000
 7177.00    1.15526   1.03125   -2.000
 7178.00    1.21210   1.02970   -2.000
 7179.00    1.23675   1.02547   -2.000
 7180.00    1.20312   1.02580   -2.000
 7181.00    1.17713   1.02898   -2.000
 7182.00    1.16327   1.02769   -2.000
 7183.00    1.13145   1.02335   -2.000
 7184.00    1.07469   1.02337   -2.000
 7185.00    1.06420   1.02732   -2.000
 7186.00    1.11029   1.02674   -2.000
 7187.00    1.14132   1.02129   -2.000
 7188.00    1.15613   1.02024   -2.000
 7189.00    1.13988   1.02537   -2.000
 7190.00    1.09411   1.02657   -2.000
 7191.00    1.11070   1.02074   -2.000
 7192.00    1.17958   1.01799   -2.000
 7193.00    1.17952   1.02292   -2.000
 7194.00    1.12856   1.02637   -2.000
 7195.00    1.07356   1.02206   -2.000
 7196.00    1.01594   1.01773   -2.000
 7197.00    1.00321   1.02089   -2.000
 7198.00    1.01595   1.02594   -2.000
 7199.00    1.07691   1.02439   -2.000
 7200.00    1.16169   1.01928   -2.000
 7201.00    1.22663   1.01954   -2.000
 7202.00    1.28310   1.02529   -2.000
 7203.00    1.21772   1.02686   -2.000
 7204.00    1.10775   1.02234   -2.000
 7205.00    1.03505   1.02060   -2.000
 7206.00    0.97389   1.02521   -2.000
 7207.00    0.98746   1.02878   -2.000
 7208.00    1.02032   1.02647   -2.000
 7209.00    1.02640   1.02376   -2.000
 7210.00    1.02685   1.02590   -2.000
 7211.00    1.04485   1.03042   -2.000
 7212.00    1.06578   1.03140   -2.000
 7213.00    1.12704   1.02879   -2.000
 7214.00    1.19335   1.02845   -2.000
 7215.00    1.20551   1.03266   -2.000
 7216.00    1.21297   1.03613   -2.000
 7217.00    1.13438   1.03490   -2.000
 7218.00    1.05142   1.03321   -2.000
