###################################################################
## OUTPUT of StarlightChains_v04.for    [Cid@UFSC - 01/Apr/2007] ##
###################################################################

## Some input info
KUG0210-078._42_56.txt                   [arq_obs]
Base.CB07.vall.4m                        [arq_base]
Masks.EmLines.NEW.gm                     [arq_masks]
StCv04.C11.config                        [arq_config]
   66                                    [N_base]
    0                                    [N_YAV_components = # of components with extra extinction!]
    0                                    [i_FitPowerLaw (1/0 = Yes/No)]
-9.99                                    [alpha_PowerLaw]
CCM                                      [red_law_option]
 1.458241                                [q_norm = A(l_norm)/A(V)]

## (Re)Sampling Parameters
 3741.00                                 [l_ini (A)]
 7218.00                                 [l_fin (A)]
    1.00                                 [dl    (A)]     (OBS: dl_cushion =    50.00 A)

## Normalization info
 4020.00                                 [l_norm (A) - for base]
 4010.00                                 [llow_norm (A) - window for f_obs]
 4060.00                                 [lupp_norm (A) - window for f_obs]
1.079047E-17                             [fobs_norm (in input units)]

## S/N
 3691.00                                 [llow_SN (A) - window for S/N]
 7268.00                                 [lupp_SN (A) - window for S/N]
   2.804                                 [S/N in S/N window]
   4.407                                 [S/N in norm. window]
   0.008                                 [S/N_err in S/N window]
   0.013                                 [S/N_err in norm. window]
  1.0000                                 [fscale_chi2]

## etc...
    -2007795                             [idum_orig]
  2328                                   [NOl_eff]
  2118                                   [Nl_eff]
   210    NSIGMA                         [Ntot_cliped & clip_method]
 10465770                                [Nglobal_steps]
   7                                     [N_chains]
  39                                     [NEX0s_base = N_base in EX0s-fits]
 0   0   1      210   2.0   7.045E+03    [Clip-Bug, RC-Crash & Burn-In warning-flags, n_censored_weights, wei_nsig_threshold & wei_limit]
    82     81.997     81.368      0.629  [idt_all, wdt_TotTime, wdt_UsrTime & wdt_SysTime (sec)]

## Synthesis Results - Best model ##

 1.00949E-05                             [chi2/Nl_eff]
    19.19819                             [adev (%)]

    94.19895                             [sum-of-x (%)]
 2.65332E-18                             [Flux_tot (units of input spectrum!)]
 1.66185E-13                             [Mini_tot (???)]
 8.27742E-14                             [Mcor_tot (???)]

 381.50                                  [v0_min  (km/s)]
 317.86                                  [vd_min  (km/s)]
-1.0000                                  [AV_min  (mag)]
 0.0000                                  [YAV_min (mag)]

# j     x_j(%)      Mini_j(%)     Mcor_j(%)     age_j(yr)     Z_j      (L/M)_j    YAV?  Mstars   component_j        a/Fe...       SSP_chi2r SSP_adev(%)   SSP_AV   SSP_x(%)
  1      1.3377     2.0726E-03    4.1611E-03    1.000000E+06  0.00400  1.094E-02    0   1.0000   age020_m42            0.0000     1.0504E-05    19.3442   2.0760    83.8920
  2      0.0000     0.0000E+00    0.0000E+00    3.160000E+06  0.00400  4.007E-02    0   0.9999   age045_m42            0.0000     1.0469E-05    19.3724   1.4352    86.6214
  3      0.0000     0.0000E+00    0.0000E+00    5.010000E+06  0.00400  2.539E-02    0   0.9488   age055_m42            0.0000     1.0456E-05    19.3447   1.7184    85.8458
  4      0.0000     0.0000E+00    0.0000E+00    6.610000E+06  0.00400  2.620E-02    0   0.9220   age061_m42            0.0000     1.0423E-05    19.3846   1.3652    86.7591
  5      3.5292     4.5248E-03    8.0506E-03    1.000000E+07  0.00400  1.322E-02    0   0.8862   age070_m42            0.0000     1.0409E-05    19.5662   1.0885    88.8929
  6      0.5926     1.2741E-03    2.1925E-03    1.445000E+07  0.00400  7.883E-03    0   0.8571   age078_m42            0.0000     1.0412E-05    19.5291   1.3926    87.3626
  7      1.7677     5.7057E-03    9.3636E-03    2.512000E+07  0.00400  5.251E-03    0   0.8174   age090_m42            0.0000     1.0405E-05    19.6122   0.9665    89.1884
  8      0.0000     0.0000E+00    0.0000E+00    4.000000E+07  0.00400  3.649E-03    0   0.7851   age104_m42            0.0000     1.0380E-05    19.5758   0.7509    89.4699
  9      0.0000     0.0000E+00    0.0000E+00    5.500000E+07  0.00400  3.098E-03    0   0.7629   age110_m42            0.0000     1.0398E-05    19.5109   0.9158    88.8475
 10      0.0000     0.0000E+00    0.0000E+00    1.015200E+08  0.00400  2.228E-03    0   0.7207   age116_m42            0.0000     1.0392E-05    19.4687   0.9432    88.6086
 11      0.0000     0.0000E+00    0.0000E+00    2.861200E+08  0.00400  1.093E-03    0   0.6648   age125_m42            0.0000     1.0438E-05    20.0282   0.3932    90.4905
 12      0.0000     0.0000E+00    0.0000E+00    5.088000E+08  0.00400  6.597E-04    0   0.6365   age130_m42            0.0000     1.0395E-05    19.7936   0.3944    90.6516
 13      0.0000     0.0000E+00    0.0000E+00    1.434000E+09  0.00400  2.132E-04    0   0.5798   age139_m42            0.0000     1.0131E-05    19.2611  -0.5444    91.4882
 14      0.0000     0.0000E+00    0.0000E+00    4.250000E+09  0.00400  5.895E-05    0   0.5377   age158_m42            0.0000     1.0069E-05    18.9334  -1.0000    88.5249
 15      0.0000     0.0000E+00    0.0000E+00    7.500000E+09  0.00400  3.510E-05    0   0.5212   age171_m42            0.0000     1.0218E-05    19.7483  -1.0000    84.1326
 16      0.0000     0.0000E+00    0.0000E+00    1.300000E+10  0.00400  2.005E-05    0   0.5034   age193_m42            0.0000     1.0556E-05    21.3136  -1.0000    80.2985
 17     11.3227     1.2584E+01    1.2549E+01    1.800000E+10  0.00400  1.525E-05    0   0.4967   age213_m42            0.0000     1.0606E-05    21.6488  -1.0000    79.5278
 18      0.0000     0.0000E+00    0.0000E+00    1.000000E+06  0.00800  1.238E-02    0   1.0000   age020_m52            0.0000     1.0512E-05    19.3428   2.0746    84.0213
 19      0.0000     0.0000E+00    0.0000E+00    3.160000E+06  0.00800  3.074E-02    0   0.9966   age045_m52            0.0000     1.0491E-05    19.2912   2.0007    84.6550
 20      0.4357     2.7677E-04    5.2472E-04    5.010000E+06  0.00800  2.668E-02    0   0.9443   age055_m52            0.0000     1.0442E-05    19.2863   1.7887    85.5115
 21      0.0000     0.0000E+00    0.0000E+00    6.610000E+06  0.00800  2.136E-02    0   0.9177   age061_m52            0.0000     1.0320E-05    19.2790   0.5823    90.2286
 22      0.0371     5.1770E-05    9.1746E-05    1.000000E+07  0.00800  1.215E-02    0   0.8827   age070_m52            0.0000     1.0442E-05    19.7468   1.2579    89.0883
 23      0.0309     6.0018E-05    1.0305E-04    1.445000E+07  0.00800  8.717E-03    0   0.8552   age078_m52            0.0000     1.0419E-05    19.5319   1.3657    88.3154
 24     18.1575     5.5035E-02    9.0185E-02    2.512000E+07  0.00800  5.592E-03    0   0.8162   age090_m52            0.0000     1.0424E-05    19.7265   1.0363    89.9911
 25      0.0000     0.0000E+00    0.0000E+00    4.000000E+07  0.00800  3.896E-03    0   0.7841   age104_m52            0.0000     1.0431E-05    19.7475   0.9623    90.0203
 26      0.0055     4.3397E-05    6.2958E-05    1.015200E+08  0.00800  2.148E-03    0   0.7226   age116_m52            0.0000     1.0414E-05    19.5872   0.9138    89.2341
 27      0.0000     0.0000E+00    0.0000E+00    2.861200E+08  0.00800  9.925E-04    0   0.6683   age125_m52            0.0000     1.0394E-05    19.6910   0.4602    91.4983
 28      0.1973     1.0646E-02    1.3119E-02    9.047900E+08  0.00800  3.141E-04    0   0.6138   age135_m52            0.0000     1.0315E-05    19.4969  -0.2971    93.4779
 29      0.0000     0.0000E+00    0.0000E+00    1.434000E+09  0.00800  1.719E-04    0   0.5853   age139_m52            0.0000     1.0149E-05    19.3971  -0.9064    92.6571
 30      2.6545     5.7155E-01    6.4260E-01    2.500000E+09  0.00800  7.872E-05    0   0.5600   age150_m52            0.0000     1.0215E-05    19.5956  -1.0000    86.7361
 31      0.0000     0.0000E+00    0.0000E+00    4.250000E+09  0.00800  4.336E-05    0   0.5426   age158_m52            0.0000     1.0248E-05    19.6766  -1.0000    85.6168
 32      4.0753     2.1866E+00    2.3350E+00    6.250000E+09  0.00800  3.159E-05    0   0.5319   age166_m52            0.0000     1.0659E-05    21.4231  -1.0000    81.2796
 33      0.1859     2.3154E-01    2.3582E-01    1.300000E+10  0.00800  1.361E-05    0   0.5073   age193_m52            0.0000     1.2765E-05    28.1054  -1.0000    70.5981
 34      0.3293     5.6458E-01    5.6562E-01    1.800000E+10  0.00800  9.886E-06    0   0.4990   age213_m52            0.0000     1.3499E-05    29.4888  -1.0000    67.8057
 35      0.0000     0.0000E+00    0.0000E+00    1.000000E+06  0.02000  1.544E-02    0   1.0000   age020_m62            0.0000     1.0519E-05    19.3467   2.0687    84.2974
 36      0.0000     0.0000E+00    0.0000E+00    3.160000E+06  0.02000  3.762E-02    0   0.9858   age045_m62            0.0000     1.0485E-05    19.3304   2.0007    85.2191
 37      4.7814     2.4588E-03    4.6117E-03    5.010000E+06  0.02000  3.296E-02    0   0.9342   age055_m62            0.0000     1.0443E-05    19.3132   1.6890    86.4987
 38      0.0000     0.0000E+00    0.0000E+00    8.710000E+06  0.02000  1.154E-02    0   0.8861   age067_m62            0.0000     1.0557E-05    20.8854   0.6874    93.3130
 39      0.0592     1.3093E-04    2.2270E-04    1.445000E+07  0.02000  7.663E-03    0   0.8472   age078_m62            0.0000     1.0466E-05    20.2180   0.9025    91.3308
 40      0.0000     0.0000E+00    0.0000E+00    2.512000E+07  0.02000  4.532E-03    0   0.8099   age090_m62            0.0000     1.0480E-05    20.4047   0.9025    90.8426
 41      0.0000     0.0000E+00    0.0000E+00    5.500000E+07  0.02000  2.733E-03    0   0.7595   age110_m62            0.0000     1.0394E-05    19.6944   0.9353    89.8056
 42      6.7533     8.3611E-02    1.1725E-01    1.609000E+08  0.02000  1.369E-03    0   0.6985   age120_m62            0.0000     1.0403E-05    19.5979   0.8025    90.9345
 43      0.1204     2.2633E-03    3.0508E-03    2.861200E+08  0.02000  9.013E-04    0   0.6714   age125_m62            0.0000     1.0400E-05    19.5141   0.5778    92.5335
 44      0.0000     0.0000E+00    0.0000E+00    5.088000E+08  0.02000  5.028E-04    0   0.6449   age130_m62            0.0000     1.0406E-05    19.3629   0.2238    93.7348
 45      4.4434     3.1019E-01    3.8480E-01    9.047900E+08  0.02000  2.428E-04    0   0.6179   age135_m62            0.0000     1.0270E-05    19.1341  -0.3588    92.9333
 46      0.0000     0.0000E+00    0.0000E+00    1.434000E+09  0.02000  1.263E-04    0   0.5908   age139_m62            0.0000     1.0176E-05    18.9159  -0.8182    92.1094
 47      0.0000     0.0000E+00    0.0000E+00    2.500000E+09  0.02000  5.985E-05    0   0.5673   age150_m62            0.0000     1.0320E-05    19.4211  -1.0000    87.2597
 48      0.0000     0.0000E+00    0.0000E+00    4.250000E+09  0.02000  3.271E-05    0   0.5468   age158_m62            0.0000     1.1022E-05    22.3338  -1.0000    79.9875
 49      0.0000     0.0000E+00    0.0000E+00    1.000000E+10  0.02000  1.360E-05    0   0.5167   age181_m62            0.0000     1.2761E-05    27.1968  -1.0000    71.8711
 50      0.0000     0.0000E+00    0.0000E+00    1.800000E+10  0.02000  7.124E-06    0   0.5013   age213_m62            0.0000     1.4342E-05    30.0790  -1.0000    66.5848
 51      0.1099     7.1854E-05    1.4423E-04    1.000000E+06  0.05000  2.592E-02    0   0.9998   age020_m72            0.0000     1.0541E-05    19.3526   2.0518    84.5980
 52      0.0000     0.0000E+00    0.0000E+00    3.160000E+06  0.05000  4.845E-02    0   0.9577   age045_m72            0.0000     1.0467E-05    19.2970   1.9098    85.4790
 53      0.0000     0.0000E+00    0.0000E+00    5.010000E+06  0.05000  3.072E-02    0   0.9147   age055_m72            0.0000     1.0519E-05    20.1904   1.4530    88.6046
 54      0.0000     0.0000E+00    0.0000E+00    6.610000E+06  0.05000  1.455E-02    0   0.8877   age061_m72            0.0000     1.1047E-05    23.2663   0.7006    94.7415
 55      0.0000     0.0000E+00    0.0000E+00    1.000000E+07  0.05000  9.074E-03    0   0.8524   age070_m72            0.0000     1.0647E-05    21.0588   1.6133    88.5278
 56      5.2955     2.1119E-02    3.3505E-02    2.512000E+07  0.05000  4.250E-03    0   0.7902   age090_m72            0.0000     1.0570E-05    20.6308   1.3643    88.7715
 57      0.0000     0.0000E+00    0.0000E+00    4.000000E+07  0.05000  3.087E-03    0   0.7618   age104_m72            0.0000     1.0596E-05    20.8052   1.1560    89.6701
 58      0.0000     0.0000E+00    0.0000E+00    1.015200E+08  0.05000  1.700E-03    0   0.7096   age116_m72            0.0000     1.0476E-05    19.9281   0.9446    90.6227
 59      0.0000     0.0000E+00    0.0000E+00    2.861200E+08  0.05000  7.384E-04    0   0.6633   age125_m72            0.0000     1.0402E-05    19.4513   0.4618    93.0261
 60      0.0000     0.0000E+00    0.0000E+00    5.088000E+08  0.05000  3.819E-04    0   0.6372   age130_m72            0.0000     1.0315E-05    19.0426  -0.0204    93.9573
 61      0.6841     6.9179E-02    8.4862E-02    9.047900E+08  0.05000  1.676E-04    0   0.6110   age135_m72            0.0000     1.0321E-05    18.7345  -0.7372    92.7783
 62      3.7266     7.1476E-01    8.4292E-01    1.434000E+09  0.05000  8.837E-05    0   0.5874   age139_m72            0.0000     1.0376E-05    19.3620  -1.0000    88.3182
 63      1.6914     6.7726E-01    7.6117E-01    2.500000E+09  0.05000  4.233E-05    0   0.5598   age150_m72            0.0000     1.1111E-05    22.2785  -1.0000    80.6495
 64      0.0000     0.0000E+00    0.0000E+00    6.250000E+09  0.05000  1.435E-05    0   0.5249   age166_m72            0.0000     1.3463E-05    28.6235  -1.0000    69.4331
 65      0.0000     0.0000E+00    0.0000E+00    1.300000E+10  0.05000  6.513E-06    0   0.5036   age193_m72            0.0000     1.5890E-05    32.3917  -1.0000    63.7269
 66     21.8748     8.1901E+01    8.1311E+01    1.800000E+10  0.05000  4.527E-06    0   0.4945   age213_m72            0.0000     1.7560E-05    34.3069  -1.0000    59.9304


## Synthesis Results - Average & Chains ##

# j      x_j: min, <> & last-chain-values for 1 ...  7 chains
  1      1.3377      1.5640      1.6483      1.3872      1.3263      1.7747      1.0941      1.2545      0.8729
  2      0.0000      0.1992      0.7062      0.0000      0.1644      0.5066      0.5681      1.2546      0.2814
  3      0.0000      0.2235      0.0000      0.0000      0.0000      0.0883      0.1703      0.0000      1.2620
  4      0.0000      0.2127      0.9230      0.0000      0.0000      0.1392      0.7376      0.1366      0.6209
  5      3.5292      0.2483      0.7658      1.3779      0.7870      0.0000      0.4994      3.1823      0.9357
  6      0.5926      0.3061      1.5066      1.8499      0.7171      0.7206      0.4401      0.2013      0.0000
  7      1.7677      0.2197      0.0065      0.5236      1.3094      0.7242      1.8467      0.3551      0.6118
  8      0.0000      0.2042      1.3176      0.0296      0.0000      0.0802      0.0859      0.0485      0.2249
  9      0.0000      0.3220      1.3593      1.7712      2.8543      0.5804      0.9875      0.4519      1.2493
 10      0.0000      0.2022      0.0000      0.7597      1.9093      0.6709      0.8291      0.0000      0.2363
 11      0.0000      0.2117      0.6986      0.0215      0.0716      0.4896      0.4719      1.0648      0.8799
 12      0.0000      0.1376      0.0000      0.7492      0.1766      0.0000      0.2169      0.0000      0.2428
 13      0.0000      0.2169      0.7193      0.3124      0.0000      0.3629      0.1709      0.9204      0.9568
 14      0.0000      0.2170      0.1123      0.4640      0.0000      1.2966      0.1658      2.0679      0.1395
 15      0.0000      0.1973      0.5466      0.0000      0.0000      0.3633      0.7178      0.0000      0.3734
 16      0.0000     17.5146     15.9796     17.0338     17.7398     18.8889     16.9604     15.4018     15.6331
 17     11.3227     43.5175     32.5710     29.2003     29.5702     25.6185     30.0641     28.6921     32.6155
 18      0.0000      0.5643      1.2006      0.7351      0.2264      1.2263      0.8326      0.7937      0.1160
 19      0.0000      0.1903      0.0821      0.0000      0.0000      0.0540      1.3853      0.4928      0.1984
 20      0.4357      0.1963      0.2797      0.1150      0.4843      0.2510      0.3325      0.0000      0.5016
 21      0.0000      0.1772      0.5212      0.0000      1.0267      0.0000      0.0864      0.0000      0.2378
 22      0.0371      0.3042      0.0000      0.0664      0.5611      2.8165      0.0000      0.0000      0.4154
 23      0.0309      0.2270      0.0000      0.0000      1.0436      3.1690      0.6657      0.0000      0.1495
 24     18.1575      0.2526      0.0931      0.0287      1.9674      0.0000      0.8187      1.0711      0.4770
 25      0.0000      0.1917      0.2056      0.3390      0.0000      1.7545      0.0606      0.4593      0.1482
 26      0.0055      0.2144      0.3408      0.0000      1.1083      0.0000      0.2962      0.6446      0.3228
 27      0.0000      0.1940      0.0813      0.0000      0.0000      0.4982      0.1774      0.0839      0.0000
 28      0.1973      0.2661      1.0621      1.6234      0.2888      1.3248      0.5468      0.4990      0.0000
 29      0.0000      0.2331      0.0000      0.0000      0.1100      1.0725      0.3156      0.0000      0.2988
 30      2.6545      0.2311      0.6465      0.9736      0.6199      0.7354      0.9281      0.0000      0.0515
 31      0.0000      0.2662      0.0000      0.0000      0.8336      0.1830      0.2084      0.0000      1.5967
 32      4.0753      0.1922      0.0000      0.0000      0.2653      0.0000      0.0830      0.9407      0.0000
 33      0.1859      0.2032      0.3378      0.8339      0.2781      0.4178      0.3362      0.8639      0.0000
 34      0.3293     12.6663      8.9933      8.5394      7.9788      6.9549      9.4559     11.4200      8.6048
 35      0.0000      1.9343      2.0921      0.3714      1.5611      0.9102      2.4245      1.4435      1.4079
 36      0.0000      0.2758      0.0000      2.1616      0.9488      1.1583      1.2018      1.0125      0.6592
 37      4.7814      0.2460      0.0000      0.2636      0.7895      0.0000      0.2537      1.6262      0.0000
 38      0.0000      0.2074      1.0615      0.0000      0.0000      0.2730      0.2478      0.0000      1.7901
 39      0.0592      0.2807      1.5125      0.1930      0.7135      0.9618      1.2307      0.0000      1.9368
 40      0.0000      0.1879      0.8203      0.0000      0.2021      0.0000      0.2553      1.6887      0.4222
 41      0.0000      0.2063      0.7073      0.6941      0.1310      0.2687      0.9780      0.8784      0.2905
 42      6.7533      0.2347      0.6766      2.0159      0.5015      0.1392      0.6065      0.7801      0.2173
 43      0.1204      0.2018      1.2161      1.4144      0.4737      1.8661      0.0157      0.0000      0.4214
 44      0.0000      0.2769      0.6439      1.0603      0.6982      0.5500      0.3926      0.8012      1.3021
 45      4.4434      0.2740      0.4120      0.5540      0.4566      0.2670      0.8379      0.5876      0.8187
 46      0.0000      0.2240      0.8720      2.2474      0.0000      0.1334      0.8040      0.0000      0.3947
 47      0.0000      0.1716      0.5580      0.4279      0.0000      0.6313      0.2061      0.6764      0.7362
 48      0.0000      0.1460      0.0000      0.0000      0.1333      0.1269      0.2380      0.0000      0.4716
 49      0.0000      0.2008      0.0000      1.0769      0.1078      0.1860      0.0893      0.9722      0.4872
 50      0.0000      0.2315      0.0000      1.3916      0.0000      0.8144      1.6766      0.0000      0.1116
 51      0.1099      0.2166      0.0000      0.6885      0.5516      0.0000      0.6538      0.2285      1.8565
 52      0.0000      0.2373      0.1042      0.0000      1.2789      0.3891      0.2601      2.4740      0.5382
 53      0.0000      0.2166      0.6925      0.4250      1.8097      0.6778      0.3283      0.9159      0.5330
 54      0.0000      0.1790      0.0000      0.0000      0.0613      0.3360      0.3674      0.0000      0.1910
 55      0.0000      0.3037      0.7954      0.7742      1.2383      0.0000      0.0000      1.0096      0.5220
 56      5.2955      0.2103      0.3762      1.1872      1.6045      0.3572      1.3161      0.0253      0.0264
 57      0.0000      0.1677      1.2085      1.0681      0.5678      1.0147      0.6920      1.0804      0.0000
 58      0.0000      0.1852      0.6845      0.8021      0.0000      0.8122      0.2490      0.9736      0.5789
 59      0.0000      0.2434      0.3205      0.0479      0.7796      1.9210      0.0000      0.5997      0.3530
 60      0.0000      0.2335      0.1040      1.6290      0.0000      0.5457      0.0000      0.4300      1.4577
 61      0.6841      0.1744      0.0507      0.6481      0.2485      0.2086      0.2522      0.0000      0.4804
 62      3.7266      0.2019      1.1679      0.5195      0.3649      1.5582      0.1479      0.8620      0.9436
 63      1.6914      0.1861      0.0000      0.2629      0.3971      0.0005      0.2029      0.0000      1.1014
 64      0.0000      0.1569      0.3609      0.2857      0.0601      0.7797      0.0000      0.0000      0.0000
 65      0.0000      0.1571      0.0000      0.0922      0.2273      0.5714      1.5576      0.0000      0.0000
 66     21.8748      0.2815      1.7807      0.0000      1.6426      0.3379      0.9085      0.0000      0.5797

# j      m_j: min, <> & last-chain-values for 1 ...  7 chains
  1  4.1611E-03  5.4888E-03  6.9169E-03  6.1939E-03  5.8761E-03  8.4935E-03  4.3830E-03  5.6637E-03  3.8757E-03
  2  0.0000E+00  1.9081E-04  8.0905E-04  0.0000E+00  1.9890E-04  6.6189E-04  6.2128E-04  1.5463E-03  3.4111E-04
  3  0.0000E+00  3.2060E-04  0.0000E+00  0.0000E+00  0.0000E+00  1.7271E-04  2.7896E-04  0.0000E+00  2.2909E-03
  4  0.0000E+00  2.8740E-04  1.4911E-03  0.0000E+00  0.0000E+00  2.5645E-04  1.1376E-03  2.3748E-04  1.0614E-03
  5  8.0506E-03  6.3892E-04  2.3568E-03  4.5119E-03  2.5570E-03  0.0000E+00  1.4672E-03  1.0536E-02  3.0470E-03
  6  2.1925E-03  1.2778E-03  7.5201E-03  9.8246E-03  3.7791E-03  4.1024E-03  2.0972E-03  1.0812E-03  0.0000E+00
  7  9.3636E-03  1.3133E-03  4.6732E-05  3.9813E-03  9.8792E-03  5.9028E-03  1.2598E-02  2.7303E-03  4.6259E-03
  8  0.0000E+00  1.6869E-03  1.3015E-02  3.1133E-04  0.0000E+00  9.0298E-04  8.0961E-04  5.1580E-04  2.3507E-03
  9  0.0000E+00  3.0440E-03  1.5367E-02  2.1305E-02  3.4069E-02  7.4828E-03  1.0657E-02  5.4964E-03  1.4944E-02
 10  0.0000E+00  2.5106E-03  0.0000E+00  1.2004E-02  2.9934E-02  1.1363E-02  1.1753E-02  0.0000E+00  3.7123E-03
 11  0.0000E+00  4.9426E-03  1.9507E-02  6.3911E-04  2.1119E-03  1.5592E-02  1.2578E-02  3.1989E-02  2.5996E-02
 12  0.0000E+00  5.0986E-03  0.0000E+00  3.5311E-02  8.2607E-03  0.0000E+00  9.1731E-03  0.0000E+00  1.1378E-02
 13  0.0000E+00  2.2649E-02  8.9797E-02  4.1498E-02  0.0000E+00  5.1674E-02  2.0371E-02  1.2363E-01  1.2640E-01
 14  0.0000E+00  7.5987E-02  4.7044E-02  2.0673E-01  0.0000E+00  6.1920E-01  6.6257E-02  9.3161E-01  6.1822E-02
 15  0.0000E+00  1.1248E-01  3.7261E-01  0.0000E+00  0.0000E+00  2.8242E-01  4.6708E-01  0.0000E+00  2.6933E-01
 16  0.0000E+00  1.6883E+01  1.8418E+01  2.0890E+01  2.1588E+01  2.4831E+01  1.8662E+01  1.9099E+01  1.9066E+01
 17  1.2549E+01  5.4417E+01  4.8702E+01  4.6456E+01  4.6681E+01  4.3688E+01  4.2913E+01  4.6157E+01  5.1602E+01
 18  0.0000E+00  1.7499E-03  4.4521E-03  2.9003E-03  8.8632E-04  5.1862E-03  2.9474E-03  3.1665E-03  4.5504E-04
 19  0.0000E+00  2.3684E-04  1.2217E-04  0.0000E+00  0.0000E+00  9.1586E-05  1.9682E-03  7.8915E-04  3.1252E-04
 20  5.2472E-04  2.6674E-04  4.5440E-04  1.9876E-04  8.3088E-04  4.6522E-04  5.1576E-04  0.0000E+00  8.6241E-04
 21  0.0000E+00  2.9235E-04  1.0279E-03  0.0000E+00  2.1381E-03  0.0000E+00  1.6269E-04  0.0000E+00  4.9619E-04
 22  9.1746E-05  8.4851E-04  0.0000E+00  2.3562E-04  1.9759E-03  1.0714E-02  0.0000E+00  0.0000E+00  1.4660E-03
 23  1.0305E-04  8.5492E-04  0.0000E+00  0.0000E+00  4.9623E-03  1.6278E-02  2.8623E-03  0.0000E+00  7.1253E-04
 24  9.0185E-02  1.4157E-03  6.2382E-04  2.0483E-04  1.3918E-02  0.0000E+00  5.2366E-03  7.7218E-03  3.3820E-03
 25  0.0000E+00  1.4816E-03  1.8999E-03  3.3328E-03  0.0000E+00  1.8488E-02  5.3490E-04  4.5652E-03  1.4484E-03
 26  6.2958E-05  2.7685E-03  5.2632E-03  0.0000E+00  1.8071E-02  0.0000E+00  4.3663E-03  1.0711E-02  5.2750E-03
 27  0.0000E+00  5.0141E-03  2.5135E-03  0.0000E+00  0.0000E+00  1.7564E-02  5.2352E-03  2.7918E-03  0.0000E+00
 28  1.3119E-02  1.9968E-02  9.5281E-02  1.5496E-01  2.7355E-02  1.3555E-01  4.6824E-02  4.8162E-02  0.0000E+00
 29  0.0000E+00  3.0474E-02  0.0000E+00  0.0000E+00  1.8159E-02  1.9120E-01  4.7095E-02  0.0000E+00  4.9412E-02
 30  6.4260E-01  6.3125E-02  2.1113E-01  3.3830E-01  2.1375E-01  2.7393E-01  2.8933E-01  0.0000E+00  1.7781E-02
 31  0.0000E+00  1.2789E-01  0.0000E+00  0.0000E+00  5.0562E-01  1.1990E-01  1.1427E-01  0.0000E+00  9.7056E-01
 32  2.3350E+00  1.2427E-01  0.0000E+00  0.0000E+00  2.1651E-01  0.0000E+00  6.1259E-02  7.8232E-01  0.0000E+00
 33  2.3582E-01  2.9085E-01  5.7810E-01  1.5183E+00  5.0248E-01  8.1529E-01  5.4922E-01  1.5904E+00  0.0000E+00
 34  5.6562E-01  2.4546E+01  2.0839E+01  2.1054E+01  1.9520E+01  1.8380E+01  2.0917E+01  2.8470E+01  2.1098E+01
 35  0.0000E+00  4.8097E-03  6.2203E-03  1.1751E-03  4.9006E-03  3.0865E-03  6.8817E-03  4.6176E-03  4.4292E-03
 36  0.0000E+00  2.7742E-04  0.0000E+00  2.7669E-03  1.2050E-03  1.5891E-03  1.3801E-03  1.3105E-03  8.3905E-04
 37  4.6117E-03  2.6771E-04  0.0000E+00  3.6489E-04  1.0846E-03  0.0000E+00  3.1511E-04  2.2765E-03  0.0000E+00
 38  0.0000E+00  6.1155E-04  3.7417E-03  0.0000E+00  0.0000E+00  1.0976E-03  8.3371E-04  0.0000E+00  6.6767E-03
 39  2.2270E-04  1.1917E-03  7.6768E-03  1.0421E-03  3.8232E-03  5.5673E-03  5.9627E-03  0.0000E+00  1.0401E-02
 40  0.0000E+00  1.2894E-03  6.7294E-03  0.0000E+00  1.7507E-03  0.0000E+00  1.9993E-03  1.4905E-02  3.6651E-03
 41  0.0000E+00  2.2009E-03  9.0241E-03  9.4226E-03  1.7639E-03  3.9094E-03  1.1911E-02  1.2057E-02  3.9211E-03
 42  1.1725E-01  4.5971E-03  1.5849E-02  5.0241E-02  1.2402E-02  3.7174E-03  1.3562E-02  1.9660E-02  5.3862E-03
 43  3.0508E-03  5.7721E-03  4.1589E-02  5.1465E-02  1.7105E-02  7.2783E-02  5.1313E-04  0.0000E+00  1.5248E-02
 44  0.0000E+00  1.3634E-02  3.7916E-02  6.6432E-02  4.3405E-02  3.6936E-02  2.2067E-02  5.0753E-02  8.1123E-02
 45  3.8480E-01  2.6769E-02  4.8133E-02  6.8872E-02  5.6316E-02  3.5573E-02  9.3446E-02  7.3856E-02  1.0121E-01
 46  0.0000E+00  4.0234E-02  1.8725E-01  5.1352E-01  0.0000E+00  3.2680E-02  1.6481E-01  0.0000E+00  8.9691E-02
 47  0.0000E+00  6.2453E-02  2.4280E-01  1.9811E-01  0.0000E+00  3.1331E-01  8.5622E-02  3.1668E-01  3.3896E-01
 48  0.0000E+00  9.3698E-02  0.0000E+00  0.0000E+00  1.0800E-01  1.1107E-01  1.7438E-01  0.0000E+00  3.8294E-01
 49  0.0000E+00  2.9284E-01  0.0000E+00  1.9985E+00  1.9844E-01  3.6995E-01  1.4860E-01  1.8244E+00  8.9913E-01
 50  0.0000E+00  6.2534E-01  0.0000E+00  4.7834E+00  0.0000E+00  3.0006E+00  5.1702E+00  0.0000E+00  3.8151E-01
 51  1.4423E-04  3.2080E-04  0.0000E+00  1.2973E-03  1.0312E-03  0.0000E+00  1.1052E-03  4.3533E-04  3.4785E-03
 52  0.0000E+00  1.8007E-04  9.4583E-05  0.0000E+00  1.2253E-03  4.0269E-04  2.2534E-04  2.4154E-03  5.1680E-04
 53  0.0000E+00  2.4763E-04  9.4665E-04  6.1817E-04  2.6118E-03  1.0567E-03  4.2842E-04  1.3469E-03  7.7086E-04
 54  0.0000E+00  4.1937E-04  0.0000E+00  0.0000E+00  1.8122E-04  1.0732E-03  9.8241E-04  0.0000E+00  5.6605E-04
 55  0.0000E+00  1.0954E-03  3.4304E-03  3.5523E-03  5.6381E-03  0.0000E+00  0.0000E+00  4.6844E-03  2.3820E-03
 56  3.3505E-02  1.5010E-03  3.2111E-03  1.0782E-02  1.4459E-02  3.4774E-03  1.0724E-02  2.3252E-04  2.3821E-04
 57  0.0000E+00  1.5888E-03  1.3691E-02  1.2875E-02  6.7918E-03  1.3111E-02  7.4839E-03  1.3169E-02  0.0000E+00
 58  0.0000E+00  2.9684E-03  1.3117E-02  1.6355E-02  0.0000E+00  1.7751E-02  4.5542E-03  2.0071E-02  1.1737E-02
 59  0.0000E+00  8.3927E-03  1.3219E-02  2.1035E-03  3.3945E-02  9.0349E-02  0.0000E+00  2.6608E-02  1.5404E-02
 60  0.0000E+00  1.4956E-02  7.9697E-03  1.3277E-01  0.0000E+00  4.7669E-02  0.0000E+00  3.5436E-02  1.1815E-01
 61  8.4862E-02  2.4411E-02  8.4883E-03  1.1541E-01  4.3911E-02  3.9809E-02  4.0300E-02  0.0000E+00  8.5074E-02
 62  8.4292E-01  5.1528E-02  3.5640E-01  1.6867E-01  1.1756E-01  5.4230E-01  4.3086E-02  2.8300E-01  3.0466E-01
 63  7.6117E-01  9.4475E-02  0.0000E+00  1.6984E-01  2.5455E-01  3.5506E-04  1.1757E-01  0.0000E+00  7.0751E-01
 64  0.0000E+00  2.2028E-01  6.0611E-01  5.1044E-01  1.0648E-01  1.4932E+00  0.0000E+00  0.0000E+00  0.0000E+00
 65  0.0000E+00  4.6627E-01  0.0000E+00  3.4811E-01  8.5190E-01  2.3132E+00  5.2781E+00  0.0000E+00  0.0000E+00
 66  8.1311E+01  1.1805E+00  8.9298E+00  0.0000E+00  8.6967E+00  1.9328E+00  4.3489E+00  0.0000E+00  3.0757E+00

# AV, chi2 & Mass for <> & i_chain = 1 ...  7 solutions
AV      -1.0000     -0.9823     -1.0000     -1.0000     -1.0000     -0.9891     -1.0000     -1.0000     -1.0000
chi2 1.0095E-05  1.1354E-05  1.0170E-05  1.0150E-05  1.0104E-05  1.0103E-05  1.0222E-05  1.0127E-05  1.0156E-05
Mass 8.2774E-14  7.5130E-14  6.1356E-14  5.7665E-14  5.8114E-14  5.4593E-14  6.4273E-14  5.7029E-14  5.7987E-14
 381.50                                  [v0_min (km/s) before EX0s...]
 317.86                                  [vd_min (km/s) before EX0s...]


## Synthetic spectrum (Best Model) ##l_obs f_obs f_syn wei
 3478    [Nl_obs]
 3741.00   -0.78294   0.55950    0.000
 3742.00   -0.96101   0.56900    0.000
 3743.00   -1.49529   0.58139    0.000
 3744.00   -1.32190   0.59397    0.000
 3745.00   -0.73619   0.60325    0.000
 3746.00   -0.02979   0.60842    0.000
 3747.00    0.73791   0.60912   -1.000
 3748.00    0.49528   0.60356   -1.000
 3749.00   -0.19161   0.59370    0.000
 3750.00   -0.29414   0.58230    0.000
 3751.00   -0.17605   0.57044    0.000
 3752.00    0.56425   0.56115   -1.000
 3753.00    1.50396   0.55592   -1.000
 3754.00    1.24740   0.55621   -1.000
 3755.00    0.67028   0.56316   -1.000
 3756.00    0.09216   0.57487   -1.000
 3757.00   -0.48618   0.58965    0.000
 3758.00   -0.69687   0.60670    0.000
 3759.00   -0.84339   0.62499    0.000
 3760.00   -0.84090   0.64106    0.000
 3761.00   -0.81861   0.65342    0.000
 3762.00   -0.80227   0.66334    0.000
 3763.00   -0.78649   0.66947    0.000
 3764.00   -0.82390   0.67243    0.000
 3765.00   -0.86437   0.67312    0.000
 3766.00   -0.08303   0.67008    0.000
 3767.00    0.71394   0.66551   -1.000
 3768.00    1.04254   0.66030   -1.000
 3769.00    1.33575   0.65239   -1.000
 3770.00    0.76918   0.64344   -1.000
 3771.00    0.20185   0.63503   -1.000
 3772.00   -0.37540   0.62785    0.000
 3773.00   -0.85462   0.62376    0.000
 3774.00   -0.47325   0.62266    0.000
 3775.00   -0.00950   0.62494    0.000
 3776.00    0.98840   0.63306   -1.000
 3777.00    1.66849   0.64596   -1.000
 3778.00    0.74003   0.66079   -1.000
 3779.00    0.23563   0.67897   -1.000
 3780.00    1.46699   0.69982   -1.000
 3781.00    2.14487   0.72001   -1.000
 3782.00    0.94551   0.73912   -1.000
 3783.00    0.30960   0.75624   -1.000
 3784.00    1.28516   0.77085   -1.000
 3785.00    1.92953   0.78202   -1.000
 3786.00    1.76470   0.78787   -1.000
 3787.00    1.39100   0.79018   -1.000
 3788.00    0.57707   0.78847   -1.000
 3789.00    0.25155   0.78174   -1.000
 3790.00    0.82063   0.77166   -1.000
 3791.00    0.91672   0.75853   -1.000
 3792.00    0.25565   0.74340   -1.000
 3793.00   -0.46703   0.72614    0.000
 3794.00   -1.27625   0.70662    0.000
 3795.00   -1.45978   0.68670    0.000
 3796.00   -0.86995   0.66658    0.000
 3797.00   -0.32330   0.64527    0.000
 3798.00    0.17632   0.62433   -1.000
 3799.00    0.56003   0.60625   -1.000
 3800.00    0.83234   0.59133   -1.000
 3801.00    0.63347   0.58075   -1.000
 3802.00    0.03534   0.57589   -1.000
 3803.00   -0.14658   0.57807    0.000
 3804.00   -0.01792   0.58745    0.000
 3805.00    0.23235   0.60232   -1.000
 3806.00    0.56233   0.62110   -1.000
 3807.00    0.81532   0.64279   -1.000
 3808.00    1.02414   0.66638   -1.000
 3809.00    0.74768   0.68866   -1.000
 3810.00    0.22867   0.70823   -1.000
 3811.00   -0.10682   0.72538    0.000
 3812.00   -0.36294   0.73891    0.000
 3813.00   -0.51998   0.74880    0.000
 3814.00   -0.64028   0.75519    0.000
 3815.00   -0.86007   0.75746    0.000
 3816.00   -1.11114   0.75663    0.000
 3817.00   -1.04921   0.75342    0.000
 3818.00   -0.90518   0.74689    0.000
 3819.00   -0.68149   0.73796    0.000
 3820.00   -0.44074   0.72810    0.000
 3821.00   -0.18885   0.71799    0.000
 3822.00    0.06492   0.70851   -1.000
 3823.00    0.44557   0.69907   -1.000
 3824.00    0.84249   0.68918   -1.000
 3825.00    0.88781   0.68064   -1.000
 3826.00    0.90157   0.67330   -1.000
 3827.00    0.69036   0.66520   -1.000
 3828.00    0.46707   0.65632   -1.000
 3829.00    0.19206   0.64657   -1.000
 3830.00   -0.07554   0.63604    0.000
 3831.00    0.37005   0.62387   -1.000
 3832.00    0.78106   0.60884   -1.000
 3833.00    0.42396   0.59249   -1.000
 3834.00   -0.01525   0.57512    0.000
 3835.00   -1.47538   0.55714    0.000
 3836.00   -2.74201   0.54008    0.000
 3837.00   -2.37312   0.52395    0.000
 3838.00   -1.96092   0.51098    0.000
 3839.00   -1.27627   0.50306    0.000
 3840.00   -0.71679   0.49980    0.000
 3841.00   -0.77488   0.50308    0.000
 3842.00   -0.66609   0.51290    0.000
 3843.00    0.11072   0.52737   -1.000
 3844.00    0.59619   0.54713   -1.000
 3845.00    0.11306   0.57006   -1.000
 3846.00   -0.26141   0.59426    0.000
 3847.00   -0.33078   0.61993    0.000
 3848.00   -0.25626   0.64394    0.000
 3849.00    0.16383   0.66539    0.000
 3850.00    0.31094   0.68452    0.000
 3851.00   -0.10810   0.70047    0.000
 3852.00   -0.28773   0.71363    0.000
 3853.00   -0.03555   0.72320    0.000
 3854.00    0.30059   0.72980    0.000
 3855.00    0.76915   0.73427    0.000
 3856.00    0.74964   0.73690    0.000
 3857.00    0.05447   0.73852    0.000
 3858.00   -0.73648   0.73780    0.000
 3859.00   -1.64412   0.73604    0.000
 3860.00   -1.66125   0.73454    0.000
 3861.00   -0.72181   0.73252    0.000
 3862.00   -0.00469   0.73175    0.000
 3863.00    0.50180   0.73133    0.000
 3864.00    0.36306   0.73109    0.000
 3865.00   -0.31468   0.73263    0.000
 3866.00   -0.34579   0.73509    0.000
 3867.00    0.09871   0.73765    0.000
 3868.00    0.05794   0.73997    0.000
 3869.00   -0.29626   0.74162    0.000
 3870.00   -0.23936   0.74196    0.000
 3871.00    0.04987   0.74123    0.000
 3872.00    0.08426   0.73900    0.000
 3873.00   -0.00671   0.73595    0.000
 3874.00   -0.07422   0.73289    0.000
 3875.00   -0.13176   0.72876    0.000
 3876.00    0.04506   0.72429    0.000
 3877.00    0.30723   0.71968    0.000
 3878.00    0.59610   0.71502    0.000
 3879.00    0.89320   0.71108    0.000
 3880.00    0.59330   0.70631    0.000
 3881.00    0.14014   0.69942   -1.000
 3882.00   -0.16972   0.69140    0.000
 3883.00   -0.44962   0.68199    0.000
 3884.00   -0.36358   0.67179    0.000
 3885.00   -0.21719   0.65981    0.000
 3886.00   -0.22249   0.64468    0.000
 3887.00   -0.24658   0.62902    0.000
 3888.00    0.21811   0.61315   -1.000
 3889.00    0.72464   0.59774   -1.000
 3890.00    0.64808   0.58358   -1.000
 3891.00    0.54247   0.57142   -1.000
 3892.00    0.45852   0.56433   -1.000
 3893.00    0.37304   0.56198   -1.000
 3894.00    0.16549   0.56456   -1.000
 3895.00   -0.03206   0.57322    0.000
 3896.00   -0.02499   0.58665    0.000
 3897.00   -0.03093   0.60385    0.000
 3898.00   -0.19065   0.62231    0.000
 3899.00   -0.34745   0.64126    0.000
 3900.00   -0.48034   0.65997    0.000
 3901.00   -0.60412   0.67819    0.000
 3902.00   -0.67219   0.69479    0.000
 3903.00   -0.66325   0.70795    0.000
 3904.00   -0.28372   0.71998    0.000
 3905.00    0.07055   0.72991   -1.000
 3906.00    0.32592   0.73922   -1.000
 3907.00    0.37457   0.74809   -1.000
 3908.00   -0.25057   0.75499    0.000
 3909.00   -0.69188   0.76315    0.000
 3910.00   -0.62621   0.77058    0.000
 3911.00   -0.51571   0.77809    0.000
 3912.00   -0.29930   0.78729    0.000
 3913.00   -0.16838   0.79530    0.000
 3914.00   -0.21191   0.80288    0.000
 3915.00   -0.27352   0.80916    0.000
 3916.00   -0.36726   0.81309    0.000
 3917.00   -0.40705   0.81603    0.000
 3918.00   -0.36300   0.81597    0.000
 3919.00   -0.39930   0.81297    0.000
 3920.00   -0.54524   0.80830    0.000
 3921.00   -0.55585   0.80094    0.000
 3922.00   -0.40387   0.79291    0.000
 3923.00   -0.25240   0.78363    0.000
 3924.00   -0.10146   0.77332    0.000
 3925.00   -0.11842   0.76274    0.000
 3926.00   -0.29222   0.75141    0.000
 3927.00   -0.53792   0.74058    0.000
 3928.00   -0.84283   0.72845    0.000
 3929.00   -0.69627   0.71539    0.000
 3930.00   -0.22243   0.70077    0.000
 3931.00    0.16000   0.68410   -1.000
 3932.00    0.48424   0.66720   -1.000
 3933.00    0.41044   0.64914   -1.000
 3934.00    0.11511   0.63180   -1.000
 3935.00    0.08679   0.61615   -1.000
 3936.00    0.18772   0.60266   -1.000
 3937.00    0.14172   0.59340   -1.000
 3938.00    0.03429   0.58812   -1.000
 3939.00    0.00366   0.58833   -1.000
 3940.00    0.00050   0.59407    0.000
 3941.00   -0.05217   0.60369    0.000
 3942.00   -0.11981   0.61703    0.000
 3943.00    0.42625   0.63220   -1.000
 3944.00    1.12644   0.64858   -1.000
 3945.00    0.84691   0.66608   -1.000
 3946.00    0.36759   0.68260   -1.000
 3947.00    0.22893   0.69777   -1.000
 3948.00    0.14481   0.71146   -1.000
 3949.00   -0.04413   0.72383    0.000
 3950.00   -0.24559   0.73626    0.000
 3951.00    0.27317   0.74780   -1.000
 3952.00    0.85059   0.75664   -1.000
 3953.00    0.52916   0.76409   -1.000
 3954.00    0.16643   0.77099   -1.000
 3955.00   -0.04616   0.77632    0.000
 3956.00   -0.25426   0.77934    0.000
 3957.00   -0.32712   0.77892    0.000
 3958.00   -0.38333   0.77623    0.000
 3959.00   -0.12423   0.77209    0.000
 3960.00    0.12232   0.76404    0.000
 3961.00    0.22734   0.75135    0.000
 3962.00    0.33947   0.73560    0.000
 3963.00    0.50741   0.71704    0.000
 3964.00    0.61604   0.69527    0.000
 3965.00    0.37273   0.66956    0.000
 3966.00    0.15226   0.63977    0.000
 3967.00    0.03905   0.60852    0.000
 3968.00    0.01683   0.57711    0.000
 3969.00    0.34325   0.54572    0.000
 3970.00    0.58670   0.51624    0.000
 3971.00    0.56493   0.49031    0.000
 3972.00    0.47988   0.46983    0.000
 3973.00    0.22343   0.45659    0.000
 3974.00    0.03840   0.45139    0.000
 3975.00    0.01922   0.45518    0.000
 3976.00    0.14086   0.46776    0.000
 3977.00    0.54535   0.48808    0.000
 3978.00    0.70434   0.51478    0.000
 3979.00    0.43390   0.54606    0.000
 3980.00    0.26686   0.58038    0.000
 3981.00    0.25812   0.61500   -1.000
 3982.00    0.23033   0.64853   -1.000
 3983.00    0.17695   0.68034   -1.000
 3984.00    0.00733   0.70893   -1.000
 3985.00   -0.29994   0.73462    0.000
 3986.00   -0.18001   0.75629    0.000
 3987.00    0.38600   0.77437   -1.000
 3988.00    0.26598   0.79075   -1.000
 3989.00   -0.48591   0.80409    0.000
 3990.00   -0.47207   0.81592    0.000
 3991.00    0.16345   0.82634   -1.000
 3992.00    0.64419   0.83489   -1.000
 3993.00    1.01433   0.84337   -1.000
 3994.00    0.91475   0.84940   -1.000
 3995.00    0.52066   0.85445   -1.000
 3996.00    0.30913   0.85890   -1.000
 3997.00    0.19763   0.86183   -1.000
 3998.00    0.12476   0.86466   -1.000
 3999.00    0.07029   0.86663   -1.000
 4000.00    0.14582   0.86837   -1.000
 4001.00    0.27479   0.86978   -1.000
 4002.00    0.22320   0.87129   -1.000
 4003.00    0.10821   0.87312   -1.000
 4004.00    0.32607   0.87497   -1.000
 4005.00    0.64256   0.87589   -1.000
 4006.00    1.03338   0.87625   -1.000
 4007.00    1.44247   0.87671   -1.000
 4008.00    1.20580   0.87644   -1.000
 4009.00    0.84075   0.87554   -1.000
 4010.00    0.29434   0.87425   -1.000
 4011.00   -0.28025   0.87414    0.000
 4012.00    0.11698   0.87540   -1.000
 4013.00    0.62595   0.87786   -1.000
 4014.00    1.04056   0.88131   -1.000
 4015.00    1.44788   0.88570   -1.000
 4016.00    1.33014   0.89089   -1.000
 4017.00    1.19029   0.89560   -1.000
 4018.00    1.15333   0.90079   -1.000
 4019.00    1.11432   0.90554   -1.000
 4020.00    0.94459   0.90922   -1.000
 4021.00    0.78632   0.91181   -1.000
 4022.00    0.83000   0.91258   -1.000
 4023.00    0.86839   0.91273   -1.000
 4024.00    0.84992   0.91143   -1.000
 4025.00    0.85347   0.90864   -1.000
 4026.00    1.02420   0.90529   -1.000
 4027.00    1.16322   0.90111   -1.000
 4028.00    1.11944   0.89661   -1.000
 4029.00    1.03010   0.89125   -1.000
 4030.00    0.73191   0.88513   -1.000
 4031.00    0.47121   0.87943   -1.000
 4032.00    0.35115   0.87428   -1.000
 4033.00    0.31792   0.86931   -1.000
 4034.00    0.55695   0.86511   -1.000
 4035.00    0.86543   0.86117   -1.000
 4036.00    1.35866   0.85894   -1.000
 4037.00    1.51645   0.85882   -1.000
 4038.00    0.90825   0.86030   -1.000
 4039.00    0.46366   0.86442   -1.000
 4040.00    0.34249   0.86935   -1.000
 4041.00    0.36917   0.87518   -1.000
 4042.00    0.65058   0.88128   -1.000
 4043.00    0.90945   0.88549   -1.000
 4044.00    1.13432   0.88746   -1.000
 4045.00    1.03992   0.88613   -1.000
 4046.00    0.52231   0.88268   -1.000
 4047.00    0.39979   0.87908   -1.000
 4048.00    0.73853   0.87420   -1.000
 4049.00    1.00000   0.86932   -1.000
 4050.00    1.18192   0.86529   -1.000
 4051.00    1.23826   0.86270   -1.000
 4052.00    1.18055   0.86288   -1.000
 4053.00    1.21818   0.86497   -1.000
 4054.00    1.33213   0.86870   -1.000
 4055.00    1.28758   0.87244   -1.000
 4056.00    1.13143   0.87505   -1.000
 4057.00    1.19956   0.87600   -1.000
 4058.00    1.40621   0.87573   -1.000
 4059.00    1.33290   0.87434   -1.000
 4060.00    1.10853   0.87165   -1.000
 4061.00    1.06167   0.86792   -1.000
 4062.00    1.09801   0.86271   -1.000
 4063.00    1.27509   0.85716   -1.000
 4064.00    1.50903   0.85194   -1.000
 4065.00    1.39908   0.84778   -1.000
 4066.00    1.17054   0.84396   -1.000
 4067.00    1.18754   0.84040   -1.000
 4068.00    1.27584   0.83771   -1.000
 4069.00    1.07017   0.83603   -1.000
 4070.00    0.79390   0.83532   -1.000
 4071.00    0.76140   0.83490   -1.000
 4072.00    0.77614   0.83601   -1.000
 4073.00    0.74313   0.83767   -1.000
 4074.00    0.70292   0.83825   -1.000
 4075.00    0.61341   0.83824   -1.000
 4076.00    0.51845   0.83726   -1.000
 4077.00    0.82461   0.83559   -1.000
 4078.00    1.16015   0.83393   -1.000
 4079.00    1.02347   0.83245   -1.000
 4080.00    0.86872   0.83266   -1.000
 4081.00    0.65716   0.83348   -1.000
 4082.00    0.45737   0.83416   -1.000
 4083.00    0.71297   0.83606   -1.000
 4084.00    0.96665   0.83946   -1.000
 4085.00    1.18873   0.84460   -1.000
 4086.00    1.36430   0.85078   -1.000
 4087.00    1.06111   0.85665   -1.000
 4088.00    0.80898   0.86210   -1.000
 4089.00    0.93155   0.86633   -1.000
 4090.00    1.05163   0.86906   -1.000
 4091.00    1.15778   0.87115   -1.000
 4092.00    1.22738   0.87135    0.000
 4093.00    1.13340   0.86985    0.000
 4094.00    1.07852   0.86603    0.000
 4095.00    1.16728   0.85842    0.000
 4096.00    1.17657   0.84775    0.000
 4097.00    0.94145   0.83362    0.000
 4098.00    0.84019   0.81698    0.000
 4099.00    1.08878   0.79775    0.000
 4100.00    1.15427   0.77618    0.000
 4101.00    0.80858   0.75369    0.000
 4102.00    0.65527   0.73103    0.000
 4103.00    0.87634   0.71049    0.000
 4104.00    0.99769   0.69322    0.000
 4105.00    0.94985   0.68017    0.000
 4106.00    0.96240   0.67208    0.000
 4107.00    1.06472   0.66906    0.000
 4108.00    1.01850   0.67130    0.000
 4109.00    0.77823   0.67904    0.000
 4110.00    0.64586   0.69173    0.000
 4111.00    0.63771   0.70687    0.000
 4112.00    0.67019   0.72320    0.000
 4113.00    0.74393   0.74031   -1.000
 4114.00    0.88203   0.75629   -1.000
 4115.00    1.07776   0.77105   -1.000
 4116.00    1.09904   0.78438   -1.000
 4117.00    0.98268   0.79594   -1.000
 4118.00    0.87406   0.80563   -1.000
 4119.00    0.77083   0.81344   -1.000
 4120.00    0.62647   0.82019    0.087
 4121.00    0.45709   0.82510    0.033
 4122.00    0.77014   0.82846    0.028
 4123.00    1.33948   0.83073    0.028
 4124.00    1.23262   0.83247    0.028
 4125.00    0.81397   0.83332    0.029
 4126.00    0.93828   0.83340    0.029
 4127.00    1.27819   0.83406    0.029
 4128.00    1.70807   0.83388    0.029
 4129.00    2.16841   0.83341    0.029
 4130.00    1.75817   0.83211    0.029
 4131.00    1.10024   0.83027    0.028
 4132.00    1.10666   0.82771    0.029
 4133.00    1.26904   0.82438    0.029
 4134.00    1.16444   0.82100    0.029
 4135.00    1.00944   0.81811    0.029
 4136.00    1.02290   0.81686    0.028
 4137.00    1.06095   0.81587    0.028
 4138.00    0.86563   0.81656    0.028
 4139.00    0.64551   0.81768    0.029
 4140.00    0.29489   0.82010    0.028
 4141.00   -0.06476   0.82255    0.000
 4142.00    0.04640   0.82390    0.027
 4143.00    0.17380   0.82436    0.027
 4144.00    0.67490   0.82262    0.027
 4145.00    1.15009   0.82057    0.027
 4146.00    0.74451   0.81733    0.027
 4147.00    0.36130   0.81330    0.027
 4148.00    0.32393   0.80950    0.027
 4149.00    0.29606   0.80559    0.027
 4150.00    0.36196   0.80242    0.026
 4151.00    0.43164   0.80133    0.026
 4152.00    0.52814   0.80214    0.026
 4153.00    0.57174   0.80349    0.026
 4154.00    0.32654   0.80445    0.026
 4155.00    0.12823   0.80577    0.025
 4156.00    0.13493   0.80668    0.025
 4157.00    0.25179   0.80746    0.025
 4158.00    0.76484   0.80939    0.025
 4159.00    1.14398   0.81127    0.025
 4160.00    1.11907   0.81404    0.025
 4161.00    0.98731   0.81674    0.025
 4162.00    0.58113   0.82063    0.025
 4163.00    0.30580   0.82488    0.025
 4164.00    0.31951   0.82868    0.025
 4165.00    0.34777   0.83285    0.025
 4166.00    0.40391   0.83589    0.025
 4167.00    0.53097   0.83777    0.025
 4168.00    0.77657   0.83812    0.025
 4169.00    1.00247   0.83755    0.025
 4170.00    1.19952   0.83557    0.025
 4171.00    1.25721   0.83171    0.025
 4172.00    1.13542   0.82665    0.025
 4173.00    1.09730   0.82098    0.026
 4174.00    1.15411   0.81491    0.026
 4175.00    1.08173   0.80894    0.026
 4176.00    0.88004   0.80361    0.026
 4177.00    0.68576   0.79845    0.026
 4178.00    0.49802   0.79413    0.026
 4179.00    0.52279   0.79077    0.026
 4180.00    0.71284   0.78883    0.026
 4181.00    0.74002   0.78845    0.026
 4182.00    0.65582   0.78905    0.026
 4183.00    0.84579   0.79109    0.026
 4184.00    1.20008   0.79346    0.026
 4185.00    1.23905   0.79641    0.026
 4186.00    1.11310   0.79945    0.026
 4187.00    0.89510   0.80189    0.026
 4188.00    0.63535   0.80460    0.026
 4189.00    0.61470   0.80686    0.026
 4190.00    0.68734   0.80911    0.026
 4191.00    0.72335   0.81051    0.026
 4192.00    0.74718   0.81207    0.026
 4193.00    0.51855   0.81351    0.025
 4194.00    0.21955   0.81366    0.025
 4195.00    0.53271   0.81374    0.026
 4196.00    0.98631   0.81294    0.026
 4197.00    1.14111   0.81171    0.026
 4198.00    1.24101   0.80924    0.026
 4199.00    1.00623   0.80599    0.026
 4200.00    0.72413   0.80247    0.026
 4201.00    0.86752   0.79788    0.026
 4202.00    1.05430   0.79350    0.025
 4203.00    0.87922   0.78973    0.025
 4204.00    0.68056   0.78709    0.025
 4205.00    0.92584   0.78589    0.024
 4206.00    1.18425   0.78670    0.024
 4207.00    1.11862   0.78928    0.025
 4208.00    1.05934   0.79322    0.025
 4209.00    1.18671   0.79818    0.025
 4210.00    1.28130   0.80371    0.025
 4211.00    0.89882   0.80928    0.024
 4212.00    0.57059   0.81471    0.024
 4213.00    0.75544   0.81932    0.024
 4214.00    0.95530   0.82247    0.025
 4215.00    1.25845   0.82440    0.024
 4216.00    1.48557   0.82541    0.024
 4217.00    1.30865   0.82615    0.024
 4218.00    1.14004   0.82634    0.024
 4219.00    1.00692   0.82634    0.024
 4220.00    0.93896   0.82622    0.023
 4221.00    1.10053   0.82629    0.023
 4222.00    1.17382   0.82519    0.023
 4223.00    0.98570   0.82323    0.023
 4224.00    0.74378   0.82005    0.023
 4225.00    0.36607   0.81484    0.023
 4226.00    0.12150   0.80807    0.023
 4227.00    0.16624   0.79930    0.023
 4228.00    0.18213   0.79025    0.023
 4229.00    0.14364   0.78090    0.022
 4230.00    0.22836   0.77271    0.022
 4231.00    0.51593   0.76649    0.021
 4232.00    0.79493   0.76257    0.021
 4233.00    1.06156   0.76153    0.021
 4234.00    1.06264   0.76354    0.021
 4235.00    0.72659   0.76794    0.021
 4236.00    0.49766   0.77350    0.021
 4237.00    0.38858   0.78074    0.021
 4238.00    0.39051   0.78768    0.021
 4239.00    0.50199   0.79348    0.021
 4240.00    0.52114   0.79864    0.021
 4241.00    0.45995   0.80364    0.021
 4242.00    0.46371   0.80795    0.021
 4243.00    0.51728   0.81264    0.022
 4244.00    0.58282   0.81833    0.023
 4245.00    0.65643   0.82302    0.023
 4246.00    0.59479   0.82780    0.023
 4247.00    0.45329   0.83159    0.023
 4248.00    0.48053   0.83404    0.023
 4249.00    0.59465   0.83503    0.023
 4250.00    0.47783   0.83394    0.023
 4251.00    0.25796   0.83136    0.023
 4252.00    0.46437   0.82711    0.023
 4253.00    0.83422   0.82208    0.024
 4254.00    0.98476   0.81603    0.024
 4255.00    1.06381   0.80966    0.023
 4256.00    1.21819   0.80437    0.023
 4257.00    1.39313   0.80037    0.023
 4258.00    1.34315   0.79734    0.024
 4259.00    1.24278   0.79529    0.024
 4260.00    1.16096   0.79435    0.024
 4261.00    1.08246   0.79523    0.024
 4262.00    1.03820   0.79698    0.024
 4263.00    0.99863   0.79912    0.024
 4264.00    0.64400   0.80228    0.024
 4265.00    0.25861   0.80605    0.023
 4266.00    0.08144   0.81030    0.023
 4267.00   -0.08300   0.81313    0.000
 4268.00    0.19858   0.81530    0.023
 4269.00    0.49202   0.81624    0.023
 4270.00    0.75287   0.81537    0.023
 4271.00    1.00910   0.81253    0.023
 4272.00    1.14330   0.80750    0.023
 4273.00    1.24617   0.80099    0.023
 4274.00    0.91828   0.79264    0.023
 4275.00    0.60912   0.78439    0.023
 4276.00    0.47015   0.77682    0.023
 4277.00    0.36001   0.77120    0.023
 4278.00    0.44202   0.76810    0.023
 4279.00    0.49002   0.76729    0.023
 4280.00    0.36196   0.76855    0.023
 4281.00    0.38577   0.77215    0.023
 4282.00    1.04359   0.77740   -2.000
 4283.00    1.61825   0.78273   -2.000
 4284.00    1.90586   0.78768   -2.000
 4285.00    2.04562   0.79139   -2.000
 4286.00    1.75563   0.79359   -2.000
 4287.00    1.39517   0.79379   -2.000
 4288.00    0.85988   0.79229   -2.000
 4289.00    0.42551   0.78828   -2.000
 4290.00    0.20687   0.78346   -2.000
 4291.00    0.12564   0.77827   -2.000
 4292.00    0.29954   0.77268   -2.000
 4293.00    0.50897   0.76775   -2.000
 4294.00    0.77606   0.76209   -2.000
 4295.00    0.95608   0.75757   -2.000
 4296.00    1.01224   0.75334   -2.000
 4297.00    1.04660   0.74917   -2.000
 4298.00    1.05369   0.74488    0.022
 4299.00    1.06327   0.73955    0.022
 4300.00    1.07559   0.73403    0.022
 4301.00    1.02012   0.72752    0.022
 4302.00    0.89867   0.72033    0.022
 4303.00    0.78575   0.71183    0.021
 4304.00    0.68013   0.70328    0.022
 4305.00    0.61730   0.69448    0.022
 4306.00    0.58680   0.68604    0.021
 4307.00    0.60237   0.67872    0.021
 4308.00    0.64852   0.67225    0.021
 4309.00    0.58959   0.66786    0.021
 4310.00    0.46956   0.66548    0.022
 4311.00    0.42698   0.66553    0.021
 4312.00    0.42365   0.66801    0.021
 4313.00    0.62046   0.67348    0.020
 4314.00    0.90508   0.68138    0.020
 4315.00    0.85650   0.69249    0.020
 4316.00    0.68240   0.70684    0.020
 4317.00    0.49235   0.72286    0.021
 4318.00    0.29719   0.74067    0.021
 4319.00    0.26808   0.75856    0.020
 4320.00    0.28334   0.77616    0.020
 4321.00    0.57063   0.79148    0.021
 4322.00    0.91745   0.80414    0.021
 4323.00    0.92185   0.81242    0.021
 4324.00    0.86667   0.81643    0.021
 4325.00    0.61101   0.81626    0.021
 4326.00    0.32882   0.81255    0.021
 4327.00    0.50968   0.80737    0.021
 4328.00    0.73380   0.80053    0.021
 4329.00    0.57207   0.79369    0.021
 4330.00    0.38828   0.78733    0.000
 4331.00    0.36385   0.78329    0.000
 4332.00    0.34405   0.78102    0.000
 4333.00    0.43023   0.78064    0.000
 4334.00    0.51776   0.78115    0.000
 4335.00    0.63771   0.78133    0.000
 4336.00    0.76055   0.78057    0.000
 4337.00    0.92114   0.77689    0.000
 4338.00    1.07549   0.77093    0.000
 4339.00    1.17525   0.76164    0.000
 4340.00    1.18865   0.74888    0.000
 4341.00    0.64418   0.73437    0.000
 4342.00    0.17388   0.71955    0.000
 4343.00    0.07776   0.70582    0.000
 4344.00    0.10993   0.69404    0.000
 4345.00    0.66573   0.68640    0.000
 4346.00    1.08042   0.68296    0.000
 4347.00    1.01770   0.68419    0.000
 4348.00    0.97430   0.68976    0.000
 4349.00    0.98608   0.69919    0.000
 4350.00    0.97343   0.71120    0.000
 4351.00    0.90121   0.72368   -1.000
 4352.00    0.85813   0.73653   -1.000
 4353.00    0.87634   0.74902   -1.000
 4354.00    0.89276   0.75994   -1.000
 4355.00    0.90590   0.76888   -1.000
 4356.00    0.88801   0.77675   -1.000
 4357.00    0.82056   0.78361   -1.000
 4358.00    0.88450   0.78969   -1.000
 4359.00    1.13266   0.79564   -1.000
 4360.00    1.06365   0.80216   -1.000
 4361.00    0.60330   0.80909   -1.000
 4362.00    0.39671   0.81628   -1.000
 4363.00    0.46609   0.82354   -1.000
 4364.00    0.68950   0.83117    0.083
 4365.00    1.06066   0.83850    0.028
 4366.00    1.02881   0.84485    0.021
 4367.00    0.65605   0.85000    0.021
 4368.00    0.65346   0.85369    0.021
 4369.00    0.92660   0.85611    0.021
 4370.00    0.85324   0.85660    0.021
 4371.00    0.55314   0.85574    0.021
 4372.00    0.75336   0.85330    0.021
 4373.00    1.24011   0.84958    0.021
 4374.00    1.36980   0.84462    0.021
 4375.00    1.32136   0.83905    0.021
 4376.00    1.04730   0.83335    0.021
 4377.00    0.67587   0.82781    0.021
 4378.00    0.65493   0.82245    0.021
 4379.00    0.76369   0.81715    0.021
 4380.00    1.05806   0.81191    0.021
 4381.00    1.41063   0.80667    0.021
 4382.00    1.16147   0.80092    0.021
 4383.00    0.75488   0.79402    0.020
 4384.00    0.79359   0.78651    0.020
 4385.00    0.92743   0.77853    0.020
 4386.00    0.99802   0.77062    0.020
 4387.00    1.05793   0.76244    0.020
 4388.00    0.97896   0.75528    0.020
 4389.00    0.88224   0.74974    0.020
 4390.00    0.81442   0.74631    0.020
 4391.00    0.74919   0.74533    0.020
 4392.00    0.79111   0.74685    0.020
 4393.00    0.83874   0.75078    0.020
 4394.00    0.92917   0.75647    0.020
 4395.00    1.02008   0.76360    0.020
 4396.00    1.08139   0.77163    0.020
 4397.00    1.13594   0.78017    0.020
 4398.00    1.04165   0.78832    0.020
 4399.00    0.95863   0.79570    0.020
 4400.00    1.01485   0.80146    0.020
 4401.00    1.05839   0.80584    0.020
 4402.00    0.99522   0.80881    0.020
 4403.00    0.90587   0.80978    0.020
 4404.00    0.65249   0.80852    0.020
 4405.00    0.43045   0.80585    0.019
 4406.00    0.36254   0.80241    0.019
 4407.00    0.37905   0.79809    0.019
 4408.00    0.73255   0.79370    0.019
 4409.00    1.00484   0.79015    0.019
 4410.00    1.00781   0.78811    0.019
 4411.00    0.99714   0.78748    0.019
 4412.00    0.94824   0.78860    0.019
 4413.00    0.88174   0.79138    0.019
 4414.00    0.77310   0.79511    0.019
 4415.00    0.80033   0.79952    0.019
 4416.00    1.10879   0.80448    0.019
 4417.00    1.32110   0.80914    0.019
 4418.00    1.36031   0.81341    0.020
 4419.00    1.22301   0.81718    0.020
 4420.00    0.80788   0.82025    0.019
 4421.00    0.73702   0.82273    0.019
 4422.00    1.14192   0.82463    0.019
 4423.00    1.25002   0.82640    0.020
 4424.00    0.99712   0.82802    0.019
 4425.00    0.78334   0.82932    0.019
 4426.00    0.61149   0.83026    0.019
 4427.00    0.55536   0.83072    0.019
 4428.00    0.60869   0.83090    0.019
 4429.00    0.66904   0.83064    0.019
 4430.00    0.73524   0.82963    0.020
 4431.00    0.79661   0.82861    0.020
 4432.00    0.85445   0.82732    0.020
 4433.00    1.01489   0.82566    0.020
 4434.00    1.24149   0.82366    0.020
 4435.00    1.27334   0.82161    0.020
 4436.00    1.19535   0.81984    0.020
 4437.00    1.12281   0.81853    0.020
 4438.00    1.05295   0.81775    0.020
 4439.00    1.10329   0.81771    0.020
 4440.00    1.20464   0.81819    0.020
 4441.00    1.13098   0.81926    0.020
 4442.00    0.99371   0.82086    0.019
 4443.00    0.94441   0.82304    0.020
 4444.00    0.92215   0.82561    0.020
 4445.00    0.98849   0.82850    0.020
 4446.00    1.07750   0.83141    0.020
 4447.00    1.17323   0.83408    0.020
 4448.00    1.27036   0.83690    0.020
 4449.00    1.05605   0.83942    0.020
 4450.00    0.79058   0.84156    0.020
 4451.00    0.87379   0.84326    0.019
 4452.00    0.99999   0.84424    0.019
 4453.00    1.12446   0.84401    0.019
 4454.00    1.24879   0.84233    0.019
 4455.00    0.94615   0.83901    0.019
 4456.00    0.62243   0.83448    0.019
 4457.00    0.91732   0.82851    0.019
 4458.00    1.21457   0.82165    0.019
 4459.00    1.04196   0.81402    0.019
 4460.00    0.88115   0.80665    0.019
 4461.00    0.95926   0.79950    0.000
 4462.00    1.01704   0.79336    0.000
 4463.00    0.83577   0.78889    0.000
 4464.00    0.68154   0.78580    0.000
 4465.00    0.74647   0.78439    0.000
 4466.00    0.81625   0.78443    0.000
 4467.00    0.91546   0.78596    0.000
 4468.00    0.99959   0.78852    0.000
 4469.00    1.01132   0.79174    0.000
 4470.00    1.02005   0.79569    0.000
 4471.00    1.01706   0.79981    0.000
 4472.00    1.03448   0.80446    0.000
 4473.00    1.11826   0.80927    0.000
 4474.00    1.15901   0.81448    0.000
 4475.00    1.08137   0.81976    0.000
 4476.00    1.04880   0.82540    0.000
 4477.00    1.12244   0.83131    0.000
 4478.00    1.11346   0.83700    0.000
 4479.00    0.93620   0.84229    0.000
 4480.00    0.83229   0.84657    0.000
 4481.00    0.85843   0.85007    0.000
 4482.00    0.90975   0.85225    0.019
 4483.00    1.00011   0.85378    0.019
 4484.00    0.98247   0.85417    0.019
 4485.00    0.81775   0.85418    0.019
 4486.00    0.64948   0.85371    0.019
 4487.00    0.47695   0.85333    0.019
 4488.00    0.47728   0.85289    0.019
 4489.00    0.66037   0.85265    0.019
 4490.00    0.87189   0.85249    0.019
 4491.00    1.10993   0.85239    0.019
 4492.00    1.06245   0.85198    0.019
 4493.00    0.78024   0.85123    0.018
 4494.00    0.78285   0.84972    0.018
 4495.00    0.99154   0.84814    0.019
 4496.00    1.05535   0.84634    0.019
 4497.00    1.02712   0.84495    0.019
 4498.00    1.02169   0.84406    0.019
 4499.00    1.02892   0.84402    0.019
 4500.00    0.96931   0.84510    0.019
 4501.00    0.87742   0.84712    0.019
 4502.00    0.84997   0.85066    0.018
 4503.00    0.84942   0.85536    0.018
 4504.00    0.81574   0.86109    0.018
 4505.00    0.77024   0.86735    0.018
 4506.00    0.79432   0.87394    0.018
 4507.00    0.83937   0.88041    0.018
 4508.00    0.91202   0.88643    0.018
 4509.00    0.99158   0.89171    0.018
 4510.00    1.07606   0.89590    0.018
 4511.00    1.16153   0.89881    0.018
 4512.00    0.93107   0.90023    0.018
 4513.00    0.65022   0.90029    0.018
 4514.00    0.81864   0.89906    0.018
 4515.00    1.04045   0.89678    0.018
 4516.00    1.01617   0.89373    0.018
 4517.00    0.97197   0.89006    0.018
 4518.00    0.85470   0.88602    0.018
 4519.00    0.73410   0.88216    0.017
 4520.00    0.58849   0.87825    0.018
 4521.00    0.44877   0.87482    0.018
 4522.00    0.62521   0.87116    0.018
 4523.00    0.79521   0.86768    0.018
 4524.00    0.84440   0.86392    0.018
 4525.00    0.88875   0.85966    0.018
 4526.00    0.87879   0.85462    0.018
 4527.00    0.89609   0.84858    0.018
 4528.00    1.12675   0.84178    0.018
 4529.00    1.27781   0.83397    0.018
 4530.00    0.95823   0.82608    0.018
 4531.00    0.71182   0.81767    0.017
 4532.00    0.80794   0.81026    0.018
 4533.00    0.89373   0.80317    0.018
 4534.00    0.93999   0.79783    0.017
 4535.00    0.95761   0.79376    0.017
 4536.00    0.88392   0.79194    0.017
 4537.00    0.82056   0.79205    0.017
 4538.00    0.78511   0.79386    0.017
 4539.00    0.78695   0.79725    0.017
 4540.00    0.87519   0.80161    0.017
 4541.00    0.88717   0.80696    0.018
 4542.00    0.74627   0.81248    0.017
 4543.00    0.69174   0.81812    0.017
 4544.00    0.78798   0.82300    0.017
 4545.00    0.89564   0.82711    0.017
 4546.00    1.02074   0.83028    0.017
 4547.00    1.05570   0.83224    0.017
 4548.00    0.96966   0.83325    0.017
 4549.00    0.91193   0.83295    0.017
 4550.00    0.88766   0.83216    0.000
 4551.00    0.93611   0.83072    0.000
 4552.00    1.06036   0.82894    0.000
 4553.00    1.10844   0.82714    0.000
 4554.00    1.08649   0.82548    0.000
 4555.00    1.02915   0.82444    0.000
 4556.00    0.94313   0.82395    0.000
 4557.00    0.88378   0.82465    0.000
 4558.00    0.84343   0.82597    0.000
 4559.00    0.77816   0.82853    0.000
 4560.00    0.69728   0.83161    0.000
 4561.00    0.68369   0.83559    0.000
 4562.00    0.70692   0.83975    0.000
 4563.00    0.76134   0.84395    0.000
 4564.00    0.83059   0.84776    0.000
 4565.00    0.83251   0.85108    0.000
 4566.00    0.80682   0.85372    0.000
 4567.00    0.86988   0.85572    0.000
 4568.00    0.96405   0.85699    0.000
 4569.00    0.98993   0.85772    0.000
 4570.00    0.99561   0.85812    0.000
 4571.00    0.90570   0.85819    0.000
 4572.00    0.79236   0.85828    0.000
 4573.00    0.74891   0.85850    0.000
 4574.00    0.71930   0.85863    0.000
 4575.00    0.81888   0.85863    0.000
 4576.00    0.93846   0.85849    0.000
 4577.00    0.96947   0.85801    0.000
 4578.00    0.99034   0.85712    0.000
 4579.00    0.99433   0.85557    0.000
 4580.00    0.99703   0.85353    0.000
 4581.00    1.01830   0.85083    0.000
 4582.00    1.04035   0.84784    0.000
 4583.00    0.96529   0.84434    0.000
 4584.00    0.88874   0.84083    0.000
 4585.00    0.78456   0.83738    0.000
 4586.00    0.68933   0.83432    0.000
 4587.00    0.75051   0.83196    0.000
 4588.00    0.81283   0.83030    0.000
 4589.00    0.88744   0.82955    0.000
 4590.00    0.94028   0.82934    0.000
 4591.00    0.82865   0.82980    0.000
 4592.00    0.74915   0.83041    0.000
 4593.00    0.85436   0.83123    0.000
 4594.00    0.94507   0.83173    0.000
 4595.00    0.96950   0.83188    0.000
 4596.00    0.97375   0.83153    0.000
 4597.00    0.90254   0.83071    0.000
 4598.00    0.79550   0.82947    0.000
 4599.00    0.57639   0.82807    0.000
 4600.00    0.42586   0.82649    0.000
 4601.00    0.45735   0.82513    0.000
 4602.00    0.51421   0.82411    0.000
 4603.00    0.62890   0.82352    0.000
 4604.00    0.71422   0.82358    0.000
 4605.00    0.74159   0.82412    0.000
 4606.00    0.80978   0.82560    0.000
 4607.00    0.94817   0.82754    0.000
 4608.00    0.99972   0.83056    0.000
 4609.00    0.92054   0.83388    0.000
 4610.00    0.82928   0.83808    0.000
 4611.00    0.72204   0.84230    0.000
 4612.00    0.71222   0.84705    0.000
 4613.00    0.81595   0.85148    0.000
 4614.00    0.92852   0.85585    0.000
 4615.00    1.05017   0.85972    0.000
 4616.00    1.06878   0.86293    0.000
 4617.00    0.99398   0.86565    0.000
 4618.00    0.95929   0.86752    0.000
 4619.00    0.95665   0.86900    0.000
 4620.00    0.93579   0.86976    0.000
 4621.00    0.90212   0.87050    0.000
 4622.00    0.92021   0.87061    0.000
 4623.00    0.97023   0.87085    0.000
 4624.00    0.98369   0.87067    0.000
 4625.00    0.97747   0.87055    0.000
 4626.00    0.95862   0.87009    0.000
 4627.00    0.93386   0.86962    0.000
 4628.00    0.91156   0.86885    0.000
 4629.00    0.89027   0.86785    0.000
 4630.00    0.90211   0.86663    0.000
 4631.00    0.92534   0.86514    0.000
 4632.00    0.77589   0.86340    0.000
 4633.00    0.57641   0.86124    0.000
 4634.00    0.69373   0.85887    0.000
 4635.00    0.88694   0.85606    0.000
 4636.00    0.84338   0.85301    0.000
 4637.00    0.75410   0.84947    0.000
 4638.00    0.71516   0.84569    0.000
 4639.00    0.68378   0.84157    0.000
 4640.00    0.73635   0.83724    0.000
 4641.00    0.79815   0.83288    0.000
 4642.00    0.79867   0.82841    0.000
 4643.00    0.79472   0.82412    0.000
 4644.00    0.72442   0.81977    0.000
 4645.00    0.65161   0.81582    0.000
 4646.00    0.72173   0.81175    0.000
 4647.00    0.79007   0.80820    0.000
 4648.00    0.76575   0.80464    0.000
 4649.00    0.74878   0.80172    0.000
 4650.00    0.85175   0.79901    0.000
 4651.00    0.95223   0.79717    0.000
 4652.00    1.02722   0.79583    0.000
 4653.00    1.07511   0.79562    0.000
 4654.00    0.92505   0.79604    0.000
 4655.00    0.79523   0.79765    0.000
 4656.00    0.77862   0.79982    0.000
 4657.00    0.75009   0.80294    0.000
 4658.00    0.66843   0.80636    0.000
 4659.00    0.63759   0.81021    0.000
 4660.00    0.79296   0.81397    0.000
 4661.00    0.91039   0.81749    0.000
 4662.00    0.91147   0.82049    0.000
 4663.00    0.88390   0.82256    0.000
 4664.00    0.78164   0.82370    0.000
 4665.00    0.76906   0.82336    0.000
 4666.00    0.95746   0.82177    0.000
 4667.00    1.03283   0.81861    0.000
 4668.00    0.88868   0.81445    0.000
 4669.00    0.78028   0.80937    0.000
 4670.00    0.73243   0.80402    0.000
 4671.00    0.70635   0.79884    0.000
 4672.00    0.71255   0.79435    0.000
 4673.00    0.72540   0.79099    0.000
 4674.00    0.74692   0.78897    0.000
 4675.00    0.76011   0.78839    0.000
 4676.00    0.76374   0.78912    0.000
 4677.00    0.77468   0.79082    0.000
 4678.00    0.79303   0.79319    0.000
 4679.00    0.74380   0.79571    0.000
 4680.00    0.63417   0.79816    0.000
 4681.00    0.62554   0.80010    0.000
 4682.00    0.69645   0.80155    0.000
 4683.00    0.81776   0.80236    0.000
 4684.00    0.97399   0.80266    0.000
 4685.00    0.94127   0.80257    0.000
 4686.00    0.79380   0.80226    0.000
 4687.00    0.73864   0.80191    0.000
 4688.00    0.73243   0.80161    0.000
 4689.00    0.71418   0.80148    0.000
 4690.00    0.69038   0.80153    0.000
 4691.00    0.72442   0.80170    0.000
 4692.00    0.78137   0.80205    0.000
 4693.00    0.86551   0.80240    0.000
 4694.00    0.95881   0.80282    0.000
 4695.00    0.89499   0.80315    0.000
 4696.00    0.78657   0.80340    0.000
 4697.00    0.78267   0.80342    0.000
 4698.00    0.80324   0.80317    0.000
 4699.00    0.97282   0.80251    0.000
 4700.00    1.17043   0.80144    0.000
 4701.00    1.02686   0.79978    0.000
 4702.00    0.83366   0.79775    0.000
 4703.00    0.78871   0.79509    0.000
 4704.00    0.75943   0.79237    0.000
 4705.00    0.80127   0.78918    0.000
 4706.00    0.84800   0.78643    0.000
 4707.00    0.77244   0.78350    0.000
 4708.00    0.69272   0.78142    0.000
 4709.00    0.64859   0.77947    0.000
 4710.00    0.60671   0.77848    0.000
 4711.00    0.63643   0.77791    0.000
 4712.00    0.66580   0.77811    0.000
 4713.00    0.68979   0.77897    0.000
 4714.00    0.71004   0.78029    0.000
 4715.00    0.69369   0.78248    0.000
 4716.00    0.69408   0.78485    0.000
 4717.00    0.81293   0.78824    0.000
 4718.00    0.87011   0.79163    0.000
 4719.00    0.59176   0.79602    0.000
 4720.00    0.39943   0.80028    0.000
 4721.00    0.58199   0.80522    0.000
 4722.00    0.71843   0.80976    0.000
 4723.00    0.68938   0.81442    0.000
 4724.00    0.68955   0.81829    0.000
 4725.00    0.77769   0.82156    0.000
 4726.00    0.85279   0.82365    0.000
 4727.00    0.89447   0.82453    0.000
 4728.00    0.89884   0.82408    0.000
 4729.00    0.82098   0.82225    0.000
 4730.00    0.76431   0.81938    0.000
 4731.00    0.74816   0.81547    0.000
 4732.00    0.77943   0.81118    0.000
 4733.00    0.88982   0.80663    0.000
 4734.00    0.91811   0.80246    0.000
 4735.00    0.82638   0.79887    0.000
 4736.00    0.81178   0.79617    0.000
 4737.00    0.89634   0.79455    0.000
 4738.00    0.88267   0.79397    0.000
 4739.00    0.75771   0.79449    0.000
 4740.00    0.69462   0.79576    0.000
 4741.00    0.69332   0.79779    0.000
 4742.00    0.70696   0.80023    0.000
 4743.00    0.73374   0.80297    0.000
 4744.00    0.72952   0.80582    0.000
 4745.00    0.70121   0.80861    0.000
 4746.00    0.68136   0.81138    0.000
 4747.00    0.66728   0.81390    0.000
 4748.00    0.72882   0.81627    0.000
 4749.00    0.83560   0.81828    0.000
 4750.00    0.77700   0.81998    0.000
 4751.00    0.63208   0.82126    0.000
 4752.00    0.62179   0.82198    0.000
 4753.00    0.67244   0.82228    0.000
 4754.00    0.79160   0.82179    0.000
 4755.00    0.93742   0.82096    0.000
 4756.00    0.94654   0.81925    0.000
 4757.00    0.91036   0.81737    0.000
 4758.00    0.85114   0.81471    0.000
 4759.00    0.78551   0.81206    0.000
 4760.00    0.88156   0.80884    0.000
 4761.00    1.01460   0.80571    0.015
 4762.00    0.99973   0.80219    0.015
 4763.00    0.95777   0.79877    0.015
 4764.00    0.83233   0.79511    0.015
 4765.00    0.69513   0.79156    0.014
 4766.00    0.69380   0.78793    0.014
 4767.00    0.70624   0.78464    0.014
 4768.00    0.70865   0.78158    0.014
 4769.00    0.71040   0.77919    0.014
 4770.00    0.63582   0.77742    0.014
 4771.00    0.55923   0.77660    0.014
 4772.00    0.62895   0.77670    0.014
 4773.00    0.70042   0.77780    0.014
 4774.00    0.82270   0.77985    0.014
 4775.00    0.93752   0.78258    0.015
 4776.00    0.94462   0.78589    0.014
 4777.00    0.94292   0.78943    0.014
 4778.00    0.85845   0.79301    0.014
 4779.00    0.77487   0.79629    0.014
 4780.00    0.69733   0.79905    0.014
 4781.00    0.64432   0.80119    0.014
 4782.00    0.72122   0.80241    0.014
 4783.00    0.76058   0.80283    0.014
 4784.00    0.64009   0.80228    0.014
 4785.00    0.56244   0.80111    0.014
 4786.00    0.63535   0.79909    0.015
 4787.00    0.70381   0.79686    0.015
 4788.00    0.75913   0.79429    0.015
 4789.00    0.74245   0.79198    0.015
 4790.00    0.54450   0.78985    0.015
 4791.00    0.45422   0.78850    0.015
 4792.00    0.59742   0.78773    0.015
 4793.00    0.71673   0.78798    0.014
 4794.00    0.79106   0.78895    0.014
 4795.00    0.85723   0.79083    0.014
 4796.00    0.91001   0.79317    0.014
 4797.00    0.92682   0.79603    0.014
 4798.00    0.89179   0.79889    0.014
 4799.00    0.82687   0.80172    0.014
 4800.00    0.72407   0.80411    0.014
 4801.00    0.73176   0.80608    0.014
 4802.00    0.86287   0.80739    0.014
 4803.00    0.90620   0.80804    0.014
 4804.00    0.86308   0.80811    0.014
 4805.00    0.81943   0.80750    0.014
 4806.00    0.77532   0.80669    0.014
 4807.00    0.78655   0.80530    0.014
 4808.00    0.84014   0.80399    0.014
 4809.00    0.83802   0.80233    0.014
 4810.00    0.79843   0.80099    0.014
 4811.00    0.71114   0.79948    0.014
 4812.00    0.59573   0.79844    0.014
 4813.00    0.61622   0.79751    0.014
 4814.00    0.70654   0.79714    0.014
 4815.00    0.69954   0.79711    0.014
 4816.00    0.64921   0.79761    0.014
 4817.00    0.69235   0.79852    0.014
 4818.00    0.77127   0.79973    0.014
 4819.00    0.83471   0.80121    0.014
 4820.00    0.89314   0.80265    0.014
 4821.00    0.83239   0.80399    0.014
 4822.00    0.73920   0.80495    0.014
 4823.00    0.68875   0.80538    0.014
 4824.00    0.64785   0.80524    0.014
 4825.00    0.72800   0.80450    0.014
 4826.00    0.82973   0.80317    0.014
 4827.00    0.75499   0.80121    0.014
 4828.00    0.65621   0.79891    0.014
 4829.00    0.59403   0.79626    0.014
 4830.00    0.53540   0.79366    0.014
 4831.00    0.66555   0.79100    0.014
 4832.00    0.80714   0.78851    0.014
 4833.00    0.65504   0.78634    0.014
 4834.00    0.49616   0.78443    0.014
 4835.00    0.51774   0.78289    0.014
 4836.00    0.54284   0.78143    0.014
 4837.00    0.65976   0.78039    0.014
 4838.00    0.77021   0.77926    0.014
 4839.00    0.79223   0.77837    0.014
 4840.00    0.80533   0.77728    0.014
 4841.00    0.73779   0.77634    0.014
 4842.00    0.68525   0.77517    0.014
 4843.00    0.73224   0.77389    0.014
 4844.00    0.77216   0.77254    0.014
 4845.00    0.77569   0.77112    0.014
 4846.00    0.77023   0.76969    0.014
 4847.00    0.72736   0.76809    0.014
 4848.00    0.70329   0.76646    0.000
 4849.00    0.74393   0.76464    0.000
 4850.00    0.76864   0.76274    0.000
 4851.00    0.74715   0.76038    0.000
 4852.00    0.73346   0.75753    0.000
 4853.00    0.73910   0.75399    0.000
 4854.00    0.74070   0.74956    0.000
 4855.00    0.73368   0.74402    0.000
 4856.00    0.72229   0.73742    0.000
 4857.00    0.70283   0.72973    0.000
 4858.00    0.68206   0.72077    0.000
 4859.00    0.65917   0.71077    0.000
 4860.00    0.63785   0.69980    0.000
 4861.00    0.61877   0.68835    0.000
 4862.00    0.63476   0.67689    0.000
 4863.00    0.69457   0.66614    0.000
 4864.00    0.68382   0.65612    0.000
 4865.00    0.59538   0.64792    0.000
 4866.00    0.58342   0.64149    0.000
 4867.00    0.64573   0.63766    0.000
 4868.00    0.61877   0.63588    0.000
 4869.00    0.51537   0.63687    0.000
 4870.00    0.53811   0.63956    0.000
 4871.00    0.65602   0.64414    0.000
 4872.00    0.63410   0.64984    0.000
 4873.00    0.51950   0.65664    0.000
 4874.00    0.54956   0.66373    0.000
 4875.00    0.66359   0.67094    0.014
 4876.00    0.78705   0.67811    0.014
 4877.00    0.91529   0.68521    0.015
 4878.00    0.89694   0.69198    0.015
 4879.00    0.81441   0.69882    0.015
 4880.00    0.72612   0.70517    0.014
 4881.00    0.63566   0.71132    0.014
 4882.00    0.60416   0.71682    0.014
 4883.00    0.59147   0.72202    0.014
 4884.00    0.59729   0.72615    0.014
 4885.00    0.60805   0.72946    0.014
 4886.00    0.59518   0.73161    0.014
 4887.00    0.57717   0.73289    0.014
 4888.00    0.55764   0.73324    0.014
 4889.00    0.53785   0.73281    0.014
 4890.00    0.68105   0.73200    0.014
 4891.00    0.84571   0.73079    0.015
 4892.00    0.79765   0.73036    0.015
 4893.00    0.72983   0.73030    0.015
 4894.00    0.65975   0.73146    0.014
 4895.00    0.58954   0.73348    0.014
 4896.00    0.60261   0.73693    0.014
 4897.00    0.61776   0.74127    0.014
 4898.00    0.65231   0.74668    0.014
 4899.00    0.68717   0.75255    0.014
 4900.00    0.72941   0.75851    0.014
 4901.00    0.77088   0.76449    0.014
 4902.00    0.80239   0.76968    0.014
 4903.00    0.81965   0.77409    0.014
 4904.00    0.71306   0.77735    0.014
 4905.00    0.60777   0.77970    0.014
 4906.00    0.51077   0.78096    0.014
 4907.00    0.45413   0.78121    0.014
 4908.00    0.60048   0.78068    0.014
 4909.00    0.72285   0.77945    0.014
 4910.00    0.74768   0.77779    0.014
 4911.00    0.72318   0.77582    0.014
 4912.00    0.53225   0.77369    0.014
 4913.00    0.44727   0.77135    0.014
 4914.00    0.66391   0.76884    0.014
 4915.00    0.80240   0.76629    0.014
 4916.00    0.75077   0.76341    0.014
 4917.00    0.70204   0.76032    0.014
 4918.00    0.65939   0.75664    0.014
 4919.00    0.64961   0.75260    0.014
 4920.00    0.69979   0.74813    0.014
 4921.00    0.67970   0.74338    0.014
 4922.00    0.54751   0.73873    0.014
 4923.00    0.50532   0.73398    0.014
 4924.00    0.58908   0.72991    0.014
 4925.00    0.63160   0.72633    0.014
 4926.00    0.62333   0.72451    0.014
 4927.00    0.66476   0.72368    0.014
 4928.00    0.76013   0.72479    0.014
 4929.00    0.77087   0.72722    0.014
 4930.00    0.70056   0.73114    0.014
 4931.00    0.69443   0.73591    0.014
 4932.00    0.74248   0.74123    0.014
 4933.00    0.78027   0.74639    0.014
 4934.00    0.81044   0.75101    0.014
 4935.00    0.78517   0.75506    0.014
 4936.00    0.72367   0.75774    0.014
 4937.00    0.63391   0.75923    0.013
 4938.00    0.52800   0.75929    0.013
 4939.00    0.54104   0.75858    0.013
 4940.00    0.61331   0.75725    0.000
 4941.00    0.65598   0.75587    0.000
 4942.00    0.68592   0.75442    0.000
 4943.00    0.67915   0.75368    0.000
 4944.00    0.65883   0.75364    0.000
 4945.00    0.66791   0.75457    0.000
 4946.00    0.68619   0.75635    0.000
 4947.00    0.74828   0.75920    0.000
 4948.00    0.82181   0.76258    0.000
 4949.00    0.78532   0.76644    0.000
 4950.00    0.72541   0.77023    0.000
 4951.00    0.72332   0.77392    0.000
 4952.00    0.73096   0.77681    0.000
 4953.00    0.69766   0.77889    0.000
 4954.00    0.65915   0.77986    0.000
 4955.00    0.61721   0.77960    0.000
 4956.00    0.57496   0.77814    0.000
 4957.00    0.49234   0.77501    0.000
 4958.00    0.40759   0.77130    0.000
 4959.00    0.54348   0.76689    0.000
 4960.00    0.68285   0.76222    0.000
 4961.00    0.76407   0.75728    0.000
 4962.00    0.84156   0.75257    0.000
 4963.00    0.83796   0.74860    0.000
 4964.00    0.82340   0.74510    0.000
 4965.00    0.67426   0.74255    0.000
 4966.00    0.54952   0.74051    0.000
 4967.00    0.62912   0.73956    0.000
 4968.00    0.68999   0.73881    0.000
 4969.00    0.63397   0.73885    0.000
 4970.00    0.59726   0.73890    0.000
 4971.00    0.65523   0.73937    0.000
 4972.00    0.71185   0.73994    0.000
 4973.00    0.76309   0.74058    0.000
 4974.00    0.79648   0.74140    0.000
 4975.00    0.77080   0.74205    0.000
 4976.00    0.72206   0.74270    0.000
 4977.00    0.60889   0.74297    0.000
 4978.00    0.54699   0.74280    0.000
 4979.00    0.60774   0.74197    0.000
 4980.00    0.67182   0.74043    0.000
 4981.00    0.74279   0.73798    0.000
 4982.00    0.77453   0.73443    0.000
 4983.00    0.73579   0.73027    0.000
 4984.00    0.66837   0.72560    0.000
 4985.00    0.55588   0.72074    0.000
 4986.00    0.50255   0.71594    0.000
 4987.00    0.53082   0.71175    0.000
 4988.00    0.58727   0.70823    0.000
 4989.00    0.67793   0.70567    0.000
 4990.00    0.69192   0.70428    0.000
 4991.00    0.62386   0.70383    0.000
 4992.00    0.56658   0.70471    0.000
 4993.00    0.51948   0.70617    0.000
 4994.00    0.52033   0.70820    0.000
 4995.00    0.56110   0.71054    0.000
 4996.00    0.60856   0.71281    0.000
 4997.00    0.66092   0.71471    0.000
 4998.00    0.66585   0.71607    0.000
 4999.00    0.64026   0.71659    0.000
 5000.00    0.65964   0.71624    0.000
 5001.00    0.70435   0.71512    0.000
 5002.00    0.78626   0.71311    0.000
 5003.00    0.88640   0.71043    0.000
 5004.00    0.87675   0.70706    0.000
 5005.00    0.82063   0.70315    0.000
 5006.00    0.75674   0.69885    0.000
 5007.00    0.69005   0.69469    0.000
 5008.00    0.71429   0.69072    0.000
 5009.00    0.76642   0.68700    0.000
 5010.00    0.65835   0.68349    0.000
 5011.00    0.50938   0.68050    0.000
 5012.00    0.57801   0.67757    0.000
 5013.00    0.69185   0.67522    0.000
 5014.00    0.63630   0.67283    0.000
 5015.00    0.55301   0.67096    0.000
 5016.00    0.55946   0.66916    0.000
 5017.00    0.57692   0.66750    0.000
 5018.00    0.58172   0.66596    0.000
 5019.00    0.58546   0.66473    0.000
 5020.00    0.64472   0.66396    0.000
 5021.00    0.70669   0.66343    0.000
 5022.00    0.57549   0.66343    0.000
 5023.00    0.44566   0.66398    0.000
 5024.00    0.58164   0.66542    0.000
 5025.00    0.70866   0.66714    0.000
 5026.00    0.65595   0.66966    0.000
 5027.00    0.60480   0.67215    0.000
 5028.00    0.57171   0.67529    0.000
 5029.00    0.54794   0.67872    0.013
 5030.00    0.59937   0.68226    0.013
 5031.00    0.63998   0.68590    0.013
 5032.00    0.61504   0.68939    0.013
 5033.00    0.58676   0.69289    0.013
 5034.00    0.54257   0.69570    0.013
 5035.00    0.50859   0.69805    0.013
 5036.00    0.51441   0.69934    0.013
 5037.00    0.53863   0.70036    0.013
 5038.00    0.62252   0.70010    0.013
 5039.00    0.69913   0.69898    0.013
 5040.00    0.75571   0.69679    0.013
 5041.00    0.77512   0.69378    0.013
 5042.00    0.70714   0.69077    0.013
 5043.00    0.63407   0.68760    0.013
 5044.00    0.55069   0.68477    0.013
 5045.00    0.48712   0.68241    0.013
 5046.00    0.45861   0.68095    0.013
 5047.00    0.45169   0.68032    0.013
 5048.00    0.47821   0.68039    0.013
 5049.00    0.47819   0.68141    0.013
 5050.00    0.44211   0.68310    0.013
 5051.00    0.47118   0.68533    0.013
 5052.00    0.57823   0.68782    0.013
 5053.00    0.64884   0.69054    0.013
 5054.00    0.68098   0.69325    0.013
 5055.00    0.70462   0.69580    0.013
 5056.00    0.72036   0.69837    0.013
 5057.00    0.71634   0.70084    0.013
 5058.00    0.69611   0.70371    0.013
 5059.00    0.68696   0.70618    0.013
 5060.00    0.68583   0.70890    0.013
 5061.00    0.68580   0.71149    0.013
 5062.00    0.68646   0.71392    0.013
 5063.00    0.61172   0.71586    0.013
 5064.00    0.49518   0.71710    0.013
 5065.00    0.49951   0.71771    0.013
 5066.00    0.56211   0.71782    0.013
 5067.00    0.59335   0.71694    0.013
 5068.00    0.61154   0.71525    0.013
 5069.00    0.56503   0.71291    0.013
 5070.00    0.49549   0.71025    0.013
 5071.00    0.52957   0.70713    0.013
 5072.00    0.59481   0.70369    0.012
 5073.00    0.61356   0.70062    0.013
 5074.00    0.62071   0.69762    0.013
 5075.00    0.65220   0.69484    0.013
 5076.00    0.68863   0.69212    0.013
 5077.00    0.63819   0.68982    0.013
 5078.00    0.57395   0.68748    0.013
 5079.00    0.59279   0.68482    0.013
 5080.00    0.62145   0.68234    0.013
 5081.00    0.59560   0.67988    0.013
 5082.00    0.56536   0.67767    0.012
 5083.00    0.49263   0.67513    0.012
 5084.00    0.41798   0.67311    0.012
 5085.00    0.37535   0.67147    0.012
 5086.00    0.33605   0.67039    0.012
 5087.00    0.44378   0.67007    0.012
 5088.00    0.55145   0.67035    0.012
 5089.00    0.65787   0.67175    0.012
 5090.00    0.75073   0.67361    0.012
 5091.00    0.69245   0.67631    0.013
 5092.00    0.63321   0.67921    0.013
 5093.00    0.56647   0.68258    0.013
 5094.00    0.51266   0.68580    0.013
 5095.00    0.53504   0.68869    0.013
 5096.00    0.55442   0.69100    0.013
 5097.00    0.55976   0.69252    0.013
 5098.00    0.56887   0.69328    0.013
 5099.00    0.59232   0.69290    0.013
 5100.00    0.61638   0.69216    0.013
 5101.00    0.64235   0.69063    0.013
 5102.00    0.66103   0.68876    0.013
 5103.00    0.66006   0.68632    0.013
 5104.00    0.66072   0.68380    0.013
 5105.00    0.66513   0.68131    0.013
 5106.00    0.65130   0.67899    0.013
 5107.00    0.60100   0.67679    0.013
 5108.00    0.58369   0.67477    0.013
 5109.00    0.62384   0.67340    0.013
 5110.00    0.67529   0.67199    0.013
 5111.00    0.74397   0.67144    0.013
 5112.00    0.78001   0.67106    0.013
 5113.00    0.77232   0.67132    0.013
 5114.00    0.75149   0.67205    0.013
 5115.00    0.71515   0.67310    0.013
 5116.00    0.67368   0.67442    0.013
 5117.00    0.62688   0.67615    0.013
 5118.00    0.58767   0.67815    0.013
 5119.00    0.55544   0.68009    0.013
 5120.00    0.56630   0.68185    0.013
 5121.00    0.61202   0.68306    0.013
 5122.00    0.64183   0.68399    0.013
 5123.00    0.66031   0.68371    0.013
 5124.00    0.62937   0.68272    0.013
 5125.00    0.56755   0.68106    0.013
 5126.00    0.55353   0.67846    0.013
 5127.00    0.56559   0.67515    0.013
 5128.00    0.56777   0.67152    0.013
 5129.00    0.56526   0.66770    0.013
 5130.00    0.54824   0.66398    0.013
 5131.00    0.52528   0.66096    0.013
 5132.00    0.64298   0.65818    0.013
 5133.00    0.80985   0.65637    0.013
 5134.00    0.77119   0.65505    0.013
 5135.00    0.67195   0.65494    0.013
 5136.00    0.64179   0.65513    0.013
 5137.00    0.62849   0.65563    0.013
 5138.00    0.58887   0.65663    0.013
 5139.00    0.54404   0.65719    0.013
 5140.00    0.56862   0.65807    0.013
 5141.00    0.60391   0.65839    0.013
 5142.00    0.67883   0.65821    0.012
 5143.00    0.75827   0.65749    0.012
 5144.00    0.68379   0.65676    0.012
 5145.00    0.59758   0.65537    0.012
 5146.00    0.51345   0.65363    0.012
 5147.00    0.42941   0.65185    0.012
 5148.00    0.47721   0.64984    0.012
 5149.00    0.52655   0.64833    0.012
 5150.00    0.59556   0.64653    0.012
 5151.00    0.66120   0.64524    0.012
 5152.00    0.66839   0.64434    0.012
 5153.00    0.67377   0.64361    0.012
 5154.00    0.65988   0.64335    0.012
 5155.00    0.64658   0.64372    0.013
 5156.00    0.63776   0.64440    0.013
 5157.00    0.63685   0.64557    0.013
 5158.00    0.68124   0.64718    0.013
 5159.00    0.70564   0.64862    0.013
 5160.00    0.63899   0.65053    0.013
 5161.00    0.59435   0.65199    0.013
 5162.00    0.63187   0.65275    0.013
 5163.00    0.65224   0.65281    0.013
 5164.00    0.61911   0.65177    0.013
 5165.00    0.59009   0.64914    0.013
 5166.00    0.57194   0.64484    0.013
 5167.00    0.56277   0.63874    0.013
 5168.00    0.57400   0.63129    0.012
 5169.00    0.55015   0.62273    0.012
 5170.00    0.45724   0.61331    0.012
 5171.00    0.45122   0.60298    0.013
 5172.00    0.59431   0.59241    0.013
 5173.00    0.65665   0.58248    0.013
 5174.00    0.59762   0.57423    0.013
 5175.00    0.56316   0.56785    0.013
 5176.00    0.56114   0.56265    0.013
 5177.00    0.58373   0.55967    0.013
 5178.00    0.63492   0.55850    0.013
 5179.00    0.64442   0.55935    0.013
 5180.00    0.61113   0.56175    0.013
 5181.00    0.53977   0.56499    0.013
 5182.00    0.43397   0.56821    0.012
 5183.00    0.43843   0.57051    0.012
 5184.00    0.53082   0.57335    0.012
 5185.00    0.55634   0.57699    0.012
 5186.00    0.53494   0.58015    0.013
 5187.00    0.51027   0.58260    0.013
 5188.00    0.48359   0.58439    0.012
 5189.00    0.56617   0.58665    0.013
 5190.00    0.70750   0.58915    0.000
 5191.00    0.71509   0.59163    0.000
 5192.00    0.66027   0.59445    0.000
 5193.00    0.63908   0.59792    0.000
 5194.00    0.63143   0.60199    0.000
 5195.00    0.61212   0.60612    0.000
 5196.00    0.58882   0.61164    0.000
 5197.00    0.55546   0.61671    0.000
 5198.00    0.51918   0.62096    0.000
 5199.00    0.50922   0.62473    0.000
 5200.00    0.50555   0.62775    0.000
 5201.00    0.54504   0.63086    0.000
 5202.00    0.59285   0.63258    0.000
 5203.00    0.62794   0.63379    0.000
 5204.00    0.66113   0.63450    0.000
 5205.00    0.65452   0.63465    0.000
 5206.00    0.64356   0.63369    0.000
 5207.00    0.68271   0.63218    0.000
 5208.00    0.72549   0.63001    0.000
 5209.00    0.73307   0.62731    0.000
 5210.00    0.73934   0.62477    0.000
 5211.00    0.73752   0.62228    0.013
 5212.00    0.73514   0.62062    0.013
 5213.00    0.71386   0.61934    0.012
 5214.00    0.69488   0.61946    0.012
 5215.00    0.71335   0.62003    0.012
 5216.00    0.71532   0.62208    0.012
 5217.00    0.54943   0.62504    0.012
 5218.00    0.41373   0.62946    0.012
 5219.00    0.49764   0.63415    0.012
 5220.00    0.58812   0.63875    0.012
 5221.00    0.71513   0.64399    0.012
 5222.00    0.80384   0.64804    0.012
 5223.00    0.72217   0.65170    0.012
 5224.00    0.64235   0.65376    0.012
 5225.00    0.56925   0.65488    0.012
 5226.00    0.53181   0.65488    0.012
 5227.00    0.60351   0.65391    0.012
 5228.00    0.62269   0.65332    0.012
 5229.00    0.50520   0.65196    0.012
 5230.00    0.44553   0.65043    0.012
 5231.00    0.51515   0.64880    0.012
 5232.00    0.56730   0.64723    0.012
 5233.00    0.58561   0.64607    0.012
 5234.00    0.60843   0.64567    0.012
 5235.00    0.63888   0.64626    0.012
 5236.00    0.67892   0.64784    0.012
 5237.00    0.73316   0.65070    0.012
 5238.00    0.75790   0.65429    0.012
 5239.00    0.74421   0.65823    0.012
 5240.00    0.71223   0.66259    0.012
 5241.00    0.65926   0.66660    0.012
 5242.00    0.66823   0.67015    0.012
 5243.00    0.73986   0.67380    0.012
 5244.00    0.75745   0.67684    0.012
 5245.00    0.72683   0.67983    0.012
 5246.00    0.67319   0.68174    0.012
 5247.00    0.60147   0.68244    0.012
 5248.00    0.63485   0.68278    0.012
 5249.00    0.74090   0.68215    0.012
 5250.00    0.79540   0.68052    0.013
 5251.00    0.81864   0.67852    0.013
 5252.00    0.81140   0.67625    0.013
 5253.00    0.78804   0.67398    0.013
 5254.00    0.80088   0.67156    0.013
 5255.00    0.83035   0.66885    0.013
 5256.00    0.81156   0.66681    0.013
 5257.00    0.77368   0.66533    0.013
 5258.00    0.76203   0.66450    0.013
 5259.00    0.75922   0.66351    0.013
 5260.00    0.77621   0.66279    0.013
 5261.00    0.79880   0.66202    0.013
 5262.00    0.71282   0.66036    0.013
 5263.00    0.60149   0.65839    0.013
 5264.00    0.67185   0.65487    0.013
 5265.00    0.77626   0.65105    0.013
 5266.00    0.76660   0.64605    0.013
 5267.00    0.74041   0.64064    0.013
 5268.00    0.71392   0.63454    0.013
 5269.00    0.68741   0.62692    0.013
 5270.00    0.71721   0.61961    0.013
 5271.00    0.75084   0.61324    0.013
 5272.00    0.68060   0.60811    0.013
 5273.00    0.60687   0.60381    0.013
 5274.00    0.64470   0.60160    0.013
 5275.00    0.67902   0.60058    0.013
 5276.00    0.59671   0.60207    0.013
 5277.00    0.52468   0.60556    0.013
 5278.00    0.60922   0.60935    0.013
 5279.00    0.68357   0.61460    0.013
 5280.00    0.65852   0.62129    0.013
 5281.00    0.62756   0.62869    0.012
 5282.00    0.55498   0.63559    0.012
 5283.00    0.50001   0.64255    0.012
 5284.00    0.54059   0.64877    0.012
 5285.00    0.58436   0.65503    0.012
 5286.00    0.64196   0.66161    0.012
 5287.00    0.67227   0.66711    0.012
 5288.00    0.60493   0.67184    0.012
 5289.00    0.59386   0.67603    0.012
 5290.00    0.75183   0.67997    0.012
 5291.00    0.83566   0.68354    0.012
 5292.00    0.72991   0.68683    0.012
 5293.00    0.67336   0.68940    0.012
 5294.00    0.72506   0.69225    0.013
 5295.00    0.72590   0.69437    0.013
 5296.00    0.62969   0.69505    0.013
 5297.00    0.61098   0.69433    0.013
 5298.00    0.72132   0.69282    0.013
 5299.00    0.78264   0.69148    0.013
 5300.00    0.77244   0.68942    0.013
 5301.00    0.76828   0.68678    0.013
 5302.00    0.77186   0.68402    0.013
 5303.00    0.73202   0.68196    0.013
 5304.00    0.64308   0.68070    0.013
 5305.00    0.59081   0.67962    0.013
 5306.00    0.57510   0.67925    0.012
 5307.00    0.58600   0.67982    0.012
 5308.00    0.62032   0.68229    0.013
 5309.00    0.65702   0.68570    0.013
 5310.00    0.69557   0.68864    0.013
 5311.00    0.69430   0.69205    0.013
 5312.00    0.66588   0.69569    0.012
 5313.00    0.69273   0.69924    0.012
 5314.00    0.75259   0.70205    0.012
 5315.00    0.76798   0.70401    0.013
 5316.00    0.76020   0.70499    0.012
 5317.00    0.71690   0.70553    0.012
 5318.00    0.65757   0.70582    0.012
 5319.00    0.59991   0.70487    0.012
 5320.00    0.54291   0.70310    0.012
 5321.00    0.60746   0.70069    0.012
 5322.00    0.71220   0.69765    0.012
 5323.00    0.67934   0.69402    0.012
 5324.00    0.60832   0.68962    0.012
 5325.00    0.60321   0.68513    0.012
 5326.00    0.61314   0.68020    0.012
 5327.00    0.62386   0.67514    0.012
 5328.00    0.63474   0.66900    0.012
 5329.00    0.69804   0.66360    0.012
 5330.00    0.76870   0.65898    0.012
 5331.00    0.73858   0.65451    0.012
 5332.00    0.69829   0.65079    0.012
 5333.00    0.64983   0.64722    0.012
 5334.00    0.60085   0.64581    0.012
 5335.00    0.64483   0.64510    0.012
 5336.00    0.69148   0.64528    0.012
 5337.00    0.70098   0.64569    0.012
 5338.00    0.70994   0.64821    0.012
 5339.00    0.70323   0.65193    0.012
 5340.00    0.69361   0.65472    0.012
 5341.00    0.64203   0.65757    0.012
 5342.00    0.60235   0.66021    0.012
 5343.00    0.67393   0.66288    0.012
 5344.00    0.74333   0.66504    0.012
 5345.00    0.79783   0.66634    0.012
 5346.00    0.83507   0.66716    0.012
 5347.00    0.78117   0.66811    0.012
 5348.00    0.74030   0.66858    0.012
 5349.00    0.75471   0.66891    0.012
 5350.00    0.74000   0.66969    0.012
 5351.00    0.62325   0.67179    0.012
 5352.00    0.55469   0.67374    0.012
 5353.00    0.62815   0.67556    0.012
 5354.00    0.65208   0.67826    0.012
 5355.00    0.55157   0.68098    0.012
 5356.00    0.51422   0.68442    0.012
 5357.00    0.61353   0.68808    0.012
 5358.00    0.70470   0.69167    0.012
 5359.00    0.78059   0.69569    0.012
 5360.00    0.80948   0.69926    0.012
 5361.00    0.76125   0.70224    0.012
 5362.00    0.69892   0.70417    0.012
 5363.00    0.61631   0.70548    0.012
 5364.00    0.59591   0.70614    0.012
 5365.00    0.65423   0.70517    0.012
 5366.00    0.65941   0.70378    0.012
 5367.00    0.60534   0.70122    0.012
 5368.00    0.60173   0.69802   -2.000
 5369.00    0.64772   0.69391   -2.000
 5370.00    0.69197   0.68915   -2.000
 5371.00    0.73471   0.68430   -2.000
 5372.00    0.78557   0.67969   -2.000
 5373.00    0.84263   0.67640   -2.000
 5374.00    0.85077   0.67280   -2.000
 5375.00    0.82606   0.67061   -2.000
 5376.00    0.75919   0.66878   -2.000
 5377.00    0.66754   0.66756   -2.000
 5378.00    0.65610   0.66757   -2.000
 5379.00    0.68580   0.66824   -2.000
 5380.00    0.70226   0.67028   -2.000
 5381.00    0.71284   0.67246   -2.000
 5382.00    0.68480   0.67568   -2.000
 5383.00    0.64201   0.67799    0.012
 5384.00    0.64666   0.68007    0.012
 5385.00    0.66670   0.68211    0.012
 5386.00    0.62643   0.68318    0.012
 5387.00    0.56980   0.68405    0.012
 5388.00    0.60693   0.68422    0.012
 5389.00    0.66494   0.68388    0.012
 5390.00    0.57406   0.68241    0.012
 5391.00    0.45673   0.68073    0.012
 5392.00    0.60419   0.67858    0.012
 5393.00    0.78758   0.67588    0.012
 5394.00    0.79220   0.67303    0.012
 5395.00    0.77955   0.66988    0.012
 5396.00    0.64999   0.66609    0.012
 5397.00    0.51340   0.66175    0.012
 5398.00    0.59866   0.65829    0.012
 5399.00    0.68908   0.65487    0.012
 5400.00    0.67428   0.65165    0.012
 5401.00    0.65711   0.64861    0.012
 5402.00    0.57888   0.64603    0.012
 5403.00    0.51128   0.64333    0.012
 5404.00    0.58767   0.64013    0.012
 5405.00    0.66169   0.63792    0.012
 5406.00    0.71443   0.63584    0.012
 5407.00    0.75052   0.63465    0.012
 5408.00    0.67653   0.63371    0.012
 5409.00    0.60854   0.63259    0.012
 5410.00    0.57139   0.63137    0.012
 5411.00    0.54602   0.63079    0.012
 5412.00    0.56960   0.63081    0.012
 5413.00    0.59661   0.63119    0.012
 5414.00    0.63538   0.63294    0.012
 5415.00    0.65457   0.63541    0.012
 5416.00    0.61709   0.63850    0.012
 5417.00    0.59083   0.64165    0.012
 5418.00    0.59229   0.64562    0.012
 5419.00    0.60623   0.64973    0.012
 5420.00    0.64670   0.65375    0.012
 5421.00    0.67714   0.65779    0.012
 5422.00    0.68905   0.66144    0.012
 5423.00    0.67495   0.66478    0.012
 5424.00    0.61883   0.66705    0.012
 5425.00    0.58924   0.66895    0.012
 5426.00    0.59725   0.67018    0.012
 5427.00    0.60492   0.67066    0.012
 5428.00    0.61217   0.67043    0.012
 5429.00    0.62601   0.66903    0.012
 5430.00    0.64710   0.66742    0.012
 5431.00    0.62740   0.66568    0.012
 5432.00    0.56817   0.66372    0.012
 5433.00    0.58718   0.66165    0.012
 5434.00    0.67309   0.65932    0.012
 5435.00    0.73137   0.65724    0.012
 5436.00    0.76885   0.65466    0.012
 5437.00    0.71582   0.65277    0.012
 5438.00    0.60292   0.65272    0.012
 5439.00    0.57676   0.65233    0.012
 5440.00    0.60083   0.65294    0.012
 5441.00    0.61157   0.65383    0.012
 5442.00    0.61558   0.65509    0.012
 5443.00    0.65177   0.65730    0.012
 5444.00    0.70201   0.65912    0.012
 5445.00    0.68436   0.66176    0.012
 5446.00    0.64125   0.66323    0.012
 5447.00    0.61961   0.66437    0.012
 5448.00    0.60479   0.66555    0.012
 5449.00    0.64613   0.66551    0.012
 5450.00    0.70240   0.66554    0.012
 5451.00    0.75955   0.66424    0.012
 5452.00    0.81689   0.66262    0.012
 5453.00    0.80429   0.66019    0.012
 5454.00    0.77961   0.65735    0.012
 5455.00    0.72405   0.65539    0.012
 5456.00    0.66444   0.65335    0.012
 5457.00    0.68651   0.65217    0.012
 5458.00    0.71613   0.65069    0.012
 5459.00    0.70037   0.64934    0.012
 5460.00    0.68205   0.64789    0.012
 5461.00    0.68440   0.64669    0.012
 5462.00    0.68660   0.64570    0.011
 5463.00    0.62646   0.64500    0.012
 5464.00    0.57160   0.64591    0.012
 5465.00    0.64044   0.64656    0.012
 5466.00    0.70192   0.64698    0.012
 5467.00    0.66890   0.64700    0.012
 5468.00    0.64763   0.64704    0.012
 5469.00    0.72799   0.64706    0.012
 5470.00    0.77684   0.64635    0.012
 5471.00    0.62378   0.64680    0.012
 5472.00    0.52106   0.64725    0.012
 5473.00    0.67067   0.64638    0.012
 5474.00    0.77780   0.64546    0.012
 5475.00    0.71253   0.64446    0.012
 5476.00    0.66420   0.64258    0.012
 5477.00    0.67292   0.64026    0.012
 5478.00    0.68727   0.63879   -2.000
 5479.00    0.71762   0.63778   -2.000
 5480.00    0.71854   0.63568   -2.000
 5481.00    0.64800   0.63345   -2.000
 5482.00    0.63909   0.63253   -2.000
 5483.00    0.75929   0.63089   -2.000
 5484.00    1.04973   0.62991   -2.000
 5485.00    1.65021   0.63084   -2.000
 5486.00    2.18767   0.63190   -2.000
 5487.00    2.62485   0.63244   -2.000
 5488.00    2.80421   0.63259   -2.000
 5489.00    2.62342   0.63437   -2.000
 5490.00    2.14176   0.63597   -2.000
 5491.00    1.29023   0.63783   -2.000
 5492.00    0.64826   0.64048   -2.000
 5493.00    0.23338   0.64206   -2.000
 5494.00    0.06546   0.64287   -2.000
 5495.00    0.13360   0.64354   -2.000
 5496.00    0.31301   0.64515   -2.000
 5497.00    0.58621   0.64568   -2.000
 5498.00    0.68743   0.64635   -2.000
 5499.00    0.66102   0.64744   -2.000
 5500.00    0.60563   0.64711   -2.000
 5501.00    0.53135   0.64641   -2.000
 5502.00    0.55591   0.64599    0.012
 5503.00    0.63686   0.64590    0.012
 5504.00    0.61502   0.64466    0.012
 5505.00    0.54210   0.64374    0.012
 5506.00    0.53444   0.64322    0.012
 5507.00    0.55480   0.64186    0.012
 5508.00    0.60444   0.64026    0.011
 5509.00    0.66485   0.63876    0.011
 5510.00    0.65166   0.63787    0.011
 5511.00    0.61551   0.63641    0.011
 5512.00    0.63712   0.63501    0.011
 5513.00    0.67376   0.63372    0.012
 5514.00    0.62640   0.63259    0.011
 5515.00    0.56120   0.63253    0.011
 5516.00    0.55817   0.63211    0.011
 5517.00    0.56557   0.63202    0.012
 5518.00    0.67856   0.63259    0.012
 5519.00    0.80492   0.63269    0.012
 5520.00    0.79458   0.63353    0.012
 5521.00    0.77220   0.63483    0.012
 5522.00    0.75818   0.63673    0.012
 5523.00    0.74460   0.63875    0.012
 5524.00    0.65850   0.64020    0.011
 5525.00    0.57234   0.64219    0.011
 5526.00    0.58347   0.64354    0.011
 5527.00    0.59735   0.64426    0.011
 5528.00    0.67051   0.64468    0.011
 5529.00    0.73879   0.64516    0.011
 5530.00    0.74753   0.64555    0.011
 5531.00    0.75375   0.64536    0.011
 5532.00    0.73889   0.64476    0.011
 5533.00    0.71665   0.64387    0.012
 5534.00    0.64853   0.64295    0.011
 5535.00    0.59481   0.64156    0.011
 5536.00    0.61144   0.64153    0.011
 5537.00    0.63983   0.64204    0.011
 5538.00    0.71491   0.64207    0.012
 5539.00    0.75255   0.64235    0.012
 5540.00    0.66663   0.64263    0.012
 5541.00    0.62737   0.64370    0.012
 5542.00    0.71824   0.64433    0.012
 5543.00    0.78568   0.64553    0.012
 5544.00    0.79724   0.64735    0.011
 5545.00    0.77933   0.64841    0.011
 5546.00    0.70066   0.64971    0.011
 5547.00    0.65893   0.65099    0.011
 5548.00    0.68340   0.65252    0.011
 5549.00    0.70269   0.65369    0.011
 5550.00    0.71387   0.65443    0.011
 5551.00    0.67684   0.65561    0.011
 5552.00    0.57344   0.65658    0.011
 5553.00    0.57354   0.65716    0.011
 5554.00    0.69908   0.65763    0.011
 5555.00    0.75822   0.65827    0.011
 5556.00    0.74640   0.65856    0.011
 5557.00    0.69795   0.65826    0.011
 5558.00    0.61496   0.65785    0.011
 5559.00    0.61048   0.65728    0.011
 5560.00    0.67124   0.65636    0.011
 5561.00    0.67619   0.65516    0.011
 5562.00    0.64032   0.65386    0.011
 5563.00    0.60688   0.65248    0.011
 5564.00    0.57500   0.65097    0.011
 5565.00    0.61258   0.64900    0.011
 5566.00    0.68917   0.64719    0.011
 5567.00    0.69728   0.64536    0.011
 5568.00    0.67191   0.64355    0.011
 5569.00    0.71217   0.64173    0.011
 5570.00    0.78017   0.63980    0.011
 5571.00    0.75065   0.63890    0.011
 5572.00    0.68586   0.63731    0.011
 5573.00    0.67321   0.63574    0.011
 5574.00    0.67653   0.63519    0.011
 5575.00    0.64753   0.63460    0.011
 5576.00    0.61030   0.63425    0.011
 5577.00    0.66572   0.63394    0.011
 5578.00    0.74032   0.63432    0.011
 5579.00    0.70154   0.63440    0.011
 5580.00    0.64426   0.63426    0.011
 5581.00    0.62657   0.63483    0.011
 5582.00    0.61372   0.63501    0.011
 5583.00    0.66150   0.63487    0.011
 5584.00    0.71437   0.63449    0.011
 5585.00    0.72233   0.63371    0.011
 5586.00    0.72812   0.63236    0.011
 5587.00    0.70615   0.63054    0.011
 5588.00    0.68439   0.62851    0.011
 5589.00    0.69935   0.62593    0.011
 5590.00    0.71325   0.62361    0.011
 5591.00    0.70621   0.62095    0.011
 5592.00    0.70400   0.61800    0.011
 5593.00    0.75790   0.61537    0.011
 5594.00    0.80370   0.61237    0.012
 5595.00    0.78439   0.61075    0.012
 5596.00    0.76759   0.60992    0.012
 5597.00    0.76599   0.60913    0.012
 5598.00    0.75742   0.60875    0.012
 5599.00    0.71556   0.60834    0.012
 5600.00    0.68085   0.60890    0.012
 5601.00    0.67396   0.60964    0.011
 5602.00    0.68499   0.61070    0.011
 5603.00    0.75402   0.61240    0.011
 5604.00    0.79812   0.61399    0.011
 5605.00    0.77390   0.61521    0.011
 5606.00    0.74150   0.61683    0.011
 5607.00    0.68993   0.61887    0.011
 5608.00    0.65667   0.62086    0.011
 5609.00    0.66054   0.62315    0.011
 5610.00    0.66790   0.62491    0.010
 5611.00    0.68140   0.62757    0.011
 5612.00    0.67717   0.63007    0.011
 5613.00    0.64554   0.63191    0.010
 5614.00    0.63959   0.63344    0.010
 5615.00    0.66849   0.63355    0.010
 5616.00    0.70707   0.63437    0.010
 5617.00    0.75721   0.63481    0.010
 5618.00    0.73783   0.63455    0.010
 5619.00    0.64521   0.63367    0.010
 5620.00    0.62923   0.63147    0.010
 5621.00    0.68446   0.62973    0.010
 5622.00    0.67834   0.62750    0.010
 5623.00    0.62197   0.62578    0.010
 5624.00    0.57262   0.62448    0.010
 5625.00    0.52833   0.62271    0.010
 5626.00    0.56867   0.62157    0.011
 5627.00    0.66257   0.62010    0.011
 5628.00    0.72934   0.61961    0.011
 5629.00    0.78110   0.62003    0.011
 5630.00    0.77864   0.62013    0.011
 5631.00    0.75009   0.62042    0.011
 5632.00    0.72921   0.62078    0.011
 5633.00    0.71152   0.62201    0.011
 5634.00    0.69215   0.62326    0.011
 5635.00    0.67218   0.62409    0.011
 5636.00    0.62715   0.62478    0.011
 5637.00    0.57460   0.62519    0.011
 5638.00    0.59495   0.62594    0.011
 5639.00    0.63346   0.62642    0.011
 5640.00    0.61850   0.62638    0.011
 5641.00    0.59274   0.62592    0.011
 5642.00    0.61365   0.62540    0.011
 5643.00    0.64195   0.62475    0.011
 5644.00    0.68250   0.62396    0.010
 5645.00    0.72449   0.62342    0.010
 5646.00    0.74291   0.62266    0.010
 5647.00    0.75945   0.62230    0.010
 5648.00    0.75764   0.62178    0.010
 5649.00    0.75501   0.62140    0.010
 5650.00    0.73437   0.62158    0.010
 5651.00    0.71287   0.62185    0.010
 5652.00    0.65939   0.62241    0.010
 5653.00    0.60839   0.62241    0.010
 5654.00    0.60297   0.62239    0.010
 5655.00    0.59759   0.62251    0.010
 5656.00    0.59259   0.62261    0.010
 5657.00    0.58874   0.62245    0.010
 5658.00    0.59389   0.62141    0.010
 5659.00    0.59648   0.62047    0.010
 5660.00    0.58406   0.61971    0.010
 5661.00    0.57186   0.61851    0.010
 5662.00    0.56067   0.61677    0.010
 5663.00    0.55749   0.61520    0.010
 5664.00    0.58478   0.61427    0.010
 5665.00    0.60357   0.61324    0.010
 5666.00    0.59542   0.61226    0.010
 5667.00    0.59914   0.61171    0.010
 5668.00    0.63476   0.61187    0.010
 5669.00    0.66986   0.61231    0.010
 5670.00    0.70374   0.61237    0.011
 5671.00    0.72151   0.61343    0.011
 5672.00    0.70712   0.61563    0.011
 5673.00    0.70093   0.61752    0.011
 5674.00    0.70896   0.61879    0.011
 5675.00    0.71604   0.62031    0.011
 5676.00    0.72167   0.62263    0.011
 5677.00    0.72872   0.62499    0.011
 5678.00    0.73766   0.62679    0.011
 5679.00    0.69447   0.62811    0.011
 5680.00    0.58985   0.62934    0.011
 5681.00    0.54914   0.63059    0.011
 5682.00    0.57478   0.63111    0.011
 5683.00    0.58757   0.63123    0.010
 5684.00    0.58858   0.63148    0.010
 5685.00    0.58991   0.63140    0.010
 5686.00    0.59151   0.63073    0.010
 5687.00    0.59453   0.62929    0.010
 5688.00    0.59856   0.62819    0.010
 5689.00    0.60259   0.62743    0.010
 5690.00    0.60661   0.62662    0.010
 5691.00    0.60070   0.62577    0.010
 5692.00    0.58938   0.62511    0.010
 5693.00    0.60691   0.62463    0.010
 5694.00    0.63809   0.62404    0.010
 5695.00    0.65965   0.62400    0.010
 5696.00    0.67727   0.62435    0.010
 5697.00    0.66088   0.62500    0.010
 5698.00    0.63262   0.62483    0.010
 5699.00    0.62245   0.62451    0.010
 5700.00    0.61760   0.62440    0.010
 5701.00    0.60535   0.62374    0.010
 5702.00    0.59130   0.62327    0.010
 5703.00    0.62391   0.62189    0.010
 5704.00    0.66571   0.62055    0.010
 5705.00    0.66490   0.61886    0.010
 5706.00    0.65755   0.61616    0.010
 5707.00    0.67042   0.61400    0.010
 5708.00    0.68559   0.61151    0.010
 5709.00    0.73134   0.60920    0.010
 5710.00    0.77941   0.60724    0.010
 5711.00    0.77357   0.60483    0.010
 5712.00    0.76553   0.60305    0.010
 5713.00    0.73234   0.60174    0.010
 5714.00    0.69995   0.60068    0.010
 5715.00    0.70849   0.60083    0.010
 5716.00    0.71692   0.60117    0.010
 5717.00    0.72333   0.60198    0.010
 5718.00    0.72580   0.60364    0.010
 5719.00    0.68651   0.60549    0.010
 5720.00    0.64624   0.60837    0.010
 5721.00    0.59871   0.61141    0.010
 5722.00    0.56587   0.61448    0.010
 5723.00    0.61681   0.61797    0.010
 5724.00    0.66017   0.62105    0.010
 5725.00    0.66915   0.62437    0.010
 5726.00    0.68308   0.62732    0.010
 5727.00    0.71545   0.62947    0.010
 5728.00    0.74808   0.63174    0.010
 5729.00    0.78154   0.63360    0.010
 5730.00    0.79814   0.63498    0.010
 5731.00    0.77022   0.63560    0.010
 5732.00    0.73431   0.63563    0.010
 5733.00    0.68031   0.63608    0.010
 5734.00    0.64140   0.63632    0.010
 5735.00    0.63217   0.63636    0.010
 5736.00    0.64683   0.63584    0.010
 5737.00    0.70242   0.63521    0.010
 5738.00    0.73717   0.63506    0.010
 5739.00    0.74068   0.63483    0.010
 5740.00    0.74236   0.63504    0.000
 5741.00    0.74163   0.63500    0.000
 5742.00    0.73141   0.63466    0.000
 5743.00    0.71014   0.63434    0.000
 5744.00    0.70048   0.63413    0.000
 5745.00    0.70269   0.63457    0.000
 5746.00    0.71021   0.63484    0.000
 5747.00    0.72255   0.63436    0.000
 5748.00    0.73372   0.63347    0.000
 5749.00    0.74398   0.63308    0.000
 5750.00    0.72705   0.63325    0.000
 5751.00    0.69108   0.63318    0.000
 5752.00    0.70838   0.63235    0.000
 5753.00    0.75839   0.63095    0.000
 5754.00    0.74337   0.62997    0.000
 5755.00    0.69345   0.62959    0.000
 5756.00    0.68746   0.62931    0.000
 5757.00    0.70194   0.62854    0.000
 5758.00    0.68444   0.62733    0.000
 5759.00    0.65411   0.62617    0.000
 5760.00    0.65685   0.62556    0.000
 5761.00    0.67092   0.62538    0.000
 5762.00    0.66004   0.62510    0.000
 5763.00    0.64199   0.62472    0.000
 5764.00    0.67884   0.62441    0.000
 5765.00    0.72877   0.62428    0.000
 5766.00    0.75147   0.62442    0.000
 5767.00    0.76894   0.62468    0.000
 5768.00    0.72252   0.62509    0.000
 5769.00    0.66658   0.62574    0.000
 5770.00    0.67751   0.62628    0.000
 5771.00    0.69574   0.62689    0.000
 5772.00    0.73762   0.62738    0.000
 5773.00    0.78119   0.62796    0.000
 5774.00    0.71453   0.62850    0.000
 5775.00    0.64380   0.62866    0.000
 5776.00    0.64935   0.62882    0.000
 5777.00    0.65548   0.62842    0.000
 5778.00    0.67028   0.62786    0.000
 5779.00    0.68540   0.62688    0.000
 5780.00    0.70551   0.62514    0.000
 5781.00    0.72142   0.62336    0.000
 5782.00    0.69492   0.62129    0.000
 5783.00    0.66553   0.61924    0.000
 5784.00    0.61530   0.61694    0.000
 5785.00    0.57689   0.61366    0.000
 5786.00    0.60410   0.61080    0.000
 5787.00    0.63362   0.60867    0.000
 5788.00    0.67337   0.60676    0.000
 5789.00    0.70252   0.60547    0.000
 5790.00    0.69301   0.60350    0.000
 5791.00    0.69184   0.60223   -2.000
 5792.00    0.71614   0.60254   -2.000
 5793.00    0.73400   0.60290   -2.000
 5794.00    0.73512   0.60445   -2.000
 5795.00    0.72191   0.60563   -2.000
 5796.00    0.67670   0.60688   -2.000
 5797.00    0.63549   0.60929   -2.000
 5798.00    0.60199   0.61120   -2.000
 5799.00    0.57947   0.61424   -2.000
 5800.00    0.57547   0.61701   -2.000
 5801.00    0.59501   0.61891   -2.000
 5802.00    0.64934   0.62123   -2.000
 5803.00    0.67722   0.62277   -2.000
 5804.00    0.67070   0.62484   -2.000
 5805.00    0.65154   0.62695   -2.000
 5806.00    0.61790   0.62811   -2.000
 5807.00    0.61359   0.62935   -2.000
 5808.00    0.63888   0.62988   -2.000
 5809.00    0.65628   0.63026   -2.000
 5810.00    0.66667   0.63100   -2.000
 5811.00    0.65197   0.63117    0.000
 5812.00    0.61757   0.63140    0.000
 5813.00    0.60573   0.63138    0.000
 5814.00    0.60947   0.63088    0.000
 5815.00    0.62932   0.63075    0.000
 5816.00    0.65893   0.63041    0.000
 5817.00    0.68583   0.63024    0.000
 5818.00    0.71129   0.63044    0.000
 5819.00    0.72957   0.63021    0.000
 5820.00    0.74457   0.63013    0.000
 5821.00    0.77472   0.63004    0.000
 5822.00    0.81084   0.63013    0.000
 5823.00    0.80435   0.63087    0.000
 5824.00    0.78353   0.63134    0.000
 5825.00    0.78076   0.63187    0.000
 5826.00    0.78308   0.63232    0.000
 5827.00    0.73002   0.63276    0.000
 5828.00    0.66408   0.63366    0.000
 5829.00    0.64534   0.63434    0.000
 5830.00    0.63542   0.63507    0.000
 5831.00    0.64475   0.63548    0.000
 5832.00    0.65686   0.63577    0.000
 5833.00    0.66775   0.63611    0.000
 5834.00    0.67853   0.63623    0.000
 5835.00    0.68077   0.63642    0.000
 5836.00    0.68243   0.63640    0.000
 5837.00    0.68963   0.63630    0.000
 5838.00    0.69702   0.63597    0.000
 5839.00    0.71465   0.63553    0.000
 5840.00    0.73204   0.63526    0.000
 5841.00    0.74162   0.63513    0.000
 5842.00    0.74874   0.63488    0.000
 5843.00    0.71876   0.63426    0.000
 5844.00    0.69148   0.63370    0.000
 5845.00    0.69038   0.63327    0.000
 5846.00    0.68445   0.63300    0.000
 5847.00    0.64459   0.63231    0.000
 5848.00    0.61344   0.63126    0.000
 5849.00    0.62930   0.63023    0.000
 5850.00    0.65430   0.62912    0.000
 5851.00    0.71891   0.62790    0.000
 5852.00    0.76385   0.62588    0.000
 5853.00    0.73864   0.62362    0.000
 5854.00    0.71856   0.62165    0.000
 5855.00    0.71388   0.61962    0.000
 5856.00    0.71156   0.61739    0.000
 5857.00    0.71525   0.61421    0.000
 5858.00    0.71810   0.61110    0.000
 5859.00    0.71908   0.60911    0.000
 5860.00    0.71296   0.60734    0.000
 5861.00    0.69330   0.60555    0.000
 5862.00    0.67674   0.60279    0.000
 5863.00    0.66531   0.60057    0.000
 5864.00    0.65557   0.60012    0.000
 5865.00    0.64829   0.59994    0.000
 5866.00    0.64493   0.59977    0.000
 5867.00    0.64659   0.59870    0.000
 5868.00    0.65484   0.59840    0.000
 5869.00    0.67052   0.59967    0.000
 5870.00    0.67836   0.60090    0.000
 5871.00    0.67840   0.60174    0.000
 5872.00    0.67227   0.60182    0.000
 5873.00    0.66072   0.60255    0.000
 5874.00    0.65784   0.60397    0.000
 5875.00    0.66166   0.60509    0.000
 5876.00    0.66652   0.60538    0.000
 5877.00    0.67208   0.60509    0.000
 5878.00    0.64848   0.60509    0.000
 5879.00    0.60749   0.60496    0.000
 5880.00    0.58054   0.60437    0.000
 5881.00    0.56089   0.60299    0.000
 5882.00    0.56557   0.60126    0.000
 5883.00    0.58123   0.59920    0.000
 5884.00    0.60258   0.59623    0.000
 5885.00    0.62615   0.59271    0.000
 5886.00    0.65180   0.58896    0.000
 5887.00    0.67813   0.58500    0.000
 5888.00    0.66536   0.58000    0.000
 5889.00    0.64177   0.57318    0.000
 5890.00    0.60193   0.56568    0.000
 5891.00    0.55840   0.55952    0.000
 5892.00    0.59368   0.55370    0.000
 5893.00    0.64329   0.54661    0.000
 5894.00    0.67461   0.53795    0.000
 5895.00    0.70336   0.52867    0.000
 5896.00    0.64411   0.52305    0.000
 5897.00    0.57603   0.52008    0.000
 5898.00    0.54826   0.51624    0.000
 5899.00    0.52306   0.51222    0.000
 5900.00    0.58945   0.50791    0.000
 5901.00    0.65843   0.50743    0.010
 5902.00    0.69202   0.51187    0.010
 5903.00    0.72380   0.51581    0.010
 5904.00    0.70477   0.51920    0.010
 5905.00    0.68682   0.52245    0.010
 5906.00    0.68441   0.52720    0.009
 5907.00    0.68050   0.53567    0.009
 5908.00    0.66278   0.54368    0.009
 5909.00    0.64424   0.54969    0.009
 5910.00    0.62020   0.55507    0.009
 5911.00    0.59853   0.56032    0.009
 5912.00    0.58934   0.56660    0.009
 5913.00    0.58066   0.57209    0.009
 5914.00    0.57416   0.57558    0.009
 5915.00    0.57196   0.57841    0.009
 5916.00    0.58486   0.58085    0.009
 5917.00    0.60075   0.58338    0.009
 5918.00    0.62545   0.58516    0.009
 5919.00    0.64545   0.58564    0.009
 5920.00    0.65364   0.58644    0.009
 5921.00    0.65344   0.58700    0.009
 5922.00    0.63514   0.58767    0.009
 5923.00    0.61775   0.58824    0.009
 5924.00    0.60210   0.58793    0.009
 5925.00    0.58043   0.58846    0.009
 5926.00    0.54894   0.58902    0.009
 5927.00    0.52643   0.58930    0.009
 5928.00    0.51682   0.58997    0.009
 5929.00    0.52953   0.59000    0.009
 5930.00    0.57043   0.59023    0.009
 5931.00    0.59804   0.59104    0.009
 5932.00    0.61087   0.59124    0.009
 5933.00    0.62382   0.59150    0.009
 5934.00    0.63691   0.59150    0.009
 5935.00    0.64233   0.59098    0.010
 5936.00    0.64112   0.59168    0.009
 5937.00    0.63148   0.59200    0.009
 5938.00    0.61542   0.59175    0.010
 5939.00    0.58798   0.59169    0.009
 5940.00    0.55293   0.59103    0.009
 5941.00    0.56122   0.59155    0.009
 5942.00    0.59495   0.59210    0.009
 5943.00    0.63376   0.59180    0.009
 5944.00    0.67517   0.59191    0.009
 5945.00    0.71370   0.59170    0.009
 5946.00    0.75095   0.59188    0.009
 5947.00    0.73296   0.59228    0.009
 5948.00    0.69394   0.59195    0.009
 5949.00    0.64968   0.59185    0.009
 5950.00    0.60374   0.59195    0.009
 5951.00    0.60117   0.59186    0.009
 5952.00    0.61034   0.59161    0.009
 5953.00    0.63772   0.59087    0.009
 5954.00    0.66915   0.59046    0.009
 5955.00    0.66121   0.59063    0.009
 5956.00    0.64629   0.59045    0.009
 5957.00    0.64692   0.58971    0.009
 5958.00    0.64966   0.58884    0.009
 5959.00    0.62284   0.58884    0.009
 5960.00    0.59319   0.58934    0.009
 5961.00    0.59111   0.58937    0.009
 5962.00    0.59067   0.58916    0.009
 5963.00    0.62194   0.58911    0.009
 5964.00    0.65383   0.59002    0.009
 5965.00    0.65774   0.59109    0.009
 5966.00    0.66171   0.59154    0.009
 5967.00    0.66751   0.59236    0.009
 5968.00    0.67204   0.59318    0.009
 5969.00    0.65951   0.59438    0.009
 5970.00    0.64861   0.59548    0.009
 5971.00    0.65234   0.59592    0.009
 5972.00    0.65802   0.59690    0.009
 5973.00    0.67654   0.59756    0.009
 5974.00    0.68800   0.59803    0.009
 5975.00    0.66335   0.59839    0.009
 5976.00    0.64114   0.59808    0.009
 5977.00    0.62909   0.59808    0.009
 5978.00    0.62357   0.59778    0.009
 5979.00    0.64037   0.59705    0.009
 5980.00    0.64666   0.59643    0.009
 5981.00    0.62259   0.59532    0.009
 5982.00    0.61140   0.59427    0.009
 5983.00    0.63199   0.59313    0.009
 5984.00    0.65766   0.59160    0.009
 5985.00    0.69416   0.59071    0.009
 5986.00    0.72027   0.58977    0.009
 5987.00    0.72720   0.58858    0.009
 5988.00    0.72918   0.58772    0.009
 5989.00    0.72316   0.58662    0.009
 5990.00    0.72636   0.58644    0.009
 5991.00    0.74259   0.58646    0.009
 5992.00    0.74327   0.58584    0.009
 5993.00    0.72462   0.58602    0.009
 5994.00    0.69343   0.58620    0.009
 5995.00    0.64849   0.58665    0.009
 5996.00    0.62689   0.58725    0.009
 5997.00    0.62789   0.58700    0.009
 5998.00    0.63055   0.58755    0.009
 5999.00    0.63462   0.58823    0.009
 6000.00    0.62595   0.58838    0.009
 6001.00    0.60770   0.58862    0.009
 6002.00    0.60069   0.58800    0.009
 6003.00    0.60110   0.58758    0.009
 6004.00    0.61449   0.58779    0.009
 6005.00    0.63538   0.58719    0.009
 6006.00    0.63586   0.58660    0.009
 6007.00    0.62608   0.58559    0.009
 6008.00    0.61382   0.58398    0.009
 6009.00    0.60048   0.58380    0.009
 6010.00    0.62233   0.58330    0.009
 6011.00    0.65734   0.58212    0.009
 6012.00    0.66997   0.58125    0.009
 6013.00    0.67548   0.57957    0.009
 6014.00    0.62944   0.57931    0.009
 6015.00    0.56973   0.57954    0.009
 6016.00    0.56085   0.57824    0.009
 6017.00    0.56298   0.57759    0.009
 6018.00    0.64197   0.57699    0.009
 6019.00    0.73419   0.57670    0.009
 6020.00    0.74380   0.57707    0.009
 6021.00    0.74261   0.57621    0.009
 6022.00    0.69090   0.57582    0.009
 6023.00    0.63455   0.57636    0.009
 6024.00    0.59990   0.57628    0.009
 6025.00    0.56647   0.57664    0.009
 6026.00    0.54244   0.57691    0.009
 6027.00    0.51892   0.57712    0.009
 6028.00    0.52514   0.57853    0.009
 6029.00    0.53229   0.57938    0.009
 6030.00    0.56085   0.58033    0.009
 6031.00    0.59143   0.58186    0.009
 6032.00    0.64777   0.58295    0.009
 6033.00    0.70021   0.58492    0.009
 6034.00    0.71901   0.58664    0.009
 6035.00    0.72815   0.58799    0.009
 6036.00    0.67553   0.58987    0.009
 6037.00    0.62797   0.59126    0.009
 6038.00    0.60568   0.59300    0.009
 6039.00    0.58405   0.59446    0.009
 6040.00    0.56507   0.59536    0.009
 6041.00    0.55307   0.59667    0.009
 6042.00    0.56446   0.59753    0.009
 6043.00    0.57532   0.59850    0.009
 6044.00    0.58463   0.59924    0.009
 6045.00    0.60252   0.59951    0.009
 6046.00    0.64119   0.60029    0.009
 6047.00    0.66781   0.60063    0.009
 6048.00    0.66926   0.60098    0.009
 6049.00    0.66529   0.60132    0.009
 6050.00    0.65149   0.60140    0.009
 6051.00    0.63589   0.60184    0.009
 6052.00    0.61746   0.60188    0.009
 6053.00    0.60338   0.60169    0.009
 6054.00    0.59538   0.60162    0.009
 6055.00    0.59308   0.60143    0.009
 6056.00    0.59775   0.60114    0.009
 6057.00    0.60082   0.60052    0.009
 6058.00    0.60214   0.59980    0.009
 6059.00    0.60586   0.59917    0.009
 6060.00    0.61187   0.59840    0.009
 6061.00    0.62130   0.59745    0.009
 6062.00    0.63362   0.59641    0.009
 6063.00    0.63847   0.59554    0.009
 6064.00    0.63781   0.59487    0.009
 6065.00    0.64698   0.59377    0.009
 6066.00    0.66255   0.59298    0.009
 6067.00    0.66317   0.59283    0.009
 6068.00    0.65528   0.59244    0.009
 6069.00    0.66212   0.59236    0.009
 6070.00    0.67628   0.59197    0.009
 6071.00    0.66234   0.59201    0.009
 6072.00    0.63636   0.59315    0.009
 6073.00    0.59298   0.59334    0.009
 6074.00    0.54320   0.59384    0.009
 6075.00    0.55690   0.59466    0.009
 6076.00    0.59036   0.59506    0.009
 6077.00    0.61541   0.59612    0.009
 6078.00    0.63829   0.59611    0.009
 6079.00    0.64219   0.59597    0.009
 6080.00    0.64206   0.59674    0.009
 6081.00    0.65476   0.59622    0.009
 6082.00    0.66961   0.59541    0.009
 6083.00    0.65444   0.59457    0.009
 6084.00    0.63550   0.59328    0.009
 6085.00    0.61495   0.59253    0.009
 6086.00    0.59426   0.59104    0.009
 6087.00    0.61355   0.58913    0.009
 6088.00    0.63491   0.58818    0.009
 6089.00    0.62888   0.58683    0.009
 6090.00    0.62201   0.58512    0.009
 6091.00    0.59036   0.58401    0.009
 6092.00    0.56004   0.58303    0.009
 6093.00    0.55821   0.58233    0.009
 6094.00    0.55559   0.58176    0.009
 6095.00    0.54338   0.58086    0.009
 6096.00    0.53419   0.58058    0.009
 6097.00    0.55000   0.58053    0.009
 6098.00    0.56878   0.57992    0.009
 6099.00    0.60587   0.57980    0.009
 6100.00    0.63382   0.58006    0.009
 6101.00    0.61722   0.58007    0.009
 6102.00    0.60194   0.57941    0.009
 6103.00    0.59188   0.57860    0.009
 6104.00    0.59021   0.57897    0.009
 6105.00    0.61620   0.57914    0.009
 6106.00    0.63207   0.57874    0.009
 6107.00    0.61981   0.57794    0.009
 6108.00    0.60407   0.57724    0.009
 6109.00    0.58005   0.57818    0.009
 6110.00    0.56558   0.57805    0.008
 6111.00    0.57074   0.57710    0.008
 6112.00    0.57527   0.57774    0.008
 6113.00    0.57866   0.57818    0.009
 6114.00    0.56943   0.57914    0.009
 6115.00    0.54044   0.57946    0.008
 6116.00    0.50910   0.57836    0.008
 6117.00    0.47452   0.57956    0.008
 6118.00    0.46846   0.58101    0.008
 6119.00    0.49689   0.58064    0.008
 6120.00    0.51791   0.58047    0.009
 6121.00    0.53104   0.57977    0.009
 6122.00    0.52223   0.57910    0.009
 6123.00    0.49279   0.57956    0.009
 6124.00    0.50008   0.57844    0.009
 6125.00    0.53782   0.57681    0.009
 6126.00    0.58092   0.57639    0.009
 6127.00    0.62791   0.57499    0.009
 6128.00    0.63603   0.57400    0.009
 6129.00    0.61922   0.57334    0.009
 6130.00    0.61441   0.57169    0.009
 6131.00    0.61634   0.57149    0.009
 6132.00    0.62773   0.57120    0.009
 6133.00    0.64375   0.57016    0.009
 6134.00    0.63763   0.56979    0.009
 6135.00    0.62218   0.56888    0.009
 6136.00    0.61793   0.56817    0.009
 6137.00    0.61773   0.56771    0.009
 6138.00    0.63147   0.56718    0.009
 6139.00    0.64948   0.56683    0.009
 6140.00    0.63880   0.56607    0.009
 6141.00    0.62083   0.56491    0.009
 6142.00    0.61808   0.56355    0.009
 6143.00    0.61848   0.56371    0.009
 6144.00    0.60370   0.56409    0.008
 6145.00    0.58646   0.56315    0.008
 6146.00    0.55763   0.56325    0.008
 6147.00    0.52739   0.56395    0.008
 6148.00    0.49924   0.56494    0.009
 6149.00    0.47127   0.56543    0.009
 6150.00    0.49428   0.56490    0.009
 6151.00    0.51973   0.56618    0.009
 6152.00    0.57189   0.56812    0.009
 6153.00    0.62365   0.56880    0.009
 6154.00    0.62969   0.56837    0.009
 6155.00    0.63595   0.56756    0.009
 6156.00    0.64669   0.56785    0.009
 6157.00    0.65532   0.56746    0.009
 6158.00    0.63970   0.56584    0.009
 6159.00    0.62365   0.56427    0.009
 6160.00    0.60419   0.56233    0.009
 6161.00    0.58504   0.55992    0.009
 6162.00    0.56783   0.55676    0.009
 6163.00    0.55316   0.55343    0.009
 6164.00    0.55058   0.55092    0.009
 6165.00    0.54812   0.54803    0.009
 6166.00    0.54613   0.54428    0.009
 6167.00    0.54858   0.54119    0.009
 6168.00    0.56536   0.53863    0.009
 6169.00    0.58091   0.53548    0.009
 6170.00    0.59312   0.53293    0.008
 6171.00    0.59193   0.53146    0.008
 6172.00    0.55936   0.53086    0.008
 6173.00    0.52385   0.53054    0.008
 6174.00    0.48239   0.52928    0.008
 6175.00    0.45921   0.52925    0.008
 6176.00    0.46827   0.53087    0.008
 6177.00    0.48050   0.53165    0.008
 6178.00    0.49764   0.53273    0.008
 6179.00    0.52040   0.53472    0.009
 6180.00    0.55078   0.53666    0.009
 6181.00    0.58087   0.53863    0.009
 6182.00    0.61062   0.53993    0.009
 6183.00    0.62258   0.54117    0.009
 6184.00    0.61583   0.54343    0.009
 6185.00    0.61995   0.54487    0.009
 6186.00    0.63415   0.54550    0.009
 6187.00    0.66157   0.54657    0.009
 6188.00    0.69980   0.54679    0.009
 6189.00    0.71018   0.54701    0.009
 6190.00    0.70052   0.54730    0.009
 6191.00    0.68585   0.54596    0.009
 6192.00    0.66801   0.54540    0.009
 6193.00    0.74803   0.54530    0.009
 6194.00    0.88208   0.54387    0.009
 6195.00    1.11229   0.54322    0.009
 6196.00    1.38866   0.54198   -2.000
 6197.00    1.42843   0.54105   -2.000
 6198.00    1.37013   0.54171   -2.000
 6199.00    1.14685   0.54015   -2.000
 6200.00    0.86511   0.53932   -2.000
 6201.00    0.64988   0.54073   -2.000
 6202.00    0.45456   0.54102   -2.000
 6203.00    0.52941   0.54167   -2.000
 6204.00    0.67138   0.54192   -2.000
 6205.00    0.74221   0.54218   -2.000
 6206.00    0.79872   0.54420   -2.000
 6207.00    0.74325   0.54467   -2.000
 6208.00    0.67012   0.54451    0.009
 6209.00    0.61088   0.54580    0.009
 6210.00    0.55326   0.54631    0.009
 6211.00    0.53621   0.54644    0.009
 6212.00    0.52238   0.54628    0.009
 6213.00    0.49927   0.54509    0.009
 6214.00    0.47576   0.54473    0.009
 6215.00    0.49028   0.54397    0.009
 6216.00    0.50592   0.54196    0.008
 6217.00    0.55494   0.54087    0.009
 6218.00    0.60289   0.53908    0.009
 6219.00    0.63121   0.53657    0.009
 6220.00    0.65531   0.53502    0.009
 6221.00    0.63287   0.53250    0.009
 6222.00    0.61107   0.53047    0.009
 6223.00    0.59416   0.52925    0.009
 6224.00    0.57976   0.52683    0.008
 6225.00    0.58002   0.52579    0.008
 6226.00    0.57854   0.52510    0.008
 6227.00    0.56900   0.52325    0.008
 6228.00    0.56367   0.52278    0.008
 6229.00    0.57432   0.52220    0.009
 6230.00    0.58431   0.52129    0.009
 6231.00    0.59218   0.52149    0.008
 6232.00    0.59111   0.52084    0.008
 6233.00    0.56600   0.52036    0.008
 6234.00    0.54700   0.52091    0.008
 6235.00    0.54205   0.52034    0.008
 6236.00    0.54595   0.52016    0.008
 6237.00    0.56750   0.52044    0.008
 6238.00    0.57672   0.51953    0.008
 6239.00    0.56457   0.51951    0.008
 6240.00    0.54668   0.51966    0.009
 6241.00    0.52008   0.51935    0.009
 6242.00    0.50504   0.51981    0.009
 6243.00    0.50546   0.51913    0.009
 6244.00    0.52175   0.51879    0.009
 6245.00    0.55670   0.51892    0.009
 6246.00    0.59090   0.51787    0.009
 6247.00    0.62431   0.51777    0.009
 6248.00    0.63061   0.51718    0.009
 6249.00    0.61211   0.51661    0.009
 6250.00    0.59498   0.51692    0.009
 6251.00    0.57894   0.51538    0.009
 6252.00    0.56978   0.51464    0.009
 6253.00    0.56549   0.51475    0.008
 6254.00    0.57791   0.51345    0.008
 6255.00    0.60072   0.51324    0.008
 6256.00    0.64384   0.51288    0.008
 6257.00    0.69799   0.51170    0.009
 6258.00    0.74222   0.51139    0.009
 6259.00    0.78177   0.51063    0.009
 6260.00    0.74549   0.50990    0.010
 6261.00    0.67830   0.50957    0.010
 6262.00    0.59767   0.50916    0.010
 6263.00    0.51237   0.50959    0.011
 6264.00    0.51462   0.50980    0.011
 6265.00    0.54254   0.50975    0.011
 6266.00    0.58991   0.51021    0.010
 6267.00    0.64201   0.51133    0.010
 6268.00    0.62854   0.51319    0.009
 6269.00    0.60221   0.51412    0.009
 6270.00    0.59552   0.51535    0.009
 6271.00    0.59184   0.51782    0.009
 6272.00    0.61342   0.51948    0.009
 6273.00    0.63785   0.52061    0.009
 6274.00    0.64377   0.52201    0.009
 6275.00    0.64829   0.52391    0.009
 6276.00    0.62568   0.52576    0.009
 6277.00    0.60198   0.52646    0.009
 6278.00    0.57835   0.52745    0.009
 6279.00    0.55520   0.52877    0.009
 6280.00    0.55112   0.52937    0.000
 6281.00    0.54856   0.53010    0.000
 6282.00    0.57171   0.53041    0.000
 6283.00    0.59146   0.53090    0.000
 6284.00    0.57543   0.53197    0.000
 6285.00    0.55837   0.53172    0.000
 6286.00    0.53372   0.53216    0.000
 6287.00    0.51602   0.53316    0.000
 6288.00    0.53786   0.53281    0.000
 6289.00    0.55993   0.53360    0.000
 6290.00    0.58303   0.53414    0.000
 6291.00    0.60174   0.53419    0.000
 6292.00    0.60411   0.53541    0.000
 6293.00    0.60180   0.53506    0.000
 6294.00    0.58496   0.53523    0.000
 6295.00    0.57587   0.53622    0.000
 6296.00    0.58723   0.53541    0.000
 6297.00    0.59238   0.53544    0.000
 6298.00    0.58348   0.53521    0.000
 6299.00    0.56873   0.53435    0.000
 6300.00    0.54250   0.53437    0.000
 6301.00    0.52210   0.53294    0.000
 6302.00    0.51165   0.53199    0.000
 6303.00    0.50552   0.53205    0.000
 6304.00    0.50586   0.53078    0.000
 6305.00    0.50154   0.52980    0.000
 6306.00    0.49109   0.52927    0.000
 6307.00    0.48773   0.52900    0.000
 6308.00    0.49261   0.52918    0.000
 6309.00    0.49852   0.52852    0.000
 6310.00    0.50548   0.52819    0.000
 6311.00    0.50769   0.52882    0.000
 6312.00    0.50562   0.52908    0.000
 6313.00    0.49891   0.52919    0.000
 6314.00    0.48852   0.52918    0.000
 6315.00    0.48824   0.52937    0.000
 6316.00    0.49501   0.53010    0.000
 6317.00    0.49530   0.52995    0.000
 6318.00    0.49161   0.52913    0.000
 6319.00    0.48605   0.52911    0.000
 6320.00    0.47950   0.52903    0.000
 6321.00    0.49485   0.52896    0.008
 6322.00    0.52037   0.52862    0.008
 6323.00    0.54144   0.52766    0.009
 6324.00    0.56072   0.52825    0.009
 6325.00    0.54394   0.52884    0.009
 6326.00    0.51483   0.52801    0.008
 6327.00    0.49482   0.52825    0.008
 6328.00    0.47744   0.52943    0.008
 6329.00    0.47855   0.53040    0.008
 6330.00    0.48406   0.53071    0.008
 6331.00    0.49024   0.53127    0.008
 6332.00    0.49656   0.53271    0.008
 6333.00    0.50869   0.53363    0.008
 6334.00    0.52170   0.53428    0.008
 6335.00    0.52941   0.53434    0.008
 6336.00    0.53654   0.53463    0.008
 6337.00    0.55873   0.53588    0.008
 6338.00    0.58199   0.53537    0.008
 6339.00    0.58695   0.53474    0.008
 6340.00    0.59125   0.53527    0.008
 6341.00    0.57357   0.53480    0.008
 6342.00    0.55636   0.53446    0.008
 6343.00    0.55843   0.53364    0.008
 6344.00    0.56072   0.53231    0.008
 6345.00    0.56656   0.53285    0.008
 6346.00    0.57061   0.53268    0.008
 6347.00    0.55653   0.53132    0.008
 6348.00    0.54354   0.53171    0.008
 6349.00    0.53841   0.53201    0.008
 6350.00    0.53415   0.53152    0.008
 6351.00    0.53481   0.53148    0.008
 6352.00    0.53990   0.53103    0.009
 6353.00    0.56464   0.53136    0.009
 6354.00    0.58905   0.53166    0.009
 6355.00    0.61230   0.53054    0.009
 6356.00    0.62642   0.53060    0.009
 6357.00    0.61272   0.53086    0.009
 6358.00    0.59951   0.52943    0.009
 6359.00    0.58761   0.52848    0.009
 6360.00    0.57049   0.52786    0.009
 6361.00    0.54174   0.52661    0.009
 6362.00    0.51727   0.52522    0.009
 6363.00    0.50108   0.52354    0.009
 6364.00    0.49372   0.52253    0.009
 6365.00    0.50125   0.52193    0.008
 6366.00    0.49848   0.52024    0.008
 6367.00    0.48055   0.51917    0.008
 6368.00    0.47208   0.51953    0.008
 6369.00    0.47589   0.51926    0.008
 6370.00    0.49721   0.51884    0.008
 6371.00    0.53856   0.51965    0.008
 6372.00    0.56336   0.52086    0.008
 6373.00    0.57150   0.52219    0.008
 6374.00    0.55349   0.52354    0.008
 6375.00    0.51222   0.52497    0.008
 6376.00    0.47915   0.52730    0.008
 6377.00    0.45248   0.52931    0.008
 6378.00    0.44913   0.53040    0.008
 6379.00    0.46184   0.53226    0.008
 6380.00    0.47952   0.53421    0.008
 6381.00    0.50021   0.53527    0.008
 6382.00    0.51889   0.53643    0.009
 6383.00    0.53650   0.53741    0.009
 6384.00    0.53651   0.53807    0.009
 6385.00    0.52846   0.53875    0.008
 6386.00    0.52514   0.53877    0.008
 6387.00    0.52368   0.53884    0.009
 6388.00    0.52265   0.53920    0.008
 6389.00    0.52177   0.53877    0.008
 6390.00    0.53569   0.53848    0.008
 6391.00    0.55379   0.53865    0.008
 6392.00    0.55142   0.53805    0.008
 6393.00    0.54429   0.53722    0.008
 6394.00    0.51273   0.53704    0.008
 6395.00    0.47662   0.53681    0.008
 6396.00    0.45893   0.53600    0.008
 6397.00    0.44389   0.53539    0.008
 6398.00    0.44310   0.53523    0.008
 6399.00    0.44380   0.53457    0.008
 6400.00    0.44770   0.53346    0.008
 6401.00    0.45181   0.53305    0.008
 6402.00    0.46526   0.53298    0.009
 6403.00    0.47901   0.53272    0.009
 6404.00    0.47474   0.53232    0.009
 6405.00    0.47067   0.53185    0.009
 6406.00    0.47280   0.53252    0.009
 6407.00    0.47454   0.53270    0.009
 6408.00    0.47043   0.53129    0.008
 6409.00    0.46628   0.53237    0.008
 6410.00    0.46184   0.53350    0.008
 6411.00    0.45784   0.53196    0.008
 6412.00    0.45692   0.53255    0.008
 6413.00    0.45570   0.53347    0.008
 6414.00    0.45295   0.53295    0.008
 6415.00    0.45138   0.53337    0.008
 6416.00    0.45491   0.53286    0.008
 6417.00    0.45692   0.53288    0.008
 6418.00    0.45352   0.53361    0.008
 6419.00    0.45962   0.53213    0.008
 6420.00    0.49409   0.53201    0.008
 6421.00    0.52520   0.53299    0.008
 6422.00    0.54778   0.53206    0.008
 6423.00    0.56384   0.53200    0.008
 6424.00    0.56562   0.53252    0.008
 6425.00    0.56206   0.53207    0.008
 6426.00    0.54833   0.53231    0.008
 6427.00    0.52641   0.53255    0.008
 6428.00    0.49091   0.53252    0.009
 6429.00    0.46904   0.53299    0.009
 6430.00    0.46699   0.53298    0.009
 6431.00    0.47843   0.53305    0.009
 6432.00    0.50710   0.53358    0.009
 6433.00    0.52602   0.53363    0.009
 6434.00    0.53394   0.53414    0.009
 6435.00    0.52905   0.53453    0.009
 6436.00    0.51143   0.53415    0.009
 6437.00    0.51076   0.53472    0.009
 6438.00    0.52493   0.53468    0.009
 6439.00    0.52766   0.53390    0.009
 6440.00    0.52155   0.53481    0.009
 6441.00    0.49030   0.53494    0.009
 6442.00    0.44197   0.53437    0.008
 6443.00    0.41642   0.53522    0.008
 6444.00    0.40442   0.53529    0.008
 6445.00    0.43314   0.53552    0.008
 6446.00    0.48299   0.53595    0.008
 6447.00    0.51262   0.53541    0.008
 6448.00    0.53317   0.53634    0.008
 6449.00    0.52906   0.53621    0.009
 6450.00    0.51542   0.53471    0.009
 6451.00    0.51811   0.53571    0.008
 6452.00    0.52616   0.53580    0.008
 6453.00    0.53700   0.53474    0.008
 6454.00    0.54862   0.53489    0.008
 6455.00    0.54536   0.53391    0.008
 6456.00    0.53873   0.53335    0.008
 6457.00    0.51314   0.53316    0.009
 6458.00    0.48411   0.53194    0.009
 6459.00    0.47014   0.53215    0.009
 6460.00    0.45826   0.53193    0.009
 6461.00    0.45019   0.53085    0.009
 6462.00    0.44251   0.53130    0.008
 6463.00    0.47605   0.53141    0.009
 6464.00    0.51220   0.53151    0.009
 6465.00    0.55539   0.53214    0.009
 6466.00    0.59860   0.53206    0.009
 6467.00    0.58883   0.53226    0.008
 6468.00    0.57941   0.53284    0.008
 6469.00    0.57983   0.53329    0.008
 6470.00    0.57823   0.53347    0.008
 6471.00    0.54814   0.53354    0.008
 6472.00    0.51912   0.53425    0.008
 6473.00    0.50003   0.53436    0.009
 6474.00    0.48497   0.53386    0.009
 6475.00    0.49720   0.53454    0.008
 6476.00    0.50885   0.53504    0.008
 6477.00    0.51749   0.53474    0.008
 6478.00    0.52677   0.53480    0.008
 6479.00    0.53878   0.53474    0.008
 6480.00    0.54134   0.53441    0.008
 6481.00    0.51092   0.53422    0.008
 6482.00    0.48391   0.53343    0.009
 6483.00    0.46691   0.53259    0.008
 6484.00    0.46248   0.53253    0.008
 6485.00    0.48951   0.53183    0.009
 6486.00    0.50823   0.53031    0.009
 6487.00    0.50905   0.52941    0.009
 6488.00    0.50754   0.52879    0.009
 6489.00    0.50170   0.52724    0.009
 6490.00    0.49086   0.52541    0.009
 6491.00    0.47187   0.52408    0.009
 6492.00    0.46519   0.52256    0.009
 6493.00    0.47615   0.52019    0.008
 6494.00    0.49162   0.51761    0.008
 6495.00    0.51279   0.51587    0.008
 6496.00    0.51908   0.51379    0.008
 6497.00    0.50887   0.51096    0.008
 6498.00    0.50473   0.50887    0.008
 6499.00    0.50654   0.50655    0.008
 6500.00    0.50606   0.50435    0.008
 6501.00    0.50359   0.50285    0.008
 6502.00    0.50172   0.50065    0.008
 6503.00    0.50030   0.49988    0.008
 6504.00    0.48508   0.49981    0.008
 6505.00    0.46062   0.49847    0.008
 6506.00    0.46204   0.49916    0.008
 6507.00    0.47862   0.50057    0.008
 6508.00    0.49011   0.50124    0.009
 6509.00    0.49900   0.50343    0.009
 6510.00    0.49785   0.50527    0.009
 6511.00    0.49225   0.50715    0.009
 6512.00    0.50219   0.50985    0.009
 6513.00    0.51803   0.51167    0.009
 6514.00    0.52269   0.51380    0.009
 6515.00    0.52374   0.51589    0.009
 6516.00    0.48820   0.51715    0.009
 6517.00    0.44278   0.51890    0.009
 6518.00    0.41986   0.52012    0.009
 6519.00    0.40192   0.52070    0.008
 6520.00    0.40002   0.52168    0.008
 6521.00    0.40096   0.52228    0.008
 6522.00    0.42662   0.52274    0.008
 6523.00    0.45561   0.52292    0.008
 6524.00    0.46425   0.52296    0.008
 6525.00    0.47095   0.52362    0.008
 6526.00    0.47952   0.52343    0.008
 6527.00    0.48821   0.52305    0.008
 6528.00    0.48299   0.52385    0.000
 6529.00    0.47734   0.52378    0.000
 6530.00    0.46154   0.52349    0.000
 6531.00    0.44670   0.52417    0.000
 6532.00    0.45580   0.52416    0.000
 6533.00    0.46573   0.52416    0.000
 6534.00    0.48681   0.52442    0.000
 6535.00    0.50710   0.52438    0.000
 6536.00    0.52044   0.52480    0.000
 6537.00    0.53319   0.52471    0.000
 6538.00    0.54213   0.52429    0.000
 6539.00    0.54855   0.52477    0.000
 6540.00    0.54209   0.52474    0.000
 6541.00    0.53211   0.52432    0.000
 6542.00    0.50758   0.52438    0.000
 6543.00    0.49130   0.52395    0.000
 6544.00    0.50323   0.52350    0.000
 6545.00    0.51642   0.52314    0.000
 6546.00    0.53326   0.52215    0.000
 6547.00    0.53167   0.52148    0.000
 6548.00    0.48477   0.52057    0.000
 6549.00    0.45222   0.51902    0.000
 6550.00    0.45006   0.51794    0.000
 6551.00    0.45829   0.51627    0.000
 6552.00    0.48566   0.51416    0.000
 6553.00    0.50190   0.51250    0.000
 6554.00    0.50020   0.50999    0.000
 6555.00    0.52462   0.50748    0.000
 6556.00    0.58593   0.50517    0.000
 6557.00    0.66328   0.50188    0.000
 6558.00    0.76057   0.49911    0.000
 6559.00    0.82868   0.49600    0.000
 6560.00    0.86485   0.49218    0.000
 6561.00    0.85519   0.48943    0.000
 6562.00    0.80125   0.48509    0.000
 6563.00    0.72777   0.48033    0.000
 6564.00    0.63764   0.47826    0.000
 6565.00    0.55589   0.47453    0.000
 6566.00    0.48041   0.47014    0.000
 6567.00    0.45536   0.46841    0.000
 6568.00    0.46353   0.46571    0.000
 6569.00    0.46405   0.46318    0.000
 6570.00    0.46015   0.46238    0.000
 6571.00    0.45392   0.46115    0.000
 6572.00    0.44652   0.46163    0.000
 6573.00    0.46007   0.46226    0.000
 6574.00    0.48274   0.46190    0.000
 6575.00    0.48621   0.46492    0.000
 6576.00    0.48251   0.46785    0.000
 6577.00    0.50132   0.46852    0.000
 6578.00    0.52727   0.47227    0.000
 6579.00    0.57891   0.47662    0.000
 6580.00    0.63734   0.47834    0.000
 6581.00    0.65385   0.48130    0.000
 6582.00    0.66129   0.48523    0.000
 6583.00    0.61505   0.48728    0.000
 6584.00    0.55959   0.48967    0.000
 6585.00    0.50651   0.49279    0.000
 6586.00    0.45374   0.49441    0.000
 6587.00    0.42627   0.49635    0.000
 6588.00    0.40110   0.49865    0.000
 6589.00    0.42875   0.49950    0.000
 6590.00    0.45931   0.50098    0.000
 6591.00    0.50186   0.50258    0.000
 6592.00    0.54378   0.50263    0.000
 6593.00    0.50182   0.50316    0.000
 6594.00    0.46102   0.50390    0.000
 6595.00    0.44704   0.50372    0.000
 6596.00    0.43416   0.50384    0.000
 6597.00    0.43518   0.50390    0.000
 6598.00    0.43806   0.50350    0.000
 6599.00    0.45688   0.50340    0.000
 6600.00    0.47541   0.50315    0.000
 6601.00    0.49214   0.50275    0.000
 6602.00    0.50035   0.50280    0.000
 6603.00    0.46618   0.50274    0.000
 6604.00    0.43871   0.50227    0.000
 6605.00    0.43824   0.50243    0.000
 6606.00    0.44149   0.50274    0.000
 6607.00    0.45720   0.50229    0.000
 6608.00    0.46980   0.50252    0.000
 6609.00    0.47359   0.50309    0.009
 6610.00    0.46678   0.50302    0.009
 6611.00    0.43436   0.50340    0.009
 6612.00    0.41729   0.50375    0.009
 6613.00    0.43222   0.50359    0.009
 6614.00    0.44588   0.50396    0.009
 6615.00    0.45723   0.50455    0.009
 6616.00    0.47426   0.50464    0.009
 6617.00    0.50029   0.50480    0.009
 6618.00    0.50651   0.50535    0.009
 6619.00    0.48515   0.50570    0.009
 6620.00    0.46798   0.50594    0.009
 6621.00    0.45594   0.50647    0.009
 6622.00    0.44773   0.50690    0.008
 6623.00    0.44366   0.50713    0.008
 6624.00    0.44196   0.50724    0.008
 6625.00    0.44254   0.50737    0.008
 6626.00    0.45679   0.50780    0.008
 6627.00    0.48252   0.50746    0.009
 6628.00    0.50225   0.50678    0.009
 6629.00    0.51754   0.50691    0.009
 6630.00    0.51839   0.50626    0.009
 6631.00    0.50987   0.50524    0.009
 6632.00    0.48443   0.50484    0.009
 6633.00    0.44938   0.50375    0.009
 6634.00    0.41338   0.50276    0.009
 6635.00    0.37691   0.50221    0.009
 6636.00    0.37883   0.50100    0.009
 6637.00    0.39719   0.50024    0.009
 6638.00    0.38452   0.49972    0.009
 6639.00    0.36049   0.49856    0.009
 6640.00    0.36907   0.49805    0.009
 6641.00    0.38779   0.49793    0.009
 6642.00    0.43060   0.49729    0.009
 6643.00    0.47965   0.49682    0.009
 6644.00    0.46537   0.49676    0.009
 6645.00    0.43773   0.49665    0.009
 6646.00    0.42861   0.49653    0.009
 6647.00    0.42257   0.49649    0.009
 6648.00    0.44430   0.49637    0.009
 6649.00    0.46951   0.49654    0.009
 6650.00    0.47761   0.49676    0.009
 6651.00    0.48422   0.49645    0.009
 6652.00    0.45439   0.49661    0.009
 6653.00    0.42270   0.49691    0.009
 6654.00    0.41300   0.49637    0.009
 6655.00    0.40360   0.49647    0.009
 6656.00    0.38749   0.49677    0.009
 6657.00    0.37247   0.49601    0.009
 6658.00    0.38038   0.49588    0.009
 6659.00    0.38913   0.49603    0.009
 6660.00    0.40799   0.49525    0.009
 6661.00    0.42884   0.49494    0.009
 6662.00    0.46617   0.49468    0.009
 6663.00    0.49489   0.49379    0.009
 6664.00    0.47044   0.49344    0.009
 6665.00    0.44755   0.49293    0.009
 6666.00    0.43220   0.49199    0.009
 6667.00    0.41867   0.49166    0.009
 6668.00    0.41228   0.49100    0.009
 6669.00    0.40049   0.49023    0.009
 6670.00    0.37095   0.49013    0.009
 6671.00    0.34915   0.48947    0.009
 6672.00    0.34885   0.48893    0.009
 6673.00    0.35628   0.48919    0.009
 6674.00    0.38205   0.48857    0.009
 6675.00    0.40965   0.48820    0.009
 6676.00    0.44099   0.48884    0.009
 6677.00    0.46391   0.48827    0.009
 6678.00    0.47179   0.48765    0.009
 6679.00    0.46520   0.48841    0.009
 6680.00    0.43602   0.48817    0.009
 6681.00    0.43032   0.48745    0.009
 6682.00    0.45684   0.48789    0.009
 6683.00    0.49250   0.48777    0.009
 6684.00    0.53922   0.48721    0.009
 6685.00    0.52938   0.48738    0.009
 6686.00    0.45932   0.48721    0.009
 6687.00    0.41268   0.48698    0.009
 6688.00    0.38802   0.48716    0.009
 6689.00    0.40030   0.48692    0.009
 6690.00    0.44317   0.48701    0.009
 6691.00    0.47187   0.48738    0.009
 6692.00    0.49023   0.48711    0.009
 6693.00    0.45243   0.48730    0.009
 6694.00    0.37868   0.48783    0.009
 6695.00    0.35075   0.48747    0.009
 6696.00    0.34848   0.48735    0.000
 6697.00    0.37582   0.48795    0.000
 6698.00    0.41760   0.48773    0.000
 6699.00    0.46595   0.48723    0.000
 6700.00    0.51708   0.48752    0.000
 6701.00    0.50952   0.48726    0.000
 6702.00    0.48084   0.48666    0.000
 6703.00    0.41921   0.48671    0.000
 6704.00    0.34755   0.48623    0.000
 6705.00    0.36274   0.48570    0.000
 6706.00    0.39992   0.48578    0.000
 6707.00    0.44224   0.48511    0.000
 6708.00    0.48562   0.48473    0.000
 6709.00    0.48874   0.48481    0.000
 6710.00    0.48534   0.48392    0.000
 6711.00    0.48424   0.48360    0.000
 6712.00    0.48342   0.48361    0.000
 6713.00    0.52700   0.48254    0.000
 6714.00    0.57427   0.48210    0.000
 6715.00    0.53124   0.48182    0.000
 6716.00    0.48393   0.48074    0.000
 6717.00    0.49566   0.48012    0.000
 6718.00    0.50812   0.47945    0.000
 6719.00    0.51452   0.47851    0.000
 6720.00    0.51989   0.47791    0.000
 6721.00    0.50492   0.47704    0.000
 6722.00    0.49024   0.47623    0.000
 6723.00    0.47872   0.47585    0.000
 6724.00    0.46931   0.47529    0.000
 6725.00    0.47660   0.47479    0.000
 6726.00    0.47985   0.47462    0.000
 6727.00    0.45880   0.47457    0.000
 6728.00    0.44889   0.47453    0.000
 6729.00    0.49180   0.47463    0.000
 6730.00    0.52429   0.47507    0.000
 6731.00    0.51658   0.47536    0.000
 6732.00    0.50252   0.47559    0.000
 6733.00    0.46802   0.47626    0.000
 6734.00    0.43610   0.47663    0.000
 6735.00    0.41125   0.47686    0.000
 6736.00    0.40685   0.47749    0.000
 6737.00    0.45020   0.47772    0.000
 6738.00    0.47111   0.47778    0.000
 6739.00    0.44666   0.47804    0.000
 6740.00    0.43319   0.47797    0.000
 6741.00    0.43903   0.47795    0.000
 6742.00    0.46270   0.47783    0.000
 6743.00    0.51382   0.47728    0.000
 6744.00    0.52832   0.47711    0.000
 6745.00    0.49332   0.47686    0.000
 6746.00    0.45662   0.47605    0.000
 6747.00    0.41791   0.47563    0.000
 6748.00    0.39777   0.47535    0.000
 6749.00    0.39715   0.47457    0.000
 6750.00    0.41485   0.47398    0.000
 6751.00    0.44951   0.47383    0.000
 6752.00    0.50302   0.47329    0.000
 6753.00    0.57191   0.47264    0.011
 6754.00    0.51961   0.47276    0.011
 6755.00    0.38023   0.47258    0.012
 6756.00    0.35259   0.47212    0.012
 6757.00    0.39538   0.47260    0.012
 6758.00    0.43653   0.47273    0.012
 6759.00    0.47678   0.47256    0.012
 6760.00    0.50430   0.47339    0.012
 6761.00    0.52573   0.47373    0.012
 6762.00    0.57291   0.47387    0.012
 6763.00    0.63075   0.47489    0.012
 6764.00    0.63231   0.47519    0.012
 6765.00    0.61398   0.47554    0.012
 6766.00    0.61223   0.47657    0.012
 6767.00    0.61543   0.47657    0.012
 6768.00    0.55015   0.47684    0.012
 6769.00    0.46791   0.47775    0.012
 6770.00    0.47151   0.47752    0.012
 6771.00    0.49233   0.47754    0.012
 6772.00    0.50218   0.47817    0.011
 6773.00    0.51030   0.47788    0.011
 6774.00    0.46502   0.47777    0.011
 6775.00    0.41351   0.47819    0.011
 6776.00    0.40595   0.47800    0.011
 6777.00    0.40185   0.47786    0.011
 6778.00    0.50329   0.47816    0.012
 6779.00    0.60932   0.47816    0.012
 6780.00    0.53076   0.47807    0.012
 6781.00    0.45049   0.47824    0.012
 6782.00    0.38087   0.47832    0.012
 6783.00    0.31978   0.47810    0.011
 6784.00    0.41289   0.47805    0.011
 6785.00    0.49812   0.47806    0.011
 6786.00    0.49723   0.47763    0.011
 6787.00    0.50013   0.47729    0.011
 6788.00    0.53222   0.47717    0.011
 6789.00    0.56018   0.47648    0.011
 6790.00    0.56413   0.47585    0.012
 6791.00    0.56430   0.47565    0.012
 6792.00    0.54700   0.47492    0.012
 6793.00    0.53013   0.47418    0.012
 6794.00    0.51491   0.47404    0.012
 6795.00    0.48678   0.47348    0.012
 6796.00    0.41785   0.47286    0.012
 6797.00    0.36592   0.47293    0.012
 6798.00    0.35951   0.47263    0.012
 6799.00    0.38900   0.47227    0.012
 6800.00    0.50099   0.47253    0.012
 6801.00    0.57666   0.47242    0.012
 6802.00    0.58009   0.47240    0.012
 6803.00    0.56801   0.47278    0.012
 6804.00    0.52903   0.47264    0.012
 6805.00    0.47589   0.47291    0.012
 6806.00    0.40125   0.47332    0.012
 6807.00    0.37981   0.47302    0.012
 6808.00    0.42927   0.47349    0.011
 6809.00    0.47941   0.47383    0.011
 6810.00    0.53035   0.47336    0.012
 6811.00    0.53831   0.47389    0.012
 6812.00    0.50180   0.47406    0.012
 6813.00    0.47087   0.47356    0.012
 6814.00    0.44504   0.47405    0.012
 6815.00    0.47143   0.47396    0.012
 6816.00    0.53982   0.47360    0.012
 6817.00    0.53810   0.47409    0.012
 6818.00    0.48673   0.47384    0.012
 6819.00    0.49248   0.47368    0.012
 6820.00    0.53371   0.47411    0.012
 6821.00    0.52864   0.47383    0.012
 6822.00    0.49845   0.47394    0.012
 6823.00    0.41014   0.47437    0.012
 6824.00    0.29442   0.47414    0.012
 6825.00    0.34047   0.47441    0.012
 6826.00    0.45229   0.47481    0.012
 6827.00    0.45443   0.47470    0.012
 6828.00    0.41848   0.47496    0.012
 6829.00    0.43908   0.47525    0.012
 6830.00    0.47624   0.47524    0.012
 6831.00    0.44489   0.47544    0.012
 6832.00    0.39694   0.47558    0.012
 6833.00    0.40120   0.47546    0.012
 6834.00    0.41567   0.47549    0.012
 6835.00    0.47793   0.47551    0.012
 6836.00    0.54747   0.47521    0.012
 6837.00    0.48392   0.47500    0.012
 6838.00    0.40543   0.47484    0.012
 6839.00    0.41274   0.47431    0.013
 6840.00    0.42647   0.47390    0.013
 6841.00    0.42539   0.47355    0.013
 6842.00    0.42372   0.47284    0.013
 6843.00    0.40311   0.47231    0.012
 6844.00    0.38450   0.47191    0.012
 6845.00    0.45031   0.47120    0.012
 6846.00    0.50811   0.47063    0.012
 6847.00    0.43080   0.47024    0.012
 6848.00    0.36191   0.46972    0.012
 6849.00    0.38118   0.46924    0.012
 6850.00    0.39688   0.46900    0.012
 6851.00    0.38603   0.46874    0.012
 6852.00    0.37569   0.46832    0.012
 6853.00    0.36820   0.46831    0.011
 6854.00    0.37287   0.46826    0.011
 6855.00    0.43238   0.46770    0.011
 6856.00    0.47991   0.46782    0.011
 6857.00    0.48309   0.46789    0.011
 6858.00    0.49388   0.46710    0.012
 6859.00    0.52830   0.46720    0.012
 6860.00    0.54857   0.46725    0.012
 6861.00    0.53159   0.46618    0.012
 6862.00    0.52426   0.46614    0.012
 6863.00    0.53870   0.46620    0.012
 6864.00    0.51390   0.46514    0.012
 6865.00    0.41229   0.46494    0.012
 6866.00    0.37404   0.46503    0.012
 6867.00    0.44389   0.46418    0.012
 6868.00    0.47218   0.46387    0.013
 6869.00    0.43834   0.46404    0.013
 6870.00    0.43068   0.46364    0.013
 6871.00    0.45740   0.46333    0.013
 6872.00    0.46061   0.46349    0.012
 6873.00    0.43663   0.46345    0.012
 6874.00    0.38632   0.46327    0.012
 6875.00    0.30915   0.46345    0.012
 6876.00    0.29431   0.46361    0.011
 6877.00    0.33557   0.46358    0.011
 6878.00    0.37702   0.46385    0.011
 6879.00    0.41861   0.46409    0.011
 6880.00    0.46028   0.46419    0.011
 6881.00    0.50202   0.46457    0.011
 6882.00    0.50626   0.46484    0.011
 6883.00    0.48755   0.46499    0.011
 6884.00    0.50741   0.46554    0.012
 6885.00    0.54787   0.46593    0.012
 6886.00    0.52907   0.46604    0.012
 6887.00    0.48279   0.46670    0.012
 6888.00    0.48622   0.46731    0.012
 6889.00    0.50952   0.46738    0.012
 6890.00    0.48186   0.46807    0.012
 6891.00    0.43683   0.46895    0.012
 6892.00    0.50526   0.46899    0.012
 6893.00    0.60623   0.46964    0.012
 6894.00    0.51217   0.47072    0.012
 6895.00    0.37193   0.47079    0.012
 6896.00    0.44338   0.47133    0.012
 6897.00    0.55519   0.47244    0.012
 6898.00    0.52991   0.47257    0.012
 6899.00    0.48439   0.47300    0.012
 6900.00    0.39478   0.47391    0.012
 6901.00    0.30042   0.47405    0.012
 6902.00    0.34645   0.47440    0.012
 6903.00    0.40240   0.47504    0.011
 6904.00    0.47731   0.47518    0.011
 6905.00    0.55290   0.47541    0.011
 6906.00    0.50042   0.47579    0.012
 6907.00    0.44699   0.47597    0.012
 6908.00    0.37520   0.47607    0.012
 6909.00    0.31185   0.47626    0.012
 6910.00    0.38208   0.47647    0.012
 6911.00    0.44654   0.47637    0.012
 6912.00    0.45339   0.47646    0.012
 6913.00    0.44632   0.47665    0.012
 6914.00    0.33920   0.47625    0.012
 6915.00    0.27542   0.47627    0.012
 6916.00    0.45072   0.47644    0.012
 6917.00    0.57469   0.47571    0.012
 6918.00    0.47240   0.47567    0.012
 6919.00    0.42695   0.47577    0.013
 6920.00    0.58755   0.47484    0.015
 6921.00    0.71973   0.47474    0.017
 6922.00    0.76556   0.47478    0.017
 6923.00    0.79467   0.47381    0.017
 6924.00    0.78055   0.47366    0.016
 6925.00    0.68523   0.47363    0.015
 6926.00    0.40945   0.47277    0.013
 6927.00    0.27196   0.47262    0.012
 6928.00    0.40093   0.47257    0.012
 6929.00    0.43018   0.47193    0.012
 6930.00    0.29183   0.47172    0.012
 6931.00    0.23629   0.47169    0.012
 6932.00    0.30272   0.47131    0.012
 6933.00    0.34511   0.47104    0.012
 6934.00    0.35637   0.47106    0.012
 6935.00    0.38049   0.47099    0.013
 6936.00    0.41928   0.47068    0.013
 6937.00    0.42815   0.47078    0.013
 6938.00    0.40691   0.47095    0.013
 6939.00    0.39007   0.47062    0.013
 6940.00    0.37714   0.47082    0.012
 6941.00    0.38846   0.47117    0.012
 6942.00    0.41877   0.47076    0.012
 6943.00    0.42313   0.47098    0.012
 6944.00    0.40964   0.47142    0.012
 6945.00    0.39365   0.47085    0.012
 6946.00    0.37615   0.47104    0.012
 6947.00    0.40207   0.47153    0.012
 6948.00    0.45083   0.47077    0.012
 6949.00    0.43762   0.47090    0.012
 6950.00    0.39613   0.47140    0.012
 6951.00    0.38273   0.47045    0.012
 6952.00    0.38038   0.47055    0.012
 6953.00    0.38407   0.47110    0.012
 6954.00    0.38978   0.47010    0.012
 6955.00    0.38738   0.47023    0.012
 6956.00    0.38269   0.47090    0.012
 6957.00    0.34955   0.47001    0.012
 6958.00    0.30982   0.47025    0.012
 6959.00    0.31979   0.47104    0.012
 6960.00    0.33900   0.47038    0.012
 6961.00    0.39190   0.47079    0.012
 6962.00    0.44963   0.47166    0.012
 6963.00    0.48237   0.47127    0.013
 6964.00    0.51254   0.47186    0.012
 6965.00    0.48939   0.47273    0.012
 6966.00    0.46268   0.47251    0.012
 6967.00    0.48937   0.47322    0.012
 6968.00    0.51776   0.47398    0.012
 6969.00    0.49222   0.47378    0.012
 6970.00    0.46798   0.47448    0.012
 6971.00    0.48368   0.47498    0.012
 6972.00    0.49386   0.47458    0.012
 6973.00    0.42197   0.47514    0.012
 6974.00    0.35601   0.47534    0.012
 6975.00    0.34703   0.47454    0.012
 6976.00    0.33599   0.47481    0.012
 6977.00    0.31052   0.47479    0.012
 6978.00    0.29889   0.47358    0.012
 6979.00    0.36146   0.47349    0.012
 6980.00    0.41947   0.47343    0.013
 6981.00    0.45783   0.47204    0.013
 6982.00    0.46927   0.47171    0.013
 6983.00    0.38517   0.47183    0.012
 6984.00    0.32174   0.47059    0.012
 6985.00    0.31994   0.47025    0.012
 6986.00    0.33001   0.47072    0.012
 6987.00    0.37025   0.46994    0.012
 6988.00    0.41715   0.46980    0.012
 6989.00    0.47863   0.47061    0.012
 6990.00    0.47043   0.47040    0.012
 6991.00    0.33007   0.47054    0.012
 6992.00    0.26379   0.47149    0.012
 6993.00    0.32017   0.47170    0.012
 6994.00    0.36192   0.47198    0.012
 6995.00    0.38243   0.47279    0.012
 6996.00    0.38822   0.47312    0.012
 6997.00    0.37522   0.47334    0.012
 6998.00    0.34724   0.47381    0.012
 6999.00    0.30241   0.47400    0.012
 7000.00    0.31037   0.47397    0.012
 7001.00    0.37070   0.47406    0.013
 7002.00    0.35870   0.47403    0.013
 7003.00    0.28344   0.47374    0.013
 7004.00    0.33613   0.47350    0.013
 7005.00    0.48746   0.47328    0.013
 7006.00    0.44313   0.47283    0.013
 7007.00    0.26623   0.47239    0.013
 7008.00    0.21628   0.47207    0.012
 7009.00    0.24171   0.47163    0.012
 7010.00    0.27150   0.47111    0.012
 7011.00    0.30356   0.47074    0.012
 7012.00    0.33121   0.47045    0.012
 7013.00    0.35687   0.46992    0.012
 7014.00    0.36858   0.46954    0.012
 7015.00    0.37490   0.46947    0.012
 7016.00    0.37867   0.46891    0.012
 7017.00    0.38160   0.46850    0.012
 7018.00    0.36135   0.46871    0.012
 7019.00    0.33473   0.46815    0.012
 7020.00    0.39027   0.46770    0.013
 7021.00    0.46437   0.46813    0.013
 7022.00    0.43664   0.46763    0.013
 7023.00    0.39051   0.46719    0.013
 7024.00    0.39857   0.46780    0.013
 7025.00    0.41413   0.46746    0.013
 7026.00    0.33696   0.46712    0.013
 7027.00    0.25060   0.46784    0.013
 7028.00    0.27514   0.46774    0.013
 7029.00    0.30663   0.46755    0.013
 7030.00    0.29869   0.46831    0.013
 7031.00    0.29009   0.46851    0.013
 7032.00    0.40117   0.46848    0.013
 7033.00    0.50274   0.46921    0.013
 7034.00    0.34326   0.46972    0.013
 7035.00    0.19946   0.46976    0.012
 7036.00    0.27578   0.47047    0.012
 7037.00    0.35193   0.47129    0.012
 7038.00    0.42654   0.47130    0.012
 7039.00    0.48046   0.47198    0.012
 7040.00    0.39493   0.47316    0.012
 7041.00    0.32964   0.47309    0.013
 7042.00    0.37018   0.47372    0.013
 7043.00    0.42033   0.47523    0.013
 7044.00    0.51092   0.47509    0.013
 7045.00    0.56699   0.47557    0.013
 7046.00    0.50296   0.47728    0.013
 7047.00    0.43930   0.47709    0.013
 7048.00    0.37673   0.47728    0.013
 7049.00    0.31717   0.47884    0.016
 7050.00    0.26513   0.47850   -2.000
 7051.00    0.25683   0.47825   -2.000
 7052.00    0.34260   0.47920   -2.000
 7053.00    0.36726   0.47849   -2.000
 7054.00    0.27779   0.47765   -2.000
 7055.00    0.22863   0.47764   -2.000
 7056.00    0.24523   0.47632   -2.000
 7057.00    0.23767   0.47486   -2.000
 7058.00    0.19555   0.47386   -2.000
 7059.00    0.26093   0.47189   -2.000
 7060.00    0.46160   0.46989   -2.000
 7061.00    0.51760   0.46823   -2.000
 7062.00    0.41317   0.46587   -2.000
 7063.00    0.39088   0.46355   -2.000
 7064.00    0.44892   0.46176   -2.000
 7065.00    0.41334   0.45946   -2.000
 7066.00    0.29699   0.45710   -2.000
 7067.00    0.23433   0.45569   -2.000
 7068.00    0.21247   0.45390   -2.000
 7069.00   -0.36741   0.45177   -2.000
 7070.00   -1.31990   0.45100   -2.000
 7071.00   -0.97831   0.44999   -2.000
 7072.00    0.12009   0.44826   -2.000
 7073.00    0.45461   0.44816   -2.000
 7074.00    0.39969   0.44794   -2.000
 7075.00    0.39495   0.44670   -2.000
 7076.00    0.41236   0.44706   -2.000
 7077.00    0.43872   0.44744   -2.000
 7078.00    0.46846   0.44661   -2.000
 7079.00    0.44184   0.44706   -2.000
 7080.00    0.39705   0.44771   -2.000
 7081.00    0.39572   0.44708   -2.000
 7082.00    0.40608   0.44721   -2.000
 7083.00    0.45845   0.44774   -2.000
 7084.00    0.52010   0.44700   -2.000
 7085.00    0.51859   0.44646   -2.000
 7086.00    0.50597   0.44660   -2.000
 7087.00    0.42737   0.44548   -2.000
 7088.00    0.33993   0.44411   -2.000
 7089.00    0.35215   0.44379   -2.000
 7090.00    0.37385   0.44219   -2.000
 7091.00    0.44045   0.44014   -2.000
 7092.00    0.50969   0.43953   -2.000
 7093.00    0.46856   0.43763   -2.000
 7094.00    0.42527   0.43530   -2.000
 7095.00    0.45857   0.43469   -2.000
 7096.00    0.48746   0.43285   -2.000
 7097.00    0.40682   0.43069   -2.000
 7098.00    0.33398   0.43035   -2.000
 7099.00    0.36462   0.42893   -2.000
 7100.00    0.38760   0.42731   -2.000
 7101.00    0.34276   0.42734   -2.000
 7102.00    0.31199   0.42654   -2.000
 7103.00    0.37323   0.42558   -2.000
 7104.00    0.42029   0.42589   -2.000
 7105.00    0.39519   0.42569   -2.000
 7106.00    0.36697   0.42531   -2.000
 7107.00    0.32591   0.42569   -2.000
 7108.00    0.29014   0.42589   -2.000
 7109.00    0.27240   0.42587   -2.000
 7110.00    0.27689   0.42616   -2.000
 7111.00    0.34522   0.42648   -2.000
 7112.00    0.37560   0.42662   -2.000
 7113.00    0.31287   0.42675   -2.000
 7114.00    0.28962   0.42701   -2.000
 7115.00    0.34993   0.42716   -2.000
 7116.00    0.38217   0.42716   -2.000
 7117.00    0.36283   0.42727   -2.000
 7118.00    0.33824   0.42737   -2.000
 7119.00    0.30522   0.42728   -2.000
 7120.00    0.35202   0.42722   -2.000
 7121.00    0.51134   0.42724   -2.000
 7122.00    0.62370   0.42703   -2.000
 7123.00    0.67783   0.42680   -2.000
 7124.00    0.63668   0.42671   -2.000
 7125.00    0.49135   0.42631   -2.000
 7126.00    0.44898   0.42587   -2.000
 7127.00    0.50589   0.42560   -2.000
 7128.00    0.48769   0.42498   -2.000
 7129.00    0.40562   0.42436   -2.000
 7130.00    0.30345   0.42387   -2.000
 7131.00    0.18622   0.42309   -2.000
 7132.00    0.14593   0.42240   -2.000
 7133.00    0.15626   0.42171   -2.000
 7134.00    0.22095   0.42100   -2.000
 7135.00    0.31695   0.42046   -2.000
 7136.00    0.38264   0.41963   -2.000
 7137.00    0.43311   0.41918   -2.000
 7138.00   -0.11336   0.41909   -2.000
 7139.00   -0.91906   0.41819   -2.000
 7140.00   -0.56928   0.41808   -2.000
 7141.00    0.21092   0.41860   -2.000
 7142.00    0.35376   0.41771   -2.000
 7143.00    0.29528   0.41787   -2.000
 7144.00    0.32031   0.41892   -2.000
 7145.00    0.36736   0.41803   -2.000
 7146.00    0.37684   0.41830   -2.000
 7147.00    0.37822   0.41971   -2.000
 7148.00    0.37092   0.41878   -2.000
 7149.00    0.36214   0.41898   -2.000
 7150.00    0.42027   0.42057   -2.000
 7151.00    0.48707   0.41967   -2.000
 7152.00    0.37201   0.41970   -2.000
 7153.00    0.24044   0.42132   -2.000
 7154.00    0.26304   0.42061   -2.000
 7155.00    0.29407   0.42046   -2.000
 7156.00    0.31631   0.42200   -2.000
 7157.00    0.34057   0.42165   -2.000
 7158.00    0.56563   0.42137   -2.000
 7159.00    0.78101   0.42271   -2.000
 7160.00    0.77646   0.42278   -2.000
 7161.00    0.75328   0.42239   -2.000
 7162.00    0.49543   0.42341   -2.000
 7163.00    0.26441   0.42387   -2.000
 7164.00    0.26221   0.42337   -2.000
 7165.00    0.28970   0.42393   -2.000
 7166.00    0.50534   0.42461   -2.000
 7167.00    0.64626   0.42413   -2.000
 7168.00    0.41616   0.42430   -2.000
 7169.00    0.24502   0.42505   -2.000
 7170.00    0.31115   0.42462   -2.000
 7171.00    0.34154   0.42457   -2.000
 7172.00    0.25256   0.42535   -2.000
 7173.00    0.18644   0.42507   -2.000
 7174.00    0.18481   0.42498   -2.000
 7175.00    0.21213   0.42577   -2.000
 7176.00    0.30926   0.42561   -2.000
 7177.00    0.33789   0.42554   -2.000
 7178.00    0.22385   0.42632   -2.000
 7179.00    0.22373   0.42620   -2.000
 7180.00    0.42984   0.42609   -2.000
 7181.00    0.50099   0.42667   -2.000
 7182.00    0.35850   0.42647   -2.000
 7183.00    0.33029   0.42632   -2.000
 7184.00    0.46086   0.42657   -2.000
 7185.00    0.51986   0.42620   -2.000
 7186.00    0.49135   0.42600   -2.000
 7187.00    0.45999   0.42580   -2.000
 7188.00    0.42558   0.42528   -2.000
 7189.00    0.44237   0.42514   -2.000
 7190.00    0.50786   0.42459   -2.000
 7191.00    0.51729   0.42399   -2.000
 7192.00    0.47973   0.42404   -2.000
 7193.00    0.49131   0.42331   -2.000
 7194.00    0.53915   0.42268   -2.000
 7195.00    0.46630   0.42300   -2.000
 7196.00    0.31520   0.42237   -2.000
 7197.00    0.40482   0.42175   -2.000
 7198.00    0.63098   0.42228   -2.000
 7199.00    0.52398   0.42193   -2.000
 7200.00    0.25245   0.42140   -2.000
 7201.00    0.28526   0.42200   -2.000
 7202.00    0.44803   0.42197   -2.000
 7203.00    0.40047   0.42154   -2.000
 7204.00    0.27594   0.42203   -2.000
 7205.00    0.36900   0.42233   -2.000
 7206.00    0.52947   0.42200   -2.000
 7207.00    0.41974   0.42213   -2.000
 7208.00    0.24026   0.42263   -2.000
 7209.00    0.37153   0.42248   -2.000
 7210.00    0.56815   0.42223   -2.000
 7211.00    0.61092   0.42287   -2.000
 7212.00    0.62814   0.42295   -2.000
 7213.00    0.55043   0.42236   -2.000
 7214.00    0.46087   0.42304   -2.000
 7215.00    0.38595   0.42346   -2.000
 7216.00    0.31229   0.42277   -2.000
 7217.00    0.36511   0.42344   -2.000
 7218.00    0.42435   0.42427   -2.000
