###################################################################
## OUTPUT of StarlightChains_v04.for    [Cid@UFSC - 01/Apr/2007] ##
###################################################################

## Some input info
KUG0210-078._32_39.txt                   [arq_obs]
Base.CB07.vall.4m                        [arq_base]
Masks.EmLines.NEW.gm                     [arq_masks]
StCv04.C11.config                        [arq_config]
   66                                    [N_base]
    0                                    [N_YAV_components = # of components with extra extinction!]
    0                                    [i_FitPowerLaw (1/0 = Yes/No)]
-9.99                                    [alpha_PowerLaw]
CCM                                      [red_law_option]
 1.458241                                [q_norm = A(l_norm)/A(V)]

## (Re)Sampling Parameters
 3741.00                                 [l_ini (A)]
 7218.00                                 [l_fin (A)]
    1.00                                 [dl    (A)]     (OBS: dl_cushion =    50.00 A)

## Normalization info
 4020.00                                 [l_norm (A) - for base]
 4010.00                                 [llow_norm (A) - window for f_obs]
 4060.00                                 [lupp_norm (A) - window for f_obs]
1.922633E-17                             [fobs_norm (in input units)]

## S/N
 3691.00                                 [llow_SN (A) - window for S/N]
 7268.00                                 [lupp_SN (A) - window for S/N]
   5.515                                 [S/N in S/N window]
   4.934                                 [S/N in norm. window]
   0.025                                 [S/N_err in S/N window]
   0.022                                 [S/N_err in norm. window]
  1.0000                                 [fscale_chi2]

## etc...
    -2007487                             [idum_orig]
  2432                                   [NOl_eff]
  2420                                   [Nl_eff]
    12    NSIGMA                         [Ntot_cliped & clip_method]
  2337930                                [Nglobal_steps]
   7                                     [N_chains]
  42                                     [NEX0s_base = N_base in EX0s-fits]
 0   0   1       12   2.0   2.746E+03    [Clip-Bug, RC-Crash & Burn-In warning-flags, n_censored_weights, wei_nsig_threshold & wei_limit]
    74     74.381     73.597      0.783  [idt_all, wdt_TotTime, wdt_UsrTime & wdt_SysTime (sec)]

## Synthesis Results - Best model ##

 8.61623E-06                             [chi2/Nl_eff]
     7.48039                             [adev (%)]

   108.06353                             [sum-of-x (%)]
 1.48562E-17                             [Flux_tot (units of input spectrum!)]
 7.29945E-13                             [Mini_tot (???)]
 3.77196E-13                             [Mcor_tot (???)]

 -41.90                                  [v0_min  (km/s)]
 274.29                                  [vd_min  (km/s)]
-0.2497                                  [AV_min  (mag)]
 0.0000                                  [YAV_min (mag)]

# j     x_j(%)      Mini_j(%)     Mcor_j(%)     age_j(yr)     Z_j      (L/M)_j    YAV?  Mstars   component_j        a/Fe...       SSP_chi2r SSP_adev(%)   SSP_AV   SSP_x(%)
  1      0.0000     0.0000E+00    0.0000E+00    1.000000E+06  0.00400  1.094E-02    0   1.0000   age020_m42            0.0000     2.4740E-05    12.3810   3.4907    89.0632
  2      0.0000     0.0000E+00    0.0000E+00    3.160000E+06  0.00400  4.007E-02    0   0.9999   age045_m42            0.0000     1.9660E-05    11.0133   2.7457    95.8924
  3      0.0000     0.0000E+00    0.0000E+00    5.010000E+06  0.00400  2.539E-02    0   0.9488   age055_m42            0.0000     2.1887E-05    11.6090   3.0776    93.1475
  4      0.0000     0.0000E+00    0.0000E+00    6.610000E+06  0.00400  2.620E-02    0   0.9220   age061_m42            0.0000     1.9541E-05    10.9089   2.6762    96.0034
  5      0.0000     0.0000E+00    0.0000E+00    1.000000E+07  0.00400  1.322E-02    0   0.8862   age070_m42            0.0000     2.0996E-05    11.6326   2.4227    97.1994
  6      0.0000     0.0000E+00    0.0000E+00    1.445000E+07  0.00400  7.883E-03    0   0.8571   age078_m42            0.0000     2.2313E-05    11.9166   2.7502    94.6661
  7      0.0000     0.0000E+00    0.0000E+00    2.512000E+07  0.00400  5.251E-03    0   0.8174   age090_m42            0.0000     2.1023E-05    11.7692   2.2971    97.6408
  8      0.0000     0.0000E+00    0.0000E+00    4.000000E+07  0.00400  3.649E-03    0   0.7851   age104_m42            0.0000     1.9868E-05    11.4046   2.0636    98.6956
  9      0.0000     0.0000E+00    0.0000E+00    5.500000E+07  0.00400  3.098E-03    0   0.7629   age110_m42            0.0000     1.8613E-05    10.7540   2.2011    99.2014
 10      0.0000     0.0000E+00    0.0000E+00    1.015200E+08  0.00400  2.228E-03    0   0.7207   age116_m42            0.0000     1.7726E-05    10.3382   2.2099    99.7606
 11      0.0000     0.0000E+00    0.0000E+00    2.861200E+08  0.00400  1.093E-03    0   0.6648   age125_m42            0.0000     1.6643E-05    10.2051   1.6416   102.6920
 12      0.0000     0.0000E+00    0.0000E+00    5.088000E+08  0.00400  6.597E-04    0   0.6365   age130_m42            0.0000     1.5099E-05     9.4897   1.6142   104.1804
 13      0.0000     0.0000E+00    0.0000E+00    1.434000E+09  0.00400  2.132E-04    0   0.5798   age139_m42            0.0000     1.1754E-05     8.5338   0.6337   106.7608
 14      0.0000     0.0000E+00    0.0000E+00    4.250000E+09  0.00400  5.895E-05    0   0.5377   age158_m42            0.0000     1.1152E-05     8.3908   0.1763   103.1870
 15      0.0000     0.0000E+00    0.0000E+00    7.500000E+09  0.00400  3.510E-05    0   0.5212   age171_m42            0.0000     1.0701E-05     8.2587  -0.0221   102.8340
 16      0.8726     8.1967E-01    7.9850E-01    1.300000E+10  0.00400  2.005E-05    0   0.5034   age193_m42            0.0000     1.0496E-05     8.2382  -0.1969   102.5620
 17      0.0000     0.0000E+00    0.0000E+00    1.800000E+10  0.00400  1.525E-05    0   0.4967   age213_m42            0.0000     1.0704E-05     8.2895  -0.2164   102.0005
 18      0.0000     0.0000E+00    0.0000E+00    1.000000E+06  0.00800  1.238E-02    0   1.0000   age020_m52            0.0000     2.4739E-05    12.3776   3.4856    89.2768
 19      0.0000     0.0000E+00    0.0000E+00    3.160000E+06  0.00800  3.074E-02    0   0.9966   age045_m52            0.0000     2.4330E-05    12.2991   3.4080    90.1258
 20      0.0000     0.0000E+00    0.0000E+00    5.010000E+06  0.00800  2.668E-02    0   0.9443   age055_m52            0.0000     2.2611E-05    11.7904   3.1628    92.2306
 21      0.0000     0.0000E+00    0.0000E+00    6.610000E+06  0.00800  2.136E-02    0   0.9177   age061_m52            0.0000     1.9940E-05    11.3923   1.9216    98.4163
 22      0.0000     0.0000E+00    0.0000E+00    1.000000E+07  0.00800  1.215E-02    0   0.8827   age070_m52            0.0000     2.2368E-05    12.1580   2.6105    96.6754
 23      0.0000     0.0000E+00    0.0000E+00    1.445000E+07  0.00800  8.717E-03    0   0.8552   age078_m52            0.0000     2.1826E-05    11.8019   2.7146    96.0408
 24      0.0000     0.0000E+00    0.0000E+00    2.512000E+07  0.00800  5.592E-03    0   0.8162   age090_m52            0.0000     2.0834E-05    11.7548   2.3606    98.8123
 25      0.0000     0.0000E+00    0.0000E+00    4.000000E+07  0.00800  3.896E-03    0   0.7841   age104_m52            0.0000     1.9460E-05    11.2442   2.2632    99.9009
 26      0.0000     0.0000E+00    0.0000E+00    1.015200E+08  0.00800  2.148E-03    0   0.7226   age116_m52            0.0000     1.7733E-05    10.4979   2.1847   100.3210
 27      0.0000     0.0000E+00    0.0000E+00    2.861200E+08  0.00800  9.925E-04    0   0.6683   age125_m52            0.0000     1.4944E-05     9.4392   1.6791   105.1751
 28      0.0000     0.0000E+00    0.0000E+00    9.047900E+08  0.00800  3.141E-04    0   0.6138   age135_m52            0.0000     1.0973E-05     8.0270   0.8508   110.7056
 29      0.0000     0.0000E+00    0.0000E+00    1.434000E+09  0.00800  1.719E-04    0   0.5853   age139_m52            0.0000     1.0328E-05     7.9831   0.2716   108.4106
 30      4.7235     1.1301E+00    1.2247E+00    2.500000E+09  0.00800  7.872E-05    0   0.5600   age150_m52            0.0000     9.7849E-06     7.9130  -0.0154   106.2032
 31      0.0000     0.0000E+00    0.0000E+00    4.250000E+09  0.00800  4.336E-05    0   0.5426   age158_m52            0.0000     9.9865E-06     8.0268  -0.0313   105.2223
 32      0.0000     0.0000E+00    0.0000E+00    6.250000E+09  0.00800  3.159E-05    0   0.5319   age166_m52            0.0000     9.4045E-06     7.9987  -0.2507   105.8223
 33      0.0000     0.0000E+00    0.0000E+00    1.300000E+10  0.00800  1.361E-05    0   0.5073   age193_m52            0.0000     9.0823E-06     8.1443  -0.7400   105.8871
 34      2.3760     4.5265E+00    4.3710E+00    1.800000E+10  0.00800  9.886E-06    0   0.4990   age213_m52            0.0000     9.1304E-06     8.3525  -0.8677   106.0413
 35      0.0000     0.0000E+00    0.0000E+00    1.000000E+06  0.02000  1.544E-02    0   1.0000   age020_m62            0.0000     2.4890E-05    12.4163   3.4834    89.4395
 36      0.0000     0.0000E+00    0.0000E+00    3.160000E+06  0.02000  3.762E-02    0   0.9858   age045_m62            0.0000     2.4871E-05    12.3921   3.4199    90.2979
 37      0.0000     0.0000E+00    0.0000E+00    5.010000E+06  0.02000  3.296E-02    0   0.9342   age055_m62            0.0000     2.0888E-05    11.2931   3.0289    94.6002
 38      0.0000     0.0000E+00    0.0000E+00    8.710000E+06  0.02000  1.154E-02    0   0.8861   age067_m62            0.0000     2.9459E-05    15.3033   2.1094    97.7985
 39      0.0000     0.0000E+00    0.0000E+00    1.445000E+07  0.02000  7.663E-03    0   0.8472   age078_m62            0.0000     2.3422E-05    12.8299   2.2683    98.4850
 40      0.0000     0.0000E+00    0.0000E+00    2.512000E+07  0.02000  4.532E-03    0   0.8099   age090_m62            0.0000     2.3520E-05    12.9108   2.2610    98.1916
 41      0.0000     0.0000E+00    0.0000E+00    5.500000E+07  0.02000  2.733E-03    0   0.7595   age110_m62            0.0000     1.9654E-05    11.2754   2.2469    99.1537
 42      0.0000     0.0000E+00    0.0000E+00    1.609000E+08  0.02000  1.369E-03    0   0.6985   age120_m62            0.0000     1.6775E-05    10.0443   2.0577   102.8879
 43      0.0000     0.0000E+00    0.0000E+00    2.861200E+08  0.02000  9.013E-04    0   0.6714   age125_m62            0.0000     1.5065E-05     9.3283   1.7915   106.4926
 44      8.6017     3.2220E-01    4.0211E-01    5.088000E+08  0.02000  5.028E-04    0   0.6449   age130_m62            0.0000     1.2522E-05     8.3763   1.3849   110.3868
 45      0.0000     0.0000E+00    0.0000E+00    9.047900E+08  0.02000  2.428E-04    0   0.6179   age135_m62            0.0000     1.0289E-05     7.8509   0.7847   110.2818
 46     14.1470     2.1096E+00    2.4119E+00    1.434000E+09  0.02000  1.263E-04    0   0.5908   age139_m62            0.0000     9.8084E-06     7.8701   0.3368   108.8318
 47      0.0000     0.0000E+00    0.0000E+00    2.500000E+09  0.02000  5.985E-05    0   0.5673   age150_m62            0.0000     9.4949E-06     8.1033  -0.0488   108.0257
 48      0.0000     0.0000E+00    0.0000E+00    4.250000E+09  0.02000  3.271E-05    0   0.5468   age158_m62            0.0000     9.1188E-06     8.2590  -0.3799   108.0368
 49      0.9028     1.2502E+00    1.2501E+00    1.000000E+10  0.02000  1.360E-05    0   0.5167   age181_m62            0.0000     9.2758E-06     8.5670  -0.7613   108.7749
 50     18.4875     4.8875E+01    4.7414E+01    1.800000E+10  0.02000  7.124E-06    0   0.5013   age213_m62            0.0000     1.0001E-05     9.0256  -0.9976   108.8275
 51      0.0000     0.0000E+00    0.0000E+00    1.000000E+06  0.05000  2.592E-02    0   0.9998   age020_m72            0.0000     2.5391E-05    12.5398   3.4760    89.4275
 52      0.0000     0.0000E+00    0.0000E+00    3.160000E+06  0.05000  4.845E-02    0   0.9577   age045_m72            0.0000     2.3280E-05    11.9876   3.2956    91.7540
 53      0.0000     0.0000E+00    0.0000E+00    5.010000E+06  0.05000  3.072E-02    0   0.9147   age055_m72            0.0000     2.3848E-05    12.4565   2.8389    95.0319
 54      0.0000     0.0000E+00    0.0000E+00    6.610000E+06  0.05000  1.455E-02    0   0.8877   age061_m72            0.0000     3.5209E-05    17.2689   2.1500    98.2450
 55      0.0000     0.0000E+00    0.0000E+00    1.000000E+07  0.05000  9.074E-03    0   0.8524   age070_m72            0.0000     2.4841E-05    12.8300   3.0074    94.8831
 56      0.0000     0.0000E+00    0.0000E+00    2.512000E+07  0.05000  4.250E-03    0   0.7902   age090_m72            0.0000     2.2261E-05    12.1034   2.7096    96.9042
 57      0.0000     0.0000E+00    0.0000E+00    4.000000E+07  0.05000  3.087E-03    0   0.7618   age104_m72            0.0000     2.1669E-05    12.0556   2.4826    98.5568
 58      0.0000     0.0000E+00    0.0000E+00    1.015200E+08  0.05000  1.700E-03    0   0.7096   age116_m72            0.0000     1.7857E-05    10.5336   2.2085   102.1331
 59      0.0000     0.0000E+00    0.0000E+00    2.861200E+08  0.05000  7.384E-04    0   0.6633   age125_m72            0.0000     1.3623E-05     8.7179   1.6439   108.5531
 60     14.6986     7.2487E-01    8.9384E-01    5.088000E+08  0.05000  3.819E-04    0   0.6372   age130_m72            0.0000     1.1114E-05     8.1221   1.1272   111.2804
 61      0.0000     0.0000E+00    0.0000E+00    9.047900E+08  0.05000  1.676E-04    0   0.6110   age135_m72            0.0000     9.6685E-06     8.2081   0.4063   110.2548
 62     15.2214     3.2440E+00    3.6876E+00    1.434000E+09  0.05000  8.837E-05    0   0.5874   age139_m72            0.0000     9.2883E-06     8.0586  -0.0579   109.9575
 63      0.5623     2.5017E-01    2.7101E-01    2.500000E+09  0.05000  4.233E-05    0   0.5598   age150_m72            0.0000     9.1416E-06     8.3726  -0.3923   109.4149
 64     27.0311     3.5477E+01    3.6037E+01    6.250000E+09  0.05000  1.435E-05    0   0.5249   age166_m72            0.0000     9.4888E-06     8.7426  -0.8684   108.7067
 65      0.4392     1.2702E+00    1.2378E+00    1.300000E+10  0.05000  6.513E-06    0   0.5036   age193_m72            0.0000     1.1586E-05     8.8554  -1.0000   105.1603
 66      0.0000     0.0000E+00    0.0000E+00    1.800000E+10  0.05000  4.527E-06    0   0.4945   age213_m72            0.0000     1.5208E-05     9.6501  -1.0000    99.8081


## Synthesis Results - Average & Chains ##

# j      x_j: min, <> & last-chain-values for 1 ...  7 chains
  1      0.0000      1.5029      0.0000      0.3492      0.1222      0.2954      0.1353      0.2889      0.0000
  2      0.0000      1.4189      1.0801      0.4357      1.2448      0.9272      1.1914      1.6616      0.0000
  3      0.0000      1.4363      0.0000      0.2555      0.4020      0.2179      0.0550      0.0487      1.6041
  4      0.0000      2.2322      6.4609      7.1669      6.7560      7.7444      7.6381      6.4937      0.4280
  5      0.0000      1.4406      0.0000      0.1985      0.2013      0.0000      0.0000      0.0276      1.9362
  6      0.0000      0.9957      0.9750      0.1593      0.1921      0.0446      0.2350      0.9010      1.6853
  7      0.0000      1.2723      0.1681      0.3094      0.2303      0.0000      0.2046      0.2935      0.4026
  8      0.0000      1.4808      1.4974      0.7266      0.8654      0.8371      0.8393      0.8044      1.0731
  9      0.0000      1.5080      0.0000      0.1855      0.1401      0.3250      0.3020      0.5960      1.9644
 10      0.0000      1.7850      0.7993      1.1829      0.7218      1.2926      1.1333      0.5222      3.7496
 11      0.0000      1.3282      2.0161      0.4531      0.7353      1.3871      0.7688      0.2260      0.0921
 12      0.0000      1.5921      0.0580      0.5679      1.3991      0.7947      0.9369      0.7153      0.4163
 13      0.0000      2.3662      4.9774     11.2667      8.5314      8.3321      0.5925      7.1967      3.4552
 14      0.0000      1.2977      0.6791      0.1756      0.1217      0.1031      0.0263      0.1564      2.2657
 15      0.0000      1.3816      0.2038      1.0544      0.0449      0.1846      0.0134      0.6074      0.1595
 16      0.8726      2.1273      2.1441      2.9646      4.0163      4.2002      4.0118      3.3613      3.5028
 17      0.0000      1.2005      0.0000      0.0000      0.0280      0.4927      0.0000      0.0000      4.5782
 18      0.0000      1.4707      0.0000      0.7216      0.2562      0.6183      0.5995      0.4060      1.0500
 19      0.0000      1.2341      0.5120      0.0276      0.0598      0.0000      0.0000      0.0000      2.6826
 20      0.0000      1.4350      0.3097      0.0000      0.7538      0.3632      0.0359      0.2168      0.2589
 21      0.0000      1.0686      0.5478      0.0000      0.1373      0.0000      0.3356      0.2917      2.0146
 22      0.0000      1.7578      3.2957      2.8509      3.5529      2.4440      3.8587      2.9723      0.0000
 23      0.0000      0.9165      0.0000      0.0000      0.8728      0.3390      0.0000      0.3246      0.0000
 24      0.0000      1.1514      0.7345      0.1572      0.0593      0.1343      0.1338      0.4824      0.0000
 25      0.0000      1.3547      0.1426      0.0000      0.1407      0.0566      0.1152      0.0954      1.0236
 26      0.0000      1.3225      0.0571      0.0000      0.0000      0.0923      0.3991      0.1310      0.0900
 27      0.0000      0.9359      0.0843      0.0020      0.2753      0.0000      0.2324      0.0355      0.4283
 28      0.0000      2.0235      0.0505      0.0000      0.1715      0.0000      0.1165      0.6931      0.6807
 29      0.0000      0.9335      0.1452      0.0818      0.0000      0.0832      0.0000      0.2690      0.0000
 30      4.7235      1.5660      1.7928      2.1276      2.1452      2.3286      1.3458      2.0839      0.0000
 31      0.0000      2.2663      4.8078      4.2664      4.4782      4.4828      4.0473      4.7895      0.7563
 32      0.0000      1.0430      1.9694      2.1699      2.1992      2.0220      2.1070      1.9122      4.6504
 33      0.0000      1.7462      0.8426      0.0000      0.2394      0.3054      0.5763      0.2194      1.7377
 34      2.3760      1.2235      0.8587      0.6370      0.6253      0.7076      0.2111      0.6804      1.2348
 35      0.0000      1.2638      0.1263      0.0000      0.2696      0.7185      0.4102      0.2719      0.2160
 36      0.0000      1.1447      0.0000      0.0000      0.0000      0.1170      0.0603      0.4804      0.0000
 37      0.0000      1.0938      0.0000      0.0000      0.0822      0.0000      0.1023      0.3529      0.0000
 38      0.0000      1.5998      1.0336      1.3388      1.6820      1.1238      0.8455      1.7506      0.7975
 39      0.0000      1.7977      0.8656      0.5443      0.0883      0.0000      0.3816      0.8472      5.1721
 40      0.0000      1.3627      1.0798      0.2550      0.0000      0.6274      0.4834      0.0000      1.0242
 41      0.0000      1.6462      0.6510      2.5652      1.2057      1.2066      1.2609      0.7921      3.8218
 42      0.0000      0.8608      0.6181      0.6504      0.0000      0.6607      0.1569      0.4723      2.7112
 43      0.0000      1.1766      0.5944      0.0000      0.1393      0.4823      0.0868      0.8181      1.3405
 44      8.6017      1.2282      0.7265      0.5031      0.5886      0.0233      0.4820      0.5467      6.3730
 45      0.0000      1.4929      1.8583      1.6488      1.7855      1.7220      1.7920      2.0347      2.9098
 46     14.1470      2.8180      6.6957      6.0699      6.6834      6.8032      6.6807      6.4736      3.7452
 47      0.0000      1.4945      3.9512      4.8772      4.4157      5.0011      6.2949      5.3076      1.0133
 48      0.0000      1.2655      2.3315      5.1138      1.4861      1.9156      2.9195      2.2728      2.4769
 49      0.9028      1.3548      1.9308      0.9073      2.0349      1.4722      1.9453      1.8478      2.0400
 50     18.4875      1.2000      1.5577      0.9569      0.9833      1.0285      1.0299      0.9992      0.9972
 51      0.0000      1.6258      6.2457      5.3921      5.3973      6.5378      6.1660      5.4140      0.0000
 52      0.0000      1.5632      0.5309      0.1158      0.1017      0.1935      0.2324      0.0029      0.1276
 53      0.0000      1.6515      0.0000      0.3990      0.7930      0.2201      0.0428      0.3868      0.9127
 54      0.0000      1.5461      0.0000      1.1078      0.9053      0.3728      0.8621      0.6568      0.0000
 55      0.0000      1.4361      0.0869      0.1400      0.5109      0.0878      0.0000      0.0823      0.0380
 56      0.0000      1.2413      0.0000      0.0675      0.0000      0.1412      0.0000      0.3333      0.9829
 57      0.0000      1.7741      0.3483      0.3265      0.0000      0.4232      0.2519      0.2369      0.0000
 58      0.0000      1.2230      1.2902      0.0839      0.0000      0.1894      0.2571      0.3338      0.4039
 59      0.0000      1.6323      1.6431      0.7576      0.9343      0.5015      0.6176      0.6484      2.8070
 60     14.6986      1.2768      1.4954      2.2592      3.6808      1.6792      2.3347      2.3704      0.0000
 61      0.0000      3.4632     11.4987     11.4040     11.3407     11.6777     10.7580     10.6853      3.5993
 62     15.2214      2.0991      4.2173      3.4402      5.4102      3.8682      4.4524      5.1929      4.3843
 63      0.5623      1.7869      5.3420      3.9019      4.3191      5.2381      7.6501      5.1892      0.0000
 64     27.0311      1.4943      2.4508      2.0050      1.7194      1.8495      2.1141      2.1228      7.0932
 65      0.4392      1.3392      2.3142      1.8146      1.6066      1.8258      1.9043      1.4995      0.0000
 66      0.0000      1.7239      1.2468      0.8711      1.1877      0.9507      1.0631      0.8478      3.3829

# j      m_j: min, <> & last-chain-values for 1 ...  7 chains
  1  0.0000E+00  1.4887E-02  0.0000E+00  3.3265E-03  1.1307E-03  2.6889E-03  1.1877E-03  2.7283E-03  0.0000E+00
  2  0.0000E+00  3.8371E-03  2.4311E-03  1.1331E-03  3.1437E-03  2.3041E-03  2.8545E-03  4.2832E-03  0.0000E+00
  3  0.0000E+00  5.8163E-03  0.0000E+00  9.9495E-04  1.5205E-03  8.1098E-04  1.9729E-04  1.8793E-04  4.2832E-03
  4  0.0000E+00  8.5125E-03  2.0507E-02  2.6282E-02  2.4062E-02  2.7141E-02  2.5809E-02  2.3606E-02  1.0762E-03
  5  0.0000E+00  1.0465E-02  0.0000E+00  1.3866E-03  1.3658E-03  0.0000E+00  0.0000E+00  1.9089E-04  9.2741E-03
  6  0.0000E+00  1.1732E-02  9.5620E-03  1.8048E-03  2.1136E-03  4.8315E-04  2.4528E-03  1.0119E-02  1.3093E-02
  7  0.0000E+00  2.1463E-02  2.3609E-03  5.0192E-03  3.6279E-03  0.0000E+00  3.0580E-03  4.7204E-03  4.4785E-03
  8  0.0000E+00  3.4527E-02  2.9059E-02  1.6290E-02  1.8844E-02  1.7936E-02  1.7338E-02  1.7879E-02  1.6497E-02
  9  0.0000E+00  4.0241E-02  0.0000E+00  4.7593E-03  3.4921E-03  7.9702E-03  7.1406E-03  1.5160E-02  3.4565E-02
 10  0.0000E+00  6.2572E-02  2.3320E-02  3.9874E-02  2.3630E-02  4.1641E-02  3.5200E-02  1.7449E-02  8.6666E-02
 11  0.0000E+00  8.7544E-02  1.1060E-01  2.8720E-02  4.5264E-02  8.4018E-02  4.4901E-02  1.4199E-02  4.0033E-03
 12  0.0000E+00  1.6647E-01  5.0449E-03  5.7095E-02  1.3662E-01  7.6355E-02  8.6795E-02  7.1296E-02  2.8697E-02
 13  0.0000E+00  6.9733E-01  1.2209E+00  3.1929E+00  2.3482E+00  2.2566E+00  1.5472E-01  2.0217E+00  6.7141E-01
 14  0.0000E+00  1.2827E+00  5.5874E-01  1.6692E-01  1.1233E-01  9.3641E-02  2.3028E-02  1.4732E-01  1.4767E+00
 15  0.0000E+00  2.2232E+00  2.7296E-01  1.6315E+00  6.7525E-02  2.7298E-01  1.9049E-02  9.3168E-01  1.6919E-01
 16  7.9850E-01  5.7879E+00  4.8555E+00  7.7564E+00  1.0206E+01  1.0502E+01  9.6713E+00  8.7178E+00  6.2839E+00
 17  0.0000E+00  4.2372E+00  0.0000E+00  0.0000E+00  9.2167E-02  1.5981E+00  0.0000E+00  0.0000E+00  1.0655E+01
 18  0.0000E+00  1.2873E-02  0.0000E+00  6.0738E-03  2.0943E-03  4.9735E-03  4.6494E-03  3.3878E-03  6.0605E-03
 19  0.0000E+00  4.3358E-03  1.4972E-03  9.3261E-05  1.9614E-04  0.0000E+00  0.0000E+00  0.0000E+00  6.2143E-03
 20  0.0000E+00  5.5041E-03  9.8867E-04  0.0000E+00  2.7002E-03  1.2800E-03  1.2215E-04  7.9282E-04  6.5464E-04
 21  0.0000E+00  4.9752E-03  2.1229E-03  0.0000E+00  5.9697E-04  0.0000E+00  1.3846E-03  1.2945E-03  6.1847E-03
 22  0.0000E+00  1.3839E-02  2.1596E-02  2.1583E-02  2.6124E-02  1.7683E-02  2.6917E-02  2.2307E-02  0.0000E+00
 23  0.0000E+00  9.7440E-03  0.0000E+00  0.0000E+00  8.6658E-03  3.3124E-03  0.0000E+00  3.2900E-03  0.0000E+00
 24  0.0000E+00  1.8212E-02  9.6699E-03  2.3903E-03  8.7553E-04  1.9524E-03  1.8757E-03  7.2735E-03  0.0000E+00
 25  0.0000E+00  2.9545E-02  2.5878E-03  0.0000E+00  2.8664E-03  1.1352E-03  2.2259E-03  1.9827E-03  1.4721E-02
 26  0.0000E+00  4.8213E-02  1.7318E-03  0.0000E+00  0.0000E+00  3.0938E-03  1.2890E-02  4.5530E-03  2.1639E-03
 27  0.0000E+00  6.8294E-02  5.1195E-03  1.4153E-04  1.8758E-02  0.0000E+00  1.5025E-02  2.4684E-03  2.0605E-02
 28  0.0000E+00  4.2851E-01  8.8980E-03  0.0000E+00  3.3923E-02  0.0000E+00  2.1858E-02  1.3992E-01  9.5044E-02
 29  0.0000E+00  3.4445E-01  4.4599E-02  2.9033E-02  0.0000E+00  2.8216E-02  0.0000E+00  9.4623E-02  0.0000E+00
 30  1.2247E+00  1.2073E+00  1.1504E+00  1.5772E+00  1.5445E+00  1.6497E+00  9.1923E-01  1.5314E+00  0.0000E+00
 31  0.0000E+00  3.0732E+00  5.4266E+00  5.5634E+00  5.6716E+00  5.5866E+00  4.8629E+00  6.1913E+00  6.7622E-01
 32  0.0000E+00  1.9031E+00  2.9909E+00  3.8072E+00  3.7477E+00  3.3906E+00  3.4064E+00  3.3260E+00  5.5949E+00
 33  0.0000E+00  7.0532E+00  2.8328E+00  0.0000E+00  9.0297E-01  1.1336E+00  2.0625E+00  8.4487E-01  4.6282E+00
 34  4.3710E+00  6.6923E+00  3.9095E+00  3.3507E+00  3.1943E+00  3.5571E+00  1.0232E+00  3.5477E+00  4.4534E+00
 35  0.0000E+00  8.8704E-03  7.3773E-04  0.0000E+00  1.7670E-03  4.6346E-03  2.5509E-03  1.8190E-03  9.9972E-04
 36  0.0000E+00  3.2505E-03  0.0000E+00  0.0000E+00  0.0000E+00  3.0538E-04  1.5165E-04  1.3005E-03  0.0000E+00
 37  0.0000E+00  3.3595E-03  0.0000E+00  0.0000E+00  2.3570E-04  0.0000E+00  2.7839E-04  1.0331E-03  0.0000E+00
 38  0.0000E+00  1.3312E-02  7.1583E-03  1.0713E-02  1.3071E-02  8.5937E-03  6.2334E-03  1.3886E-02  4.3754E-03
 39  0.0000E+00  2.1538E-02  8.6318E-03  6.2709E-03  9.8855E-04  0.0000E+00  4.0509E-03  9.6756E-03  4.0858E-02
 40  0.0000E+00  2.6391E-02  1.7405E-02  4.7484E-03  0.0000E+00  1.1167E-02  8.2947E-03  0.0000E+00  1.3078E-02
 41  0.0000E+00  4.9577E-02  1.6319E-02  7.4286E-02  3.3910E-02  3.3392E-02  3.3646E-02  2.2738E-02  7.5888E-02
 42  0.0000E+00  4.7594E-02  2.8445E-02  3.4579E-02  0.0000E+00  3.3572E-02  7.6850E-03  2.4893E-02  9.8843E-02
 43  0.0000E+00  9.4983E-02  3.9936E-02  0.0000E+00  1.0502E-02  3.5780E-02  6.2107E-03  6.2955E-02  7.1353E-02
 44  4.0211E-01  1.7071E-01  8.4052E-02  6.7244E-02  7.6401E-02  2.9743E-03  5.9354E-02  7.2433E-02  5.8407E-01
 45  0.0000E+00  4.1172E-01  4.2657E-01  4.3725E-01  4.5989E-01  4.3643E-01  4.3789E-01  5.3491E-01  5.2911E-01
 46  2.4119E+00  1.4285E+00  2.8250E+00  2.9588E+00  3.1641E+00  3.1693E+00  3.0006E+00  3.1281E+00  1.2518E+00
 47  0.0000E+00  1.5352E+00  3.3781E+00  4.8174E+00  4.2361E+00  4.7208E+00  5.7291E+00  5.1970E+00  6.8632E-01
 48  0.0000E+00  2.2925E+00  3.5155E+00  8.9080E+00  2.5142E+00  3.1890E+00  4.6860E+00  3.9248E+00  2.9585E+00
 49  1.2501E+00  5.5780E+00  6.6166E+00  3.5919E+00  7.8244E+00  5.5701E+00  7.0964E+00  7.2519E+00  5.5380E+00
 50  4.7414E+01  9.1503E+00  9.8865E+00  7.0165E+00  7.0027E+00  7.2077E+00  6.9586E+00  7.2629E+00  5.0138E+00
 51  0.0000E+00  6.7959E-03  2.1730E-02  2.1674E-02  2.1070E-02  2.5114E-02  2.2837E-02  2.1573E-02  0.0000E+00
 52  0.0000E+00  3.3484E-03  9.4646E-04  2.3847E-04  2.0352E-04  3.8082E-04  4.4114E-04  5.8457E-06  1.8027E-04
 53  0.0000E+00  5.3287E-03  0.0000E+00  1.2380E-03  2.3897E-03  6.5280E-04  1.2238E-04  1.1897E-03  1.9418E-03
 54  0.0000E+00  1.0222E-02  0.0000E+00  7.0430E-03  5.5897E-03  2.2648E-03  5.0505E-03  4.1395E-03  0.0000E+00
 55  0.0000E+00  1.4619E-02  7.3669E-04  1.3709E-03  4.8572E-03  8.2123E-04  0.0000E+00  7.9845E-04  2.5498E-04
 56  0.0000E+00  2.5011E-02  0.0000E+00  1.3069E-03  0.0000E+00  2.6147E-03  0.0000E+00  6.4015E-03  1.3058E-02
 57  0.0000E+00  4.7444E-02  7.7529E-03  8.3952E-03  0.0000E+00  1.0400E-02  5.9676E-03  6.0389E-03  0.0000E+00
 58  0.0000E+00  5.5320E-02  4.8575E-02  3.6510E-03  0.0000E+00  7.8724E-03  1.0305E-02  1.4393E-02  1.2047E-02
 59  0.0000E+00  1.5889E-01  1.3313E-01  7.0921E-02  8.4937E-02  4.4864E-02  5.3267E-02  6.0165E-02  1.8017E-01
 60  8.9384E-01  2.3086E-01  2.2505E-01  3.9280E-01  6.2156E-01  2.7902E-01  3.7403E-01  4.0855E-01  0.0000E+00
 61  0.0000E+00  1.3682E+00  3.7810E+00  4.3323E+00  4.1843E+00  4.2397E+00  3.7657E+00  4.0240E+00  9.3757E-01
 62  3.6876E+00  1.5121E+00  2.5285E+00  2.3829E+00  3.6396E+00  2.5606E+00  2.8417E+00  3.5657E+00  2.0823E+00
 63  2.7101E-01  2.5609E+00  6.3721E+00  5.3772E+00  5.7808E+00  6.8987E+00  9.7140E+00  7.0891E+00  0.0000E+00
 64  3.6037E+01  5.9233E+00  8.0858E+00  7.6426E+00  6.3652E+00  6.7375E+00  7.4251E+00  8.0210E+00  1.8539E+01
 65  1.2378E+00  1.1221E+01  1.6140E+01  1.4621E+01  1.2572E+01  1.4059E+01  1.4138E+01  1.1977E+01  0.0000E+00
 66  0.0000E+00  2.0407E+01  1.2284E+01  9.9155E+00  1.3130E+01  1.0342E+01  1.1150E+01  9.5661E+00  2.6403E+01

# AV, chi2 & Mass for <> & i_chain = 1 ...  7 solutions
AV      -0.2497      0.6561      0.6386      0.6541      0.6574      0.6619      0.7038      0.6484      0.6057
chi2 8.6162E-06  2.9510E-05  1.3375E-05  1.3265E-05  1.3114E-05  1.3444E-05  1.4990E-05  1.3171E-05  1.3208E-05
Mass 3.7720E-13  4.2823E-13  5.0256E-13  4.4418E-13  4.5932E-13  4.6962E-13  5.1530E-13  4.4465E-13  6.0701E-13
 -41.90                                  [v0_min (km/s) before EX0s...]
 274.29                                  [vd_min (km/s) before EX0s...]


## Synthetic spectrum (Best Model) ##l_obs f_obs f_syn wei
 3478    [Nl_obs]
 3741.00    0.70665   0.48715    0.000
 3742.00    0.70928   0.48246    0.000
 3743.00    0.60785   0.46989    0.000
 3744.00    0.51346   0.45398    0.000
 3745.00    0.42316   0.43965    0.041
 3746.00    0.45784   0.42674    0.041
 3747.00    0.55597   0.41875    0.041
 3748.00    0.43716   0.42210    0.041
 3749.00    0.22293   0.43507    0.040
 3750.00    0.23055   0.45266    0.040
 3751.00    0.32192   0.47468    0.040
 3752.00    0.29367   0.50049    0.040
 3753.00    0.22708   0.52370    0.040
 3754.00    0.19239   0.53879    0.039
 3755.00    0.16624   0.54585    0.039
 3756.00    0.26743   0.54815    0.039
 3757.00    0.39658   0.54686    0.039
 3758.00    0.41427   0.54154    0.038
 3759.00    0.41251   0.53555    0.038
 3760.00    0.40450   0.53197    0.045
 3761.00    0.39568   0.52962    0.057
 3762.00    0.47026   0.52856    0.046
 3763.00    0.55268   0.52895    0.038
 3764.00    0.60445   0.52729    0.038
 3765.00    0.65445   0.52593    0.038
 3766.00    0.65147   0.52939    0.037
 3767.00    0.64694   0.53333    0.037
 3768.00    0.60568   0.53592    0.037
 3769.00    0.57034   0.54433    0.037
 3770.00    0.67922   0.55880    0.037
 3771.00    0.77338   0.57246    0.037
 3772.00    0.67482   0.58603    0.036
 3773.00    0.58033   0.60352    0.035
 3774.00    0.52165   0.62256    0.035
 3775.00    0.47602   0.63917    0.034
 3776.00    0.51503   0.65437    0.035
 3777.00    0.54116   0.67103    0.035
 3778.00    0.50215   0.68697    0.035
 3779.00    0.46943   0.69750    0.035
 3780.00    0.46249   0.70309    0.035
 3781.00    0.44598   0.70621    0.036
 3782.00    0.39699   0.70404    0.036
 3783.00    0.34835   0.69245    0.036
 3784.00    0.30068   0.67494    0.036
 3785.00    0.30788   0.65747    0.037
 3786.00    0.44912   0.63742    0.037
 3787.00    0.53972   0.61368    0.037
 3788.00    0.52362   0.59295    0.037
 3789.00    0.51490   0.57699    0.037
 3790.00    0.51971   0.56050    0.037
 3791.00    0.51080   0.54297    0.037
 3792.00    0.47991   0.52780    0.037
 3793.00    0.43809   0.51454    0.036
 3794.00    0.38091   0.50229    0.036
 3795.00    0.36579   0.49186    0.036
 3796.00    0.40264   0.48666    0.036
 3797.00    0.41646   0.49003    0.035
 3798.00    0.40519   0.50044    0.035
 3799.00    0.42166   0.51539    0.036
 3800.00    0.46479   0.53583    0.036
 3801.00    0.47884   0.56072    0.037
 3802.00    0.46824   0.58478    0.037
 3803.00    0.45448   0.60566    0.037
 3804.00    0.43835   0.62325    0.037
 3805.00    0.45843   0.63729    0.036
 3806.00    0.50226   0.64826    0.036
 3807.00    0.47708   0.65481    0.036
 3808.00    0.41231   0.65690    0.035
 3809.00    0.44368   0.65620    0.035
 3810.00    0.52311   0.65115    0.035
 3811.00    0.49971   0.64107    0.035
 3812.00    0.43186   0.62891    0.036
 3813.00    0.41357   0.61474    0.035
 3814.00    0.41366   0.59899    0.035
 3815.00    0.41898   0.58588    0.035
 3816.00    0.42594   0.57470    0.035
 3817.00    0.42698   0.56240    0.035
 3818.00    0.42646   0.55076    0.036
 3819.00    0.45544   0.54205    0.036
 3820.00    0.49075   0.53345    0.035
 3821.00    0.52279   0.52158    0.035
 3822.00    0.55427   0.50871    0.035
 3823.00    0.50479   0.49777    0.034
 3824.00    0.44493   0.48642    0.034
 3825.00    0.43820   0.47303    0.034
 3826.00    0.43624   0.46016    0.035
 3827.00    0.49157   0.44912    0.035
 3828.00    0.54998   0.43838    0.036
 3829.00    0.41171   0.42634    0.035
 3830.00    0.27079   0.41407    0.035
 3831.00    0.23764   0.40373    0.035
 3832.00    0.21195   0.39475    0.036
 3833.00    0.35220   0.38756    0.036
 3834.00    0.48530   0.38467    0.036
 3835.00    0.52962   0.38597    0.036
 3836.00    0.56405   0.39177    0.037
 3837.00    0.51493   0.40344    0.037
 3838.00    0.49758   0.41938    0.037
 3839.00    0.68015   0.43922    0.037
 3840.00    0.78505   0.46358    0.038
 3841.00    0.50672   0.48891    0.037
 3842.00    0.28136   0.51381    0.036
 3843.00    0.26802   0.53782    0.036
 3844.00    0.25165   0.55817    0.036
 3845.00    0.22521   0.57554    0.036
 3846.00    0.24653   0.58974    0.036
 3847.00    0.40195   0.59811    0.000
 3848.00    0.49817   0.60385    0.000
 3849.00    0.45220   0.61002    0.000
 3850.00    0.41513   0.61234    0.000
 3851.00    0.39654   0.61077    0.000
 3852.00    0.37355   0.61029    0.000
 3853.00    0.34266   0.60821    0.000
 3854.00    0.32603   0.60249    0.000
 3855.00    0.33190   0.59832    0.000
 3856.00    0.37465   0.59516    0.000
 3857.00    0.46846   0.59142    0.000
 3858.00    0.54148   0.59197    0.000
 3859.00    0.58918   0.59715    0.000
 3860.00    0.66262   0.60356    0.000
 3861.00    0.76368   0.61145    0.000
 3862.00    0.77294   0.62083    0.000
 3863.00    0.69522   0.62866    0.000
 3864.00    0.58618   0.63346    0.000
 3865.00    0.45100   0.63544    0.000
 3866.00    0.44401   0.63416    0.000
 3867.00    0.53130   0.62997    0.000
 3868.00    0.60528   0.62425    0.000
 3869.00    0.67064   0.61796    0.000
 3870.00    0.66492   0.61159    0.000
 3871.00    0.61902   0.60703    0.000
 3872.00    0.54115   0.60472    0.000
 3873.00    0.44754   0.60237    0.000
 3874.00    0.37772   0.60038    0.000
 3875.00    0.31803   0.59790    0.000
 3876.00    0.31928   0.59218    0.000
 3877.00    0.34274   0.58653    0.000
 3878.00    0.33612   0.58139    0.000
 3879.00    0.32023   0.57163    0.000
 3880.00    0.37962   0.56024    0.000
 3881.00    0.45834   0.55267    0.034
 3882.00    0.59081   0.54453    0.035
 3883.00    0.73451   0.53154    0.035
 3884.00    0.72116   0.52083    0.035
 3885.00    0.68191   0.51679    0.036
 3886.00    0.61477   0.51337    0.036
 3887.00    0.54418   0.51234    0.036
 3888.00    0.53159   0.52085    0.036
 3889.00    0.52396   0.53521    0.036
 3890.00    0.50481   0.55086    0.036
 3891.00    0.48509   0.56986    0.036
 3892.00    0.49118   0.59060    0.036
 3893.00    0.49739   0.60811    0.035
 3894.00    0.48392   0.62379    0.035
 3895.00    0.47529   0.63905    0.035
 3896.00    0.56588   0.64990    0.035
 3897.00    0.65445   0.65712    0.035
 3898.00    0.71910   0.66516    0.034
 3899.00    0.76591   0.67332    0.033
 3900.00    0.66733   0.67663    0.033
 3901.00    0.58572   0.67906    0.032
 3902.00    0.60775   0.68650    0.031
 3903.00    0.62597   0.69194    0.030
 3904.00    0.62590   0.69624    0.029
 3905.00    0.61193   0.70779    0.029
 3906.00    0.54354   0.72198    0.029
 3907.00    0.51011   0.73462    0.030
 3908.00    0.59064   0.74893    0.030
 3909.00    0.64369   0.76431    0.031
 3910.00    0.62097   0.77598    0.032
 3911.00    0.59025   0.78166    0.032
 3912.00    0.54062   0.78421    0.032
 3913.00    0.52056   0.78341    0.033
 3914.00    0.56085   0.77546    0.033
 3915.00    0.60988   0.76407    0.034
 3916.00    0.67442   0.75228    0.035
 3917.00    0.71281   0.73721    0.036
 3918.00    0.71059   0.72061    0.036
 3919.00    0.70805   0.70580    0.035
 3920.00    0.70507   0.69095    0.035
 3921.00    0.70006   0.67480    0.035
 3922.00    0.69260   0.65844    0.036
 3923.00    0.68603   0.63903    0.036
 3924.00    0.68043   0.61510    0.036
 3925.00    0.69566   0.58737    0.036
 3926.00    0.73037   0.55429    0.036
 3927.00    0.71586   0.51739    0.036
 3928.00    0.66082   0.47935    0.037
 3929.00    0.56632   0.44202    0.037
 3930.00    0.44320   0.40880    0.036
 3931.00    0.38532   0.38289    0.036
 3932.00    0.36896   0.36672    0.036
 3933.00    0.37786   0.36215    0.037
 3934.00    0.40082   0.36971    0.037
 3935.00    0.45242   0.38750    0.037
 3936.00    0.51790   0.41351    0.037
 3937.00    0.56647   0.44632    0.037
 3938.00    0.60797   0.48105    0.037
 3939.00    0.53319   0.51426    0.037
 3940.00    0.41682   0.54741    0.037
 3941.00    0.43396   0.57761    0.037
 3942.00    0.49147   0.60221    0.037
 3943.00    0.46271   0.62666    0.036
 3944.00    0.41230   0.65101    0.036
 3945.00    0.45469   0.67034    0.036
 3946.00    0.51601   0.68780    0.037
 3947.00    0.65024   0.70596    0.037
 3948.00    0.79614   0.72180    0.037
 3949.00    0.80349   0.73415    0.037
 3950.00    0.79430   0.74219    0.036
 3951.00    0.78080   0.74802    0.036
 3952.00    0.76696   0.75305    0.036
 3953.00    0.72532   0.75125    0.036
 3954.00    0.68241   0.74323    0.036
 3955.00    0.57458   0.73408    0.036
 3956.00    0.46929   0.71964    0.036
 3957.00    0.54008   0.69808    0.037
 3958.00    0.60853   0.67182    0.037
 3959.00    0.63265   0.63955    0.036
 3960.00    0.64767   0.60296    0.000
 3961.00    0.56004   0.56391    0.000
 3962.00    0.49235   0.52153    0.000
 3963.00    0.58144   0.47898    0.000
 3964.00    0.65080   0.43962    0.000
 3965.00    0.60311   0.40456    0.000
 3966.00    0.55584   0.37654    0.000
 3967.00    0.51050   0.35863    0.000
 3968.00    0.48022   0.35216    0.000
 3969.00    0.50764   0.35808    0.000
 3970.00    0.54116   0.37639    0.000
 3971.00    0.59415   0.40492    0.000
 3972.00    0.62621   0.44233    0.000
 3973.00    0.60156   0.48684    0.000
 3974.00    0.62237   0.53369    0.000
 3975.00    0.74873   0.58095    0.000
 3976.00    0.81638   0.62743    0.000
 3977.00    0.76610   0.66993    0.000
 3978.00    0.74837   0.70770    0.000
 3979.00    0.78756   0.73991    0.000
 3980.00    0.84923   0.76677    0.000
 3981.00    0.94532   0.78944    0.038
 3982.00    1.00856   0.80814    0.039
 3983.00    1.02763   0.82531    0.039
 3984.00    1.06235   0.83984    0.039
 3985.00    1.11560   0.85262    0.039
 3986.00    1.08952   0.86755    0.039
 3987.00    0.98060   0.87948    0.039
 3988.00    0.94029   0.88844    0.038
 3989.00    0.96317   0.89913    0.038
 3990.00    0.97255   0.90707    0.038
 3991.00    0.97097   0.91154    0.038
 3992.00    1.01016   0.91517    0.038
 3993.00    1.07850   0.91764    0.038
 3994.00    1.06628   0.92011    0.038
 3995.00    1.00356   0.92199    0.038
 3996.00    0.97833   0.92408    0.037
 3997.00    0.97365   0.92999    0.037
 3998.00    1.05512   0.93670    0.037
 3999.00    1.17764   0.94033    0.037
 4000.00    1.17645   0.94429    0.037
 4001.00    1.12442   0.94930    0.037
 4002.00    1.12883   0.94987    0.037
 4003.00    1.15306   0.94680    0.037
 4004.00    1.12098   0.94720    0.037
 4005.00    1.07222   0.95005    0.037
 4006.00    1.09651   0.95183    0.037
 4007.00    1.13874   0.95718    0.037
 4008.00    1.21066   0.96743    0.037
 4009.00    1.28848   0.97737    0.037
 4010.00    1.16131   0.98733    0.037
 4011.00    1.00230   0.99863    0.036
 4012.00    0.93869   1.00713    0.036
 4013.00    0.88605   1.01465    0.036
 4014.00    0.93835   1.02281    0.036
 4015.00    0.99877   1.02649    0.036
 4016.00    0.99691   1.02928    0.036
 4017.00    0.99243   1.03441    0.036
 4018.00    1.02005   1.03549    0.036
 4019.00    1.04631   1.03376    0.036
 4020.00    1.00000   1.03462    0.036
 4021.00    0.96047   1.03455    0.036
 4022.00    1.04053   1.03030    0.036
 4023.00    1.12811   1.02717    0.037
 4024.00    1.29665   1.02517    0.037
 4025.00    1.43127   1.01720    0.037
 4026.00    1.30833   1.00743    0.037
 4027.00    1.17817   0.99835    0.038
 4028.00    1.00637   0.98286    0.037
 4029.00    0.88252   0.96716    0.037
 4030.00    0.97849   0.95664    0.037
 4031.00    1.03207   0.94676    0.037
 4032.00    0.92664   0.94297    0.037
 4033.00    0.85578   0.94831    0.036
 4034.00    0.89325   0.95812    0.036
 4035.00    0.95579   0.97159    0.036
 4036.00    1.08502   0.98649    0.037
 4037.00    1.15929   0.99940    0.037
 4038.00    1.10807   1.00699    0.037
 4039.00    1.03900   1.00704    0.037
 4040.00    0.93464   1.00119    0.037
 4041.00    0.90004   0.99029    0.037
 4042.00    0.98562   0.97637    0.037
 4043.00    1.02340   0.96203    0.037
 4044.00    0.98908   0.95073    0.038
 4045.00    0.96640   0.94738    0.038
 4046.00    0.95917   0.94819    0.037
 4047.00    0.98039   0.95191    0.037
 4048.00    1.03484   0.96330    0.038
 4049.00    1.09290   0.97394    0.038
 4050.00    1.15468   0.97887    0.039
 4051.00    1.09596   0.98435    0.039
 4052.00    0.92781   0.98507    0.038
 4053.00    0.90236   0.97872    0.038
 4054.00    0.99113   0.97347    0.038
 4055.00    0.97511   0.96609    0.038
 4056.00    0.88531   0.95593    0.037
 4057.00    1.00985   0.94940    0.038
 4058.00    1.26678   0.94182    0.038
 4059.00    1.27965   0.93326    0.038
 4060.00    1.16083   0.92839    0.037
 4061.00    1.04168   0.92186    0.037
 4062.00    0.92237   0.91605    0.037
 4063.00    0.87966   0.91653    0.037
 4064.00    0.86789   0.91717    0.038
 4065.00    0.80535   0.91834    0.037
 4066.00    0.72530   0.92453    0.036
 4067.00    0.78587   0.93111    0.036
 4068.00    0.88728   0.93500    0.037
 4069.00    0.91515   0.93656    0.037
 4070.00    0.92535   0.93734    0.036
 4071.00    1.02494   0.93671    0.036
 4072.00    1.14186   0.93104    0.036
 4073.00    1.16949   0.92573    0.037
 4074.00    1.18367   0.92361    0.037
 4075.00    1.07661   0.92027    0.038
 4076.00    0.95614   0.92089    0.041
 4077.00    0.95230   0.92687    0.042
 4078.00    0.95700   0.93407    0.042
 4079.00    1.23763   0.94584    0.043
 4080.00    1.52883   0.95960    0.043
 4081.00    1.35318   0.97158    0.043
 4082.00    1.18177   0.98512    0.043
 4083.00    1.26724   0.99752    0.043
 4084.00    1.34977   1.00644    0.044
 4085.00    1.38394   1.01571    0.042
 4086.00    1.39490   1.02384    0.041
 4087.00    1.16708   1.02731    0.038
 4088.00    0.96232   1.02856    0.036
 4089.00    0.92684   1.02732    0.036
 4090.00    0.89128   1.01841    0.036
 4091.00    0.85525   1.00481    0.035
 4092.00    0.85731   0.98886    0.000
 4093.00    1.02979   0.96505    0.000
 4094.00    1.15088   0.93811    0.000
 4095.00    1.08321   0.91210    0.000
 4096.00    1.01082   0.88215    0.000
 4097.00    0.92392   0.85424    0.000
 4098.00    0.88271   0.83252    0.000
 4099.00    0.96088   0.81284    0.000
 4100.00    1.00469   0.80131    0.000
 4101.00    0.97132   0.80032    0.000
 4102.00    0.96850   0.80376    0.000
 4103.00    1.02516   0.81493    0.000
 4104.00    1.07318   0.83368    0.000
 4105.00    1.10655   0.85224    0.000
 4106.00    1.11471   0.87169    0.000
 4107.00    1.08538   0.89196    0.000
 4108.00    1.00690   0.90887    0.000
 4109.00    0.86419   0.92406    0.000
 4110.00    0.89091   0.93781    0.000
 4111.00    1.11265   0.95002    0.000
 4112.00    1.19711   0.96152    0.000
 4113.00    1.14221   0.97016    0.037
 4114.00    1.12070   0.97745    0.037
 4115.00    1.12908   0.98403    0.037
 4116.00    1.13571   0.98605    0.037
 4117.00    1.14095   0.98617    0.036
 4118.00    1.19947   0.98752    0.037
 4119.00    1.29495   0.98634    0.037
 4120.00    1.24413   0.98417    0.037
 4121.00    1.10427   0.98439    0.036
 4122.00    1.01274   0.98413    0.036
 4123.00    0.94688   0.98229    0.036
 4124.00    0.88640   0.97985    0.037
 4125.00    0.82841   0.97650    0.036
 4126.00    0.98341   0.97096    0.037
 4127.00    1.22299   0.96332    0.037
 4128.00    1.19657   0.95647    0.037
 4129.00    1.08012   0.94999    0.037
 4130.00    0.96853   0.94445    0.036
 4131.00    0.85833   0.94432    0.036
 4132.00    0.88931   0.94682    0.036
 4133.00    0.95345   0.95216    0.035
 4134.00    0.98326   0.96324    0.036
 4135.00    1.00659   0.97270    0.036
 4136.00    1.06788   0.98140    0.036
 4137.00    1.13471   0.99005    0.036
 4138.00    1.05556   0.99084    0.036
 4139.00    0.96089   0.98852    0.036
 4140.00    0.98958   0.98465    0.036
 4141.00    1.02681   0.97458    0.036
 4142.00    1.08809   0.96596    0.036
 4143.00    1.15019   0.96104    0.036
 4144.00    1.22364   0.95464    0.036
 4145.00    1.29102   0.95187    0.036
 4146.00    1.15716   0.95402    0.036
 4147.00    1.02803   0.95385    0.036
 4148.00    0.97198   0.95366    0.035
 4149.00    0.91877   0.95534    0.035
 4150.00    0.89359   0.95419    0.035
 4151.00    0.87024   0.95244    0.035
 4152.00    0.85988   0.95202    0.035
 4153.00    0.86370   0.95246    0.036
 4154.00    0.94499   0.95506    0.035
 4155.00    1.02239   0.95944    0.035
 4156.00    1.08275   0.96707    0.035
 4157.00    1.09326   0.97730    0.035
 4158.00    0.92445   0.98755    0.034
 4159.00    0.79650   0.99792    0.033
 4160.00    0.79191   1.00847    0.034
 4161.00    0.82107   1.01647    0.034
 4162.00    0.93692   1.01935    0.034
 4163.00    1.07714   1.02096    0.035
 4164.00    1.27117   1.02004    0.035
 4165.00    1.36908   1.01215    0.035
 4166.00    1.28288   1.00361    0.035
 4167.00    1.17028   0.99441    0.035
 4168.00    1.01355   0.98013    0.035
 4169.00    0.90054   0.96653    0.035
 4170.00    0.85155   0.95386    0.035
 4171.00    0.82616   0.94046    0.035
 4172.00    0.83119   0.93029    0.034
 4173.00    0.86215   0.92250    0.035
 4174.00    0.92255   0.91782    0.035
 4175.00    0.93596   0.91761    0.036
 4176.00    0.90234   0.91912    0.036
 4177.00    0.92156   0.92349    0.035
 4178.00    0.98742   0.93070    0.035
 4179.00    1.04307   0.93714    0.035
 4180.00    1.09079   0.94433    0.035
 4181.00    1.02615   0.95266    0.035
 4182.00    0.88467   0.95799    0.034
 4183.00    0.88193   0.96346    0.035
 4184.00    0.96235   0.97005    0.035
 4185.00    1.07698   0.97298    0.035
 4186.00    1.20950   0.97707    0.035
 4187.00    1.27705   0.98288    0.036
 4188.00    1.31513   0.98527    0.036
 4189.00    1.24019   0.98799    0.036
 4190.00    1.12116   0.99145    0.035
 4191.00    1.01137   0.99115    0.035
 4192.00    0.90465   0.98714    0.035
 4193.00    0.84494   0.98109    0.034
 4194.00    0.79833   0.97305    0.034
 4195.00    0.85741   0.96268    0.035
 4196.00    0.94072   0.95040    0.035
 4197.00    0.96517   0.94029    0.035
 4198.00    0.97880   0.93544    0.035
 4199.00    0.98243   0.93141    0.035
 4200.00    0.98464   0.93105    0.035
 4201.00    0.92603   0.93979    0.035
 4202.00    0.86123   0.94935    0.035
 4203.00    0.86754   0.95971    0.034
 4204.00    0.87849   0.97618    0.034
 4205.00    0.90845   0.99063    0.034
 4206.00    0.93902   1.00240    0.034
 4207.00    0.98992   1.01468    0.035
 4208.00    1.03755   1.02232    0.035
 4209.00    0.98924   1.02730    0.035
 4210.00    0.95558   1.03035    0.035
 4211.00    1.13542   1.02935    0.035
 4212.00    1.29352   1.02936    0.036
 4213.00    1.24595   1.02920    0.035
 4214.00    1.20879   1.02818    0.035
 4215.00    1.24317   1.03081    0.035
 4216.00    1.26526   1.03232    0.035
 4217.00    1.22196   1.03159    0.035
 4218.00    1.16473   1.03119    0.034
 4219.00    1.04802   1.02497    0.034
 4220.00    0.93583   1.01111    0.034
 4221.00    0.83961   0.99391    0.033
 4222.00    0.78795   0.97329    0.033
 4223.00    0.86826   0.95033    0.034
 4224.00    0.92770   0.93019    0.034
 4225.00    0.93444   0.91580    0.034
 4226.00    0.92923   0.91064    0.033
 4227.00    0.89804   0.91281    0.033
 4228.00    0.88875   0.91963    0.033
 4229.00    0.92077   0.93551    0.033
 4230.00    0.92652   0.95229    0.032
 4231.00    0.88901   0.96310    0.032
 4232.00    0.88823   0.97650    0.032
 4233.00    0.94048   0.98685    0.031
 4234.00    1.00528   0.98962    0.031
 4235.00    1.08601   0.99661    0.032
 4236.00    1.14958   1.00456    0.032
 4237.00    1.19396   1.00936    0.032
 4238.00    1.20965   1.01953    0.032
 4239.00    1.19703   1.03254    0.032
 4240.00    1.15650   1.04229    0.032
 4241.00    1.09170   1.05167    0.032
 4242.00    1.09098   1.06146    0.032
 4243.00    1.13940   1.06462    0.032
 4244.00    1.08798   1.06192    0.032
 4245.00    0.96927   1.05796    0.032
 4246.00    0.94000   1.04912    0.033
 4247.00    0.96354   1.03699    0.033
 4248.00    1.04471   1.02428    0.034
 4249.00    1.15554   1.01322    0.034
 4250.00    1.22420   1.00594    0.034
 4251.00    1.27405   0.99833    0.034
 4252.00    1.17574   0.99406    0.034
 4253.00    1.02063   0.99534    0.033
 4254.00    0.93906   0.99617    0.033
 4255.00    0.88146   0.99747    0.032
 4256.00    0.92013   1.00056    0.032
 4257.00    0.98509   1.00576    0.033
 4258.00    1.02815   1.01272    0.033
 4259.00    1.06630   1.01926    0.033
 4260.00    1.09721   1.02893    0.033
 4261.00    1.12682   1.04020    0.034
 4262.00    1.12275   1.04929    0.034
 4263.00    1.11406   1.05799    0.034
 4264.00    0.99232   1.06231    0.033
 4265.00    0.85954   1.05837    0.033
 4266.00    0.93574   1.04882    0.033
 4267.00    1.02471   1.03407    0.033
 4268.00    0.97990   1.01395    0.033
 4269.00    0.93121   0.99205    0.033
 4270.00    0.83110   0.97314    0.032
 4271.00    0.73526   0.96084    0.032
 4272.00    0.75210   0.95210    0.032
 4273.00    0.76875   0.95073    0.032
 4274.00    0.78262   0.96163    0.032
 4275.00    0.80005   0.97300    0.032
 4276.00    0.84986   0.98518    0.033
 4277.00    0.90161   1.00251    0.033
 4278.00    0.96632   1.01387    0.033
 4279.00    1.02741   1.02147    0.033
 4280.00    1.06972   1.02654    0.034
 4281.00    1.10079   1.02358    0.034
 4282.00    1.08495   1.01922   -2.000
 4283.00    1.04915   1.01157   -2.000
 4284.00    0.94442   0.99944   -2.000
 4285.00    0.85261   0.98877   -2.000
 4286.00    0.79833   0.97640   -2.000
 4287.00    0.83439   0.96320   -2.000
 4288.00    1.09450   0.95452   -2.000
 4289.00    1.28421   0.94788   -2.000
 4290.00    1.32343   0.94061   -2.000
 4291.00    1.34664   0.93633   -2.000
 4292.00    1.34013   0.93207   -2.000
 4293.00    1.25183   0.92647   -2.000
 4294.00    1.03090   0.91944   -2.000
 4295.00    0.91555   0.90482   -2.000
 4296.00    0.95042   0.88936   -2.000
 4297.00    0.99712   0.87316   -2.000
 4298.00    1.05863   0.85227    0.034
 4299.00    1.04842   0.83524    0.034
 4300.00    0.95910   0.81857    0.034
 4301.00    0.91774   0.80296    0.034
 4302.00    0.92304   0.79582    0.034
 4303.00    0.89303   0.78885    0.034
 4304.00    0.83273   0.78369    0.034
 4305.00    0.79764   0.78639    0.034
 4306.00    0.78160   0.79060    0.033
 4307.00    0.75332   0.79955    0.033
 4308.00    0.71691   0.81614    0.033
 4309.00    0.70789   0.83757    0.033
 4310.00    0.71479   0.86562    0.033
 4311.00    0.89130   0.90022    0.033
 4312.00    1.15377   0.93823    0.034
 4313.00    1.10640   0.97663    0.033
 4314.00    0.92307   1.01522    0.033
 4315.00    0.97433   1.04867    0.033
 4316.00    1.11395   1.07345    0.033
 4317.00    1.16738   1.09276    0.033
 4318.00    1.19325   1.10046    0.033
 4319.00    1.21040   1.09518    0.033
 4320.00    1.22522   1.08549    0.033
 4321.00    1.17576   1.06933    0.033
 4322.00    1.11223   1.04917    0.033
 4323.00    1.07442   1.03392    0.034
 4324.00    1.04107   1.02216    0.034
 4325.00    1.04394   1.01724    0.034
 4326.00    1.05160   1.01964    0.034
 4327.00    1.20603   1.02731    0.034
 4328.00    1.37419   1.04177    0.034
 4329.00    1.28180   1.05629    0.034
 4330.00    1.17452   1.06606    0.000
 4331.00    1.22863   1.06997    0.000
 4332.00    1.28589   1.06699    0.000
 4333.00    1.27393   1.05653    0.000
 4334.00    1.25434   1.03821    0.000
 4335.00    1.05163   1.01384    0.000
 4336.00    0.86210   0.98760    0.000
 4337.00    0.84414   0.96310    0.000
 4338.00    0.84534   0.94043    0.000
 4339.00    1.01391   0.92593    0.000
 4340.00    1.16426   0.92362    0.000
 4341.00    1.19689   0.92785    0.000
 4342.00    1.21640   0.94061    0.000
 4343.00    1.16976   0.96320    0.000
 4344.00    1.12078   0.98508    0.000
 4345.00    1.06227   1.00481    0.000
 4346.00    1.02317   1.02646    0.000
 4347.00    1.04975   1.04228    0.000
 4348.00    1.09965   1.05064    0.000
 4349.00    1.21610   1.05753    0.000
 4350.00    1.30608   1.06332    0.000
 4351.00    1.33148   1.06710    0.034
 4352.00    1.31779   1.06906    0.033
 4353.00    1.22187   1.07416    0.033
 4354.00    1.13709   1.08586    0.033
 4355.00    1.07268   1.09841    0.033
 4356.00    1.09739   1.10994    0.033
 4357.00    1.26448   1.12482    0.034
 4358.00    1.40197   1.14147    0.034
 4359.00    1.49796   1.15495    0.034
 4360.00    1.52312   1.16588    0.034
 4361.00    1.46087   1.17702    0.034
 4362.00    1.34454   1.18687    0.034
 4363.00    1.16939   1.19151    0.033
 4364.00    1.10593   1.19090    0.033
 4365.00    1.14962   1.18840    0.033
 4366.00    1.17834   1.18309    0.034
 4367.00    1.19439   1.17343    0.033
 4368.00    1.17791   1.16072    0.033
 4369.00    1.13722   1.14841    0.033
 4370.00    1.16426   1.13802    0.033
 4371.00    1.23564   1.12674    0.033
 4372.00    1.12894   1.11640    0.033
 4373.00    0.92025   1.10926    0.032
 4374.00    0.96647   1.10307    0.033
 4375.00    1.13985   1.09561    0.033
 4376.00    1.23915   1.08659    0.033
 4377.00    1.30647   1.07794    0.034
 4378.00    1.22738   1.06766    0.033
 4379.00    1.09412   1.05263    0.033
 4380.00    1.11398   1.03441    0.033
 4381.00    1.18186   1.01561    0.033
 4382.00    1.13085   1.00119    0.033
 4383.00    1.04874   0.99049    0.032
 4384.00    0.97172   0.98238    0.032
 4385.00    0.89578   0.98243    0.032
 4386.00    0.99578   0.99110    0.032
 4387.00    1.12553   1.00511    0.033
 4388.00    1.15893   1.01995    0.033
 4389.00    1.18003   1.03556    0.032
 4390.00    1.15795   1.05299    0.032
 4391.00    1.13202   1.06788    0.032
 4392.00    1.13862   1.08177    0.032
 4393.00    1.14696   1.09501    0.033
 4394.00    1.18873   1.10538    0.033
 4395.00    1.23020   1.11312    0.032
 4396.00    1.19464   1.11511    0.032
 4397.00    1.15974   1.11520    0.032
 4398.00    1.13940   1.11460    0.033
 4399.00    1.12020   1.10755    0.033
 4400.00    1.11509   1.09719    0.033
 4401.00    1.10216   1.08518    0.032
 4402.00    1.02345   1.07458    0.032
 4403.00    0.97022   1.06998    0.033
 4404.00    1.07669   1.06663    0.033
 4405.00    1.17236   1.06382    0.033
 4406.00    1.21487   1.06829    0.033
 4407.00    1.24855   1.08023    0.033
 4408.00    1.24692   1.09291    0.032
 4409.00    1.21707   1.10433    0.032
 4410.00    1.09360   1.11587    0.032
 4411.00    1.00571   1.12696    0.032
 4412.00    1.01747   1.13515    0.032
 4413.00    1.05578   1.13970    0.032
 4414.00    1.15772   1.14450    0.032
 4415.00    1.22415   1.14702    0.032
 4416.00    1.21707   1.14760    0.032
 4417.00    1.21719   1.15323    0.032
 4418.00    1.23026   1.15785    0.032
 4419.00    1.24969   1.16084    0.032
 4420.00    1.27916   1.16551    0.032
 4421.00    1.30568   1.16772    0.032
 4422.00    1.32812   1.16852    0.032
 4423.00    1.31435   1.16651    0.032
 4424.00    1.25651   1.16503    0.032
 4425.00    1.22421   1.16575    0.032
 4426.00    1.21928   1.16237    0.032
 4427.00    1.20387   1.15905    0.033
 4428.00    1.17855   1.15548    0.033
 4429.00    1.15926   1.15191    0.033
 4430.00    1.14500   1.14996    0.033
 4431.00    1.19905   1.14400    0.033
 4432.00    1.30326   1.14197    0.033
 4433.00    1.33063   1.14480    0.032
 4434.00    1.30846   1.14620    0.032
 4435.00    1.24498   1.14977    0.032
 4436.00    1.15818   1.15365    0.033
 4437.00    1.22052   1.15928    0.033
 4438.00    1.35606   1.16694    0.033
 4439.00    1.38442   1.17174    0.033
 4440.00    1.36729   1.17608    0.033
 4441.00    1.23002   1.18082    0.033
 4442.00    1.04908   1.18449    0.033
 4443.00    1.06827   1.18797    0.033
 4444.00    1.14899   1.19336    0.033
 4445.00    1.16430   1.19891    0.033
 4446.00    1.16286   1.20359    0.032
 4447.00    1.25882   1.20618    0.032
 4448.00    1.37508   1.20211    0.032
 4449.00    1.37634   1.19654    0.032
 4450.00    1.35871   1.18805    0.033
 4451.00    1.22786   1.17208    0.032
 4452.00    1.08305   1.15645    0.031
 4453.00    1.04274   1.14063    0.031
 4454.00    1.01130   1.12346    0.032
 4455.00    0.96586   1.10779    0.031
 4456.00    0.91973   1.09468    0.031
 4457.00    0.94596   1.08673    0.031
 4458.00    0.97356   1.08363    0.031
 4459.00    1.01461   1.08436    0.031
 4460.00    1.05347   1.08748    0.032
 4461.00    1.04806   1.09516    0.000
 4462.00    1.05311   1.10434    0.000
 4463.00    1.18116   1.11363    0.000
 4464.00    1.29677   1.12763    0.000
 4465.00    1.31158   1.13980    0.000
 4466.00    1.30869   1.15067    0.000
 4467.00    1.19810   1.16314    0.000
 4468.00    1.10571   1.17573    0.000
 4469.00    1.10065   1.19022    0.000
 4470.00    1.11884   1.20369    0.000
 4471.00    1.22778   1.21693    0.000
 4472.00    1.31906   1.23063    0.000
 4473.00    1.35286   1.24225    0.000
 4474.00    1.35737   1.25133    0.000
 4475.00    1.28128   1.25619    0.000
 4476.00    1.22548   1.25577    0.000
 4477.00    1.21749   1.25284    0.000
 4478.00    1.17702   1.24927    0.000
 4479.00    1.07042   1.24545    0.000
 4480.00    1.03405   1.24068    0.000
 4481.00    1.12217   1.23640    0.000
 4482.00    1.20460   1.23513    0.031
 4483.00    1.27823   1.23576    0.031
 4484.00    1.31516   1.23807    0.031
 4485.00    1.30211   1.23927    0.031
 4486.00    1.30220   1.23829    0.031
 4487.00    1.31803   1.23693    0.031
 4488.00    1.32939   1.23425    0.031
 4489.00    1.33602   1.22992    0.032
 4490.00    1.29414   1.22400    0.032
 4491.00    1.20701   1.22037    0.031
 4492.00    1.20690   1.21941    0.031
 4493.00    1.27831   1.22113    0.031
 4494.00    1.34337   1.22552    0.032
 4495.00    1.40382   1.23005    0.032
 4496.00    1.39249   1.23925    0.032
 4497.00    1.33557   1.25082    0.031
 4498.00    1.40053   1.26463    0.032
 4499.00    1.53319   1.28171    0.032
 4500.00    1.50961   1.29684    0.032
 4501.00    1.41056   1.31192    0.032
 4502.00    1.38087   1.32411    0.031
 4503.00    1.38011   1.33455    0.031
 4504.00    1.37131   1.34551    0.031
 4505.00    1.35963   1.35131    0.032
 4506.00    1.29878   1.35346    0.031
 4507.00    1.22312   1.35248    0.031
 4508.00    1.27761   1.34775    0.031
 4509.00    1.36471   1.34223    0.031
 4510.00    1.33634   1.33492    0.031
 4511.00    1.28450   1.32672    0.031
 4512.00    1.23948   1.31933    0.031
 4513.00    1.19556   1.31001    0.031
 4514.00    1.28158   1.30173    0.031
 4515.00    1.38305   1.29600    0.032
 4516.00    1.32997   1.29021    0.031
 4517.00    1.26440   1.28710    0.030
 4518.00    1.25307   1.28089    0.030
 4519.00    1.24422   1.27187    0.031
 4520.00    1.21674   1.26476    0.031
 4521.00    1.19109   1.25302    0.031
 4522.00    1.26983   1.23977    0.031
 4523.00    1.34159   1.22318    0.031
 4524.00    1.28247   1.20324    0.031
 4525.00    1.22882   1.18714    0.030
 4526.00    1.23654   1.17133    0.030
 4527.00    1.24868   1.15708    0.030
 4528.00    1.29539   1.14851    0.030
 4529.00    1.31627   1.14200    0.030
 4530.00    1.18443   1.14057    0.031
 4531.00    1.08144   1.14438    0.031
 4532.00    1.11349   1.15082    0.030
 4533.00    1.14935   1.16437    0.030
 4534.00    1.19977   1.17706    0.030
 4535.00    1.22359   1.18906    0.031
 4536.00    1.16260   1.20231    0.031
 4537.00    1.12774   1.21434    0.031
 4538.00    1.16348   1.22864    0.030
 4539.00    1.18639   1.23808    0.030
 4540.00    1.17957   1.24131    0.030
 4541.00    1.20334   1.24254    0.031
 4542.00    1.28845   1.24239    0.031
 4543.00    1.33691   1.24175    0.031
 4544.00    1.32140   1.23967    0.030
 4545.00    1.30006   1.23276    0.030
 4546.00    1.26984   1.22618    0.031
 4547.00    1.29382   1.22338    0.031
 4548.00    1.39056   1.21971    0.031
 4549.00    1.40435   1.21773    0.031
 4550.00    1.32009   1.21511    0.000
 4551.00    1.23690   1.21505    0.000
 4552.00    1.15481   1.22139    0.000
 4553.00    1.14362   1.22833    0.000
 4554.00    1.19760   1.23622    0.000
 4555.00    1.29161   1.24538    0.000
 4556.00    1.41807   1.25479    0.000
 4557.00    1.43240   1.26598    0.000
 4558.00    1.36676   1.27712    0.000
 4559.00    1.34295   1.28327    0.000
 4560.00    1.34531   1.28702    0.000
 4561.00    1.31430   1.28916    0.000
 4562.00    1.26502   1.28997    0.000
 4563.00    1.24336   1.29266    0.000
 4564.00    1.23482   1.29264    0.000
 4565.00    1.19997   1.29177    0.000
 4566.00    1.15432   1.29327    0.000
 4567.00    1.24085   1.29370    0.000
 4568.00    1.37369   1.29676    0.000
 4569.00    1.38486   1.30091    0.000
 4570.00    1.36007   1.30132    0.000
 4571.00    1.30043   1.30169    0.000
 4572.00    1.23225   1.29989    0.000
 4573.00    1.31239   1.29730    0.000
 4574.00    1.42192   1.29609    0.000
 4575.00    1.32812   1.28978    0.000
 4576.00    1.20283   1.28094    0.000
 4577.00    1.21459   1.27228    0.000
 4578.00    1.24202   1.26404    0.000
 4579.00    1.31635   1.25639    0.000
 4580.00    1.39428   1.24837    0.000
 4581.00    1.40310   1.24244    0.000
 4582.00    1.40904   1.23908    0.000
 4583.00    1.30479   1.24043    0.000
 4584.00    1.20172   1.24347    0.000
 4585.00    1.19022   1.24687    0.000
 4586.00    1.18245   1.25129    0.000
 4587.00    1.24002   1.25403    0.000
 4588.00    1.29321   1.25712    0.000
 4589.00    1.29962   1.25945    0.000
 4590.00    1.30243   1.25959    0.000
 4591.00    1.27796   1.25711    0.000
 4592.00    1.25344   1.25346    0.000
 4593.00    1.22855   1.24995    0.000
 4594.00    1.19323   1.24696    0.000
 4595.00    1.11026   1.24604    0.000
 4596.00    1.04086   1.24333    0.000
 4597.00    1.02220   1.24279    0.000
 4598.00    1.03313   1.24527    0.000
 4599.00    1.13660   1.24725    0.000
 4600.00    1.21961   1.25292    0.000
 4601.00    1.24834   1.25690    0.000
 4602.00    1.26839   1.26328    0.000
 4603.00    1.26867   1.27340    0.000
 4604.00    1.26234   1.28299    0.000
 4605.00    1.24296   1.29471    0.000
 4606.00    1.23088   1.30420    0.000
 4607.00    1.23136   1.31318    0.000
 4608.00    1.23335   1.32289    0.000
 4609.00    1.23761   1.33011    0.000
 4610.00    1.27913   1.33606    0.000
 4611.00    1.36993   1.34007    0.000
 4612.00    1.36777   1.34053    0.000
 4613.00    1.25728   1.34207    0.000
 4614.00    1.23290   1.34262    0.000
 4615.00    1.29702   1.34194    0.000
 4616.00    1.33688   1.34345    0.000
 4617.00    1.35474   1.34373    0.000
 4618.00    1.35962   1.34418    0.000
 4619.00    1.35412   1.34500    0.000
 4620.00    1.37620   1.34455    0.000
 4621.00    1.41768   1.34451    0.000
 4622.00    1.38889   1.34497    0.000
 4623.00    1.31677   1.34405    0.000
 4624.00    1.27739   1.34265    0.000
 4625.00    1.25564   1.34045    0.000
 4626.00    1.24579   1.33734    0.000
 4627.00    1.24150   1.33513    0.000
 4628.00    1.31712   1.33180    0.000
 4629.00    1.42496   1.32667    0.000
 4630.00    1.44407   1.32092    0.000
 4631.00    1.43265   1.31456    0.000
 4632.00    1.45046   1.30903    0.000
 4633.00    1.47673   1.30146    0.000
 4634.00    1.43801   1.29209    0.000
 4635.00    1.38373   1.28438    0.000
 4636.00    1.33788   1.27627    0.000
 4637.00    1.29366   1.27003    0.000
 4638.00    1.30989   1.26365    0.000
 4639.00    1.33519   1.25624    0.000
 4640.00    1.26733   1.25019    0.000
 4641.00    1.18922   1.24343    0.000
 4642.00    1.23036   1.23718    0.000
 4643.00    1.28016   1.23174    0.000
 4644.00    1.19042   1.22646    0.000
 4645.00    1.09541   1.22265    0.000
 4646.00    1.20454   1.22138    0.000
 4647.00    1.30856   1.22123    0.000
 4648.00    1.18483   1.22380    0.000
 4649.00    1.07302   1.22990    0.000
 4650.00    1.15623   1.23626    0.000
 4651.00    1.23351   1.24447    0.000
 4652.00    1.25026   1.25311    0.000
 4653.00    1.26371   1.26133    0.000
 4654.00    1.25309   1.27126    0.000
 4655.00    1.25294   1.27842    0.000
 4656.00    1.31124   1.28448    0.000
 4657.00    1.36666   1.28848    0.000
 4658.00    1.40920   1.28939    0.000
 4659.00    1.41631   1.28849    0.000
 4660.00    1.29360   1.28340    0.000
 4661.00    1.20844   1.27456    0.000
 4662.00    1.23853   1.26112    0.000
 4663.00    1.23195   1.24535    0.000
 4664.00    1.12975   1.23081    0.000
 4665.00    1.08513   1.21939    0.000
 4666.00    1.16953   1.21122    0.000
 4667.00    1.24208   1.20601    0.000
 4668.00    1.29162   1.20402    0.000
 4669.00    1.31093   1.20714    0.000
 4670.00    1.27906   1.21520    0.000
 4671.00    1.25625   1.22481    0.000
 4672.00    1.24689   1.23557    0.000
 4673.00    1.24152   1.24421    0.000
 4674.00    1.24134   1.25012    0.000
 4675.00    1.24819   1.25475    0.000
 4676.00    1.26313   1.25725    0.000
 4677.00    1.23954   1.25906    0.000
 4678.00    1.17691   1.25889    0.000
 4679.00    1.14800   1.25764    0.000
 4680.00    1.14924   1.25671    0.000
 4681.00    1.19105   1.25579    0.000
 4682.00    1.26481   1.25622    0.000
 4683.00    1.33383   1.25695    0.000
 4684.00    1.39957   1.25867    0.000
 4685.00    1.32388   1.26058    0.000
 4686.00    1.16228   1.26161    0.000
 4687.00    1.18084   1.26265    0.000
 4688.00    1.29493   1.26338    0.000
 4689.00    1.31190   1.26419    0.000
 4690.00    1.28418   1.26513    0.000
 4691.00    1.25800   1.26586    0.000
 4692.00    1.23243   1.26510    0.000
 4693.00    1.24023   1.26376    0.000
 4694.00    1.25930   1.26098    0.000
 4695.00    1.25167   1.25668    0.000
 4696.00    1.23646   1.25221    0.000
 4697.00    1.28909   1.24570    0.000
 4698.00    1.35761   1.23850    0.000
 4699.00    1.28560   1.23019    0.000
 4700.00    1.18715   1.22342    0.000
 4701.00    1.19541   1.21897    0.000
 4702.00    1.21921   1.21489    0.000
 4703.00    1.16448   1.21222    0.000
 4704.00    1.10145   1.21094    0.000
 4705.00    1.13711   1.21268    0.000
 4706.00    1.17955   1.21577    0.000
 4707.00    1.21603   1.22041    0.000
 4708.00    1.25232   1.22486    0.000
 4709.00    1.29797   1.23066    0.000
 4710.00    1.33940   1.23771    0.000
 4711.00    1.24322   1.24577    0.000
 4712.00    1.15561   1.25690    0.000
 4713.00    1.19944   1.26735    0.000
 4714.00    1.24232   1.27816    0.000
 4715.00    1.27580   1.28904    0.000
 4716.00    1.31150   1.29962    0.000
 4717.00    1.36297   1.31095    0.000
 4718.00    1.41313   1.32007    0.000
 4719.00    1.45618   1.32668    0.000
 4720.00    1.47456   1.33106    0.000
 4721.00    1.38547   1.33113    0.000
 4722.00    1.30594   1.32768    0.000
 4723.00    1.26070   1.32022    0.000
 4724.00    1.23144   1.31044    0.000
 4725.00    1.25025   1.30004    0.000
 4726.00    1.23536   1.28871    0.000
 4727.00    1.13412   1.27791    0.000
 4728.00    1.09408   1.26773    0.000
 4729.00    1.18892   1.26054    0.000
 4730.00    1.25068   1.25626    0.000
 4731.00    1.24919   1.25573    0.000
 4732.00    1.25675   1.25787    0.000
 4733.00    1.27941   1.26202    0.000
 4734.00    1.27391   1.26846    0.000
 4735.00    1.22724   1.27447    0.000
 4736.00    1.24933   1.28154    0.000
 4737.00    1.35983   1.28788    0.000
 4738.00    1.39353   1.29374    0.000
 4739.00    1.34023   1.30096    0.000
 4740.00    1.32309   1.30715    0.000
 4741.00    1.34208   1.31209    0.000
 4742.00    1.38047   1.31690    0.000
 4743.00    1.43598   1.32129    0.000
 4744.00    1.38795   1.32500    0.000
 4745.00    1.25956   1.32762    0.000
 4746.00    1.27125   1.32852    0.000
 4747.00    1.37856   1.32906    0.000
 4748.00    1.38999   1.32723    0.000
 4749.00    1.34406   1.32408    0.000
 4750.00    1.31866   1.31983    0.000
 4751.00    1.30396   1.31475    0.000
 4752.00    1.31981   1.30933    0.000
 4753.00    1.34947   1.30283    0.000
 4754.00    1.33400   1.29748    0.000
 4755.00    1.30095   1.29127    0.000
 4756.00    1.28342   1.28553    0.000
 4757.00    1.27102   1.27955    0.000
 4758.00    1.29891   1.27306    0.000
 4759.00    1.33800   1.26673    0.000
 4760.00    1.25797   1.25975    0.000
 4761.00    1.15068   1.25364    0.029
 4762.00    1.19531   1.24769    0.029
 4763.00    1.26778   1.24320    0.028
 4764.00    1.28873   1.24163    0.029
 4765.00    1.30243   1.24187    0.029
 4766.00    1.30028   1.24506    0.029
 4767.00    1.29652   1.25025    0.029
 4768.00    1.26802   1.25854    0.029
 4769.00    1.23792   1.26826    0.029
 4770.00    1.34448   1.27837    0.028
 4771.00    1.45471   1.28937    0.028
 4772.00    1.33405   1.29795    0.028
 4773.00    1.21441   1.30599    0.029
 4774.00    1.12408   1.31256    0.029
 4775.00    1.04521   1.31749    0.029
 4776.00    1.13197   1.32029    0.028
 4777.00    1.21382   1.31951    0.028
 4778.00    1.24953   1.31769    0.028
 4779.00    1.27958   1.31358    0.027
 4780.00    1.27082   1.30725    0.028
 4781.00    1.26733   1.30121    0.028
 4782.00    1.29172   1.29475    0.028
 4783.00    1.29960   1.28859    0.028
 4784.00    1.23715   1.28382    0.027
 4785.00    1.19170   1.28092    0.027
 4786.00    1.20600   1.28114    0.027
 4787.00    1.24427   1.28258    0.027
 4788.00    1.35342   1.28709    0.027
 4789.00    1.41283   1.29411    0.027
 4790.00    1.34697   1.30104    0.027
 4791.00    1.30091   1.30936    0.027
 4792.00    1.29775   1.31691    0.028
 4793.00    1.29540   1.32335    0.028
 4794.00    1.29457   1.32855    0.028
 4795.00    1.30401   1.33214    0.028
 4796.00    1.33035   1.33409    0.028
 4797.00    1.32993   1.33370    0.028
 4798.00    1.29096   1.33208    0.028
 4799.00    1.26380   1.32888    0.028
 4800.00    1.25161   1.32579    0.027
 4801.00    1.24599   1.32231    0.027
 4802.00    1.24772   1.31938    0.027
 4803.00    1.22079   1.31702    0.028
 4804.00    1.16562   1.31430    0.028
 4805.00    1.16577   1.31211    0.028
 4806.00    1.21398   1.30971    0.027
 4807.00    1.24899   1.30911    0.027
 4808.00    1.27392   1.30946    0.028
 4809.00    1.28170   1.31108    0.028
 4810.00    1.27796   1.31465    0.028
 4811.00    1.31106   1.31913    0.028
 4812.00    1.36586   1.32409    0.028
 4813.00    1.33580   1.32964    0.028
 4814.00    1.26212   1.33433    0.028
 4815.00    1.23894   1.33851    0.028
 4816.00    1.23823   1.34121    0.028
 4817.00    1.26200   1.34148    0.028
 4818.00    1.29512   1.34047    0.028
 4819.00    1.32073   1.33756    0.028
 4820.00    1.34389   1.33348    0.028
 4821.00    1.35740   1.32795    0.028
 4822.00    1.36829   1.32140    0.028
 4823.00    1.41212   1.31516    0.028
 4824.00    1.46331   1.30878    0.028
 4825.00    1.42647   1.30338    0.028
 4826.00    1.37395   1.29938    0.028
 4827.00    1.35000   1.29658    0.028
 4828.00    1.32996   1.29455    0.027
 4829.00    1.32247   1.29288    0.028
 4830.00    1.31620   1.29093    0.028
 4831.00    1.28272   1.29013    0.028
 4832.00    1.24759   1.28879    0.028
 4833.00    1.19929   1.28689    0.027
 4834.00    1.15113   1.28557    0.027
 4835.00    1.19104   1.28380    0.027
 4836.00    1.23049   1.28208    0.027
 4837.00    1.25818   1.27896    0.027
 4838.00    1.28197   1.27662    0.027
 4839.00    1.25262   1.27422    0.027
 4840.00    1.22602   1.27175    0.028
 4841.00    1.22433   1.26975    0.027
 4842.00    1.21976   1.26760    0.027
 4843.00    1.19611   1.26612    0.027
 4844.00    1.18843   1.26453    0.027
 4845.00    1.26316   1.26234    0.027
 4846.00    1.32800   1.25911    0.028
 4847.00    1.35168   1.25426    0.028
 4848.00    1.36148   1.24713    0.000
 4849.00    1.32350   1.23684    0.000
 4850.00    1.28509   1.22458    0.000
 4851.00    1.24547   1.21118    0.000
 4852.00    1.17924   1.19443    0.000
 4853.00    1.04716   1.17525    0.000
 4854.00    0.97404   1.15408    0.000
 4855.00    1.02672   1.13104    0.000
 4856.00    1.05928   1.10898    0.000
 4857.00    1.05455   1.08947    0.000
 4858.00    1.07615   1.07251    0.000
 4859.00    1.14035   1.05984    0.000
 4860.00    1.17037   1.05170    0.000
 4861.00    1.15186   1.04862    0.000
 4862.00    1.15309   1.04977    0.000
 4863.00    1.17898   1.05664    0.000
 4864.00    1.22029   1.06753    0.000
 4865.00    1.27859   1.07859    0.000
 4866.00    1.30435   1.09191    0.000
 4867.00    1.29851   1.10433    0.000
 4868.00    1.26695   1.11585    0.000
 4869.00    1.21335   1.12595    0.000
 4870.00    1.17613   1.13566    0.000
 4871.00    1.15124   1.14562    0.000
 4872.00    1.12758   1.15466    0.000
 4873.00    1.10471   1.16606    0.000
 4874.00    1.14634   1.17779    0.000
 4875.00    1.22541   1.18913    0.028
 4876.00    1.25801   1.20045    0.028
 4877.00    1.26711   1.21008    0.029
 4878.00    1.28495   1.21771    0.029
 4879.00    1.30661   1.22168    0.028
 4880.00    1.35185   1.22394    0.029
 4881.00    1.40596   1.22315    0.029
 4882.00    1.42176   1.21972    0.029
 4883.00    1.42534   1.21499    0.029
 4884.00    1.34938   1.20987    0.029
 4885.00    1.25222   1.20433    0.029
 4886.00    1.22702   1.20204    0.028
 4887.00    1.21751   1.20211    0.028
 4888.00    1.15600   1.20562    0.028
 4889.00    1.08547   1.21328    0.028
 4890.00    1.17395   1.22378    0.028
 4891.00    1.28337   1.23781    0.028
 4892.00    1.27123   1.25232    0.028
 4893.00    1.24780   1.26918    0.028
 4894.00    1.26996   1.28482    0.028
 4895.00    1.29471   1.29925    0.028
 4896.00    1.37212   1.31123    0.028
 4897.00    1.44940   1.31879    0.028
 4898.00    1.38004   1.32345    0.028
 4899.00    1.31143   1.32519    0.028
 4900.00    1.26061   1.32473    0.028
 4901.00    1.21248   1.32210    0.029
 4902.00    1.19925   1.31898    0.028
 4903.00    1.19184   1.31491    0.028
 4904.00    1.23507   1.31023    0.028
 4905.00    1.27715   1.30588    0.028
 4906.00    1.31190   1.30116    0.028
 4907.00    1.33559   1.29680    0.028
 4908.00    1.30364   1.29196    0.028
 4909.00    1.27741   1.28705    0.028
 4910.00    1.27446   1.28139    0.028
 4911.00    1.28941   1.27477    0.028
 4912.00    1.36478   1.26765    0.028
 4913.00    1.38335   1.25936    0.028
 4914.00    1.24019   1.25038    0.028
 4915.00    1.15021   1.24016    0.028
 4916.00    1.18958   1.22995    0.027
 4917.00    1.23642   1.21921    0.027
 4918.00    1.29893   1.21021    0.027
 4919.00    1.33537   1.20349    0.027
 4920.00    1.32424   1.20086    0.027
 4921.00    1.31614   1.20292    0.027
 4922.00    1.31289   1.20957    0.027
 4923.00    1.27391   1.22145    0.027
 4924.00    1.18491   1.23537    0.027
 4925.00    1.14588   1.25060    0.027
 4926.00    1.16838   1.26505    0.027
 4927.00    1.19865   1.27766    0.027
 4928.00    1.23736   1.28728    0.027
 4929.00    1.28237   1.29356    0.027
 4930.00    1.33341   1.29595    0.027
 4931.00    1.33466   1.29395    0.027
 4932.00    1.29385   1.28955    0.027
 4933.00    1.25136   1.28359    0.026
 4934.00    1.20762   1.27669    0.026
 4935.00    1.21478   1.27132    0.026
 4936.00    1.25517   1.26809    0.026
 4937.00    1.25484   1.26733    0.026
 4938.00    1.23124   1.27014    0.026
 4939.00    1.24056   1.27559    0.026
 4940.00    1.26628   1.28327    0.000
 4941.00    1.25479   1.29341    0.000
 4942.00    1.22729   1.30492    0.000
 4943.00    1.20399   1.31638    0.000
 4944.00    1.18224   1.32704    0.000
 4945.00    1.21180   1.33544    0.000
 4946.00    1.25742   1.34140    0.000
 4947.00    1.27580   1.34456    0.000
 4948.00    1.28706   1.34517    0.000
 4949.00    1.27438   1.34168    0.000
 4950.00    1.25661   1.33637    0.000
 4951.00    1.33100   1.32813    0.000
 4952.00    1.42092   1.31828    0.000
 4953.00    1.35423   1.30749    0.000
 4954.00    1.26761   1.29624    0.000
 4955.00    1.27719   1.28681    0.000
 4956.00    1.29530   1.27815    0.000
 4957.00    1.28489   1.27281    0.000
 4958.00    1.27298   1.26883    0.000
 4959.00    1.29804   1.26781    0.000
 4960.00    1.32293   1.26860    0.000
 4961.00    1.27933   1.27029    0.000
 4962.00    1.24085   1.27341    0.000
 4963.00    1.31371   1.27522    0.000
 4964.00    1.37530   1.27659    0.000
 4965.00    1.29857   1.27723    0.000
 4966.00    1.23392   1.27836    0.000
 4967.00    1.27047   1.27957    0.000
 4968.00    1.29594   1.28153    0.000
 4969.00    1.25216   1.28357    0.000
 4970.00    1.22686   1.28615    0.000
 4971.00    1.29211   1.28789    0.000
 4972.00    1.32796   1.28807    0.000
 4973.00    1.24677   1.28652    0.000
 4974.00    1.18214   1.28131    0.000
 4975.00    1.17231   1.27401    0.000
 4976.00    1.18924   1.26363    0.000
 4977.00    1.28099   1.25117    0.000
 4978.00    1.32678   1.23788    0.000
 4979.00    1.26268   1.22432    0.000
 4980.00    1.21602   1.21244    0.000
 4981.00    1.20537   1.20271    0.000
 4982.00    1.19115   1.19632    0.000
 4983.00    1.17054   1.19345    0.000
 4984.00    1.19970   1.19455    0.000
 4985.00    1.30707   1.19840    0.000
 4986.00    1.35412   1.20484    0.000
 4987.00    1.31800   1.21330    0.000
 4988.00    1.30335   1.22206    0.000
 4989.00    1.31479   1.22996    0.000
 4990.00    1.27929   1.23642    0.000
 4991.00    1.19358   1.24102    0.000
 4992.00    1.17210   1.24278    0.000
 4993.00    1.21126   1.24300    0.000
 4994.00    1.30095   1.24077    0.000
 4995.00    1.43268   1.23648    0.000
 4996.00    1.36049   1.23073    0.000
 4997.00    1.13887   1.22236    0.000
 4998.00    1.09335   1.21328    0.000
 4999.00    1.16116   1.20379    0.000
 5000.00    1.17654   1.19381    0.000
 5001.00    1.16239   1.18467    0.000
 5002.00    1.19731   1.17620    0.000
 5003.00    1.25626   1.16920    0.000
 5004.00    1.28694   1.16373    0.000
 5005.00    1.30566   1.15964    0.000
 5006.00    1.26187   1.15624    0.000
 5007.00    1.19541   1.15351    0.000
 5008.00    1.23348   1.15083    0.000
 5009.00    1.30361   1.14790    0.000
 5010.00    1.25562   1.14518    0.000
 5011.00    1.17748   1.14234    0.000
 5012.00    1.15410   1.13957    0.000
 5013.00    1.14210   1.13625    0.000
 5014.00    1.16544   1.13450    0.000
 5015.00    1.19458   1.13365    0.000
 5016.00    1.20664   1.13499    0.000
 5017.00    1.21661   1.13797    0.000
 5018.00    1.22467   1.14275    0.000
 5019.00    1.23256   1.14864    0.000
 5020.00    1.25753   1.15554    0.000
 5021.00    1.28333   1.16282    0.000
 5022.00    1.25294   1.17121    0.000
 5023.00    1.22280   1.17996    0.000
 5024.00    1.26138   1.18848    0.000
 5025.00    1.29284   1.19727    0.000
 5026.00    1.18158   1.20526    0.000
 5027.00    1.08284   1.21366    0.000
 5028.00    1.13036   1.21979    0.000
 5029.00    1.18176   1.22494    0.025
 5030.00    1.26449   1.22772    0.026
 5031.00    1.32595   1.22761    0.026
 5032.00    1.25842   1.22582    0.026
 5033.00    1.20411   1.22047    0.027
 5034.00    1.21299   1.21316    0.026
 5035.00    1.21144   1.20422    0.026
 5036.00    1.16928   1.19514    0.026
 5037.00    1.12622   1.18630    0.026
 5038.00    1.08025   1.17943    0.026
 5039.00    1.06055   1.17518    0.026
 5040.00    1.11299   1.17479    0.026
 5041.00    1.14644   1.17783    0.026
 5042.00    1.13521   1.18235    0.026
 5043.00    1.14071   1.18935    0.026
 5044.00    1.18020   1.19676    0.026
 5045.00    1.20445   1.20482    0.026
 5046.00    1.20173   1.21266    0.026
 5047.00    1.21478   1.21839    0.026
 5048.00    1.25225   1.22328    0.026
 5049.00    1.24843   1.22763    0.026
 5050.00    1.18848   1.23201    0.026
 5051.00    1.16840   1.23672    0.026
 5052.00    1.19605   1.24278    0.026
 5053.00    1.21555   1.25008    0.026
 5054.00    1.22647   1.25797    0.026
 5055.00    1.20822   1.26529    0.026
 5056.00    1.16282   1.27216    0.026
 5057.00    1.15076   1.27724    0.026
 5058.00    1.16606   1.28002    0.027
 5059.00    1.23500   1.27996    0.027
 5060.00    1.34268   1.27753    0.027
 5061.00    1.35897   1.27270    0.027
 5062.00    1.31731   1.26606    0.026
 5063.00    1.24864   1.25799    0.026
 5064.00    1.16498   1.24977    0.026
 5065.00    1.17921   1.24149    0.026
 5066.00    1.24065   1.23362    0.027
 5067.00    1.23335   1.22688    0.027
 5068.00    1.19744   1.22085    0.027
 5069.00    1.20961   1.21678    0.027
 5070.00    1.23888   1.21299    0.027
 5071.00    1.20564   1.20882    0.028
 5072.00    1.15360   1.20474    0.028
 5073.00    1.19578   1.20015    0.028
 5074.00    1.26149   1.19487    0.028
 5075.00    1.26754   1.18842    0.028
 5076.00    1.26150   1.18242    0.028
 5077.00    1.25089   1.17727    0.027
 5078.00    1.23955   1.17237    0.027
 5079.00    1.19338   1.16955    0.027
 5080.00    1.14308   1.16882    0.027
 5081.00    1.11432   1.17091    0.026
 5082.00    1.08728   1.17452    0.026
 5083.00    1.13084   1.18098    0.026
 5084.00    1.17758   1.18989    0.026
 5085.00    1.12211   1.19985    0.025
 5086.00    1.06773   1.20962    0.025
 5087.00    1.12759   1.21887    0.025
 5088.00    1.18340   1.22721    0.025
 5089.00    1.16365   1.23337    0.025
 5090.00    1.14468   1.23729    0.025
 5091.00    1.13429   1.23862    0.025
 5092.00    1.13817   1.23779    0.025
 5093.00    1.25328   1.23448    0.026
 5094.00    1.33895   1.22940    0.027
 5095.00    1.25117   1.22323    0.027
 5096.00    1.17845   1.21665    0.028
 5097.00    1.17605   1.21013    0.028
 5098.00    1.18337   1.20397    0.027
 5099.00    1.22773   1.19925    0.027
 5100.00    1.24168   1.19521    0.026
 5101.00    1.15890   1.19280    0.025
 5102.00    1.10486   1.19071    0.025
 5103.00    1.12836   1.19016    0.025
 5104.00    1.13960   1.18995    0.025
 5105.00    1.12252   1.19018    0.025
 5106.00    1.10367   1.19077    0.025
 5107.00    1.08132   1.19227    0.025
 5108.00    1.08779   1.19509    0.025
 5109.00    1.14451   1.19909    0.025
 5110.00    1.18850   1.20435    0.025
 5111.00    1.21307   1.21022    0.025
 5112.00    1.23481   1.21699    0.025
 5113.00    1.25276   1.22279    0.026
 5114.00    1.25757   1.22782    0.026
 5115.00    1.24688   1.23108    0.027
 5116.00    1.23165   1.23151    0.027
 5117.00    1.21167   1.22928    0.026
 5118.00    1.18665   1.22428    0.026
 5119.00    1.15699   1.21667    0.026
 5120.00    1.11973   1.20740    0.026
 5121.00    1.07633   1.19708    0.025
 5122.00    1.07304   1.18635    0.025
 5123.00    1.09831   1.17677    0.025
 5124.00    1.10445   1.16834    0.025
 5125.00    1.09864   1.16254    0.025
 5126.00    1.07985   1.15880    0.025
 5127.00    1.05399   1.15761    0.025
 5128.00    1.08192   1.15881    0.025
 5129.00    1.13538   1.16143    0.025
 5130.00    0.97132   1.16501    0.026
 5131.00    0.71823   1.16849    0.026
 5132.00    0.85092   1.17189    0.026
 5133.00    1.11848   1.17388    0.026
 5134.00    1.12983   1.17511    0.026
 5135.00    1.06565   1.17446    0.026
 5136.00    1.08526   1.17264    0.026
 5137.00    1.12534   1.16963    0.026
 5138.00    1.16430   1.16594    0.026
 5139.00    1.20304   1.16199    0.026
 5140.00    1.24433   1.15751    0.029
 5141.00    1.28601   1.15394    0.033
 5142.00    1.17390   1.15040    0.033
 5143.00    1.04428   1.14790    0.033
 5144.00    1.07901   1.14629    0.033
 5145.00    1.12628   1.14477    0.033
 5146.00    1.19743   1.14428    0.030
 5147.00    1.26956   1.14476    0.027
 5148.00    1.11979   1.14595    0.026
 5149.00    0.97449   1.14807    0.026
 5150.00    1.09407   1.15143    0.026
 5151.00    1.20443   1.15557    0.026
 5152.00    1.15516   1.16095    0.026
 5153.00    1.11361   1.16641    0.026
 5154.00    1.15412   1.17179    0.026
 5155.00    1.18778   1.17600    0.026
 5156.00    1.16992   1.17846    0.026
 5157.00    1.16192   1.17771    0.026
 5158.00    1.21039   1.17352    0.026
 5159.00    1.23674   1.16453    0.026
 5160.00    1.16231   1.15106    0.026
 5161.00    1.10077   1.13282    0.026
 5162.00    1.08736   1.11085    0.026
 5163.00    1.07688   1.08613    0.026
 5164.00    1.07554   1.06048    0.026
 5165.00    1.04672   1.03532    0.026
 5166.00    0.94511   1.01264    0.026
 5167.00    0.88368   0.99421    0.025
 5168.00    0.91362   0.98046    0.025
 5169.00    0.93141   0.97311    0.025
 5170.00    0.92526   0.97122    0.024
 5171.00    0.93218   0.97542    0.024
 5172.00    0.96152   0.98397    0.024
 5173.00    0.98812   0.99585    0.025
 5174.00    1.01060   1.00875    0.025
 5175.00    1.05262   1.02111    0.025
 5176.00    1.12044   1.03165    0.025
 5177.00    1.14632   1.03975    0.025
 5178.00    1.12340   1.04490    0.025
 5179.00    1.08457   1.04756    0.025
 5180.00    1.02941   1.04822    0.024
 5181.00    0.99459   1.04808    0.024
 5182.00    0.97816   1.04850    0.024
 5183.00    0.97474   1.05059    0.024
 5184.00    0.98167   1.05503    0.024
 5185.00    1.01331   1.06147    0.024
 5186.00    1.06229   1.07007    0.024
 5187.00    1.08899   1.07959    0.024
 5188.00    1.10200   1.09012    0.025
 5189.00    1.12046   1.10010    0.025
 5190.00    1.14187   1.10977    0.000
 5191.00    1.13010   1.11826    0.000
 5192.00    1.10286   1.12552    0.000
 5193.00    1.13233   1.13226    0.000
 5194.00    1.18462   1.13800    0.000
 5195.00    1.21567   1.14334    0.000
 5196.00    1.23943   1.14751    0.000
 5197.00    1.20671   1.15022    0.000
 5198.00    1.15769   1.15129    0.000
 5199.00    1.16511   1.15016    0.000
 5200.00    1.18602   1.14667    0.000
 5201.00    1.17071   1.14076    0.000
 5202.00    1.14844   1.13398    0.000
 5203.00    1.11268   1.12614    0.000
 5204.00    1.07489   1.11938    0.000
 5205.00    1.04599   1.11385    0.000
 5206.00    1.01807   1.11139    0.000
 5207.00    1.00582   1.11172    0.000
 5208.00    0.99471   1.11582    0.000
 5209.00    1.07083   1.12283    0.000
 5210.00    1.15020   1.13244    0.000
 5211.00    1.12829   1.14384    0.025
 5212.00    1.10787   1.15600    0.025
 5213.00    1.15878   1.16804    0.026
 5214.00    1.20608   1.17855    0.026
 5215.00    1.19495   1.18808    0.026
 5216.00    1.18917   1.19475    0.026
 5217.00    1.23785   1.19917    0.026
 5218.00    1.26984   1.20057    0.026
 5219.00    1.18039   1.19921    0.026
 5220.00    1.10807   1.19538    0.025
 5221.00    1.13124   1.18947    0.026
 5222.00    1.15246   1.18267    0.026
 5223.00    1.16504   1.17537    0.026
 5224.00    1.16298   1.16874    0.026
 5225.00    1.10740   1.16347    0.026
 5226.00    1.06730   1.16040    0.026
 5227.00    1.07460   1.16013    0.025
 5228.00    1.08512   1.16246    0.025
 5229.00    1.10407   1.16753    0.025
 5230.00    1.11782   1.17469    0.025
 5231.00    1.11998   1.18369    0.025
 5232.00    1.11707   1.19373    0.025
 5233.00    1.10436   1.20474    0.025
 5234.00    1.11373   1.21574    0.025
 5235.00    1.16041   1.22614    0.025
 5236.00    1.18846   1.23567    0.025
 5237.00    1.18890   1.24415    0.025
 5238.00    1.19014   1.25073    0.025
 5239.00    1.19242   1.25580    0.024
 5240.00    1.18219   1.25863    0.024
 5241.00    1.15764   1.25917    0.024
 5242.00    1.13658   1.25756    0.024
 5243.00    1.11907   1.25375    0.024
 5244.00    1.12301   1.24845    0.024
 5245.00    1.14609   1.24213    0.024
 5246.00    1.15031   1.23559    0.024
 5247.00    1.13972   1.22941    0.024
 5248.00    1.16182   1.22416    0.024
 5249.00    1.20652   1.22042    0.024
 5250.00    1.21674   1.21828    0.024
 5251.00    1.20605   1.21755    0.024
 5252.00    1.16563   1.21781    0.024
 5253.00    1.10948   1.21878    0.024
 5254.00    1.11557   1.21916    0.024
 5255.00    1.15024   1.21816    0.025
 5256.00    1.16003   1.21464    0.025
 5257.00    1.15998   1.20825    0.025
 5258.00    1.18909   1.19811    0.025
 5259.00    1.22803   1.18452    0.025
 5260.00    1.22144   1.16791    0.025
 5261.00    1.20197   1.14911    0.025
 5262.00    1.21287   1.12979    0.025
 5263.00    1.23087   1.11064    0.026
 5264.00    1.19164   1.09392    0.026
 5265.00    1.14169   1.08004    0.026
 5266.00    1.07786   1.07085    0.026
 5267.00    1.01201   1.06630    0.026
 5268.00    1.02585   1.06718    0.026
 5269.00    1.04806   1.07289    0.027
 5270.00    1.02841   1.08311    0.027
 5271.00    1.00591   1.09690    0.026
 5272.00    1.03597   1.11324    0.027
 5273.00    1.06780   1.13107    0.027
 5274.00    1.03634   1.14906    0.027
 5275.00    1.00825   1.16658    0.027
 5276.00    1.09027   1.18288    0.026
 5277.00    1.16871   1.19745    0.026
 5278.00    1.19273   1.21054    0.026
 5279.00    1.21196   1.22185    0.026
 5280.00    1.18455   1.23217    0.026
 5281.00    1.16208   1.24149    0.025
 5282.00    1.17451   1.25103    0.026
 5283.00    1.19627   1.26011    0.026
 5284.00    1.26865   1.26962    0.025
 5285.00    1.32326   1.27842    0.025
 5286.00    1.30073   1.28659    0.025
 5287.00    1.27529   1.29314    0.025
 5288.00    1.23940   1.29772    0.025
 5289.00    1.22616   1.29968    0.025
 5290.00    1.28093   1.29879    0.025
 5291.00    1.30859   1.29514    0.025
 5292.00    1.26689   1.28907    0.025
 5293.00    1.24692   1.28143    0.024
 5294.00    1.27473   1.27293    0.024
 5295.00    1.27492   1.26479    0.025
 5296.00    1.22241   1.25815    0.025
 5297.00    1.18232   1.25376    0.025
 5298.00    1.16291   1.25237    0.024
 5299.00    1.15923   1.25394    0.024
 5300.00    1.17851   1.25865    0.024
 5301.00    1.21803   1.26581    0.024
 5302.00    1.28354   1.27490    0.025
 5303.00    1.35025   1.28493    0.024
 5304.00    1.41832   1.29507    0.024
 5305.00    1.39498   1.30463    0.024
 5306.00    1.28046   1.31290    0.024
 5307.00    1.20846   1.31946    0.024
 5308.00    1.17388   1.32384    0.024
 5309.00    1.17982   1.32616    0.024
 5310.00    1.21717   1.32640    0.024
 5311.00    1.19552   1.32475    0.024
 5312.00    1.13368   1.32137    0.024
 5313.00    1.18092   1.31653    0.024
 5314.00    1.29330   1.31040    0.024
 5315.00    1.31367   1.30319    0.024
 5316.00    1.28611   1.29491    0.024
 5317.00    1.24076   1.28560    0.024
 5318.00    1.18737   1.27522    0.024
 5319.00    1.24132   1.26377    0.024
 5320.00    1.33698   1.25148    0.024
 5321.00    1.30804   1.23838    0.024
 5322.00    1.23790   1.22539    0.025
 5323.00    1.17624   1.21254    0.025
 5324.00    1.11692   1.20150    0.024
 5325.00    1.12133   1.19208    0.024
 5326.00    1.14026   1.18617    0.024
 5327.00    1.12731   1.18307    0.024
 5328.00    1.10854   1.18415    0.024
 5329.00    1.15260   1.18808    0.024
 5330.00    1.20547   1.19523    0.024
 5331.00    1.19285   1.20394    0.024
 5332.00    1.17363   1.21364    0.024
 5333.00    1.17433   1.22307    0.024
 5334.00    1.17632   1.23142    0.024
 5335.00    1.16762   1.23825    0.024
 5336.00    1.15859   1.24302    0.024
 5337.00    1.14707   1.24616    0.024
 5338.00    1.13670   1.24777    0.024
 5339.00    1.15945   1.24861    0.024
 5340.00    1.18068   1.24889    0.024
 5341.00    1.18024   1.24935    0.024
 5342.00    1.18561   1.25028    0.024
 5343.00    1.24542   1.25209    0.024
 5344.00    1.29584   1.25504    0.024
 5345.00    1.28226   1.25907    0.024
 5346.00    1.27033   1.26456    0.024
 5347.00    1.26708   1.27120    0.024
 5348.00    1.25936   1.27931    0.023
 5349.00    1.23260   1.28825    0.023
 5350.00    1.22150   1.29822    0.023
 5351.00    1.26532   1.30827    0.023
 5352.00    1.30430   1.31830    0.023
 5353.00    1.32905   1.32721    0.023
 5354.00    1.34697   1.33480    0.023
 5355.00    1.34776   1.34007    0.023
 5356.00    1.33658   1.34297    0.023
 5357.00    1.29951   1.34286    0.023
 5358.00    1.25869   1.33999    0.023
 5359.00    1.21083   1.33424    0.023
 5360.00    1.18492   1.32610    0.023
 5361.00    1.19503   1.31600    0.023
 5362.00    1.21961   1.30449    0.023
 5363.00    1.26502   1.29239    0.023
 5364.00    1.27433   1.28017    0.023
 5365.00    1.23796   1.26891    0.023
 5366.00    1.20168   1.25898    0.023
 5367.00    1.16550   1.25124    0.023
 5368.00    1.16946   1.24610   -2.000
 5369.00    1.21288   1.24378   -2.000
 5370.00    1.22122   1.24459   -2.000
 5371.00    1.19913   1.24782   -2.000
 5372.00    1.19937   1.25368   -2.000
 5373.00    1.21667   1.26068   -2.000
 5374.00    1.18629   1.26891   -2.000
 5375.00    1.12390   1.27666   -2.000
 5376.00    1.15618   1.28408   -2.000
 5377.00    1.24415   1.28988   -2.000
 5378.00    1.25163   1.29436   -2.000
 5379.00    1.21783   1.29695   -2.000
 5380.00    1.17711   1.29794   -2.000
 5381.00    1.13332   1.29735   -2.000
 5382.00    1.16117   1.29536   -2.000
 5383.00    1.21637   1.29216    0.024
 5384.00    1.24621   1.28781    0.023
 5385.00    1.26782   1.28247    0.023
 5386.00    1.28978   1.27617    0.023
 5387.00    1.31185   1.26904    0.023
 5388.00    1.28800   1.26124    0.023
 5389.00    1.25392   1.25299    0.023
 5390.00    1.20030   1.24454    0.023
 5391.00    1.14322   1.23625    0.023
 5392.00    1.16010   1.22828    0.023
 5393.00    1.18702   1.22108    0.023
 5394.00    1.20294   1.21450    0.023
 5395.00    1.21780   1.20896    0.022
 5396.00    1.23493   1.20394    0.023
 5397.00    1.25219   1.19976    0.023
 5398.00    1.24516   1.19572    0.023
 5399.00    1.23742   1.19211    0.023
 5400.00    1.21646   1.18843    0.023
 5401.00    1.19654   1.18498    0.023
 5402.00    1.20350   1.18187    0.022
 5403.00    1.20822   1.17941    0.022
 5404.00    1.18258   1.17824    0.022
 5405.00    1.15899   1.17845    0.022
 5406.00    1.15383   1.18090    0.022
 5407.00    1.15394   1.18524    0.022
 5408.00    1.18882   1.19204    0.022
 5409.00    1.21577   1.20048    0.022
 5410.00    1.20197   1.21068    0.022
 5411.00    1.19913   1.22155    0.022
 5412.00    1.24178   1.23287    0.022
 5413.00    1.26198   1.24359    0.022
 5414.00    1.20501   1.25343    0.022
 5415.00    1.17165   1.26170    0.022
 5416.00    1.20656   1.26829    0.022
 5417.00    1.22582   1.27289    0.022
 5418.00    1.20643   1.27566    0.022
 5419.00    1.19634   1.27659    0.022
 5420.00    1.20606   1.27604    0.022
 5421.00    1.21624   1.27404    0.022
 5422.00    1.22728   1.27105    0.022
 5423.00    1.23329   1.26702    0.022
 5424.00    1.23118   1.26244    0.022
 5425.00    1.23836   1.25715    0.022
 5426.00    1.25871   1.25184    0.022
 5427.00    1.26611   1.24633    0.023
 5428.00    1.25736   1.24153    0.023
 5429.00    1.21489   1.23729    0.023
 5430.00    1.13535   1.23468    0.022
 5431.00    1.12986   1.23352    0.022
 5432.00    1.19617   1.23459    0.023
 5433.00    1.20561   1.23759    0.023
 5434.00    1.16644   1.24260    0.023
 5435.00    1.14665   1.24914    0.023
 5436.00    1.14148   1.25647    0.023
 5437.00    1.17781   1.26406    0.023
 5438.00    1.24160   1.27073    0.022
 5439.00    1.26233   1.27619    0.022
 5440.00    1.25810   1.27942    0.022
 5441.00    1.24587   1.28074    0.022
 5442.00    1.22960   1.27956    0.022
 5443.00    1.26702   1.27696    0.022
 5444.00    1.32791   1.27262    0.023
 5445.00    1.33234   1.26805    0.022
 5446.00    1.31560   1.26282    0.022
 5447.00    1.27895   1.25840    0.022
 5448.00    1.23597   1.25403    0.022
 5449.00    1.21634   1.25086    0.022
 5450.00    1.20290   1.24792    0.022
 5451.00    1.19550   1.24602    0.022
 5452.00    1.18941   1.24441    0.022
 5453.00    1.19578   1.24354    0.022
 5454.00    1.20431   1.24304    0.022
 5455.00    1.20749   1.24303    0.022
 5456.00    1.20998   1.24344    0.022
 5457.00    1.17834   1.24413    0.022
 5458.00    1.14354   1.24512    0.021
 5459.00    1.15223   1.24615    0.021
 5460.00    1.16337   1.24720    0.021
 5461.00    1.20430   1.24813    0.021
 5462.00    1.24582   1.24880    0.021
 5463.00    1.27947   1.24918    0.021
 5464.00    1.31141   1.24906    0.021
 5465.00    1.30307   1.24840    0.021
 5466.00    1.29323   1.24694    0.021
 5467.00    1.26424   1.24470    0.021
 5468.00    1.23851   1.24144    0.022
 5469.00    1.24094   1.23737    0.022
 5470.00    1.23792   1.23242    0.022
 5471.00    1.19997   1.22709    0.022
 5472.00    1.16840   1.22147    0.022
 5473.00    1.16885   1.21631    0.022
 5474.00    1.18250   1.21168    0.022
 5475.00    1.24977   1.20843    0.022
 5476.00    1.31326   1.20633    0.022
 5477.00    1.36400   1.20609    0.022
 5478.00    1.37247   1.20716   -2.000
 5479.00    1.26086   1.20995   -2.000
 5480.00    1.19212   1.21368   -2.000
 5481.00    1.22747   1.21840   -2.000
 5482.00    1.24997   1.22348   -2.000
 5483.00    1.24553   1.22865   -2.000
 5484.00    1.19870   1.23366   -2.000
 5485.00    1.07468   1.23809   -2.000
 5486.00    1.02426   1.24207   -2.000
 5487.00    1.09101   1.24521   -2.000
 5488.00    1.14157   1.24787   -2.000
 5489.00    1.16950   1.24976   -2.000
 5490.00    1.17837   1.25121   -2.000
 5491.00    1.16381   1.25211   -2.000
 5492.00    1.17664   1.25257   -2.000
 5493.00    1.21918   1.25260   -2.000
 5494.00    1.21853   1.25220   -2.000
 5495.00    1.17660   1.25133   -2.000
 5496.00    1.18795   1.25009   -2.000
 5497.00    1.24420   1.24828   -2.000
 5498.00    1.27982   1.24623   -2.000
 5499.00    1.30014   1.24357   -2.000
 5500.00    1.30356   1.24093   -2.000
 5501.00    1.29596   1.23775   -2.000
 5502.00    1.27247   1.23488    0.021
 5503.00    1.23992   1.23166    0.021
 5504.00    1.24131   1.22899    0.021
 5505.00    1.25957   1.22624    0.021
 5506.00    1.25657   1.22420    0.021
 5507.00    1.24444   1.22238    0.021
 5508.00    1.23600   1.22143    0.021
 5509.00    1.22892   1.22106    0.021
 5510.00    1.20949   1.22174    0.021
 5511.00    1.18622   1.22334    0.021
 5512.00    1.17203   1.22604    0.021
 5513.00    1.16021   1.22977    0.021
 5514.00    1.15343   1.23429    0.021
 5515.00    1.14772   1.23947    0.021
 5516.00    1.14929   1.24472    0.021
 5517.00    1.15208   1.24982    0.021
 5518.00    1.18801   1.25410    0.021
 5519.00    1.22815   1.25737    0.021
 5520.00    1.22790   1.25922    0.021
 5521.00    1.22410   1.25968    0.021
 5522.00    1.19030   1.25876    0.021
 5523.00    1.15493   1.25676    0.022
 5524.00    1.16964   1.25401    0.021
 5525.00    1.18558   1.25102    0.021
 5526.00    1.22450   1.24809    0.021
 5527.00    1.26004   1.24583    0.021
 5528.00    1.22292   1.24416    0.021
 5529.00    1.18817   1.24368    0.021
 5530.00    1.18243   1.24391    0.021
 5531.00    1.18035   1.24533    0.021
 5532.00    1.20893   1.24726    0.021
 5533.00    1.23136   1.25003    0.021
 5534.00    1.21552   1.25305    0.021
 5535.00    1.20250   1.25645    0.021
 5536.00    1.20323   1.25991    0.021
 5537.00    1.20444   1.26337    0.021
 5538.00    1.20756   1.26678    0.021
 5539.00    1.21066   1.26997    0.024
 5540.00    1.21375   1.27304    0.056
 5541.00    1.21376   1.27589   -1.000
 5542.00    1.20517   1.27860   -1.000
 5543.00    1.21147   1.28115   -1.000
 5544.00    1.25331   1.28353   -1.000
 5545.00    1.28089   1.28574   -1.000
 5546.00    1.27908   1.28765   -1.000
 5547.00    1.26476   1.28921   -1.000
 5548.00    1.22800   1.29028   -1.000
 5549.00    1.21048   1.29072   -1.000
 5550.00    1.22313   1.29054   -1.000
 5551.00    1.22104   1.28955   -1.000
 5552.00    1.19865   1.28797   -1.000
 5553.00    1.18731   1.28559    0.088
 5554.00    1.18935   1.28280    0.027
 5555.00    1.18922   1.27936    0.020
 5556.00    1.18676   1.27570    0.020
 5557.00    1.19716   1.27159    0.020
 5558.00    1.21968   1.26739    0.021
 5559.00    1.21770   1.26293    0.021
 5560.00    1.19537   1.25853    0.021
 5561.00    1.18860   1.25411    0.020
 5562.00    1.19323   1.24995    0.020
 5563.00    1.17879   1.24603    0.020
 5564.00    1.15212   1.24270    0.020
 5565.00    1.16620   1.23978    0.020
 5566.00    1.20319   1.23782    0.021
 5567.00    1.22758   1.23636    0.021
 5568.00    1.24580   1.23600    0.021
 5569.00    1.27552   1.23614    0.021
 5570.00    1.31009   1.23728    0.021
 5571.00    1.29748   1.23872    0.021
 5572.00    1.26779   1.24082    0.021
 5573.00    1.22248   1.24282    0.021
 5574.00    1.17239   1.24488    0.021
 5575.00    1.14775   1.24624    0.021
 5576.00    1.12958   1.24697    0.021
 5577.00    1.15181   1.24643    0.021
 5578.00    1.18239   1.24466    0.020
 5579.00    1.17347   1.24130    0.021
 5580.00    1.15811   1.23651    0.021
 5581.00    1.15583   1.23029    0.020
 5582.00    1.15514   1.22305    0.020
 5583.00    1.13573   1.21511    0.020
 5584.00    1.11474   1.20715    0.020
 5585.00    1.13819   1.19959    0.020
 5586.00    1.16380   1.19317    0.020
 5587.00    1.13217   1.18802    0.020
 5588.00    1.09957   1.18482    0.020
 5589.00    1.05946   1.18305    0.020
 5590.00    1.02329   1.18332    0.020
 5591.00    1.06530   1.18460    0.020
 5592.00    1.10651   1.18721    0.020
 5593.00    1.13849   1.19018    0.020
 5594.00    1.16928   1.19361    0.020
 5595.00    1.19051   1.19711    0.020
 5596.00    1.20583   1.20057    0.020
 5597.00    1.18552   1.20429    0.020
 5598.00    1.16598   1.20803    0.020
 5599.00    1.15018   1.21259    0.021
 5600.00    1.14356   1.21749    0.021
 5601.00    1.17262   1.22351    0.021
 5602.00    1.19149   1.22996    0.021
 5603.00    1.17736   1.23711    0.021
 5604.00    1.17663   1.24414    0.020
 5605.00    1.21256   1.25075    0.020
 5606.00    1.23863   1.25617    0.021
 5607.00    1.24153   1.26019    0.021
 5608.00    1.24243   1.26232    0.021
 5609.00    1.23926   1.26245    0.021
 5610.00    1.24600   1.26053    0.020
 5611.00    1.27023   1.25694    0.021
 5612.00    1.26209   1.25203    0.021
 5613.00    1.20395   1.24639    0.020
 5614.00    1.16917   1.24057    0.020
 5615.00    1.16609   1.23488    0.020
 5616.00    1.16435   1.23005    0.020
 5617.00    1.16424   1.22594    0.020
 5618.00    1.15311   1.22316    0.020
 5619.00    1.13039   1.22132    0.020
 5620.00    1.13295   1.22076    0.020
 5621.00    1.15899   1.22103    0.020
 5622.00    1.16959   1.22237    0.020
 5623.00    1.16756   1.22441    0.020
 5624.00    1.14698   1.22721    0.020
 5625.00    1.11303   1.23044    0.020
 5626.00    1.11758   1.23403    0.020
 5627.00    1.14649   1.23754    0.019
 5628.00    1.15921   1.24086    0.019
 5629.00    1.16297   1.24348    0.020
 5630.00    1.16289   1.24536    0.019
 5631.00    1.16095   1.24618    0.019
 5632.00    1.15986   1.24605    0.019
 5633.00    1.15912   1.24492    0.019
 5634.00    1.16459   1.24297    0.019
 5635.00    1.17227   1.24059    0.019
 5636.00    1.18714   1.23807    0.019
 5637.00    1.20418   1.23563    0.019
 5638.00    1.21021   1.23374    0.020
 5639.00    1.21349   1.23231    0.020
 5640.00    1.18615   1.23183    0.020
 5641.00    1.15262   1.23182    0.019
 5642.00    1.13003   1.23271    0.019
 5643.00    1.10918   1.23381    0.019
 5644.00    1.10614   1.23552    0.020
 5645.00    1.10520   1.23701    0.020
 5646.00    1.13053   1.23846    0.020
 5647.00    1.15796   1.23914    0.020
 5648.00    1.15545   1.23918    0.020
 5649.00    1.15159   1.23845    0.020
 5650.00    1.18444   1.23665    0.020
 5651.00    1.21700   1.23362    0.020
 5652.00    1.21552   1.22992    0.020
 5653.00    1.21452   1.22578    0.020
 5654.00    1.22258   1.22114    0.020
 5655.00    1.22865   1.21654    0.020
 5656.00    1.21281   1.21229    0.020
 5657.00    1.19619   1.20908    0.020
 5658.00    1.17345   1.20667    0.020
 5659.00    1.15595   1.20584    0.020
 5660.00    1.16915   1.20589    0.020
 5661.00    1.17312   1.20770    0.019
 5662.00    1.13415   1.21027    0.019
 5663.00    1.10020   1.21428    0.019
 5664.00    1.08533   1.21874    0.019
 5665.00    1.07685   1.22413    0.020
 5666.00    1.08864   1.22973    0.019
 5667.00    1.10516   1.23564    0.019
 5668.00    1.13439   1.24146    0.019
 5669.00    1.16584   1.24714    0.019
 5670.00    1.20242   1.25249    0.019
 5671.00    1.23557   1.25714    0.019
 5672.00    1.26190   1.26118    0.019
 5673.00    1.27341   1.26401    0.019
 5674.00    1.25916   1.26598    0.019
 5675.00    1.24268   1.26635    0.019
 5676.00    1.22280   1.26591    0.020
 5677.00    1.19688   1.26392    0.020
 5678.00    1.16286   1.26143    0.020
 5679.00    1.14720   1.25793    0.020
 5680.00    1.15314   1.25435    0.020
 5681.00    1.16206   1.25052    0.019
 5682.00    1.17405   1.24708    0.020
 5683.00    1.17760   1.24443    0.020
 5684.00    1.17340   1.24241    0.020
 5685.00    1.16491   1.24184    0.020
 5686.00    1.15294   1.24169    0.020
 5687.00    1.12771   1.24300    0.020
 5688.00    1.09306   1.24441    0.020
 5689.00    1.09902   1.24661    0.020
 5690.00    1.13030   1.24845    0.020
 5691.00    1.15316   1.25012    0.020
 5692.00    1.17144   1.25103    0.019
 5693.00    1.19486   1.25083    0.019
 5694.00    1.22073   1.24962    0.019
 5695.00    1.22519   1.24715    0.020
 5696.00    1.22090   1.24352    0.020
 5697.00    1.18557   1.23891    0.020
 5698.00    1.13941   1.23355    0.020
 5699.00    1.13793   1.22762    0.020
 5700.00    1.14958   1.22126    0.020
 5701.00    1.16170   1.21473    0.020
 5702.00    1.17394   1.20837    0.020
 5703.00    1.16541   1.20258    0.020
 5704.00    1.15279   1.19732    0.019
 5705.00    1.13057   1.19339    0.019
 5706.00    1.10688   1.19071    0.019
 5707.00    1.09975   1.18949    0.019
 5708.00    1.09451   1.19044    0.019
 5709.00    1.10011   1.19304    0.019
 5710.00    1.10653   1.19761    0.019
 5711.00    1.10975   1.20373    0.019
 5712.00    1.11284   1.21153    0.019
 5713.00    1.13024   1.22009    0.019
 5714.00    1.14797   1.22972    0.018
 5715.00    1.17431   1.23927    0.019
 5716.00    1.20063   1.24882    0.019
 5717.00    1.22658   1.25766    0.019
 5718.00    1.24912   1.26565    0.019
 5719.00    1.23577   1.27237    0.019
 5720.00    1.22489   1.27777    0.019
 5721.00    1.23254   1.28189    0.019
 5722.00    1.24181   1.28436    0.019
 5723.00    1.26031   1.28613    0.019
 5724.00    1.27637   1.28677    0.020
 5725.00    1.28137   1.28684    0.019
 5726.00    1.27800   1.28595    0.019
 5727.00    1.24351   1.28514    0.019
 5728.00    1.21845   1.28441    0.019
 5729.00    1.22272   1.28381    0.019
 5730.00    1.23331   1.28339    0.019
 5731.00    1.26059   1.28317    0.019
 5732.00    1.28365   1.28317    0.020
 5733.00    1.29717   1.28342    0.020
 5734.00    1.29589   1.28373    0.019
 5735.00    1.26554   1.28413    0.019
 5736.00    1.23646   1.28434    0.019
 5737.00    1.20953   1.28452    0.019
 5738.00    1.20846   1.28430    0.019
 5739.00    1.24616   1.28419    0.019
 5740.00    1.26077   1.28372    0.000
 5741.00    1.24495   1.28310    0.000
 5742.00    1.23915   1.28191    0.000
 5743.00    1.24500   1.28034    0.000
 5744.00    1.25567   1.27879    0.000
 5745.00    1.27130   1.27693    0.000
 5746.00    1.27293   1.27491    0.000
 5747.00    1.26193   1.27241    0.000
 5748.00    1.26329   1.26988    0.000
 5749.00    1.27449   1.26726    0.000
 5750.00    1.27271   1.26518    0.000
 5751.00    1.26184   1.26347    0.000
 5752.00    1.26126   1.26202    0.000
 5753.00    1.26700   1.26113    0.000
 5754.00    1.25225   1.26030    0.000
 5755.00    1.22650   1.26006    0.000
 5756.00    1.23496   1.25978    0.000
 5757.00    1.25934   1.26021    0.000
 5758.00    1.30427   1.26057    0.000
 5759.00    1.35744   1.26215    0.000
 5760.00    1.33611   1.26360    0.000
 5761.00    1.28928   1.26588    0.000
 5762.00    1.25914   1.26818    0.000
 5763.00    1.23381   1.27084    0.000
 5764.00    1.22781   1.27349    0.000
 5765.00    1.22641   1.27591    0.000
 5766.00    1.25090   1.27820    0.000
 5767.00    1.28035   1.27943    0.000
 5768.00    1.30426   1.28047    0.000
 5769.00    1.32735   1.27999    0.000
 5770.00    1.32472   1.27895    0.000
 5771.00    1.31929   1.27660    0.000
 5772.00    1.32657   1.27331    0.000
 5773.00    1.33476   1.26894    0.000
 5774.00    1.27649   1.26350    0.000
 5775.00    1.21578   1.25722    0.000
 5776.00    1.19549   1.24995    0.000
 5777.00    1.17664   1.24275    0.000
 5778.00    1.20273   1.23528    0.000
 5779.00    1.22766   1.22858    0.000
 5780.00    1.23398   1.22235    0.000
 5781.00    1.24076   1.21763    0.000
 5782.00    1.25208   1.21439    0.000
 5783.00    1.25877   1.21280    0.000
 5784.00    1.23195   1.21331    0.000
 5785.00    1.20874   1.21509    0.000
 5786.00    1.20564   1.21847    0.000
 5787.00    1.20781   1.22316    0.000
 5788.00    1.23339   1.22860    0.000
 5789.00    1.26048   1.23494    0.000
 5790.00    1.29311   1.24143    0.000
 5791.00    1.31385   1.24794   -2.000
 5792.00    1.29828   1.25403   -2.000
 5793.00    1.27823   1.25966   -2.000
 5794.00    1.24653   1.26494   -2.000
 5795.00    1.23131   1.26954   -2.000
 5796.00    1.25286   1.27381   -2.000
 5797.00    1.26291   1.27736   -2.000
 5798.00    1.25071   1.28017   -2.000
 5799.00    1.23809   1.28212   -2.000
 5800.00    1.22475   1.28357   -2.000
 5801.00    1.22140   1.28426   -2.000
 5802.00    1.23280   1.28465   -2.000
 5803.00    1.24814   1.28471   -2.000
 5804.00    1.26858   1.28449   -2.000
 5805.00    1.27059   1.28422   -2.000
 5806.00    1.25148   1.28382   -2.000
 5807.00    1.24955   1.28350   -2.000
 5808.00    1.26495   1.28333   -2.000
 5809.00    1.28577   1.28311   -2.000
 5810.00    1.31141   1.28317   -2.000
 5811.00    1.31727   1.28324    0.000
 5812.00    1.30759   1.28377    0.000
 5813.00    1.30203   1.28453    0.000
 5814.00    1.29930   1.28582    0.000
 5815.00    1.27768   1.28757    0.000
 5816.00    1.24464   1.28952    0.000
 5817.00    1.24120   1.29165    0.000
 5818.00    1.25340   1.29399    0.000
 5819.00    1.26584   1.29627    0.000
 5820.00    1.27838   1.29864    0.000
 5821.00    1.28074   1.30069    0.000
 5822.00    1.27908   1.30273    0.000
 5823.00    1.28755   1.30419    0.000
 5824.00    1.29944   1.30547    0.000
 5825.00    1.30463   1.30620    0.000
 5826.00    1.30794   1.30665    0.000
 5827.00    1.29322   1.30671    0.000
 5828.00    1.27430   1.30631    0.000
 5829.00    1.25041   1.30577    0.000
 5830.00    1.22559   1.30490    0.000
 5831.00    1.21333   1.30408    0.000
 5832.00    1.20287   1.30306    0.000
 5833.00    1.22254   1.30233    0.000
 5834.00    1.24536   1.30169    0.000
 5835.00    1.24415   1.30100    0.000
 5836.00    1.24131   1.30061    0.000
 5837.00    1.24731   1.30030    0.000
 5838.00    1.25359   1.29994    0.000
 5839.00    1.24505   1.29922    0.000
 5840.00    1.23731   1.29816    0.000
 5841.00    1.25522   1.29651    0.000
 5842.00    1.27239   1.29418    0.000
 5843.00    1.27823   1.29115    0.000
 5844.00    1.28235   1.28736    0.000
 5845.00    1.26973   1.28295    0.000
 5846.00    1.25687   1.27794    0.000
 5847.00    1.24231   1.27237    0.000
 5848.00    1.22841   1.26627    0.000
 5849.00    1.21805   1.25995    0.000
 5850.00    1.20901   1.25348    0.000
 5851.00    1.20565   1.24738    0.000
 5852.00    1.20348   1.24184    0.000
 5853.00    1.20554   1.23660    0.000
 5854.00    1.20808   1.23227    0.000
 5855.00    1.21206   1.22862    0.000
 5856.00    1.21047   1.22712    0.000
 5857.00    1.19467   1.22585    0.000
 5858.00    1.18329   1.22658    0.000
 5859.00    1.18160   1.22733    0.000
 5860.00    1.18804   1.22964    0.000
 5861.00    1.20994   1.23236    0.000
 5862.00    1.22043   1.23577    0.000
 5863.00    1.21195   1.23933    0.000
 5864.00    1.21178   1.24279    0.000
 5865.00    1.22373   1.24692    0.000
 5866.00    1.23518   1.25029    0.000
 5867.00    1.24599   1.25373    0.000
 5868.00    1.25729   1.25602    0.000
 5869.00    1.26914   1.25810    0.000
 5870.00    1.26122   1.25901    0.000
 5871.00    1.23362   1.25937    0.000
 5872.00    1.21614   1.25880    0.000
 5873.00    1.20756   1.25681    0.000
 5874.00    1.20366   1.25399    0.000
 5875.00    1.20338   1.24961    0.000
 5876.00    1.19227   1.24431    0.000
 5877.00    1.17381   1.23713    0.000
 5878.00    1.16662   1.22891    0.000
 5879.00    1.16617   1.21903    0.000
 5880.00    1.16567   1.20727    0.000
 5881.00    1.16514   1.19353    0.000
 5882.00    1.15616   1.17822    0.000
 5883.00    1.14336   1.16130    0.000
 5884.00    1.13663   1.14268    0.000
 5885.00    1.13226   1.12298    0.000
 5886.00    1.10961   1.10265    0.000
 5887.00    1.08092   1.08303    0.000
 5888.00    1.05923   1.06721    0.000
 5889.00    1.03947   1.05421    0.000
 5890.00    1.04489   1.04368    0.000
 5891.00    1.05604   1.03711    0.000
 5892.00    1.05328   1.03386    0.000
 5893.00    1.04798   1.03439    0.000
 5894.00    1.05135   1.04113    0.000
 5895.00    1.05593   1.05163    0.000
 5896.00    1.06716   1.06476    0.000
 5897.00    1.07906   1.08024    0.000
 5898.00    1.07656   1.09748    0.000
 5899.00    1.07314   1.11514    0.000
 5900.00    1.11639   1.13269    0.000
 5901.00    1.16084   1.14976    0.018
 5902.00    1.14616   1.16525    0.018
 5903.00    1.13130   1.17899    0.019
 5904.00    1.11109   1.19090    0.019
 5905.00    1.09370   1.20084    0.019
 5906.00    1.11647   1.20859    0.019
 5907.00    1.14069   1.21454    0.019
 5908.00    1.17833   1.21913    0.018
 5909.00    1.21224   1.22193    0.018
 5910.00    1.22070   1.22368    0.018
 5911.00    1.22936   1.22399    0.018
 5912.00    1.23904   1.22474    0.018
 5913.00    1.24738   1.22483    0.018
 5914.00    1.25002   1.22545    0.018
 5915.00    1.24701   1.22619    0.018
 5916.00    1.22418   1.22684    0.018
 5917.00    1.20867   1.22826    0.017
 5918.00    1.21470   1.22932    0.017
 5919.00    1.21279   1.23073    0.017
 5920.00    1.19094   1.23190    0.018
 5921.00    1.17982   1.23350    0.018
 5922.00    1.19183   1.23445    0.018
 5923.00    1.19768   1.23547    0.018
 5924.00    1.19199   1.23593    0.017
 5925.00    1.18688   1.23584    0.017
 5926.00    1.18271   1.23589    0.017
 5927.00    1.18694   1.23507    0.017
 5928.00    1.20322   1.23534    0.017
 5929.00    1.22062   1.23514    0.018
 5930.00    1.23945   1.23512    0.017
 5931.00    1.24268   1.23473    0.018
 5932.00    1.22856   1.23453    0.018
 5933.00    1.21152   1.23531    0.018
 5934.00    1.19162   1.23572    0.018
 5935.00    1.17240   1.23647    0.018
 5936.00    1.15376   1.23704    0.018
 5937.00    1.17498   1.23767    0.018
 5938.00    1.22661   1.23755    0.018
 5939.00    1.24610   1.23790    0.018
 5940.00    1.24405   1.23809    0.018
 5941.00    1.23193   1.23814    0.018
 5942.00    1.21391   1.23805    0.018
 5943.00    1.21262   1.23758    0.018
 5944.00    1.21990   1.23680    0.018
 5945.00    1.21330   1.23554    0.018
 5946.00    1.20055   1.23415    0.018
 5947.00    1.18979   1.23324    0.018
 5948.00    1.17979   1.23234    0.018
 5949.00    1.18167   1.23116    0.018
 5950.00    1.18738   1.22994    0.018
 5951.00    1.17993   1.22976    0.017
 5952.00    1.16891   1.22990    0.017
 5953.00    1.16610   1.23015    0.017
 5954.00    1.16513   1.23085    0.017
 5955.00    1.17974   1.23227    0.017
 5956.00    1.19711   1.23425    0.017
 5957.00    1.21524   1.23674    0.017
 5958.00    1.23347   1.23953    0.017
 5959.00    1.21245   1.24252    0.017
 5960.00    1.18766   1.24539    0.017
 5961.00    1.19555   1.24830    0.017
 5962.00    1.20538   1.25092    0.018
 5963.00    1.20818   1.25307    0.018
 5964.00    1.21053   1.25549    0.018
 5965.00    1.17158   1.25720    0.018
 5966.00    1.13387   1.25857    0.018
 5967.00    1.12758   1.25935    0.018
 5968.00    1.12503   1.25963    0.018
 5969.00    1.17269   1.25912    0.018
 5970.00    1.21738   1.25802    0.018
 5971.00    1.23548   1.25623    0.018
 5972.00    1.24694   1.25380    0.018
 5973.00    1.21474   1.25075    0.018
 5974.00    1.18489   1.24760    0.018
 5975.00    1.16710   1.24446    0.018
 5976.00    1.15209   1.24128    0.018
 5977.00    1.14863   1.23853    0.017
 5978.00    1.14416   1.23570    0.017
 5979.00    1.13626   1.23314    0.017
 5980.00    1.13414   1.23075    0.017
 5981.00    1.14867   1.22853    0.017
 5982.00    1.15953   1.22736    0.017
 5983.00    1.16134   1.22714    0.017
 5984.00    1.16246   1.22707    0.017
 5985.00    1.16210   1.22791    0.017
 5986.00    1.16159   1.22897    0.017
 5987.00    1.16079   1.23056    0.017
 5988.00    1.16661   1.23189    0.017
 5989.00    1.18308   1.23328    0.017
 5990.00    1.20917   1.23498    0.017
 5991.00    1.24887   1.23612    0.017
 5992.00    1.26454   1.23695    0.017
 5993.00    1.25032   1.23707    0.017
 5994.00    1.23115   1.23664    0.017
 5995.00    1.20658   1.23571    0.017
 5996.00    1.19519   1.23459    0.017
 5997.00    1.19657   1.23315    0.018
 5998.00    1.20339   1.23144    0.018
 5999.00    1.21484   1.22931    0.018
 6000.00    1.22071   1.22675    0.018
 6001.00    1.22239   1.22489    0.018
 6002.00    1.22243   1.22273    0.018
 6003.00    1.22140   1.22046    0.018
 6004.00    1.21543   1.21847    0.018
 6005.00    1.20662   1.21597    0.018
 6006.00    1.19050   1.21467    0.018
 6007.00    1.17070   1.21374    0.018
 6008.00    1.17361   1.21278    0.018
 6009.00    1.18643   1.21182    0.017
 6010.00    1.19768   1.21053    0.017
 6011.00    1.20836   1.20973    0.017
 6012.00    1.19620   1.20923    0.017
 6013.00    1.17681   1.20855    0.017
 6014.00    1.15978   1.20803    0.017
 6015.00    1.14338   1.20790    0.017
 6016.00    1.15250   1.20795    0.017
 6017.00    1.16714   1.20800    0.017
 6018.00    1.18287   1.20926    0.017
 6019.00    1.19879   1.21033    0.017
 6020.00    1.20275   1.21263    0.017
 6021.00    1.20515   1.21482    0.017
 6022.00    1.19015   1.21833    0.017
 6023.00    1.17355   1.22228    0.017
 6024.00    1.17226   1.22605    0.017
 6025.00    1.17183   1.23090    0.017
 6026.00    1.16839   1.23531    0.017
 6027.00    1.16506   1.24029    0.017
 6028.00    1.18063   1.24436    0.018
 6029.00    1.19628   1.24891    0.018
 6030.00    1.21405   1.25272    0.018
 6031.00    1.22966   1.25627    0.018
 6032.00    1.21764   1.25920    0.018
 6033.00    1.20867   1.26165    0.018
 6034.00    1.22595   1.26380    0.017
 6035.00    1.24078   1.26525    0.017
 6036.00    1.24005   1.26659    0.017
 6037.00    1.23788   1.26736    0.018
 6038.00    1.22856   1.26840    0.017
 6039.00    1.22103   1.26872    0.017
 6040.00    1.22078   1.26972    0.017
 6041.00    1.21394   1.27040    0.017
 6042.00    1.18498   1.27102    0.017
 6043.00    1.16756   1.27161    0.017
 6044.00    1.18285   1.27181    0.017
 6045.00    1.20539   1.27208    0.017
 6046.00    1.24547   1.27155    0.017
 6047.00    1.27061   1.27129    0.017
 6048.00    1.26453   1.27014    0.017
 6049.00    1.25635   1.26893    0.017
 6050.00    1.24435   1.26707    0.017
 6051.00    1.24363   1.26491    0.017
 6052.00    1.26081   1.26290    0.017
 6053.00    1.26466   1.26005    0.017
 6054.00    1.24993   1.25802    0.017
 6055.00    1.22564   1.25565    0.017
 6056.00    1.18963   1.25405    0.017
 6057.00    1.16895   1.25241    0.017
 6058.00    1.16486   1.25114    0.017
 6059.00    1.16557   1.25033    0.018
 6060.00    1.17086   1.24940    0.017
 6061.00    1.17926   1.24957    0.018
 6062.00    1.19028   1.24933    0.018
 6063.00    1.18529   1.25066    0.018
 6064.00    1.16846   1.25256    0.018
 6065.00    1.15638   1.25483    0.017
 6066.00    1.14738   1.25765    0.017
 6067.00    1.15911   1.26002    0.017
 6068.00    1.18263   1.26253    0.017
 6069.00    1.20514   1.26430    0.017
 6070.00    1.22716   1.26568    0.017
 6071.00    1.23515   1.26621    0.017
 6072.00    1.23713   1.26603    0.017
 6073.00    1.24130   1.26476    0.017
 6074.00    1.24628   1.26269    0.017
 6075.00    1.24634   1.25976    0.017
 6076.00    1.24486   1.25613    0.017
 6077.00    1.25184   1.25243    0.017
 6078.00    1.26100   1.24817    0.016
 6079.00    1.25244   1.24410    0.017
 6080.00    1.24013   1.24040    0.017
 6081.00    1.21578   1.23706    0.017
 6082.00    1.18943   1.23402    0.017
 6083.00    1.17843   1.23179    0.017
 6084.00    1.16937   1.22987    0.017
 6085.00    1.18509   1.22860    0.017
 6086.00    1.20298   1.22771    0.017
 6087.00    1.21720   1.22690    0.017
 6088.00    1.23124   1.22682    0.017
 6089.00    1.22931   1.22669    0.017
 6090.00    1.22688   1.22670    0.017
 6091.00    1.20901   1.22674    0.017
 6092.00    1.19248   1.22738    0.017
 6093.00    1.20411   1.22723    0.017
 6094.00    1.21610   1.22712    0.017
 6095.00    1.23244   1.22656    0.017
 6096.00    1.24595   1.22578    0.017
 6097.00    1.23606   1.22497    0.017
 6098.00    1.22211   1.22377    0.017
 6099.00    1.18297   1.22213    0.017
 6100.00    1.14673   1.22030    0.017
 6101.00    1.12458   1.22032    0.017
 6102.00    1.10625   1.22001    0.017
 6103.00    1.10312   1.22132    0.016
 6104.00    1.10176   1.22249    0.016
 6105.00    1.10626   1.22384    0.016
 6106.00    1.11781   1.22603    0.017
 6107.00    1.14899   1.22801    0.017
 6108.00    1.18294   1.22998    0.017
 6109.00    1.22348   1.23153    0.017
 6110.00    1.25558   1.23298    0.017
 6111.00    1.27033   1.23381    0.017
 6112.00    1.28275   1.23421    0.017
 6113.00    1.29103   1.23335    0.017
 6114.00    1.29630   1.23175    0.017
 6115.00    1.29689   1.22954    0.017
 6116.00    1.28177   1.22674    0.017
 6117.00    1.24508   1.22346    0.017
 6118.00    1.21145   1.22029    0.017
 6119.00    1.18151   1.21643    0.017
 6120.00    1.16975   1.21403    0.017
 6121.00    1.17738   1.21231    0.017
 6122.00    1.18728   1.21072    0.017
 6123.00    1.19931   1.21022    0.017
 6124.00    1.20680   1.20917    0.017
 6125.00    1.21052   1.20837    0.017
 6126.00    1.21422   1.20754    0.017
 6127.00    1.21790   1.20681    0.017
 6128.00    1.21766   1.20594    0.017
 6129.00    1.21490   1.20463    0.017
 6130.00    1.20374   1.20335    0.017
 6131.00    1.18787   1.20084    0.016
 6132.00    1.17025   1.19794    0.016
 6133.00    1.15176   1.19479    0.016
 6134.00    1.14835   1.19103    0.016
 6135.00    1.15130   1.18928    0.017
 6136.00    1.16233   1.18840    0.017
 6137.00    1.17627   1.18911    0.017
 6138.00    1.18011   1.19046    0.017
 6139.00    1.18087   1.19203    0.017
 6140.00    1.17670   1.19479    0.017
 6141.00    1.17127   1.19759    0.017
 6142.00    1.19040   1.20116    0.017
 6143.00    1.21459   1.20448    0.017
 6144.00    1.23413   1.20741    0.017
 6145.00    1.25290   1.20987    0.017
 6146.00    1.24869   1.21130    0.017
 6147.00    1.24168   1.21165    0.017
 6148.00    1.22568   1.21098    0.017
 6149.00    1.20893   1.20942    0.017
 6150.00    1.18305   1.20714    0.017
 6151.00    1.15674   1.20307    0.017
 6152.00    1.13599   1.19810    0.017
 6153.00    1.11565   1.19229    0.016
 6154.00    1.11426   1.18549    0.016
 6155.00    1.11388   1.17853    0.017
 6156.00    1.13364   1.17089    0.017
 6157.00    1.15319   1.16308    0.017
 6158.00    1.17027   1.15456    0.017
 6159.00    1.18596   1.14643    0.017
 6160.00    1.19047   1.13910    0.017
 6161.00    1.19254   1.13331    0.017
 6162.00    1.17995   1.12994    0.017
 6163.00    1.16668   1.12738    0.016
 6164.00    1.15023   1.12679    0.016
 6165.00    1.13513   1.12692    0.016
 6166.00    1.12531   1.12784    0.016
 6167.00    1.12003   1.12983    0.017
 6168.00    1.12941   1.13312    0.017
 6169.00    1.14224   1.13798    0.017
 6170.00    1.16453   1.14337    0.017
 6171.00    1.18025   1.14965    0.017
 6172.00    1.18062   1.15498    0.017
 6173.00    1.17308   1.16040    0.017
 6174.00    1.14956   1.16541    0.017
 6175.00    1.12496   1.17001    0.017
 6176.00    1.09846   1.17407    0.017
 6177.00    1.08595   1.17771    0.017
 6178.00    1.09504   1.18112    0.017
 6179.00    1.10561   1.18274    0.017
 6180.00    1.11819   1.18385    0.016
 6181.00    1.11831   1.18358    0.016
 6182.00    1.10356   1.18269    0.016
 6183.00    1.09668   1.18083    0.016
 6184.00    1.09806   1.17866    0.016
 6185.00    1.11472   1.17609    0.016
 6186.00    1.14556   1.17306    0.016
 6187.00    1.16691   1.17088    0.017
 6188.00    1.18052   1.16809    0.017
 6189.00    1.17691   1.16630    0.017
 6190.00    1.16091   1.16535    0.016
 6191.00    1.15667   1.16524    0.016
 6192.00    1.15986   1.16687    0.016
 6193.00    1.14544   1.16843    0.016
 6194.00    1.12130   1.17079    0.017
 6195.00    1.03360   1.17331    0.017
 6196.00    0.91538   1.17590   -2.000
 6197.00    0.92363   1.17833   -2.000
 6198.00    0.98431   1.18081   -2.000
 6199.00    1.18710   1.18400   -2.000
 6200.00    1.44025   1.18670   -2.000
 6201.00    1.59685   1.18872   -2.000
 6202.00    1.72455   1.18996   -2.000
 6203.00    1.60122   1.19014   -2.000
 6204.00    1.41554   1.18944   -2.000
 6205.00    1.28810   1.18784   -2.000
 6206.00    1.17238   1.18541   -2.000
 6207.00    1.14259   1.18249   -2.000
 6208.00    1.12635   1.17871    0.017
 6209.00    1.13612   1.17405    0.017
 6210.00    1.14894   1.16825    0.017
 6211.00    1.14835   1.16255    0.017
 6212.00    1.14670   1.15686    0.016
 6213.00    1.13023   1.15145    0.016
 6214.00    1.11310   1.14699    0.016
 6215.00    1.11814   1.14325    0.016
 6216.00    1.12350   1.14007    0.016
 6217.00    1.13266   1.13756    0.016
 6218.00    1.14160   1.13564    0.016
 6219.00    1.14654   1.13416    0.016
 6220.00    1.15164   1.13331    0.016
 6221.00    1.15861   1.13269    0.016
 6222.00    1.16652   1.13296    0.016
 6223.00    1.18169   1.13260    0.016
 6224.00    1.19650   1.13273    0.017
 6225.00    1.20925   1.13246    0.017
 6226.00    1.21712   1.13172    0.017
 6227.00    1.20229   1.13103    0.017
 6228.00    1.18783   1.12996    0.017
 6229.00    1.17476   1.12965    0.017
 6230.00    1.15891   1.12841    0.017
 6231.00    1.13425   1.12936    0.017
 6232.00    1.11224   1.12960    0.017
 6233.00    1.09735   1.12957    0.017
 6234.00    1.08813   1.12969    0.017
 6235.00    1.09196   1.12863    0.016
 6236.00    1.10215   1.12759    0.016
 6237.00    1.12504   1.12572    0.016
 6238.00    1.13877   1.12540    0.016
 6239.00    1.13662   1.12416    0.016
 6240.00    1.12848   1.12265    0.016
 6241.00    1.11126   1.12191    0.016
 6242.00    1.10017   1.11951    0.016
 6243.00    1.09727   1.11787    0.016
 6244.00    1.09874   1.11660    0.016
 6245.00    1.10537   1.11559    0.016
 6246.00    1.11645   1.11449    0.016
 6247.00    1.13217   1.11362    0.016
 6248.00    1.13853   1.11245    0.016
 6249.00    1.13634   1.10988    0.016
 6250.00    1.11920   1.10828    0.016
 6251.00    1.09003   1.10615    0.016
 6252.00    1.07656   1.10484    0.016
 6253.00    1.07424   1.10387    0.017
 6254.00    1.08181   1.10372    0.017
 6255.00    1.09553   1.10355    0.017
 6256.00    1.09173   1.10383    0.017
 6257.00    1.07838   1.10611    0.017
 6258.00    1.06806   1.10809    0.017
 6259.00    1.05916   1.11241    0.017
 6260.00    1.09719   1.11680    0.018
 6261.00    1.15434   1.12155    0.019
 6262.00    1.22530   1.12630    0.020
 6263.00    1.30105   1.13072    0.021
 6264.00    1.32056   1.13510    0.020
 6265.00    1.32357   1.13919    0.020
 6266.00    1.28204   1.14395    0.019
 6267.00    1.22969   1.14730    0.018
 6268.00    1.20566   1.15007    0.017
 6269.00    1.18719   1.15268    0.016
 6270.00    1.18633   1.15463    0.016
 6271.00    1.18816   1.15585    0.016
 6272.00    1.18043   1.15709    0.016
 6273.00    1.17161   1.15838    0.016
 6274.00    1.14855   1.15917    0.016
 6275.00    1.12442   1.15958    0.016
 6276.00    1.12308   1.16024    0.016
 6277.00    1.12266   1.16052    0.016
 6278.00    1.13228   1.16137    0.016
 6279.00    1.14162   1.16218    0.016
 6280.00    1.13693   1.16305    0.000
 6281.00    1.13354   1.16487    0.000
 6282.00    1.15213   1.16598    0.000
 6283.00    1.17007   1.16773    0.000
 6284.00    1.18130   1.16885    0.000
 6285.00    1.19073   1.16993    0.000
 6286.00    1.18672   1.17086    0.000
 6287.00    1.18326   1.17085    0.000
 6288.00    1.18295   1.17080    0.000
 6289.00    1.17956   1.16965    0.000
 6290.00    1.16227   1.16794    0.000
 6291.00    1.14957   1.16598    0.000
 6292.00    1.15390   1.16340    0.000
 6293.00    1.16263   1.16078    0.000
 6294.00    1.18504   1.15805    0.000
 6295.00    1.20408   1.15507    0.000
 6296.00    1.21421   1.15254    0.000
 6297.00    1.21590   1.15063    0.000
 6298.00    1.19849   1.14938    0.000
 6299.00    1.18655   1.14879    0.000
 6300.00    1.18535   1.14843    0.000
 6301.00    1.18081   1.14885    0.000
 6302.00    1.17056   1.14966    0.000
 6303.00    1.15379   1.15092    0.000
 6304.00    1.12726   1.15246    0.000
 6305.00    1.11078   1.15362    0.000
 6306.00    1.10752   1.15500    0.000
 6307.00    1.11591   1.15518    0.000
 6308.00    1.13781   1.15478    0.000
 6309.00    1.15153   1.15425    0.000
 6310.00    1.15690   1.15310    0.000
 6311.00    1.15684   1.15184    0.000
 6312.00    1.15189   1.15003    0.000
 6313.00    1.15329   1.14887    0.000
 6314.00    1.15975   1.14715    0.000
 6315.00    1.14555   1.14575    0.000
 6316.00    1.11692   1.14592    0.000
 6317.00    1.10056   1.14556    0.000
 6318.00    1.09174   1.14704    0.000
 6319.00    1.10276   1.14915    0.000
 6320.00    1.12441   1.15158    0.000
 6321.00    1.15053   1.15449    0.015
 6322.00    1.17874   1.15701    0.015
 6323.00    1.18507   1.16110    0.016
 6324.00    1.18263   1.16353    0.016
 6325.00    1.17520   1.16615    0.016
 6326.00    1.16607   1.16851    0.016
 6327.00    1.15787   1.16918    0.016
 6328.00    1.14994   1.17022    0.016
 6329.00    1.14548   1.16965    0.016
 6330.00    1.14185   1.16966    0.016
 6331.00    1.14799   1.16870    0.016
 6332.00    1.15600   1.16699    0.016
 6333.00    1.14716   1.16537    0.017
 6334.00    1.13581   1.16258    0.017
 6335.00    1.13552   1.16103    0.016
 6336.00    1.13643   1.15940    0.016
 6337.00    1.15785   1.15910    0.016
 6338.00    1.18073   1.15870    0.016
 6339.00    1.17627   1.15831    0.016
 6340.00    1.17083   1.15868    0.016
 6341.00    1.17091   1.15825    0.016
 6342.00    1.17097   1.15898    0.016
 6343.00    1.16924   1.15967    0.016
 6344.00    1.16756   1.16110    0.016
 6345.00    1.16678   1.16242    0.016
 6346.00    1.16802   1.16270    0.015
 6347.00    1.18953   1.16305    0.015
 6348.00    1.20931   1.16261    0.016
 6349.00    1.21654   1.16163    0.016
 6350.00    1.22166   1.15989    0.016
 6351.00    1.21510   1.15746    0.016
 6352.00    1.20507   1.15462    0.016
 6353.00    1.17964   1.15092    0.016
 6354.00    1.15645   1.14679    0.016
 6355.00    1.14141   1.14299    0.016
 6356.00    1.12810   1.13936    0.016
 6357.00    1.12005   1.13569    0.016
 6358.00    1.11397   1.13268    0.016
 6359.00    1.11298   1.13085    0.016
 6360.00    1.11398   1.13019    0.016
 6361.00    1.11943   1.13033    0.016
 6362.00    1.12582   1.13198    0.016
 6363.00    1.13403   1.13495    0.016
 6364.00    1.14335   1.13878    0.016
 6365.00    1.15452   1.14344    0.016
 6366.00    1.16605   1.14840    0.016
 6367.00    1.17810   1.15394    0.016
 6368.00    1.18673   1.15903    0.016
 6369.00    1.19091   1.16412    0.016
 6370.00    1.19788   1.16881    0.016
 6371.00    1.20804   1.17309    0.016
 6372.00    1.20797   1.17696    0.016
 6373.00    1.19757   1.17941    0.016
 6374.00    1.18213   1.18162    0.016
 6375.00    1.16219   1.18284    0.016
 6376.00    1.15564   1.18371    0.016
 6377.00    1.15955   1.18394    0.016
 6378.00    1.16521   1.18383    0.016
 6379.00    1.17206   1.18413    0.016
 6380.00    1.16654   1.18357    0.016
 6381.00    1.15356   1.18330    0.016
 6382.00    1.15097   1.18280    0.016
 6383.00    1.15385   1.18191    0.016
 6384.00    1.16913   1.18091    0.016
 6385.00    1.19009   1.17939    0.016
 6386.00    1.19894   1.17851    0.016
 6387.00    1.20303   1.17750    0.016
 6388.00    1.19613   1.17619    0.016
 6389.00    1.18554   1.17477    0.016
 6390.00    1.16472   1.17254    0.016
 6391.00    1.14102   1.17040    0.016
 6392.00    1.13198   1.16752    0.016
 6393.00    1.12633   1.16644    0.016
 6394.00    1.14332   1.16675    0.016
 6395.00    1.16451   1.16623    0.016
 6396.00    1.18291   1.16588    0.016
 6397.00    1.20091   1.16449    0.016
 6398.00    1.20412   1.16429    0.016
 6399.00    1.20580   1.16368    0.016
 6400.00    1.18183   1.16447    0.016
 6401.00    1.15614   1.16714    0.016
 6402.00    1.13544   1.16768    0.016
 6403.00    1.11489   1.16782    0.016
 6404.00    1.13455   1.16705    0.016
 6405.00    1.15392   1.16694    0.016
 6406.00    1.16407   1.16702    0.016
 6407.00    1.17352   1.16656    0.016
 6408.00    1.17253   1.16730    0.016
 6409.00    1.17167   1.16712    0.016
 6410.00    1.17206   1.16596    0.016
 6411.00    1.17066   1.16492    0.016
 6412.00    1.15685   1.16447    0.016
 6413.00    1.14643   1.16442    0.016
 6414.00    1.15424   1.16454    0.016
 6415.00    1.16340   1.16544    0.015
 6416.00    1.17837   1.16574    0.015
 6417.00    1.18940   1.16604    0.016
 6418.00    1.18643   1.16648    0.016
 6419.00    1.18204   1.16743    0.016
 6420.00    1.17342   1.16906    0.016
 6421.00    1.16837   1.17064    0.016
 6422.00    1.17244   1.17237    0.016
 6423.00    1.18049   1.17289    0.015
 6424.00    1.19725   1.17363    0.016
 6425.00    1.20925   1.17455    0.016
 6426.00    1.21223   1.17554    0.016
 6427.00    1.20652   1.17622    0.016
 6428.00    1.18641   1.17610    0.017
 6429.00    1.17776   1.17580    0.017
 6430.00    1.18577   1.17468    0.017
 6431.00    1.19541   1.17459    0.016
 6432.00    1.20714   1.17555    0.016
 6433.00    1.20991   1.17646    0.016
 6434.00    1.20258   1.17698    0.016
 6435.00    1.19422   1.17703    0.016
 6436.00    1.18484   1.17749    0.016
 6437.00    1.18477   1.17825    0.016
 6438.00    1.19286   1.17912    0.016
 6439.00    1.19025   1.18102    0.016
 6440.00    1.17937   1.18258    0.016
 6441.00    1.16652   1.18186    0.016
 6442.00    1.15234   1.18058    0.016
 6443.00    1.13837   1.17994    0.016
 6444.00    1.12452   1.17937    0.015
 6445.00    1.12229   1.17884    0.016
 6446.00    1.12608   1.17703    0.016
 6447.00    1.12565   1.17435    0.016
 6448.00    1.12333   1.17125    0.016
 6449.00    1.12385   1.16848    0.016
 6450.00    1.12546   1.16872    0.016
 6451.00    1.12234   1.16893    0.016
 6452.00    1.11767   1.16877    0.016
 6453.00    1.11007   1.16844    0.016
 6454.00    1.10167   1.16659    0.016
 6455.00    1.11381   1.16680    0.016
 6456.00    1.13061   1.16869    0.016
 6457.00    1.14230   1.17083    0.016
 6458.00    1.15307   1.17274    0.016
 6459.00    1.15002   1.17283    0.016
 6460.00    1.14506   1.17333    0.016
 6461.00    1.14413   1.17302    0.016
 6462.00    1.14361   1.17355    0.016
 6463.00    1.14883   1.17578    0.016
 6464.00    1.15441   1.17693    0.016
 6465.00    1.14774   1.17841    0.016
 6466.00    1.14074   1.17829    0.016
 6467.00    1.14001   1.17849    0.015
 6468.00    1.14033   1.17895    0.015
 6469.00    1.17008   1.17959    0.015
 6470.00    1.19996   1.18033    0.016
 6471.00    1.23189   1.18021    0.016
 6472.00    1.26053   1.18075    0.016
 6473.00    1.25878   1.17964    0.016
 6474.00    1.25752   1.17804    0.016
 6475.00    1.25956   1.17679    0.016
 6476.00    1.25951   1.17599    0.017
 6477.00    1.24848   1.17491    0.016
 6478.00    1.23334   1.17287    0.016
 6479.00    1.20084   1.17061    0.016
 6480.00    1.17485   1.16779    0.016
 6481.00    1.17152   1.16444    0.016
 6482.00    1.16819   1.16114    0.016
 6483.00    1.16485   1.15805    0.016
 6484.00    1.16592   1.15429    0.016
 6485.00    1.17800   1.14938    0.016
 6486.00    1.19085   1.14258    0.016
 6487.00    1.20535   1.13614    0.016
 6488.00    1.21245   1.12969    0.016
 6489.00    1.20571   1.12275    0.016
 6490.00    1.19295   1.11655    0.016
 6491.00    1.17035   1.10942    0.016
 6492.00    1.14446   1.10375    0.016
 6493.00    1.11386   1.09787    0.015
 6494.00    1.09957   1.09396    0.015
 6495.00    1.10584   1.09349    0.015
 6496.00    1.10729   1.09343    0.015
 6497.00    1.10339   1.09639    0.016
 6498.00    1.11115   1.09907    0.016
 6499.00    1.13034   1.10378    0.016
 6500.00    1.14967   1.11050    0.016
 6501.00    1.16914   1.11679    0.016
 6502.00    1.17555   1.12473    0.016
 6503.00    1.17201   1.13151    0.016
 6504.00    1.17084   1.13819    0.016
 6505.00    1.17124   1.14436    0.016
 6506.00    1.17011   1.14913    0.016
 6507.00    1.16807   1.15335    0.016
 6508.00    1.17371   1.15631    0.016
 6509.00    1.18327   1.15897    0.016
 6510.00    1.18506   1.16062    0.016
 6511.00    1.18342   1.16125    0.016
 6512.00    1.18330   1.16182    0.015
 6513.00    1.18377   1.16170    0.015
 6514.00    1.18885   1.16155    0.015
 6515.00    1.19542   1.16104    0.015
 6516.00    1.20498   1.16096    0.015
 6517.00    1.21536   1.16113    0.015
 6518.00    1.21813   1.16080    0.015
 6519.00    1.21922   1.16125    0.016
 6520.00    1.20852   1.16154    0.016
 6521.00    1.19573   1.16206    0.016
 6522.00    1.19236   1.16263    0.016
 6523.00    1.19026   1.16295    0.016
 6524.00    1.19053   1.16363    0.016
 6525.00    1.19104   1.16370    0.016
 6526.00    1.19995   1.16351    0.016
 6527.00    1.20936   1.16415    0.016
 6528.00    1.22529   1.16478    0.000
 6529.00    1.24129   1.16503    0.000
 6530.00    1.24417   1.16485    0.000
 6531.00    1.24665   1.16440    0.000
 6532.00    1.23890   1.16464    0.000
 6533.00    1.23111   1.16482    0.000
 6534.00    1.22272   1.16503    0.000
 6535.00    1.21542   1.16470    0.000
 6536.00    1.21785   1.16340    0.000
 6537.00    1.21987   1.16199    0.000
 6538.00    1.21925   1.16015    0.000
 6539.00    1.21536   1.15862    0.000
 6540.00    1.19482   1.15597    0.000
 6541.00    1.17677   1.15256    0.000
 6542.00    1.16904   1.14890    0.000
 6543.00    1.16708   1.14445    0.000
 6544.00    1.18490   1.14032    0.000
 6545.00    1.20461   1.13467    0.000
 6546.00    1.22978   1.12936    0.000
 6547.00    1.24589   1.12412    0.000
 6548.00    1.23968   1.11759    0.000
 6549.00    1.22862   1.11063    0.000
 6550.00    1.20727   1.10211    0.000
 6551.00    1.18986   1.09438    0.000
 6552.00    1.17967   1.08640    0.000
 6553.00    1.17245   1.07707    0.000
 6554.00    1.16998   1.06620    0.000
 6555.00    1.16691   1.05484    0.000
 6556.00    1.16299   1.04553    0.000
 6557.00    1.16357   1.03646    0.000
 6558.00    1.16975   1.02908    0.000
 6559.00    1.18339   1.02205    0.000
 6560.00    1.20518   1.01579    0.000
 6561.00    1.21118   1.01065    0.000
 6562.00    1.20192   1.00724    0.000
 6563.00    1.17458   1.01109    0.000
 6564.00    1.13185   1.01657    0.000
 6565.00    1.10203   1.02140    0.000
 6566.00    1.08189   1.02652    0.000
 6567.00    1.09298   1.03201    0.000
 6568.00    1.12467   1.04142    0.000
 6569.00    1.14634   1.05155    0.000
 6570.00    1.16223   1.06130    0.000
 6571.00    1.17069   1.07015    0.000
 6572.00    1.17540   1.07718    0.000
 6573.00    1.16889   1.08401    0.000
 6574.00    1.15748   1.09074    0.000
 6575.00    1.16306   1.09813    0.000
 6576.00    1.17497   1.10481    0.000
 6577.00    1.21662   1.10973    0.000
 6578.00    1.26769   1.11369    0.000
 6579.00    1.29630   1.11705    0.000
 6580.00    1.31899   1.11997    0.000
 6581.00    1.31418   1.12329    0.000
 6582.00    1.30343   1.12615    0.000
 6583.00    1.29769   1.12745    0.000
 6584.00    1.29280   1.12790    0.000
 6585.00    1.27436   1.12695    0.000
 6586.00    1.25416   1.12666    0.000
 6587.00    1.22107   1.12678    0.000
 6588.00    1.18681   1.12605    0.000
 6589.00    1.17814   1.12542    0.000
 6590.00    1.17088   1.12362    0.000
 6591.00    1.16553   1.12185    0.000
 6592.00    1.16015   1.12048    0.000
 6593.00    1.14715   1.12039    0.000
 6594.00    1.13474   1.12195    0.000
 6595.00    1.13584   1.12234    0.000
 6596.00    1.13879   1.12213    0.000
 6597.00    1.16508   1.12197    0.000
 6598.00    1.19109   1.12297    0.000
 6599.00    1.21472   1.12529    0.000
 6600.00    1.23360   1.12672    0.000
 6601.00    1.22222   1.12710    0.000
 6602.00    1.20887   1.12744    0.000
 6603.00    1.18575   1.12767    0.000
 6604.00    1.16738   1.12850    0.000
 6605.00    1.16822   1.12964    0.000
 6606.00    1.16809   1.13007    0.000
 6607.00    1.16468   1.13076    0.000
 6608.00    1.16187   1.13103    0.000
 6609.00    1.16076   1.13252    0.015
 6610.00    1.16284   1.13501    0.015
 6611.00    1.17264   1.13642    0.016
 6612.00    1.17588   1.13779    0.016
 6613.00    1.16543   1.13880    0.016
 6614.00    1.15753   1.14093    0.016
 6615.00    1.15425   1.14313    0.016
 6616.00    1.15659   1.14359    0.016
 6617.00    1.16783   1.14365    0.016
 6618.00    1.17924   1.14346    0.016
 6619.00    1.19090   1.14322    0.016
 6620.00    1.19203   1.14280    0.016
 6621.00    1.18025   1.14109    0.016
 6622.00    1.17462   1.13894    0.016
 6623.00    1.17564   1.13668    0.016
 6624.00    1.17745   1.13402    0.016
 6625.00    1.18001   1.13227    0.016
 6626.00    1.17622   1.12987    0.015
 6627.00    1.16709   1.12711    0.015
 6628.00    1.16913   1.12474    0.015
 6629.00    1.17944   1.12257    0.015
 6630.00    1.18008   1.12146    0.015
 6631.00    1.17446   1.12013    0.015
 6632.00    1.16352   1.11855    0.015
 6633.00    1.14955   1.11760    0.016
 6634.00    1.14459   1.11756    0.016
 6635.00    1.14409   1.11813    0.016
 6636.00    1.15922   1.11846    0.016
 6637.00    1.18103   1.11819    0.016
 6638.00    1.18378   1.11825    0.016
 6639.00    1.17953   1.11912    0.016
 6640.00    1.18696   1.12052    0.016
 6641.00    1.19802   1.12153    0.016
 6642.00    1.21573   1.12126    0.016
 6643.00    1.23515   1.12146    0.016
 6644.00    1.22820   1.12254    0.016
 6645.00    1.21568   1.12355    0.016
 6646.00    1.20428   1.12402    0.016
 6647.00    1.19306   1.12370    0.015
 6648.00    1.19631   1.12381    0.015
 6649.00    1.20138   1.12441    0.015
 6650.00    1.18661   1.12421    0.015
 6651.00    1.17012   1.12356    0.016
 6652.00    1.15502   1.12283    0.015
 6653.00    1.14000   1.12198    0.015
 6654.00    1.15352   1.12112    0.015
 6655.00    1.16754   1.11935    0.015
 6656.00    1.18176   1.11757    0.015
 6657.00    1.19497   1.11582    0.015
 6658.00    1.18694   1.11410    0.016
 6659.00    1.17824   1.11277    0.016
 6660.00    1.16151   1.11082    0.016
 6661.00    1.14709   1.10943    0.016
 6662.00    1.15191   1.10792    0.016
 6663.00    1.15720   1.10727    0.016
 6664.00    1.16550   1.10772    0.016
 6665.00    1.17041   1.10732    0.016
 6666.00    1.15884   1.10734    0.016
 6667.00    1.14810   1.10716    0.016
 6668.00    1.14057   1.10781    0.016
 6669.00    1.13706   1.10915    0.015
 6670.00    1.14671   1.10913    0.016
 6671.00    1.15682   1.10891    0.016
 6672.00    1.16820   1.10822    0.016
 6673.00    1.18152   1.10848    0.015
 6674.00    1.19946   1.10917    0.016
 6675.00    1.20647   1.10850    0.016
 6676.00    1.19104   1.10775    0.015
 6677.00    1.17268   1.10634    0.015
 6678.00    1.14904   1.10707    0.016
 6679.00    1.13548   1.10874    0.016
 6680.00    1.13764   1.10880    0.016
 6681.00    1.13801   1.10923    0.016
 6682.00    1.13593   1.10910    0.016
 6683.00    1.12822   1.11062    0.016
 6684.00    1.11371   1.11263    0.016
 6685.00    1.11351   1.11296    0.016
 6686.00    1.12856   1.11362    0.016
 6687.00    1.14148   1.11362    0.016
 6688.00    1.15241   1.11393    0.016
 6689.00    1.14689   1.11419    0.016
 6690.00    1.12773   1.11315    0.015
 6691.00    1.12384   1.11251    0.015
 6692.00    1.13105   1.11157    0.015
 6693.00    1.13646   1.11056    0.015
 6694.00    1.14072   1.10989    0.015
 6695.00    1.13680   1.10805    0.015
 6696.00    1.12831   1.10698    0.000
 6697.00    1.12751   1.10620    0.000
 6698.00    1.13044   1.10516    0.000
 6699.00    1.12191   1.10485    0.000
 6700.00    1.10856   1.10367    0.000
 6701.00    1.10250   1.10287    0.000
 6702.00    1.09908   1.10192    0.000
 6703.00    1.09635   1.10082    0.000
 6704.00    1.09383   1.09997    0.000
 6705.00    1.09825   1.09887    0.000
 6706.00    1.10441   1.09758    0.000
 6707.00    1.09799   1.09540    0.000
 6708.00    1.08898   1.09376    0.000
 6709.00    1.10520   1.09154    0.000
 6710.00    1.12550   1.08960    0.000
 6711.00    1.17450   1.08792    0.000
 6712.00    1.22696   1.08550    0.000
 6713.00    1.25436   1.08465    0.000
 6714.00    1.27968   1.08313    0.000
 6715.00    1.25098   1.08193    0.000
 6716.00    1.21972   1.08148    0.000
 6717.00    1.18251   1.08124    0.000
 6718.00    1.14569   1.08296    0.000
 6719.00    1.13489   1.08398    0.000
 6720.00    1.12380   1.08465    0.000
 6721.00    1.10726   1.08585    0.000
 6722.00    1.09341   1.08771    0.000
 6723.00    1.11026   1.09055    0.000
 6724.00    1.12867   1.09241    0.000
 6725.00    1.15939   1.09335    0.000
 6726.00    1.18875   1.09456    0.000
 6727.00    1.20990   1.09598    0.000
 6728.00    1.22820   1.09733    0.000
 6729.00    1.23294   1.09801    0.000
 6730.00    1.23742   1.09803    0.000
 6731.00    1.24085   1.09783    0.000
 6732.00    1.23851   1.09720    0.000
 6733.00    1.21763   1.09664    0.000
 6734.00    1.19021   1.09601    0.000
 6735.00    1.14496   1.09524    0.000
 6736.00    1.11149   1.09375    0.000
 6737.00    1.10553   1.09151    0.000
 6738.00    1.10607   1.09014    0.000
 6739.00    1.11973   1.08907    0.000
 6740.00    1.12980   1.08814    0.000
 6741.00    1.13354   1.08666    0.000
 6742.00    1.13229   1.08432    0.000
 6743.00    1.12334   1.08356    0.000
 6744.00    1.11732   1.08304    0.000
 6745.00    1.11524   1.08271    0.000
 6746.00    1.11386   1.08253    0.000
 6747.00    1.11328   1.08138    0.000
 6748.00    1.11684   1.08229    0.000
 6749.00    1.12474   1.08305    0.000
 6750.00    1.12882   1.08405    0.000
 6751.00    1.12938   1.08580    0.000
 6752.00    1.13379   1.08638    0.000
 6753.00    1.14134   1.08874    0.017
 6754.00    1.15070   1.09061    0.017
 6755.00    1.16134   1.09230    0.018
 6756.00    1.16023   1.09437    0.018
 6757.00    1.15171   1.09539    0.018
 6758.00    1.14483   1.09723    0.018
 6759.00    1.13885   1.09835    0.018
 6760.00    1.16273   1.09862    0.018
 6761.00    1.20092   1.09873    0.018
 6762.00    1.24967   1.09873    0.019
 6763.00    1.30279   1.09920    0.019
 6764.00    1.33278   1.09897    0.019
 6765.00    1.35458   1.09808    0.019
 6766.00    1.37244   1.09726    0.019
 6767.00    1.38912   1.09718    0.019
 6768.00    1.37905   1.09818    0.018
 6769.00    1.36235   1.09847    0.018
 6770.00    1.32434   1.09824    0.018
 6771.00    1.28205   1.09831    0.018
 6772.00    1.26500   1.09895    0.017
 6773.00    1.25191   1.10050    0.017
 6774.00    1.24801   1.10097    0.017
 6775.00    1.24519   1.10073    0.017
 6776.00    1.22497   1.10033    0.016
 6777.00    1.20338   1.09980    0.016
 6778.00    1.23867   1.09961    0.017
 6779.00    1.27644   1.09865    0.017
 6780.00    1.25519   1.09726    0.017
 6781.00    1.23295   1.09565    0.017
 6782.00    1.19347   1.09400    0.017
 6783.00    1.15647   1.09253    0.017
 6784.00    1.16431   1.09138    0.017
 6785.00    1.17228   1.09040    0.017
 6786.00    1.18153   1.08958    0.017
 6787.00    1.19063   1.08894    0.017
 6788.00    1.19856   1.08814    0.017
 6789.00    1.20787   1.08823    0.017
 6790.00    1.22524   1.08848    0.018
 6791.00    1.23830   1.08905    0.018
 6792.00    1.23147   1.08942    0.017
 6793.00    1.22520   1.08927    0.017
 6794.00    1.22106   1.09018    0.017
 6795.00    1.21283   1.09082    0.017
 6796.00    1.19165   1.09168    0.017
 6797.00    1.17967   1.09231    0.017
 6798.00    1.19231   1.09206    0.017
 6799.00    1.20262   1.09295    0.017
 6800.00    1.20753   1.09354    0.017
 6801.00    1.21079   1.09370    0.017
 6802.00    1.21074   1.09427    0.017
 6803.00    1.19631   1.09368    0.017
 6804.00    1.15692   1.09364    0.017
 6805.00    1.12774   1.09423    0.017
 6806.00    1.11401   1.09387    0.017
 6807.00    1.10734   1.09419    0.017
 6808.00    1.11008   1.09378    0.017
 6809.00    1.11123   1.09291    0.017
 6810.00    1.11051   1.09381    0.017
 6811.00    1.11660   1.09421    0.017
 6812.00    1.12974   1.09450    0.017
 6813.00    1.15528   1.09471    0.017
 6814.00    1.19215   1.09400    0.018
 6815.00    1.20724   1.09527    0.018
 6816.00    1.20480   1.09675    0.017
 6817.00    1.18951   1.09706    0.017
 6818.00    1.16511   1.09752    0.017
 6819.00    1.16964   1.09739    0.016
 6820.00    1.19215   1.09842    0.016
 6821.00    1.20549   1.09974    0.016
 6822.00    1.21386   1.09946    0.016
 6823.00    1.22898   1.09944    0.016
 6824.00    1.24728   1.09952    0.016
 6825.00    1.24771   1.09963    0.016
 6826.00    1.24086   1.09965    0.016
 6827.00    1.23007   1.09832    0.017
 6828.00    1.21791   1.09743    0.017
 6829.00    1.23123   1.09721    0.017
 6830.00    1.25201   1.09604    0.017
 6831.00    1.24407   1.09448    0.017
 6832.00    1.22916   1.09237    0.017
 6833.00    1.21096   1.09050    0.017
 6834.00    1.19211   1.08957    0.017
 6835.00    1.18816   1.08739    0.017
 6836.00    1.18647   1.08503    0.017
 6837.00    1.20172   1.08330    0.017
 6838.00    1.21887   1.08167    0.017
 6839.00    1.21691   1.08104    0.018
 6840.00    1.21351   1.07971    0.018
 6841.00    1.19909   1.07855    0.017
 6842.00    1.18422   1.07876    0.017
 6843.00    1.17060   1.07882    0.017
 6844.00    1.15857   1.07912    0.016
 6845.00    1.20934   1.07926    0.016
 6846.00    1.25405   1.07931    0.016
 6847.00    1.19637   1.08018    0.017
 6848.00    1.14270   1.08049    0.017
 6849.00    1.13098   1.07973    0.017
 6850.00    1.12442   1.07931    0.016
 6851.00    1.15617   1.07882    0.017
 6852.00    1.18470   1.07840    0.017
 6853.00    1.19491   1.07793    0.017
 6854.00    1.20214   1.07601    0.016
 6855.00    1.19593   1.07459    0.016
 6856.00    1.18641   1.07392    0.016
 6857.00    1.16462   1.07325    0.016
 6858.00    1.14182   1.07336    0.016
 6859.00    1.11589   1.07248    0.016
 6860.00    1.10593   1.07135    0.016
 6861.00    1.13801   1.07107    0.016
 6862.00    1.16481   1.07109    0.016
 6863.00    1.17969   1.07210    0.016
 6864.00    1.19238   1.07255    0.016
 6865.00    1.20079   1.07197    0.017
 6866.00    1.20857   1.07160    0.017
 6867.00    1.21527   1.07185    0.017
 6868.00    1.20675   1.07308    0.017
 6869.00    1.17549   1.07397    0.017
 6870.00    1.14653   1.07373    0.017
 6871.00    1.12060   1.07353    0.017
 6872.00    1.10398   1.07411    0.017
 6873.00    1.09815   1.07546    0.016
 6874.00    1.10197   1.07645    0.016
 6875.00    1.11565   1.07651    0.017
 6876.00    1.12996   1.07681    0.017
 6877.00    1.14486   1.07777    0.016
 6878.00    1.14499   1.07943    0.016
 6879.00    1.13342   1.08072    0.016
 6880.00    1.11947   1.08108    0.016
 6881.00    1.10386   1.08209    0.016
 6882.00    1.10234   1.08372    0.016
 6883.00    1.10944   1.08580    0.016
 6884.00    1.12480   1.08764    0.016
 6885.00    1.14457   1.08874    0.016
 6886.00    1.15050   1.09031    0.016
 6887.00    1.15001   1.09231    0.016
 6888.00    1.15381   1.09438    0.016
 6889.00    1.15932   1.09582    0.017
 6890.00    1.17310   1.09695    0.017
 6891.00    1.18969   1.09827    0.017
 6892.00    1.20042   1.09961    0.017
 6893.00    1.20946   1.10088    0.017
 6894.00    1.19199   1.10108    0.017
 6895.00    1.16823   1.10154    0.017
 6896.00    1.16398   1.10270    0.017
 6897.00    1.16344   1.10336    0.017
 6898.00    1.16491   1.10385    0.017
 6899.00    1.16667   1.10357    0.017
 6900.00    1.14880   1.10371    0.017
 6901.00    1.12882   1.10497    0.017
 6902.00    1.12934   1.10514    0.017
 6903.00    1.13132   1.10476    0.016
 6904.00    1.14463   1.10450    0.016
 6905.00    1.15834   1.10412    0.016
 6906.00    1.15333   1.10438    0.016
 6907.00    1.14851   1.10384    0.016
 6908.00    1.15265   1.10221    0.016
 6909.00    1.15626   1.10170    0.016
 6910.00    1.15152   1.10096    0.016
 6911.00    1.14564   1.09977    0.017
 6912.00    1.12838   1.09911    0.017
 6913.00    1.11186   1.09723    0.016
 6914.00    1.10059   1.09662    0.016
 6915.00    1.09492   1.09647    0.016
 6916.00    1.12012   1.09521    0.016
 6917.00    1.14268   1.09499    0.016
 6918.00    1.15365   1.09387    0.016
 6919.00    1.16041   1.09324    0.016
 6920.00    1.15194   1.09348    0.016
 6921.00    1.14699   1.09314    0.016
 6922.00    1.15270   1.09305    0.016
 6923.00    1.16251   1.09232    0.016
 6924.00    1.18290   1.09189    0.016
 6925.00    1.19293   1.09223    0.016
 6926.00    1.17991   1.09266    0.016
 6927.00    1.17218   1.09255    0.017
 6928.00    1.17464   1.09242    0.017
 6929.00    1.17913   1.09303    0.017
 6930.00    1.18700   1.09359    0.017
 6931.00    1.18339   1.09412    0.017
 6932.00    1.16288   1.09402    0.017
 6933.00    1.15323   1.09429    0.017
 6934.00    1.15766   1.09534    0.017
 6935.00    1.16005   1.09567    0.017
 6936.00    1.16013   1.09556    0.017
 6937.00    1.16126   1.09517    0.017
 6938.00    1.16346   1.09505    0.017
 6939.00    1.16273   1.09484    0.017
 6940.00    1.15941   1.09458    0.017
 6941.00    1.13686   1.09419    0.017
 6942.00    1.09930   1.09323    0.016
 6943.00    1.10372   1.09277    0.016
 6944.00    1.13701   1.09183    0.017
 6945.00    1.15725   1.09117    0.017
 6946.00    1.16962   1.09153    0.017
 6947.00    1.18353   1.09102    0.017
 6948.00    1.19825   1.09094    0.017
 6949.00    1.18694   1.09111    0.017
 6950.00    1.16374   1.09106    0.017
 6951.00    1.16029   1.09212    0.017
 6952.00    1.16459   1.09290    0.017
 6953.00    1.16809   1.09366    0.017
 6954.00    1.17132   1.09485    0.017
 6955.00    1.19452   1.09611    0.017
 6956.00    1.22332   1.09769    0.017
 6957.00    1.20550   1.09895    0.017
 6958.00    1.17690   1.10045    0.017
 6959.00    1.15760   1.10163    0.017
 6960.00    1.14004   1.10250    0.017
 6961.00    1.14260   1.10387    0.017
 6962.00    1.14805   1.10472    0.017
 6963.00    1.14741   1.10540    0.017
 6964.00    1.14614   1.10540    0.017
 6965.00    1.17243   1.10412    0.017
 6966.00    1.20055   1.10400    0.017
 6967.00    1.20660   1.10382    0.017
 6968.00    1.21194   1.10211    0.017
 6969.00    1.17658   1.10023    0.017
 6970.00    1.14280   1.09740    0.017
 6971.00    1.15726   1.09566    0.017
 6972.00    1.17124   1.09419    0.017
 6973.00    1.17825   1.09116    0.017
 6974.00    1.17882   1.08946    0.017
 6975.00    1.11757   1.08803    0.017
 6976.00    1.06898   1.08707    0.017
 6977.00    1.10851   1.08636    0.017
 6978.00    1.14201   1.08517    0.017
 6979.00    1.14314   1.08663    0.017
 6980.00    1.14157   1.08835    0.017
 6981.00    1.12840   1.08957    0.017
 6982.00    1.12337   1.09150    0.017
 6983.00    1.14724   1.09272    0.017
 6984.00    1.17440   1.09515    0.017
 6985.00    1.21134   1.09766    0.017
 6986.00    1.23263   1.09928    0.017
 6987.00    1.21416   1.10125    0.017
 6988.00    1.19740   1.10180    0.017
 6989.00    1.18439   1.10241    0.017
 6990.00    1.16655   1.10356    0.017
 6991.00    1.13956   1.10382    0.017
 6992.00    1.12973   1.10396    0.017
 6993.00    1.14830   1.10270    0.017
 6994.00    1.16099   1.10125    0.017
 6995.00    1.16514   1.10102    0.017
 6996.00    1.16717   1.10032    0.017
 6997.00    1.16650   1.09913    0.017
 6998.00    1.16710   1.09704    0.017
 6999.00    1.16915   1.09492    0.017
 7000.00    1.15596   1.09441    0.017
 7001.00    1.12764   1.09395    0.017
 7002.00    1.12583   1.09260    0.017
 7003.00    1.14721   1.09117    0.017
 7004.00    1.15976   1.09002    0.017
 7005.00    1.16549   1.08928    0.017
 7006.00    1.15636   1.08890    0.017
 7007.00    1.13716   1.08810    0.018
 7008.00    1.13151   1.08778    0.018
 7009.00    1.13390   1.08734    0.018
 7010.00    1.12930   1.08553    0.018
 7011.00    1.12108   1.08490    0.017
 7012.00    1.11180   1.08537    0.018
 7013.00    1.10203   1.08538    0.018
 7014.00    1.11779   1.08486    0.018
 7015.00    1.14339   1.08313    0.018
 7016.00    1.15322   1.08284    0.018
 7017.00    1.15788   1.08450    0.018
 7018.00    1.14340   1.08470    0.018
 7019.00    1.12366   1.08464    0.018
 7020.00    1.13974   1.08533    0.018
 7021.00    1.16393   1.08596    0.018
 7022.00    1.15555   1.08698    0.018
 7023.00    1.14128   1.08737    0.018
 7024.00    1.13850   1.08819    0.018
 7025.00    1.13731   1.09045    0.018
 7026.00    1.14959   1.09154    0.018
 7027.00    1.16321   1.09243    0.018
 7028.00    1.17134   1.09370    0.018
 7029.00    1.17912   1.09487    0.018
 7030.00    1.18097   1.09730    0.018
 7031.00    1.18257   1.09882    0.018
 7032.00    1.16551   1.09959    0.018
 7033.00    1.14960   1.10150    0.018
 7034.00    1.16551   1.10355    0.018
 7035.00    1.18095   1.10637    0.018
 7036.00    1.18967   1.10864    0.018
 7037.00    1.19398   1.10930    0.018
 7038.00    1.15761   1.11110    0.018
 7039.00    1.12576   1.11402    0.018
 7040.00    1.12436   1.11634    0.018
 7041.00    1.12812   1.11770    0.018
 7042.00    1.15890   1.11851    0.018
 7043.00    1.18922   1.11875    0.018
 7044.00    1.21765   1.11830    0.018
 7045.00    1.23807   1.11781    0.018
 7046.00    1.23066   1.11608    0.019
 7047.00    1.22811   1.11376    0.019
 7048.00    1.23981   1.11097    0.019
 7049.00    1.24550   1.10660    0.019
 7050.00    1.23622   1.10285   -2.000
 7051.00    1.22599   1.09808   -2.000
 7052.00    1.21374   1.09242   -2.000
 7053.00    1.19316   1.08772   -2.000
 7054.00    1.15701   1.08218   -2.000
 7055.00    1.15519   1.07778   -2.000
 7056.00    1.20937   1.07398   -2.000
 7057.00    1.23500   1.06922   -2.000
 7058.00    1.21979   1.06548   -2.000
 7059.00    1.23624   1.06168   -2.000
 7060.00    1.29254   1.05890   -2.000
 7061.00    1.31312   1.05761   -2.000
 7062.00    1.29407   1.05517   -2.000
 7063.00    1.29588   1.05395   -2.000
 7064.00    1.31807   1.05400   -2.000
 7065.00    1.30023   1.05331   -2.000
 7066.00    1.24785   1.05339   -2.000
 7067.00    1.21851   1.05331   -2.000
 7068.00    1.20667   1.05375   -2.000
 7069.00    1.20993   1.05594   -2.000
 7070.00    1.22326   1.05697   -2.000
 7071.00    1.25401   1.05721   -2.000
 7072.00    1.29495   1.05830   -2.000
 7073.00    1.29237   1.05865   -2.000
 7074.00    1.26760   1.05887   -2.000
 7075.00    1.27217   1.05857   -2.000
 7076.00    1.28968   1.05698   -2.000
 7077.00    1.30889   1.05608   -2.000
 7078.00    1.32876   1.05354   -2.000
 7079.00    1.27020   1.04997   -2.000
 7080.00    1.18638   1.04769   -2.000
 7081.00    1.22685   1.04352   -2.000
 7082.00    1.30079   1.03921   -2.000
 7083.00    1.29893   1.03475   -2.000
 7084.00    1.28033   1.02923   -2.000
 7085.00    1.26509   1.02678   -2.000
 7086.00    1.25043   1.02312   -2.000
 7087.00    1.25243   1.01844   -2.000
 7088.00    1.25666   1.01628   -2.000
 7089.00    1.21634   1.01297   -2.000
 7090.00    1.17179   1.01160   -2.000
 7091.00    1.18541   1.01117   -2.000
 7092.00    1.20245   1.00913   -2.000
 7093.00    1.19759   1.00984   -2.000
 7094.00    1.19241   1.01001   -2.000
 7095.00    1.21712   1.01029   -2.000
 7096.00    1.24018   1.01170   -2.000
 7097.00    1.22181   1.01167   -2.000
 7098.00    1.20302   1.01356   -2.000
 7099.00    1.17851   1.01509   -2.000
 7100.00    1.15343   1.01570   -2.000
 7101.00    1.12329   1.01650   -2.000
 7102.00    1.09779   1.01655   -2.000
 7103.00    1.10251   1.01777   -2.000
 7104.00    1.10731   1.01888   -2.000
 7105.00    1.11251   1.01855   -2.000
 7106.00    1.12007   1.01819   -2.000
 7107.00    1.13726   1.01833   -2.000
 7108.00    1.14391   1.01891   -2.000
 7109.00    1.11457   1.01881   -2.000
 7110.00    1.10193   1.01803   -2.000
 7111.00    1.13729   1.01766   -2.000
 7112.00    1.16146   1.01822   -2.000
 7113.00    1.15815   1.01811   -2.000
 7114.00    1.14913   1.01736   -2.000
 7115.00    1.12805   1.01743   -2.000
 7116.00    1.11178   1.01647   -2.000
 7117.00    1.10439   1.01586   -2.000
 7118.00    1.11003   1.01536   -2.000
 7119.00    1.13664   1.01384   -2.000
 7120.00    1.17653   1.01333   -2.000
 7121.00    1.23514   1.01114   -2.000
 7122.00    1.24550   1.00946   -2.000
 7123.00    1.19600   1.00954   -2.000
 7124.00    1.19101   1.00723   -2.000
 7125.00    1.23468   1.00537   -2.000
 7126.00    1.24482   1.00441   -2.000
 7127.00    1.22261   1.00356   -2.000
 7128.00    1.18781   1.00412   -2.000
 7129.00    1.14229   1.00285   -2.000
 7130.00    1.12622   1.00159   -2.000
 7131.00    1.13219   1.00317   -2.000
 7132.00    1.17532   1.00412   -2.000
 7133.00    1.24289   1.00474   -2.000
 7134.00    1.21393   1.00542   -2.000
 7135.00    1.12937   1.00599   -2.000
 7136.00    1.13780   1.00783   -2.000
 7137.00    1.19289   1.00907   -2.000
 7138.00    1.20096   1.00883   -2.000
 7139.00    1.18861   1.00903   -2.000
 7140.00    1.20150   1.01075   -2.000
 7141.00    1.22380   1.01136   -2.000
 7142.00    1.16856   1.01062   -2.000
 7143.00    1.08882   1.01117   -2.000
 7144.00    1.07192   1.01138   -2.000
 7145.00    1.07160   1.01217   -2.000
 7146.00    1.07377   1.01278   -2.000
 7147.00    1.07648   1.01141   -2.000
 7148.00    1.11150   1.01312   -2.000
 7149.00    1.15203   1.01484   -2.000
 7150.00    1.14253   1.01454   -2.000
 7151.00    1.12655   1.01598   -2.000
 7152.00    1.15234   1.01701   -2.000
 7153.00    1.18192   1.01825   -2.000
 7154.00    1.18146   1.01890   -2.000
 7155.00    1.17936   1.01815   -2.000
 7156.00    1.10713   1.01974   -2.000
 7157.00    1.03374   1.02078   -2.000
 7158.00    0.98718   1.02014   -2.000
 7159.00    0.95002   1.01990   -2.000
 7160.00    1.12586   1.01983   -2.000
 7161.00    1.29421   1.02074   -2.000
 7162.00    1.36819   1.02127   -2.000
 7163.00    1.43287   1.02037   -2.000
 7164.00    1.41819   1.02013   -2.000
 7165.00    1.38523   1.02155   -2.000
 7166.00    1.23647   1.02300   -2.000
 7167.00    1.13005   1.02345   -2.000
 7168.00    1.23384   1.02403   -2.000
 7169.00    1.32130   1.02492   -2.000
 7170.00    1.34302   1.02559   -2.000
 7171.00    1.33876   1.02632   -2.000
 7172.00    1.24769   1.02614   -2.000
 7173.00    1.17491   1.02606   -2.000
 7174.00    1.15371   1.02653   -2.000
 7175.00    1.13879   1.02482   -2.000
 7176.00    1.13905   1.02363   -2.000
 7177.00    1.15462   1.02388   -2.000
 7178.00    1.20208   1.02196   -2.000
 7179.00    1.23364   1.02000   -2.000
 7180.00    1.23640   1.01783   -2.000
 7181.00    1.21863   1.01575   -2.000
 7182.00    1.16835   1.01612   -2.000
 7183.00    1.10680   1.01423   -2.000
 7184.00    1.02959   1.01183   -2.000
 7185.00    0.99565   1.01174   -2.000
 7186.00    1.01462   1.01012   -2.000
 7187.00    1.06638   1.00920   -2.000
 7188.00    1.15349   1.00871   -2.000
 7189.00    1.18060   1.00825   -2.000
 7190.00    1.15066   1.00983   -2.000
 7191.00    1.15576   1.00992   -2.000
 7192.00    1.19023   1.00932   -2.000
 7193.00    1.16272   1.00993   -2.000
 7194.00    1.08945   1.01137   -2.000
 7195.00    1.03199   1.01261   -2.000
 7196.00    0.98476   1.01248   -2.000
 7197.00    0.98204   1.01325   -2.000
 7198.00    1.00456   1.01416   -2.000
 7199.00    1.04944   1.01489   -2.000
 7200.00    1.10535   1.01528   -2.000
 7201.00    1.17979   1.01437   -2.000
 7202.00    1.26216   1.01550   -2.000
 7203.00    1.24132   1.01640   -2.000
 7204.00    1.18272   1.01617   -2.000
 7205.00    1.08930   1.01668   -2.000
 7206.00    0.98509   1.01555   -2.000
 7207.00    0.99493   1.01616   -2.000
 7208.00    1.03420   1.01791   -2.000
 7209.00    1.02135   1.01817   -2.000
 7210.00    0.99754   1.01995   -2.000
 7211.00    1.03334   1.02111   -2.000
 7212.00    1.07905   1.02179   -2.000
 7213.00    1.13457   1.02377   -2.000
 7214.00    1.19131   1.02470   -2.000
 7215.00    1.17106   1.02609   -2.000
 7216.00    1.14414   1.02881   -2.000
 7217.00    1.12222   1.03069   -2.000
 7218.00    1.10055   1.03262   -2.000
