###################################################################
## OUTPUT of StarlightChains_v04.for    [Cid@UFSC - 01/Apr/2007] ##
###################################################################

## Some input info
KUG0210-078._4_57.txt                    [arq_obs]
Base.CB07.vall.4m                        [arq_base]
Masks.EmLines.NEW.gm                     [arq_masks]
StCv04.C11.config                        [arq_config]
   66                                    [N_base]
    0                                    [N_YAV_components = # of components with extra extinction!]
    0                                    [i_FitPowerLaw (1/0 = Yes/No)]
-9.99                                    [alpha_PowerLaw]
CCM                                      [red_law_option]
 1.458241                                [q_norm = A(l_norm)/A(V)]

## (Re)Sampling Parameters
 3741.00                                 [l_ini (A)]
 7218.00                                 [l_fin (A)]
    1.00                                 [dl    (A)]     (OBS: dl_cushion =    50.00 A)

## Normalization info
 4020.00                                 [l_norm (A) - for base]
 4010.00                                 [llow_norm (A) - window for f_obs]
 4060.00                                 [lupp_norm (A) - window for f_obs]
4.312391E-18                             [fobs_norm (in input units)]

## S/N
 3691.00                                 [llow_SN (A) - window for S/N]
 7268.00                                 [lupp_SN (A) - window for S/N]
   3.426                                 [S/N in S/N window]
   1.341                                 [S/N in norm. window]
   0.015                                 [S/N_err in S/N window]
   0.006                                 [S/N_err in norm. window]
  1.0000                                 [fscale_chi2]

## etc...
    -2007208                             [idum_orig]
  2393                                   [NOl_eff]
  2357                                   [Nl_eff]
    36    NSIGMA                         [Ntot_cliped & clip_method]
  5542530                                [Nglobal_steps]
   7                                     [N_chains]
  12                                     [NEX0s_base = N_base in EX0s-fits]
 0   0   1       36   2.0   1.097E+03    [Clip-Bug, RC-Crash & Burn-In warning-flags, n_censored_weights, wei_nsig_threshold & wei_limit]
    44     43.242     42.585      0.657  [idt_all, wdt_TotTime, wdt_UsrTime & wdt_SysTime (sec)]

## Synthesis Results - Best model ##

 2.70792E-05                             [chi2/Nl_eff]
    39.79142                             [adev (%)]

   129.99998                             [sum-of-x (%)]
 1.39558E-17                             [Flux_tot (units of input spectrum!)]
 1.41593E-12                             [Mini_tot (???)]
 7.17378E-13                             [Mcor_tot (???)]

-275.17                                  [v0_min  (km/s)]
  73.93                                  [vd_min  (km/s)]
 0.6791                                  [AV_min  (mag)]
 0.0000                                  [YAV_min (mag)]

# j     x_j(%)      Mini_j(%)     Mcor_j(%)     age_j(yr)     Z_j      (L/M)_j    YAV?  Mstars   component_j        a/Fe...       SSP_chi2r SSP_adev(%)   SSP_AV   SSP_x(%)
  1      0.0000     0.0000E+00    0.0000E+00    1.000000E+06  0.00400  1.094E-02    0   1.0000   age020_m42            0.0000     1.8771E-05    52.8241   4.0000   166.8181
  2      0.0000     0.0000E+00    0.0000E+00    3.160000E+06  0.00400  4.007E-02    0   0.9999   age045_m42            0.0000     1.9080E-05    52.4735   3.3148   175.2835
  3      0.0000     0.0000E+00    0.0000E+00    5.010000E+06  0.00400  2.539E-02    0   0.9488   age055_m42            0.0000     1.9006E-05    52.6615   3.6282   171.5956
  4      1.7291     5.0037E-04    9.1058E-04    6.610000E+06  0.00400  2.620E-02    0   0.9220   age061_m42            0.0000     1.9355E-05    52.7369   3.2417   175.5482
  5      0.0000     0.0000E+00    0.0000E+00    1.000000E+07  0.00400  1.322E-02    0   0.8862   age070_m42            0.0000     2.0750E-05    54.9694   2.9585   179.1379
  6      0.0000     0.0000E+00    0.0000E+00    1.445000E+07  0.00400  7.883E-03    0   0.8571   age078_m42            0.0000     2.0424E-05    54.7076   3.2801   175.1212
  7      0.0000     0.0000E+00    0.0000E+00    2.512000E+07  0.00400  5.251E-03    0   0.8174   age090_m42            0.0000     2.1101E-05    55.3680   2.8293   180.0217
  8      0.0000     0.0000E+00    0.0000E+00    4.000000E+07  0.00400  3.649E-03    0   0.7851   age104_m42            0.0000     2.1063E-05    55.1493   2.6045   181.2838
  9      0.0000     0.0000E+00    0.0000E+00    5.500000E+07  0.00400  3.098E-03    0   0.7629   age110_m42            0.0000     2.0506E-05    54.1026   2.7598   181.1941
 10      2.5242     8.5897E-03    1.2219E-02    1.015200E+08  0.00400  2.228E-03    0   0.7207   age116_m42            0.0000     2.0239E-05    53.3895   2.7827   181.3525
 11      0.0000     0.0000E+00    0.0000E+00    2.861200E+08  0.00400  1.093E-03    0   0.6648   age125_m42            0.0000     2.1150E-05    54.3673   2.2113   186.4915
 12      0.0000     0.0000E+00    0.0000E+00    5.088000E+08  0.00400  6.597E-04    0   0.6365   age130_m42            0.0000     2.0660E-05    53.1171   2.2062   187.7437
 13      0.0000     0.0000E+00    0.0000E+00    1.434000E+09  0.00400  2.132E-04    0   0.5798   age139_m42            0.0000     2.0787E-05    52.4956   1.2475   190.3823
 14      0.0000     0.0000E+00    0.0000E+00    4.250000E+09  0.00400  5.895E-05    0   0.5377   age158_m42            0.0000     1.9908E-05    50.9548   0.8099   183.0359
 15      0.0000     0.0000E+00    0.0000E+00    7.500000E+09  0.00400  3.510E-05    0   0.5212   age171_m42            0.0000     1.9896E-05    50.2988   0.6256   181.4786
 16      0.0000     0.0000E+00    0.0000E+00    1.300000E+10  0.00400  2.005E-05    0   0.5034   age193_m42            0.0000     1.9969E-05    49.9061   0.4623   180.2588
 17      0.0000     0.0000E+00    0.0000E+00    1.800000E+10  0.00400  1.525E-05    0   0.4967   age213_m42            0.0000     1.9938E-05    50.0425   0.4370   179.6600
 18      0.0000     0.0000E+00    0.0000E+00    1.000000E+06  0.00800  1.238E-02    0   1.0000   age020_m52            0.0000     1.8761E-05    52.7528   4.0000   166.9368
 19      0.0000     0.0000E+00    0.0000E+00    3.160000E+06  0.00800  3.074E-02    0   0.9966   age045_m52            0.0000     1.8753E-05    52.4556   3.9474   167.0245
 20      0.0000     0.0000E+00    0.0000E+00    5.010000E+06  0.00800  2.668E-02    0   0.9443   age055_m52            0.0000     1.9051E-05    52.7285   3.7095   170.1888
 21      0.0000     0.0000E+00    0.0000E+00    6.610000E+06  0.00800  2.136E-02    0   0.9177   age061_m52            0.0000     2.0586E-05    54.8007   2.4597   181.0915
 22      0.0000     0.0000E+00    0.0000E+00    1.000000E+07  0.00800  1.215E-02    0   0.8827   age070_m52            0.0000     2.1143E-05    55.6746   3.1314   179.1518
 23      0.0000     0.0000E+00    0.0000E+00    1.445000E+07  0.00800  8.717E-03    0   0.8552   age078_m52            0.0000     2.0516E-05    54.8015   3.2477   177.3953
 24      0.0000     0.0000E+00    0.0000E+00    2.512000E+07  0.00800  5.592E-03    0   0.8162   age090_m52            0.0000     2.1293E-05    55.6143   2.8914   182.2056
 25      0.0000     0.0000E+00    0.0000E+00    4.000000E+07  0.00800  3.896E-03    0   0.7841   age104_m52            0.0000     2.1108E-05    55.1348   2.8064   183.3490
 26      0.0000     0.0000E+00    0.0000E+00    1.015200E+08  0.00800  2.148E-03    0   0.7226   age116_m52            0.0000     2.0589E-05    53.9274   2.7494   182.7638
 27      0.0000     0.0000E+00    0.0000E+00    2.861200E+08  0.00800  9.925E-04    0   0.6683   age125_m52            0.0000     2.0884E-05    53.2827   2.2706   189.4008
 28      0.0000     0.0000E+00    0.0000E+00    9.047900E+08  0.00800  3.141E-04    0   0.6138   age135_m52            0.0000     2.0818E-05    52.0065   1.4840   196.1317
 29      0.0000     0.0000E+00    0.0000E+00    1.434000E+09  0.00800  1.719E-04    0   0.5853   age139_m52            0.0000     2.0649E-05    51.8397   0.9039   192.0978
 30      0.0000     0.0000E+00    0.0000E+00    2.500000E+09  0.00800  7.872E-05    0   0.5600   age150_m52            0.0000     1.9933E-05    50.1038   0.6422   186.7177
 31      0.0000     0.0000E+00    0.0000E+00    4.250000E+09  0.00800  4.336E-05    0   0.5426   age158_m52            0.0000     1.9914E-05    50.0145   0.6281   184.9083
 32      0.0000     0.0000E+00    0.0000E+00    6.250000E+09  0.00800  3.159E-05    0   0.5319   age166_m52            0.0000     1.9983E-05    49.1423   0.4302   184.5251
 33      0.0000     0.0000E+00    0.0000E+00    1.300000E+10  0.00800  1.361E-05    0   0.5073   age193_m52            0.0000     2.0286E-05    48.0267  -0.0311   182.6571
 34      0.0000     0.0000E+00    0.0000E+00    1.800000E+10  0.00800  9.886E-06    0   0.4990   age213_m52            0.0000     2.0349E-05    47.0530  -0.1335   181.3590
 35      0.0000     0.0000E+00    0.0000E+00    1.000000E+06  0.02000  1.544E-02    0   1.0000   age020_m62            0.0000     1.8761E-05    52.7135   4.0000   167.1092
 36      0.0000     0.0000E+00    0.0000E+00    3.160000E+06  0.02000  3.762E-02    0   0.9858   age045_m62            0.0000     1.8792E-05    52.5377   3.9593   167.3929
 37      0.0000     0.0000E+00    0.0000E+00    5.010000E+06  0.02000  3.296E-02    0   0.9342   age055_m62            0.0000     1.8999E-05    52.3888   3.5912   173.4643
 38      0.0000     0.0000E+00    0.0000E+00    8.710000E+06  0.02000  1.154E-02    0   0.8861   age067_m62            0.0000     2.5069E-05    60.5714   2.5698   184.3983
 39      0.0000     0.0000E+00    0.0000E+00    1.445000E+07  0.02000  7.663E-03    0   0.8472   age078_m62            0.0000     2.2350E-05    57.3935   2.7731   183.2237
 40      0.0000     0.0000E+00    0.0000E+00    2.512000E+07  0.02000  4.532E-03    0   0.8099   age090_m62            0.0000     2.2685E-05    57.6638   2.7657   182.5811
 41      0.0000     0.0000E+00    0.0000E+00    5.500000E+07  0.02000  2.733E-03    0   0.7595   age110_m62            0.0000     2.1095E-05    55.1821   2.7872   182.1530
 42      0.0000     0.0000E+00    0.0000E+00    1.609000E+08  0.02000  1.369E-03    0   0.6985   age120_m62            0.0000     2.0798E-05    53.7149   2.6342   186.4626
 43      0.0000     0.0000E+00    0.0000E+00    2.861200E+08  0.02000  9.013E-04    0   0.6714   age125_m62            0.0000     2.0899E-05    52.9112   2.3894   191.2833
 44      0.0000     0.0000E+00    0.0000E+00    5.088000E+08  0.02000  5.028E-04    0   0.6449   age130_m62            0.0000     2.0519E-05    51.4441   2.0207   195.6152
 45      0.0000     0.0000E+00    0.0000E+00    9.047900E+08  0.02000  2.428E-04    0   0.6179   age135_m62            0.0000     2.0212E-05    50.8387   1.4333   194.4628
 46      0.0000     0.0000E+00    0.0000E+00    1.434000E+09  0.02000  1.263E-04    0   0.5908   age139_m62            0.0000     2.0125E-05    50.3369   0.9908   191.4488
 47      0.0000     0.0000E+00    0.0000E+00    2.500000E+09  0.02000  5.985E-05    0   0.5673   age150_m62            0.0000     1.9914E-05    49.2858   0.6295   188.5068
 48      0.0000     0.0000E+00    0.0000E+00    4.250000E+09  0.02000  3.271E-05    0   0.5468   age158_m62            0.0000     2.0046E-05    47.8128   0.3308   186.3578
 49     58.2312     3.2463E+01    3.3107E+01    1.000000E+10  0.02000  1.360E-05    0   0.5167   age181_m62            0.0000     2.0468E-05    46.3688  -0.0088   184.8424
 50     63.0947     6.7149E+01    6.6440E+01    1.800000E+10  0.02000  7.124E-06    0   0.5013   age213_m62            0.0000     2.0749E-05    45.3538  -0.2140   182.9714
 51      0.0000     0.0000E+00    0.0000E+00    1.000000E+06  0.05000  2.592E-02    0   0.9998   age020_m72            0.0000     1.8798E-05    52.6581   4.0000   166.7095
 52      0.0000     0.0000E+00    0.0000E+00    3.160000E+06  0.05000  4.845E-02    0   0.9577   age045_m72            0.0000     1.8755E-05    52.3253   3.8456   169.3076
 53      0.0000     0.0000E+00    0.0000E+00    5.010000E+06  0.05000  3.072E-02    0   0.9147   age055_m72            0.0000     2.1030E-05    55.8417   3.3518   176.9610
 54      0.0000     0.0000E+00    0.0000E+00    6.610000E+06  0.05000  1.455E-02    0   0.8877   age061_m72            0.0000     2.8224E-05    63.9203   2.5839   187.1933
 55      0.0000     0.0000E+00    0.0000E+00    1.000000E+07  0.05000  9.074E-03    0   0.8524   age070_m72            0.0000     2.1699E-05    56.4956   3.5122   177.2946
 56      0.0000     0.0000E+00    0.0000E+00    2.512000E+07  0.05000  4.250E-03    0   0.7902   age090_m72            0.0000     2.1598E-05    56.1637   3.2321   179.5547
 57      0.0000     0.0000E+00    0.0000E+00    4.000000E+07  0.05000  3.087E-03    0   0.7618   age104_m72            0.0000     2.2064E-05    56.5428   3.0074   182.2295
 58      0.0000     0.0000E+00    0.0000E+00    1.015200E+08  0.05000  1.700E-03    0   0.7096   age116_m72            0.0000     2.1215E-05    54.4837   2.7708   186.0262
 59      0.0000     0.0000E+00    0.0000E+00    2.861200E+08  0.05000  7.384E-04    0   0.6633   age125_m72            0.0000     2.0654E-05    52.0261   2.2610   193.6083
 60      0.0000     0.0000E+00    0.0000E+00    5.088000E+08  0.05000  3.819E-04    0   0.6372   age130_m72            0.0000     2.0169E-05    50.7667   1.7731   196.3975
 61      0.0000     0.0000E+00    0.0000E+00    9.047900E+08  0.05000  1.676E-04    0   0.6110   age135_m72            0.0000     1.9747E-05    49.0628   1.0840   192.4428
 62      4.4207     3.7928E-01    4.3973E-01    1.434000E+09  0.05000  8.837E-05    0   0.5874   age139_m72            0.0000     2.0193E-05    48.9662   0.6298   191.0812
 63      0.0000     0.0000E+00    0.0000E+00    2.500000E+09  0.05000  4.233E-05    0   0.5598   age150_m72            0.0000     2.0086E-05    47.5127   0.3306   187.9304
 64      0.0000     0.0000E+00    0.0000E+00    6.250000E+09  0.05000  1.435E-05    0   0.5249   age166_m72            0.0000     2.0458E-05    46.1356  -0.1081   184.2300
 65      0.0000     0.0000E+00    0.0000E+00    1.300000E+10  0.05000  6.513E-06    0   0.5036   age193_m72            0.0000     2.1055E-05    45.0007  -0.3799   185.2088
 66      0.0000     0.0000E+00    0.0000E+00    1.800000E+10  0.05000  4.527E-06    0   0.4945   age213_m72            0.0000     2.1448E-05    44.4208  -0.5379   184.4878


## Synthesis Results - Average & Chains ##

# j      x_j: min, <> & last-chain-values for 1 ...  7 chains
  1      0.0000      0.8216      0.0000      0.0285      0.1309      0.0000      0.5803      0.1802      0.0000
  2      0.0000      0.7635      0.0691      0.0064      0.3379      0.0586      0.5909      0.2214      0.0825
  3      0.0000      1.1574      0.1333      0.0000      0.0000      0.1210      0.2058      0.0829      0.0202
  4      1.7291      1.0810      0.0199      0.2186      0.0552      0.0000      0.0000      0.2505      0.0000
  5      0.0000      0.8811      0.3015      0.0000      0.0657      0.0000      0.0000      0.2135      0.1798
  6      0.0000      1.4152      0.0000      0.0233      0.1350      0.1845      0.0593      0.0000      0.2897
  7      0.0000      1.1731      0.0481      0.0000      0.0000      0.0360      0.0000      0.0000      0.0354
  8      0.0000      0.7363      0.1214      0.0053      0.0000      0.0229      0.0000      0.1124      0.2498
  9      0.0000      1.0095      0.0000      0.0646      0.2592      0.0000      0.0502      0.0000      0.0000
 10      2.5242      1.0054      0.0000      0.0000      0.0000      0.0164      0.1904      0.1991      0.0217
 11      0.0000      0.9369      0.0000      0.0000      0.0433      0.0120      0.2756      0.1019      0.0138
 12      0.0000      0.8961      0.0722      0.2068      0.0287      0.0000      0.0000      0.0300      0.0826
 13      0.0000      0.8585      0.0912      0.3204      0.0000      0.0000      0.0038      0.0620      0.0770
 14      0.0000      0.9903      0.0825      0.0000      0.0228      0.0000      0.4410      0.0000      0.0000
 15      0.0000      0.8456      0.0002      0.0000      0.0000      0.0187      0.1239      0.0764      0.2226
 16      0.0000      0.9958      0.0164      0.2860      0.0000      0.0006      0.3115      0.0000      0.1588
 17      0.0000      0.9534      0.0200      0.0620      0.2351      0.0569      0.4411      0.1090      0.0000
 18      0.0000      0.9391      0.0400      0.3909      0.0000      0.0000      0.1508      0.0000      0.1471
 19      0.0000      1.1621      0.0735      0.1809      0.2246      0.0000      0.2595      0.0000      0.1553
 20      0.0000      0.7834      0.1392      0.0000      0.2618      0.0029      0.0000      0.1614      0.0175
 21      0.0000      0.9372      0.0015      0.0661      0.0242      0.2432      0.0000      0.0107      0.1461
 22      0.0000      1.5046      0.3792      0.1885      0.1195      0.0840      0.6574      0.0000      0.2715
 23      0.0000      1.0186      0.2629      0.2765      0.1271      0.0000      0.0838      0.1238      0.0000
 24      0.0000      0.9717      0.0000      0.0000      0.0000      0.0622      0.3508      0.0000      0.0000
 25      0.0000      0.6899      0.1222      0.0477      0.0262      0.0000      0.0000      0.0000      0.0432
 26      0.0000      1.2208      0.3495      0.0968      0.0082      0.0412      0.1233      0.4001      0.0999
 27      0.0000      0.8168      0.0358      0.0000      0.0000      0.2902      0.8360      0.0000      0.0353
 28      0.0000      0.8148      0.0955      0.1696      0.0000      0.0398      0.0000      0.0248      0.1261
 29      0.0000      1.1735      0.5910      0.1991      0.0000      0.0000      0.0000      0.3070      0.1232
 30      0.0000      1.1739      0.0000      0.2092      0.0711      0.0000      0.1364      0.0945      0.0672
 31      0.0000      1.0124      0.1860      0.0734      0.0085      0.0197      0.0998      0.1300      0.1149
 32      0.0000      0.7160      0.0511      0.2930      0.0000      0.3147      0.2592      0.0328      0.1752
 33      0.0000      0.9340      0.2643      0.1008      0.0000      0.2078      0.0000      0.0000      0.0000
 34      0.0000      0.8339      0.0000      0.0000      0.2742      0.1502      0.1427      0.0000      0.0903
 35      0.0000      0.8680      0.0775      0.0262      0.0000      0.0000      0.0000      0.0000      0.0000
 36      0.0000      0.8854      0.0730      0.0988      0.0812      0.0057      0.2294      0.0782      0.0001
 37      0.0000      0.7524      0.0345      0.2465      0.3705      0.0000      0.2028      0.0886      0.0000
 38      0.0000      1.0541      0.0374      0.1235      0.1102      0.0269      0.1160      0.0519      0.0488
 39      0.0000      1.1710      0.0000      0.0548      0.0655      0.1935      0.0158      0.0153      0.0000
 40      0.0000      0.9675      0.1788      0.1131      0.0807      0.0386      1.0935      0.0000      0.0429
 41      0.0000      1.1263      0.1014      0.2070      0.0000      0.0000      0.3552      0.0199      0.0862
 42      0.0000      1.0208      0.0072      0.2613      0.0043      0.0000      0.2906      0.0000      0.5786
 43      0.0000      0.7463      0.0899      0.0000      0.1596      0.0407      0.0000      0.0000      0.0715
 44      0.0000      0.9115      0.0000      0.1675      0.0000      0.1499      0.0264      0.0729      0.0659
 45      0.0000      1.2380      0.1729      0.0358      0.4575      0.1077      0.0000      0.0168      0.1698
 46      0.0000      1.6258      0.1371      0.2139      0.0000      0.0089      0.7260      0.0498      0.1442
 47      0.0000      0.6967      0.3737      0.3219      0.0427      0.0000      0.3189      0.0000      0.0264
 48      0.0000      0.8875      0.0000      0.1212      0.0069      0.0516      0.0000      0.0000      0.0000
 49     58.2312      0.7756      0.0170      0.0520      0.1666      0.0000      0.4956      0.2309      0.2245
 50     63.0947     29.9014     51.9038     54.4526     51.9231     52.8436     53.5666     57.9453     57.5819
 51      0.0000      1.1403      0.0000      0.0004      0.0000      0.0069      0.1439      0.0712      0.0505
 52      0.0000      0.7042      0.0000      0.2419      0.0626      0.0369      0.3477      0.0000      0.1697
 53      0.0000      0.8540      0.2564      0.1942      0.0000      0.0101      0.8694      0.0899      0.1561
 54      0.0000      0.8095      0.0959      0.4629      0.0000      0.0000      0.0000      0.0000      0.1006
 55      0.0000      1.0562      0.0000      0.0817      0.0000      0.2045      0.5717      0.0000      0.0000
 56      0.0000      0.9243      0.2505      0.0177      0.0000      0.1548      0.0000      0.1295      0.0425
 57      0.0000      1.0672      0.0000      0.0000      0.0853      0.0788      0.0298      0.2273      0.0730
 58      0.0000      0.8938      0.1743      0.2678      0.0227      0.2160      0.0000      0.0872      0.0784
 59      0.0000      0.7122      0.0303      0.1084      0.2536      0.0000      0.0000      0.0760      0.0668
 60      0.0000      0.7185      0.1480      0.0000      0.2523      0.0000      0.1636      0.1935      0.0767
 61      0.0000      1.1663      0.2969      0.2455      0.0000      0.0326      0.0735      0.0184      0.0000
 62      4.4207      1.1183      0.0019      0.1242      0.0410      0.0000      0.4095      0.3131      0.0000
 63      0.0000      0.7550      0.0000      0.0693      0.0686      0.0395      0.3230      0.0193      0.0762
 64      0.0000      0.5937      0.0937      0.2920      0.4191      0.2992      0.2712      0.1338      0.3233
 65      0.0000     12.1147      8.7141     19.0352     22.5842     22.6498     18.9401     19.9696     19.1004
 66      0.0000     26.9435     63.1662     48.8486     50.2825     50.7998     43.8105     47.1452     47.4637

# j      m_j: min, <> & last-chain-values for 1 ...  7 chains
  1  0.0000E+00  1.1930E-03  0.0000E+00  2.4351E-05  1.0939E-04  0.0000E+00  5.2486E-04  1.5258E-04  0.0000E+00
  2  0.0000E+00  3.0268E-04  1.5315E-05  1.4940E-06  7.7066E-05  1.3231E-05  1.4590E-04  5.1172E-05  1.9145E-05
  3  0.0000E+00  6.8708E-04  4.4262E-05  0.0000E+00  0.0000E+00  4.0898E-05  7.6084E-05  2.8677E-05  7.0120E-06
  4  9.1058E-04  6.0435E-04  6.2372E-06  7.1990E-05  1.7751E-05  0.0000E+00  0.0000E+00  8.1646E-05  0.0000E+00
  5  0.0000E+00  9.3835E-04  1.7959E-04  0.0000E+00  4.0239E-05  0.0000E+00  0.0000E+00  1.3257E-04  1.1209E-04
  6  0.0000E+00  2.4444E-03  0.0000E+00  2.3725E-05  1.3420E-04  1.8146E-04  6.3854E-05  0.0000E+00  2.9290E-04
  7  0.0000E+00  2.9010E-03  6.6588E-05  0.0000E+00  0.0000E+00  5.0652E-05  0.0000E+00  0.0000E+00  5.1251E-05
  8  0.0000E+00  2.5168E-03  2.3203E-04  1.0581E-05  0.0000E+00  4.4515E-05  0.0000E+00  2.2395E-04  4.9971E-04
  9  0.0000E+00  3.9491E-03  0.0000E+00  1.4889E-04  5.8339E-04  0.0000E+00  1.2222E-04  0.0000E+00  0.0000E+00
 10  1.2219E-02  5.1665E-03  0.0000E+00  0.0000E+00  0.0000E+00  4.8098E-05  6.0946E-04  5.9657E-04  6.5348E-05
 11  0.0000E+00  9.0525E-03  0.0000E+00  0.0000E+00  2.4096E-04  6.6250E-05  1.6585E-03  5.7418E-04  7.8263E-05
 12  0.0000E+00  1.3734E-02  6.1912E-04  1.8676E-03  2.5326E-04  0.0000E+00  0.0000E+00  2.6847E-04  7.4123E-04
 13  0.0000E+00  3.7091E-02  2.2028E-03  8.1549E-03  0.0000E+00  0.0000E+00  1.0217E-04  1.5612E-03  1.9466E-03
 14  0.0000E+00  1.4350E-01  6.6877E-03  0.0000E+00  1.9028E-03  0.0000E+00  3.9804E-02  0.0000E+00  0.0000E+00
 15  0.0000E+00  1.9948E-01  2.7096E-05  0.0000E+00  0.0000E+00  2.5059E-03  1.8205E-02  1.0509E-02  3.0731E-02
 16  0.0000E+00  3.9718E-01  3.6493E-03  6.7210E-02  0.0000E+00  1.4574E-04  7.7404E-02  0.0000E+00  3.7070E-02
 17  0.0000E+00  4.9330E-01  5.7835E-03  1.8910E-02  7.0005E-02  1.6768E-02  1.4218E-01  3.2870E-02  0.0000E+00
 18  0.0000E+00  1.2051E-03  2.8711E-05  2.9552E-04  0.0000E+00  0.0000E+00  1.2053E-04  0.0000E+00  1.1048E-04
 19  0.0000E+00  5.9854E-04  2.1179E-05  5.4908E-05  6.6562E-05  0.0000E+00  8.3262E-05  0.0000E+00  4.6827E-05
 20  0.0000E+00  4.4047E-04  4.3776E-05  0.0000E+00  8.4700E-05  9.3129E-07  0.0000E+00  5.2904E-05  5.7594E-06
 21  0.0000E+00  6.3962E-04  5.5807E-07  2.6568E-05  9.4948E-06  9.4500E-05  0.0000E+00  4.2390E-06  5.8351E-05
 22  0.0000E+00  1.7365E-03  2.4479E-04  1.2817E-04  7.9353E-05  5.5188E-05  4.7263E-04  0.0000E+00  1.8343E-04
 23  0.0000E+00  1.5874E-03  2.2921E-04  2.5392E-04  1.1401E-04  0.0000E+00  8.1328E-05  1.1244E-04  0.0000E+00
 24  0.0000E+00  2.2531E-03  0.0000E+00  0.0000E+00  0.0000E+00  8.2151E-05  5.0662E-04  0.0000E+00  0.0000E+00
 25  0.0000E+00  2.2057E-03  2.1861E-04  8.9938E-05  4.8246E-05  0.0000E+00  0.0000E+00  0.0000E+00  8.0777E-05
 26  0.0000E+00  6.5243E-03  1.0448E-03  3.0484E-04  2.5266E-05  1.2547E-04  4.1060E-04  1.2465E-03  3.1254E-04
 27  0.0000E+00  8.7376E-03  2.1442E-04  0.0000E+00  0.0000E+00  1.7677E-03  5.5703E-03  0.0000E+00  2.2130E-04
 28  0.0000E+00  2.5295E-02  1.6580E-03  3.1028E-03  0.0000E+00  7.0432E-04  0.0000E+00  4.4853E-04  2.2921E-03
 29  0.0000E+00  6.3475E-02  1.7880E-02  6.3437E-03  0.0000E+00  0.0000E+00  0.0000E+00  9.6816E-03  3.9008E-03
 30  0.0000E+00  1.3267E-01  0.0000E+00  1.3931E-02  4.6215E-03  0.0000E+00  9.6004E-03  6.2244E-03  4.4424E-03
 31  0.0000E+00  2.0127E-01  2.0688E-02  8.6014E-03  9.7424E-04  2.2302E-03  1.2357E-02  1.5067E-02  1.3375E-02
 32  0.0000E+00  1.9152E-01  7.6382E-03  4.6177E-02  0.0000E+00  4.7932E-02  4.3192E-02  5.1145E-03  2.7429E-02
 33  0.0000E+00  5.5305E-01  8.7549E-02  3.5154E-02  0.0000E+00  7.0065E-02  0.0000E+00  0.0000E+00  0.0000E+00
 34  0.0000E+00  6.6864E-01  0.0000E+00  0.0000E+00  1.2649E-01  6.8560E-02  7.1296E-02  0.0000E+00  4.2392E-02
 35  0.0000E+00  8.9308E-04  4.4629E-05  1.5857E-05  0.0000E+00  0.0000E+00  0.0000E+00  0.0000E+00  0.0000E+00
 36  0.0000E+00  3.6859E-04  1.6988E-05  2.4239E-05  1.9444E-05  1.3531E-06  5.9491E-05  1.8983E-05  3.2558E-08
 37  0.0000E+00  3.3880E-04  8.6808E-06  6.5380E-05  9.5978E-05  0.0000E+00  5.6869E-05  2.3263E-05  0.0000E+00
 38  0.0000E+00  1.2858E-03  2.5519E-05  8.8735E-05  7.7372E-05  1.8698E-05  8.8103E-05  3.6938E-05  3.4872E-05
 39  0.0000E+00  2.0566E-03  0.0000E+00  5.6660E-05  6.6208E-05  1.9346E-04  1.7270E-05  1.5684E-05  0.0000E+00
 40  0.0000E+00  2.7468E-03  2.8386E-04  1.8919E-04  1.3182E-04  6.2441E-05  1.9338E-03  0.0000E+00  7.1343E-05
 41  0.0000E+00  4.9724E-03  2.5034E-04  5.3842E-04  0.0000E+00  0.0000E+00  9.7675E-04  5.1157E-05  2.2277E-04
 42  0.0000E+00  8.2741E-03  3.2738E-05  1.2480E-03  2.0139E-05  0.0000E+00  1.4674E-03  0.0000E+00  2.7450E-03
 43  0.0000E+00  8.8320E-03  5.9513E-04  0.0000E+00  1.0868E-03  2.7428E-04  0.0000E+00  0.0000E+00  4.9528E-04
 44  0.0000E+00  1.8573E-02  0.0000E+00  2.0104E-03  0.0000E+00  1.7387E-03  3.3527E-04  8.6592E-04  7.8560E-04
 45  0.0000E+00  5.0049E-02  3.9091E-03  8.5221E-04  1.0641E-02  2.4784E-03  0.0000E+00  3.9593E-04  4.0185E-03
 46  0.0000E+00  1.2082E-01  5.6979E-03  9.3642E-03  0.0000E+00  3.7493E-04  3.3604E-02  2.1561E-03  6.2741E-03
 47  0.0000E+00  1.0491E-01  3.1475E-02  2.8554E-02  3.7010E-03  0.0000E+00  2.9910E-02  0.0000E+00  2.3227E-03
 48  0.0000E+00  2.3569E-01  0.0000E+00  1.8957E-02  1.0493E-03  7.7988E-03  0.0000E+00  0.0000E+00  0.0000E+00
 49  3.3107E+01  4.6809E-01  5.7311E-03  1.8509E-02  5.7845E-02  0.0000E+00  1.8631E-01  8.1237E-02  7.9293E-02
 50  6.6440E+01  3.3426E+01  3.2454E+01  3.5863E+01  3.3397E+01  3.3635E+01  3.7300E+01  3.7763E+01  3.7675E+01
 51  0.0000E+00  6.9875E-04  0.0000E+00  1.3253E-07  0.0000E+00  2.4056E-06  5.4907E-05  2.5448E-05  1.8117E-05
 52  0.0000E+00  2.2114E-04  0.0000E+00  4.4750E-05  1.1318E-05  6.5991E-06  6.8008E-05  0.0000E+00  3.1183E-05
 53  0.0000E+00  4.0396E-04  6.7845E-05  5.4122E-05  0.0000E+00  2.7197E-06  2.5615E-04  2.4786E-05  4.3222E-05
 54  0.0000E+00  7.8457E-04  5.2006E-05  2.6431E-04  0.0000E+00  0.0000E+00  0.0000E+00  0.0000E+00  5.7048E-05
 55  0.0000E+00  1.5762E-03  0.0000E+00  7.1795E-05  0.0000E+00  1.7375E-04  5.3146E-04  0.0000E+00  0.0000E+00
 56  0.0000E+00  2.7302E-03  4.1383E-04  3.0825E-05  0.0000E+00  2.6040E-04  0.0000E+00  2.2293E-04  7.3410E-05
 57  0.0000E+00  4.1836E-03  0.0000E+00  0.0000E+00  1.9247E-04  1.7583E-04  7.2761E-05  5.1959E-04  1.6745E-04
 58  0.0000E+00  5.9265E-03  6.4654E-04  1.0464E-03  8.6478E-05  8.1544E-04  0.0000E+00  3.3710E-04  3.0436E-04
 59  0.0000E+00  1.0163E-02  2.4169E-04  9.1125E-04  2.0825E-03  0.0000E+00  0.0000E+00  6.3219E-04  5.5756E-04
 60  0.0000E+00  1.9045E-02  2.1948E-03  0.0000E+00  3.8472E-03  0.0000E+00  2.7010E-03  2.9895E-03  1.1902E-03
 61  0.0000E+00  6.7544E-02  9.6180E-03  8.3771E-03  0.0000E+00  1.0756E-03  2.6516E-03  6.2198E-04  0.0000E+00
 62  4.3973E-01  1.1809E-01  1.1478E-04  7.7299E-03  2.4884E-03  0.0000E+00  2.6933E-02  1.9272E-02  0.0000E+00
 63  0.0000E+00  1.5861E-01  0.0000E+00  8.5784E-03  8.2896E-03  4.7273E-03  4.2273E-02  2.3687E-03  9.3716E-03
 64  0.0000E+00  3.4496E-01  3.0468E-02  9.9953E-02  1.4012E-01  9.9003E-02  9.8175E-02  4.5324E-02  1.0996E-01
 65  0.0000E+00  1.4881E+01  5.9872E+00  1.3776E+01  1.5962E+01  1.5841E+01  1.4492E+01  1.4300E+01  1.3732E+01
 66  0.0000E+00  4.6755E+01  6.1310E+01  4.9942E+01  5.0204E+01  5.0193E+01  4.7355E+01  4.7694E+01  4.8208E+01

# AV, chi2 & Mass for <> & i_chain = 1 ...  7 solutions
AV       0.6791      0.4359      0.3973      0.4317      0.4022      0.3859      0.5042      0.4120      0.4191
chi2 2.7079E-05  4.3889E-05  2.7370E-05  2.7343E-05  2.7345E-05  2.7335E-05  2.7435E-05  2.7321E-05  2.7349E-05
Mass 7.1738E-13  4.8748E-13  8.2751E-13  8.2273E-13  8.0970E-13  8.0053E-13  8.5777E-13  8.0975E-13  8.1431E-13
-275.17                                  [v0_min (km/s) before EX0s...]
  73.93                                  [vd_min (km/s) before EX0s...]


## Synthetic spectrum (Best Model) ##l_obs f_obs f_syn wei
 3478    [Nl_obs]
 3741.00    2.04413   0.42341    0.000
 3742.00    2.62100   0.38871    0.000
 3743.00    2.75430   0.36629    0.000
 3744.00    2.60113   0.34164    0.000
 3745.00    2.28107   0.32291    0.011
 3746.00    2.38318   0.34743    0.011
 3747.00    2.69967   0.42808    0.011
 3748.00    2.18013   0.52874    0.011
 3749.00    1.29296   0.61502    0.011
 3750.00    0.98560   0.68593    0.011
 3751.00    0.89713   0.73426    0.011
 3752.00    0.60762   0.72351    0.011
 3753.00    0.25369   0.63714    0.011
 3754.00    0.10897   0.52565    0.011
 3755.00    0.02031   0.46872    0.011
 3756.00    0.28033   0.48910    0.010
 3757.00    0.61688   0.53793    0.010
 3758.00    1.30949   0.56234    0.010
 3759.00    2.06426   0.55468    0.011
 3760.00    2.06354   0.54275    0.011
 3761.00    1.96245   0.54468    0.011
 3762.00    1.32468   0.54396    0.011
 3763.00    0.63648   0.53459    0.011
 3764.00    1.02353   0.54829    0.011
 3765.00    1.47261   0.59463    0.011
 3766.00    1.29890   0.64033    0.010
 3767.00    1.11190   0.67195    0.010
 3768.00    1.10508   0.70607    0.010
 3769.00    1.10049   0.73864    0.010
 3770.00    1.15005   0.74821    0.010
 3771.00    1.18483   0.73702    0.010
 3772.00    1.02592   0.72733    0.010
 3773.00    0.88942   0.72897    0.010
 3774.00    0.94967   0.73911    0.010
 3775.00    1.04546   0.76095    0.010
 3776.00    1.37169   0.79277    0.010
 3777.00    1.74514   0.81652    0.010
 3778.00    2.35764   0.82438    0.010
 3779.00    2.77012   0.82892    0.010
 3780.00    2.36393   0.82836    0.010
 3781.00    1.74764   0.79370    0.010
 3782.00    0.41877   0.71404    0.010
 3783.00   -0.61413   0.62508    0.000
 3784.00   -0.80054   0.56555    0.000
 3785.00   -0.97619   0.54180    0.000
 3786.00   -1.12555   0.54974    0.000
 3787.00   -1.20529   0.58209    0.000
 3788.00   -1.13828   0.60918    0.000
 3789.00   -0.91048   0.60000    0.000
 3790.00   -0.38820   0.56225    0.000
 3791.00    0.02277   0.52948    0.010
 3792.00    0.25558   0.51515    0.010
 3793.00    0.42369   0.50101    0.010
 3794.00    0.50094   0.47686    0.010
 3795.00    0.78011   0.47010    0.010
 3796.00    1.30885   0.50909    0.010
 3797.00    1.64682   0.58077    0.010
 3798.00    1.77695   0.65259    0.010
 3799.00    1.73014   0.70817    0.010
 3800.00    1.51327   0.73996    0.010
 3801.00    1.10504   0.73713    0.010
 3802.00    0.53465   0.70061    0.010
 3803.00    0.21838   0.65952    0.010
 3804.00    0.09174   0.65324    0.010
 3805.00    0.50196   0.68773    0.010
 3806.00    1.26412   0.72882    0.010
 3807.00    1.65496   0.74051    0.010
 3808.00    1.83274   0.70952    0.010
 3809.00    1.49709   0.64508    0.010
 3810.00    0.90482   0.57089    0.010
 3811.00    0.63167   0.51146    0.010
 3812.00    0.49653   0.48576    0.010
 3813.00    0.23681   0.49634    0.010
 3814.00   -0.06910   0.51026    0.000
 3815.00   -0.17544   0.48719    0.000
 3816.00   -0.21904   0.43790    0.000
 3817.00    0.40832   0.41453    0.010
 3818.00    1.21170   0.43531    0.010
 3819.00    1.18605   0.45749    0.010
 3820.00    0.98278   0.43888    0.010
 3821.00    0.70271   0.39243    0.009
 3822.00    0.40960   0.35913    0.009
 3823.00    0.33800   0.35623    0.009
 3824.00    0.29483   0.37320    0.009
 3825.00    0.50499   0.39616    0.010
 3826.00    0.73788   0.41404    0.010
 3827.00    0.96593   0.41245    0.010
 3828.00    1.19372   0.38616    0.010
 3829.00    0.54151   0.35442    0.010
 3830.00   -0.11643   0.34526    0.000
 3831.00    0.23017   0.36639    0.010
 3832.00    0.57427   0.39632    0.010
 3833.00    0.86298   0.40472    0.010
 3834.00    1.08043   0.38571    0.010
 3835.00    0.41193   0.36237    0.010
 3836.00   -0.12992   0.36051    0.000
 3837.00    0.39871   0.39479    0.010
 3838.00    0.78587   0.46220    0.010
 3839.00    0.28294   0.53434    0.010
 3840.00   -0.17594   0.58014    0.000
 3841.00   -0.41744   0.59493    0.000
 3842.00   -0.41914   0.59598    0.000
 3843.00    0.53917   0.59750    0.010
 3844.00    1.00841   0.59208    0.010
 3845.00   -0.14827   0.56695    0.000
 3846.00   -0.78713   0.53918    0.000
 3847.00    0.02812   0.54042    0.000
 3848.00    0.78349   0.56484    0.000
 3849.00    1.39503   0.57610    0.000
 3850.00    1.33512   0.56021    0.000
 3851.00   -0.11731   0.53198    0.000
 3852.00   -0.77141   0.50579    0.000
 3853.00    0.01437   0.48353    0.000
 3854.00    0.69461   0.45585    0.000
 3855.00    1.20840   0.42089    0.000
 3856.00    1.48636   0.40451    0.000
 3857.00    1.43783   0.43670    0.000
 3858.00    1.19276   0.50868    0.000
 3859.00    0.70822   0.57488    0.000
 3860.00    0.26622   0.60010    0.000
 3861.00   -0.13008   0.58989    0.000
 3862.00    0.07726   0.57192    0.000
 3863.00    0.85655   0.56114    0.000
 3864.00    1.13269   0.55128    0.000
 3865.00    0.98850   0.53061    0.000
 3866.00    0.89287   0.49660    0.000
 3867.00    0.83294   0.46183    0.000
 3868.00    0.86364   0.44948    0.000
 3869.00    0.95289   0.47863    0.000
 3870.00    0.73149   0.54355    0.000
 3871.00    0.33453   0.60569    0.000
 3872.00   -0.00389   0.62124    0.000
 3873.00   -0.31351   0.58215    0.000
 3874.00   -0.04375   0.52615    0.000
 3875.00    0.47239   0.50018    0.000
 3876.00    0.97988   0.50639    0.000
 3877.00    1.48423   0.51081    0.000
 3878.00    1.25682   0.51037    0.000
 3879.00    0.80381   0.53575    0.000
 3880.00    1.19344   0.57598    0.000
 3881.00    1.79938   0.57530    0.010
 3882.00    1.84843   0.52635    0.010
 3883.00    1.78106   0.48645    0.010
 3884.00    1.07960   0.49235    0.010
 3885.00    0.27359   0.53515    0.010
 3886.00   -0.59969   0.60253    0.000
 3887.00   -1.48130   0.68252    0.000
 3888.00   -1.68007   0.74941    0.000
 3889.00   -1.82040   0.77834    0.000
 3890.00   -0.80981   0.76665    0.000
 3891.00    0.25814   0.73822    0.010
 3892.00    0.71761   0.72759    0.010
 3893.00    1.14890   0.73943    0.010
 3894.00    0.40327   0.74284    0.010
 3895.00   -0.29041   0.72801    0.000
 3896.00    0.07851   0.72351    0.010
 3897.00    0.38761   0.74114    0.010
 3898.00   -0.01073   0.75053    0.000
 3899.00   -0.31778   0.73355    0.000
 3900.00    0.11892   0.70532    0.009
 3901.00    0.50785   0.67739    0.009
 3902.00    0.60493   0.66593    0.008
 3903.00    0.75780   0.69671    0.008
 3904.00    1.17916   0.76233    0.008
 3905.00    1.40462   0.82334    0.008
 3906.00    0.86286   0.85769    0.008
 3907.00    0.40128   0.87625    0.008
 3908.00    0.20102   0.89041    0.008
 3909.00    0.21443   0.89501    0.008
 3910.00    0.81702   0.88656    0.009
 3911.00    1.18352   0.86905    0.009
 3912.00    0.99255   0.84443    0.009
 3913.00    0.86470   0.81622    0.009
 3914.00    0.86567   0.78340    0.009
 3915.00    1.07141   0.73601    0.010
 3916.00    1.64088   0.67646    0.010
 3917.00    2.11431   0.62973    0.010
 3918.00    2.43851   0.61694    0.010
 3919.00    2.32294   0.63320    0.010
 3920.00    1.60734   0.65496    0.010
 3921.00    1.06052   0.65450    0.010
 3922.00    0.71644   0.61922    0.010
 3923.00    0.82007   0.55710    0.010
 3924.00    1.39785   0.48433    0.010
 3925.00    1.59865   0.41626    0.010
 3926.00    1.44728   0.35954    0.010
 3927.00    1.43480   0.31223    0.010
 3928.00    1.53668   0.27243    0.010
 3929.00    2.14646   0.24388    0.010
 3930.00    3.12443   0.23420    0.011
 3931.00    2.72035   0.24927    0.011
 3932.00    1.43673   0.28957    0.011
 3933.00    0.91865   0.34933    0.011
 3934.00    0.82661   0.41977    0.010
 3935.00    1.57805   0.48982    0.011
 3936.00    2.73780   0.54447    0.011
 3937.00    2.58492   0.57338    0.011
 3938.00    1.88325   0.57882    0.011
 3939.00    2.20112   0.57174    0.011
 3940.00    2.88368   0.57747    0.011
 3941.00    2.52196   0.62427    0.011
 3942.00    1.84461   0.69803    0.010
 3943.00    1.29152   0.75063    0.010
 3944.00    0.76963   0.77073    0.010
 3945.00    0.58246   0.79376    0.010
 3946.00    0.46354   0.83553    0.010
 3947.00    1.08316   0.86583    0.011
 3948.00    1.82104   0.86336    0.011
 3949.00    2.01777   0.85766    0.011
 3950.00    2.14989   0.87562    0.010
 3951.00    1.31709   0.88689    0.010
 3952.00    0.40572   0.86236    0.010
 3953.00    0.63141   0.83005    0.010
 3954.00    0.90936   0.82207    0.010
 3955.00    1.89121   0.81668    0.010
 3956.00    2.85777   0.76583    0.010
 3957.00    2.55708   0.66419    0.010
 3958.00    2.22388   0.56361    0.010
 3959.00    1.27490   0.50623    0.010
 3960.00    0.38732   0.47659    0.000
 3961.00    0.19165   0.43637    0.000
 3962.00    0.15443   0.37280    0.000
 3963.00    1.36273   0.30317    0.000
 3964.00    2.48777   0.25296    0.000
 3965.00    3.11881   0.23918    0.000
 3966.00    3.47125   0.26535    0.000
 3967.00    2.51557   0.32209    0.000
 3968.00    1.70247   0.39339    0.000
 3969.00    1.43571   0.46818    0.000
 3970.00    1.41257   0.54572    0.000
 3971.00    2.16806   0.62564    0.000
 3972.00    2.40199   0.70095    0.000
 3973.00    1.22337   0.77046    0.000
 3974.00    0.37996   0.84156    0.000
 3975.00    0.31492   0.91226    0.000
 3976.00    0.39085   0.96432    0.000
 3977.00    0.74992   0.98005    0.000
 3978.00    0.89085   0.96665    0.000
 3979.00    0.65023   0.95272    0.000
 3980.00    0.58312   0.95906    0.000
 3981.00    0.78167   0.98434    0.011
 3982.00    0.94289   1.01557    0.011
 3983.00    1.05389   1.04751    0.011
 3984.00    0.84516   1.07539    0.011
 3985.00    0.25779   1.08212    0.011
 3986.00    0.46419   1.07135    0.011
 3987.00    1.49945   1.07317    0.011
 3988.00    1.79648   1.09565    0.011
 3989.00    1.41357   1.11545    0.011
 3990.00    0.75413   1.11260    0.011
 3991.00   -0.12983   1.08835    0.000
 3992.00    0.06348   1.05442    0.010
 3993.00    1.02648   1.02842    0.010
 3994.00    1.63638   1.03681    0.011
 3995.00    2.02491   1.08929    0.011
 3996.00    1.77934   1.15458    0.010
 3997.00    1.18629   1.19801    0.010
 3998.00    0.98779   1.21861    0.010
 3999.00    0.97724   1.21180    0.010
 4000.00    0.87533   1.15100    0.010
 4001.00    0.73587   1.05284    0.010
 4002.00    0.53344   0.99635    0.010
 4003.00    0.30891   1.02739    0.010
 4004.00    0.73105   1.10403    0.010
 4005.00    1.34479   1.16480    0.010
 4006.00    1.19663   1.19336    0.010
 4007.00    0.86131   1.20468    0.010
 4008.00    0.07628   1.21280    0.010
 4009.00   -0.79816   1.22407    0.000
 4010.00   -0.53980   1.24019    0.000
 4011.00   -0.10542   1.25708    0.000
 4012.00    0.00631   1.26028    0.010
 4013.00    0.08093   1.24596    0.010
 4014.00    0.57807   1.24094    0.010
 4015.00    1.10786   1.26021    0.010
 4016.00    1.59026   1.27636    0.010
 4017.00    2.07065   1.26834    0.011
 4018.00    1.48883   1.24930    0.010
 4019.00    0.92061   1.23105    0.010
 4020.00    1.37310   1.21322    0.010
 4021.00    1.77286   1.20961    0.010
 4022.00    1.24290   1.23835    0.010
 4023.00    0.76727   1.28777    0.010
 4024.00    0.87631   1.31716    0.010
 4025.00    1.00000   1.28222    0.010
 4026.00    1.23487   1.17601    0.010
 4027.00    1.24392   1.05272    0.010
 4028.00   -0.04949   0.97271    0.000
 4029.00   -1.03352   0.94757    0.000
 4030.00   -0.59964   0.97005    0.000
 4031.00   -0.14814   1.04279    0.000
 4032.00    0.36943   1.15572    0.010
 4033.00    0.50296   1.26977    0.010
 4034.00   -0.56752   1.33788    0.000
 4035.00   -0.97262   1.34199    0.000
 4036.00    0.39242   1.30729    0.010
 4037.00    1.31968   1.27721    0.010
 4038.00    1.24730   1.25982    0.010
 4039.00    1.19148   1.20516    0.011
 4040.00    1.16838   1.07303    0.011
 4041.00    0.96983   0.91743    0.011
 4042.00    0.46903   0.85431    0.011
 4043.00    0.35415   0.93380    0.011
 4044.00    0.82144   1.08611    0.011
 4045.00    1.34847   1.21465    0.011
 4046.00    1.95469   1.28651    0.011
 4047.00    2.31211   1.30940    0.011
 4048.00    2.37905   1.29269    0.011
 4049.00    1.88244   1.25130    0.011
 4050.00    0.80562   1.20369    0.011
 4051.00    0.20591   1.16300    0.011
 4052.00    0.03946   1.13146    0.011
 4053.00    0.58117   1.10214    0.011
 4054.00    1.68967   1.08654    0.011
 4055.00    1.93900   1.11214    0.011
 4056.00    1.58335   1.16449    0.010
 4057.00    1.77810   1.17587    0.010
 4058.00    2.31283   1.10084    0.010
 4059.00    2.69489   0.98620    0.010
 4060.00    2.99456   0.93399    0.010
 4061.00    2.50743   0.97954    0.010
 4062.00    1.65155   1.05878    0.010
 4063.00    1.46369   1.11970    0.010
 4064.00    1.54573   1.17613    0.010
 4065.00    1.95755   1.22298    0.010
 4066.00    2.48308   1.20757    0.010
 4067.00    1.59305   1.13025    0.010
 4068.00    0.29197   1.08217    0.010
 4069.00    0.50998   1.12171    0.010
 4070.00    1.09286   1.18595    0.010
 4071.00    1.43945   1.18142    0.010
 4072.00    1.74026   1.10169    0.010
 4073.00    1.85256   1.02146    0.010
 4074.00    1.93644   1.01609    0.010
 4075.00    1.93346   1.09973    0.010
 4076.00    1.92088   1.22489    0.010
 4077.00    1.59280   1.32325    0.010
 4078.00    1.24162   1.34930    0.010
 4079.00    1.49663   1.31193    0.010
 4080.00    1.77484   1.26349    0.010
 4081.00    1.19272   1.25046    0.010
 4082.00    0.63710   1.28760    0.010
 4083.00    1.25997   1.36104    0.010
 4084.00    1.84305   1.43348    0.010
 4085.00    1.77033   1.46616    0.010
 4086.00    1.67960   1.45103    0.010
 4087.00    1.40342   1.41163    0.010
 4088.00    1.15195   1.37857    0.010
 4089.00    1.08176   1.36346    0.010
 4090.00    0.95845   1.34283    0.010
 4091.00    0.53714   1.28716    0.010
 4092.00    0.32918   1.21357    0.000
 4093.00    1.07596   1.16751    0.000
 4094.00    1.65077   1.15467    0.000
 4095.00    1.59402   1.13449    0.000
 4096.00    1.70861   1.07681    0.000
 4097.00    2.35018   1.00878    0.000
 4098.00    2.77057   0.99036    0.000
 4099.00    2.61285   1.04070    0.000
 4100.00    2.13327   1.12433    0.000
 4101.00    0.93084   1.20722    0.000
 4102.00    0.18410   1.27448    0.000
 4103.00    0.32409   1.31058    0.000
 4104.00    0.80359   1.30705    0.000
 4105.00    1.85913   1.27576    0.000
 4106.00    2.00343   1.23903    0.000
 4107.00    0.79318   1.21916    0.000
 4108.00    0.11898   1.23103    0.000
 4109.00    0.14518   1.27114    0.000
 4110.00    0.64934   1.31807    0.000
 4111.00    1.70362   1.35095    0.000
 4112.00    2.01807   1.36010    0.000
 4113.00    1.58151   1.33711    0.010
 4114.00    1.79008   1.28570    0.010
 4115.00    2.57623   1.24141    0.010
 4116.00    2.85601   1.23576    0.010
 4117.00    2.73626   1.25270    0.010
 4118.00    2.80199   1.26195    0.010
 4119.00    2.99645   1.26955    0.010
 4120.00    2.78020   1.29335    0.010
 4121.00    2.31404   1.31934    0.010
 4122.00    2.30429   1.31854    0.010
 4123.00    2.53703   1.28900    0.010
 4124.00    1.71575   1.25454    0.010
 4125.00    0.40848   1.22824    0.010
 4126.00    0.71638   1.19824    0.010
 4127.00    1.66564   1.14901    0.010
 4128.00    2.03304   1.09325    0.010
 4129.00    2.20353   1.06819    0.010
 4130.00    1.25039   1.09980    0.010
 4131.00   -0.02246   1.17715    0.000
 4132.00    0.17206   1.26027    0.010
 4133.00    0.71109   1.31394    0.010
 4134.00    1.61266   1.33842    0.010
 4135.00    2.58266   1.35064    0.010
 4136.00    1.83372   1.34133    0.010
 4137.00    0.83377   1.28032    0.010
 4138.00    1.54507   1.16132    0.010
 4139.00    2.43822   1.04036    0.010
 4140.00    2.60787   1.00307    0.010
 4141.00    2.72748   1.06898    0.010
 4142.00    1.97745   1.16976    0.010
 4143.00    1.19742   1.23354    0.010
 4144.00    1.92778   1.24309    0.010
 4145.00    2.64460   1.21847    0.010
 4146.00    2.81559   1.18977    0.010
 4147.00    2.89502   1.17644    0.010
 4148.00    1.55856   1.17315    0.010
 4149.00    0.28828   1.16493    0.010
 4150.00   -0.32975   1.15119    0.000
 4151.00   -0.72451   1.14128    0.000
 4152.00    0.46583   1.14436    0.010
 4153.00    1.54493   1.16958    0.010
 4154.00    2.01676   1.21966    0.010
 4155.00    2.29711   1.27530    0.010
 4156.00    1.74043   1.31257    0.010
 4157.00    1.36811   1.33633    0.009
 4158.00    1.65891   1.36141    0.009
 4159.00    1.82690   1.37591    0.009
 4160.00    1.62429   1.35892    0.010
 4161.00    1.31798   1.31675    0.010
 4162.00    0.74539   1.27034    0.010
 4163.00    0.52460   1.23727    0.010
 4164.00    1.08096   1.23592    0.010
 4165.00    1.56710   1.26234    0.010
 4166.00    1.91874   1.27226    0.010
 4167.00    2.12951   1.22592    0.010
 4168.00    2.10481   1.14145    0.010
 4169.00    1.91658   1.08025    0.010
 4170.00    1.48880   1.07977    0.010
 4171.00    1.10915   1.11633    0.010
 4172.00    0.79148   1.14576    0.010
 4173.00    0.52174   1.15570    0.010
 4174.00    0.30640   1.16578    0.010
 4175.00    0.51170   1.18909    0.010
 4176.00    1.13798   1.20833    0.010
 4177.00    1.54148   1.20559    0.010
 4178.00    1.74834   1.19882    0.010
 4179.00    1.70711   1.21986    0.010
 4180.00    1.47293   1.26733    0.010
 4181.00    1.56650   1.29792    0.010
 4182.00    1.88421   1.27230    0.010
 4183.00    1.61507   1.21391    0.010
 4184.00    0.99416   1.19203    0.010
 4185.00    1.25455   1.22604    0.010
 4186.00    1.97589   1.26645    0.010
 4187.00    1.78001   1.28654    0.010
 4188.00    1.16809   1.31153    0.010
 4189.00    1.22020   1.34332    0.010
 4190.00    1.53142   1.33657    0.010
 4191.00    1.41864   1.27158    0.010
 4192.00    1.16502   1.18666    0.010
 4193.00    1.67071   1.12422    0.010
 4194.00    2.38803   1.09650    0.010
 4195.00    1.97956   1.09881    0.010
 4196.00    1.31282   1.11313    0.010
 4197.00    1.15374   1.11795    0.010
 4198.00    1.08797   1.12355    0.010
 4199.00    1.82755   1.15805    0.010
 4200.00    2.68102   1.21747    0.010
 4201.00    2.43385   1.27799    0.010
 4202.00    2.07446   1.33215    0.010
 4203.00    1.15401   1.37704    0.010
 4204.00    0.19701   1.39859    0.010
 4205.00    2.10378   1.38940    0.010
 4206.00    4.09396   1.36921    0.010
 4207.00    3.16258   1.36675    0.010
 4208.00    2.22566   1.37481    0.010
 4209.00    1.12627   1.35267    0.010
 4210.00    0.16939   1.28435    0.010
 4211.00    1.28717   1.21573    0.010
 4212.00    2.26247   1.21903    0.010
 4213.00    1.89044   1.31026    0.010
 4214.00    1.47640   1.42562    0.009
 4215.00    0.77354   1.50216    0.009
 4216.00    0.24272   1.53043    0.009
 4217.00    0.62629   1.51365    0.009
 4218.00    0.99572   1.44233    0.009
 4219.00    1.30475   1.31798    0.009
 4220.00    1.46536   1.15639    0.009
 4221.00    1.10306   0.97844    0.009
 4222.00    1.01860   0.83797    0.009
 4223.00    1.75688   0.82075    0.009
 4224.00    2.44359   0.95680    0.009
 4225.00    3.00016   1.16478    0.009
 4226.00    3.40655   1.33346    0.009
 4227.00    3.48656   1.41197    0.009
 4228.00    3.05110   1.40552    0.009
 4229.00    1.64356   1.35464    0.009
 4230.00    0.59040   1.30737    0.009
 4231.00    0.12068   1.27553    0.009
 4232.00    0.24042   1.25434    0.009
 4233.00    1.21110   1.25643    0.008
 4234.00    1.63569   1.28298    0.008
 4235.00    1.36693   1.31865    0.008
 4236.00    1.31639   1.36297    0.009
 4237.00    1.51000   1.41615    0.009
 4238.00    2.18141   1.46507    0.009
 4239.00    3.32433   1.51152    0.009
 4240.00    3.89785   1.56197    0.009
 4241.00    3.97584   1.58489    0.009
 4242.00    3.24757   1.54320    0.009
 4243.00    1.90117   1.45202    0.009
 4244.00    1.21825   1.35434    0.009
 4245.00    0.98244   1.27441    0.009
 4246.00    1.98405   1.22872    0.009
 4247.00    3.71627   1.23758    0.009
 4248.00    4.08657   1.27894    0.009
 4249.00    3.75565   1.28962    0.009
 4250.00    2.88454   1.26210    0.009
 4251.00    1.77241   1.26647    0.009
 4252.00    1.63998   1.33714    0.009
 4253.00    1.88318   1.40652    0.009
 4254.00    1.59486   1.39023    0.009
 4255.00    1.13333   1.29506    0.009
 4256.00    1.06781   1.21036    0.009
 4257.00    1.11040   1.21988    0.009
 4258.00    1.24401   1.33156    0.009
 4259.00    1.39801   1.47554    0.009
 4260.00    1.07582   1.57932    0.009
 4261.00    0.66847   1.62428    0.009
 4262.00    0.80053   1.61718    0.009
 4263.00    1.00639   1.56098    0.009
 4264.00    0.61398   1.46917    0.009
 4265.00    0.16312   1.35515    0.009
 4266.00    0.85060   1.21906    0.009
 4267.00    1.60770   1.08794    0.009
 4268.00    1.89641   1.02136    0.009
 4269.00    2.16552   1.03512    0.009
 4270.00    1.07194   1.08832    0.009
 4271.00    0.03674   1.16808    0.009
 4272.00    0.54472   1.29093    0.009
 4273.00    1.03499   1.42615    0.009
 4274.00    1.28184   1.50502    0.009
 4275.00    1.54343   1.49379    0.009
 4276.00    1.93889   1.43063    0.009
 4277.00    2.34205   1.38726    0.009
 4278.00    2.79649   1.39045    0.010
 4279.00    3.04834   1.41022    0.010
 4280.00    2.25141   1.40940    0.010
 4281.00    1.60712   1.38098    0.010
 4282.00    1.60005   1.35030   -2.000
 4283.00    1.53711   1.32523   -2.000
 4284.00    1.28135   1.27317   -2.000
 4285.00    1.12060   1.18856   -2.000
 4286.00    1.23599   1.13472   -2.000
 4287.00    1.62776   1.16868   -2.000
 4288.00    2.70499   1.26257   -2.000
 4289.00    3.20145   1.33734   -2.000
 4290.00    2.45628   1.35364   -2.000
 4291.00    1.67902   1.33666   -2.000
 4292.00    0.84215   1.30563   -2.000
 4293.00    0.43778   1.24061   -2.000
 4294.00    0.73486   1.13242   -2.000
 4295.00    0.61479   1.01669   -2.000
 4296.00   -0.09875   0.95162   -2.000
 4297.00    0.00821   0.95522   -2.000
 4298.00    1.14210   0.98784    0.010
 4299.00    2.15829   1.01460    0.010
 4300.00    3.04463   1.02781    0.010
 4301.00    3.39571   1.01600    0.010
 4302.00    3.22601   0.96962    0.010
 4303.00    3.10122   0.90251    0.010
 4304.00    3.01497   0.85385    0.010
 4305.00    2.37175   0.86449    0.010
 4306.00    1.30764   0.93774    0.009
 4307.00    1.61152   1.04358    0.009
 4308.00    2.82385   1.15469    0.010
 4309.00    3.14516   1.26364    0.010
 4310.00    2.94829   1.38471    0.010
 4311.00    2.31099   1.54123    0.009
 4312.00    1.45047   1.71489    0.009
 4313.00    1.37645   1.83597    0.009
 4314.00    1.64756   1.86583    0.009
 4315.00    1.71339   1.83176    0.009
 4316.00    1.70188   1.77202    0.009
 4317.00    1.86082   1.69771    0.009
 4318.00    2.07426   1.59245    0.009
 4319.00    1.73034   1.43260    0.009
 4320.00    1.23746   1.24454    0.009
 4321.00    1.47274   1.11952    0.009
 4322.00    1.86736   1.14827    0.009
 4323.00    1.51139   1.33212    0.009
 4324.00    1.02486   1.55793    0.009
 4325.00    1.05361   1.70029    0.009
 4326.00    1.15052   1.73651    0.009
 4327.00    2.22518   1.73481    0.009
 4328.00    3.39122   1.75153    0.009
 4329.00    3.12629   1.78741    0.009
 4330.00    2.77952   1.82065    0.000
 4331.00    2.53551   1.81480    0.000
 4332.00    2.30071   1.72360    0.000
 4333.00    2.85129   1.55120    0.000
 4334.00    3.36834   1.37255    0.000
 4335.00    3.08050   1.25454    0.000
 4336.00    2.79542   1.22271    0.000
 4337.00    2.54631   1.28766    0.000
 4338.00    2.27783   1.41419    0.000
 4339.00    1.84012   1.52826    0.000
 4340.00    1.43043   1.60365    0.000
 4341.00    1.20169   1.66131    0.000
 4342.00    1.05389   1.70513    0.000
 4343.00    1.31442   1.74102    0.000
 4344.00    1.48705   1.78499    0.000
 4345.00    1.30088   1.79971    0.000
 4346.00    1.09556   1.71594    0.000
 4347.00    0.82545   1.55612    0.000
 4348.00    0.88886   1.44537    0.000
 4349.00    1.90397   1.45842    0.000
 4350.00    2.49748   1.54527    0.000
 4351.00    2.06312   1.63387    0.009
 4352.00    1.68093   1.70112    0.009
 4353.00    1.40847   1.73018    0.009
 4354.00    1.39269   1.70695    0.009
 4355.00    1.84613   1.67279    0.009
 4356.00    2.21842   1.69086    0.009
 4357.00    2.46103   1.75737    0.009
 4358.00    2.42014   1.81782    0.009
 4359.00    1.98175   1.85569    0.009
 4360.00    1.94784   1.89066    0.009
 4361.00    2.41297   1.90438    0.009
 4362.00    2.57063   1.85657    0.009
 4363.00    2.39391   1.76652    0.009
 4364.00    2.30532   1.70068    0.009
 4365.00    2.30129   1.68743    0.009
 4366.00    2.59577   1.69964    0.009
 4367.00    3.14276   1.70431    0.009
 4368.00    2.97878   1.67707    0.009
 4369.00    2.28521   1.60381    0.009
 4370.00    2.14593   1.51374    0.009
 4371.00    2.36933   1.47607    0.009
 4372.00    2.34972   1.53165    0.009
 4373.00    2.19093   1.64162    0.009
 4374.00    1.72337   1.72384    0.009
 4375.00    1.10178   1.73075    0.009
 4376.00    1.18583   1.66528    0.009
 4377.00    1.57439   1.53278    0.009
 4378.00    2.27529   1.33305    0.009
 4379.00    3.09177   1.13063    0.009
 4380.00    3.22769   1.05413    0.009
 4381.00    3.15019   1.15717    0.009
 4382.00    2.53586   1.34437    0.009
 4383.00    1.78109   1.48218    0.009
 4384.00    2.22801   1.52801    0.009
 4385.00    2.93162   1.52230    0.009
 4386.00    2.98695   1.51701    0.009
 4387.00    2.93265   1.54039    0.009
 4388.00    2.60325   1.58237    0.009
 4389.00    2.23869   1.60848    0.008
 4390.00    1.96254   1.61305    0.008
 4391.00    1.69428   1.63926    0.008
 4392.00    2.13069   1.71566    0.009
 4393.00    2.60464   1.79623    0.009
 4394.00    2.62278   1.80910    0.009
 4395.00    2.62224   1.74555    0.009
 4396.00    1.83004   1.66890    0.009
 4397.00    1.09258   1.63924    0.009
 4398.00    1.55839   1.62606    0.009
 4399.00    1.98390   1.54434    0.008
 4400.00    1.91149   1.40634    0.008
 4401.00    1.82168   1.32940    0.009
 4402.00    1.58557   1.36193    0.009
 4403.00    1.41093   1.43780    0.009
 4404.00    1.62156   1.51443    0.009
 4405.00    1.85268   1.61732    0.009
 4406.00    2.18463   1.74717    0.009
 4407.00    2.42288   1.85426    0.009
 4408.00    2.28710   1.88994    0.009
 4409.00    2.24976   1.82827    0.009
 4410.00    2.53885   1.69291    0.009
 4411.00    2.56925   1.57998    0.008
 4412.00    1.87491   1.57675    0.009
 4413.00    1.56048   1.67210    0.009
 4414.00    2.15659   1.79597    0.009
 4415.00    2.58575   1.88570    0.009
 4416.00    2.66937   1.90006    0.009
 4417.00    2.50681   1.83819    0.009
 4418.00    1.90110   1.75549    0.009
 4419.00    1.71656   1.71757    0.009
 4420.00    2.19499   1.73129    0.009
 4421.00    2.32912   1.75509    0.009
 4422.00    1.98748   1.76828    0.009
 4423.00    2.02934   1.78248    0.009
 4424.00    2.53767   1.79449    0.009
 4425.00    2.75205   1.78153    0.009
 4426.00    2.65123   1.75554    0.009
 4427.00    2.25325   1.75398    0.009
 4428.00    1.57420   1.75981    0.009
 4429.00    1.21425   1.71801    0.009
 4430.00    1.12040   1.63403    0.009
 4431.00    1.16055   1.58686    0.009
 4432.00    1.29908   1.64013    0.009
 4433.00    1.56122   1.77222    0.009
 4434.00    1.90305   1.90122    0.009
 4435.00    1.88289   1.95286    0.009
 4436.00    1.65856   1.90409    0.009
 4437.00    1.75944   1.79516    0.009
 4438.00    2.01998   1.70485    0.009
 4439.00    1.98829   1.69785    0.009
 4440.00    1.83260   1.77977    0.009
 4441.00    1.90252   1.89049    0.009
 4442.00    2.05444   1.95952    0.009
 4443.00    1.85197   1.97627    0.009
 4444.00    1.54053   1.97268    0.009
 4445.00    2.06385   1.96023    0.009
 4446.00    2.80089   1.93885    0.009
 4447.00    2.99569   1.91630    0.009
 4448.00    3.07747   1.87871    0.009
 4449.00    2.56898   1.79894    0.009
 4450.00    1.96351   1.69030    0.009
 4451.00    2.22014   1.61031    0.009
 4452.00    2.58306   1.59322    0.009
 4453.00    2.74239   1.60931    0.009
 4454.00    2.88439   1.61395    0.009
 4455.00    2.95379   1.59836    0.009
 4456.00    3.01960   1.57591    0.009
 4457.00    2.29261   1.57087    0.009
 4458.00    1.57175   1.61861    0.009
 4459.00    2.02666   1.71508    0.009
 4460.00    2.47024   1.80022    0.009
 4461.00    2.68423   1.83458    0.000
 4462.00    2.87465   1.83606    0.000
 4463.00    2.78802   1.82799    0.000
 4464.00    2.69555   1.81141    0.000
 4465.00    2.55569   1.79733    0.000
 4466.00    2.38851   1.81342    0.000
 4467.00    2.05504   1.86948    0.000
 4468.00    1.92895   1.94646    0.000
 4469.00    2.79770   2.01347    0.000
 4470.00    3.37643   2.05112    0.000
 4471.00    2.82245   2.07332    0.000
 4472.00    2.15545   2.10687    0.000
 4473.00    1.12096   2.13772    0.000
 4474.00    0.50870   2.11299    0.000
 4475.00    1.05810   2.01112    0.000
 4476.00    1.49231   1.88079    0.000
 4477.00    1.65510   1.80000    0.000
 4478.00    1.57381   1.81515    0.000
 4479.00    0.99540   1.91315    0.000
 4480.00    1.08742   2.03611    0.000
 4481.00    2.36793   2.12453    0.000
 4482.00    3.04209   2.14325    0.009
 4483.00    2.77583   2.08577    0.009
 4484.00    2.40615   1.98254    0.009
 4485.00    1.89562   1.89682    0.009
 4486.00    1.71932   1.88207    0.009
 4487.00    1.94380   1.92975    0.009
 4488.00    2.10370   1.97077    0.009
 4489.00    2.19533   1.94518    0.009
 4490.00    2.06359   1.87116    0.009
 4491.00    1.72354   1.82299    0.009
 4492.00    1.68021   1.84907    0.009
 4493.00    1.88082   1.93467    0.009
 4494.00    2.06884   2.02759    0.009
 4495.00    2.24774   2.07918    0.009
 4496.00    2.34736   2.07935    0.009
 4497.00    2.39663   2.07418    0.009
 4498.00    2.43145   2.12172    0.009
 4499.00    2.45826   2.21454    0.009
 4500.00    2.65943   2.28688    0.009
 4501.00    2.94485   2.29622    0.009
 4502.00    2.76122   2.25889    0.009
 4503.00    2.38191   2.21770    0.009
 4504.00    2.71982   2.20322    0.009
 4505.00    3.31371   2.21584    0.009
 4506.00    2.85189   2.22732    0.009
 4507.00    2.07178   2.20570    0.009
 4508.00    1.85829   2.14863    0.009
 4509.00    1.78672   2.08643    0.009
 4510.00    2.17414   2.05243    0.009
 4511.00    2.65486   2.05214    0.009
 4512.00    2.21903   2.06049    0.009
 4513.00    1.63699   2.06013    0.009
 4514.00    1.93818   2.07065    0.009
 4515.00    2.34434   2.11312    0.009
 4516.00    2.09142   2.16499    0.009
 4517.00    1.78516   2.17815    0.009
 4518.00    2.12806   2.13753    0.009
 4519.00    2.50049   2.07350    0.009
 4520.00    2.23492   2.00822    0.009
 4521.00    1.97289   1.93040    0.009
 4522.00    2.29164   1.83452    0.009
 4523.00    2.59287   1.74488    0.009
 4524.00    2.56542   1.69442    0.009
 4525.00    2.53346   1.69819    0.009
 4526.00    2.45111   1.74612    0.009
 4527.00    2.40499   1.80991    0.009
 4528.00    2.64248   1.84957    0.009
 4529.00    2.76067   1.83756    0.009
 4530.00    2.17350   1.80049    0.009
 4531.00    1.79040   1.81252    0.008
 4532.00    2.36258   1.91378    0.009
 4533.00    2.80192   2.04764    0.009
 4534.00    2.73354   2.11893    0.009
 4535.00    2.65709   2.10050    0.009
 4536.00    2.55487   2.04786    0.009
 4537.00    2.57597   2.02633    0.009
 4538.00    2.93028   2.04528    0.009
 4539.00    2.75851   2.06104    0.009
 4540.00    1.36775   2.04369    0.009
 4541.00    0.77732   2.01597    0.009
 4542.00    1.79121   2.00681    0.009
 4543.00    2.23597   2.00424    0.009
 4544.00    1.68714   1.98685    0.009
 4545.00    1.59023   1.97031    0.009
 4546.00    2.18391   1.98069    0.009
 4547.00    2.45963   2.00245    0.009
 4548.00    2.30852   1.99942    0.009
 4549.00    1.99147   1.96937    0.009
 4550.00    1.47826   1.94693    0.000
 4551.00    1.59705   1.97023    0.000
 4552.00    2.37460   2.04768    0.000
 4553.00    2.87870   2.14552    0.000
 4554.00    3.13136   2.21722    0.000
 4555.00    2.78280   2.24581    0.000
 4556.00    1.94699   2.24694    0.000
 4557.00    1.81880   2.23253    0.000
 4558.00    2.19526   2.18951    0.000
 4559.00    2.29259   2.11122    0.000
 4560.00    2.21524   2.03551    0.000
 4561.00    2.15509   2.02123    0.000
 4562.00    2.10434   2.08533    0.000
 4563.00    2.19463   2.17965    0.000
 4564.00    2.35198   2.23629    0.000
 4565.00    2.56387   2.22396    0.000
 4566.00    2.79814   2.16273    0.000
 4567.00    2.41263   2.11145    0.000
 4568.00    1.80994   2.12230    0.000
 4569.00    1.71704   2.18028    0.000
 4570.00    1.77481   2.22598    0.000
 4571.00    1.41755   2.23605    0.000
 4572.00    0.95863   2.22498    0.000
 4573.00    1.25431   2.19259    0.000
 4574.00    1.69956   2.12603    0.000
 4575.00    2.25297   2.03984    0.000
 4576.00    2.82313   1.98013    0.000
 4577.00    2.03458   1.97885    0.000
 4578.00    1.09054   2.01576    0.000
 4579.00    1.49160   2.04319    0.000
 4580.00    1.99597   2.04093    0.000
 4581.00    2.03070   2.03270    0.000
 4582.00    2.04588   2.05708    0.000
 4583.00    1.88759   2.12596    0.000
 4584.00    1.73351   2.20520    0.000
 4585.00    1.82519   2.24256    0.000
 4586.00    1.97234   2.21589    0.000
 4587.00    3.08883   2.15057    0.000
 4588.00    4.07122   2.09038    0.000
 4589.00    3.61881   2.05492    0.000
 4590.00    3.20067   2.03551    0.000
 4591.00    3.04158   2.02517    0.000
 4592.00    2.85890   2.02890    0.000
 4593.00    2.54061   2.04785    0.000
 4594.00    2.22906   2.06976    0.000
 4595.00    1.94828   2.07736    0.000
 4596.00    1.76839   2.07082    0.000
 4597.00    1.96597   2.07033    0.000
 4598.00    2.31774   2.08236    0.000
 4599.00    3.15174   2.09015    0.000
 4600.00    3.61850   2.08738    0.000
 4601.00    3.11043   2.09671    0.000
 4602.00    2.67973   2.14768    0.000
 4603.00    2.42535   2.23991    0.000
 4604.00    2.41528   2.33226    0.000
 4605.00    2.88727   2.37373    0.000
 4606.00    2.77600   2.34957    0.000
 4607.00    1.66182   2.29178    0.000
 4608.00    1.28553   2.24488    0.000
 4609.00    2.02028   2.23452    0.000
 4610.00    2.40949   2.25885    0.000
 4611.00    2.34148   2.29399    0.000
 4612.00    2.10304   2.31677    0.000
 4613.00    1.66598   2.31907    0.000
 4614.00    1.53819   2.30435    0.000
 4615.00    1.72826   2.29181    0.000
 4616.00    2.21713   2.30026    0.000
 4617.00    2.97685   2.31835    0.000
 4618.00    3.36220   2.32449    0.000
 4619.00    3.44845   2.31813    0.000
 4620.00    3.39287   2.30563    0.000
 4621.00    3.23761   2.29108    0.000
 4622.00    2.81584   2.28488    0.000
 4623.00    2.22975   2.28849    0.000
 4624.00    1.98375   2.28962    0.000
 4625.00    1.92089   2.29050    0.000
 4626.00    2.16740   2.30370    0.000
 4627.00    2.55860   2.31330    0.000
 4628.00    2.85094   2.29053    0.000
 4629.00    3.10341   2.24498    0.000
 4630.00    3.12082   2.21079    0.000
 4631.00    3.05735   2.19326    0.000
 4632.00    2.57338   2.16953    0.000
 4633.00    1.96761   2.12979    0.000
 4634.00    1.72227   2.09063    0.000
 4635.00    1.56325   2.07649    0.000
 4636.00    1.68219   2.10121    0.000
 4637.00    1.85481   2.15027    0.000
 4638.00    2.16470   2.18160    0.000
 4639.00    2.49519   2.16386    0.000
 4640.00    2.47503   2.09989    0.000
 4641.00    2.41627   2.01188    0.000
 4642.00    2.63233   1.93475    0.000
 4643.00    2.86837   1.90930    0.000
 4644.00    2.40969   1.95086    0.000
 4645.00    1.92475   2.03582    0.000
 4646.00    2.60631   2.12581    0.000
 4647.00    3.27991   2.19204    0.000
 4648.00    3.43840   2.21752    0.000
 4649.00    3.58742   2.19500    0.000
 4650.00    3.58184   2.14130    0.000
 4651.00    3.49598   2.10178    0.000
 4652.00    2.58841   2.11979    0.000
 4653.00    1.87065   2.20311    0.000
 4654.00    2.53989   2.31553    0.000
 4655.00    3.01669   2.39730    0.000
 4656.00    2.41766   2.40565    0.000
 4657.00    1.88834   2.34426    0.000
 4658.00    1.66999   2.25522    0.000
 4659.00    1.59994   2.17918    0.000
 4660.00    2.07311   2.11597    0.000
 4661.00    2.51886   2.03097    0.000
 4662.00    2.88050   1.91892    0.000
 4663.00    2.97538   1.84038    0.000
 4664.00    2.37460   1.86082    0.000
 4665.00    2.09895   1.97143    0.000
 4666.00    2.55195   2.10018    0.000
 4667.00    2.86769   2.18128    0.000
 4668.00    2.91686   2.20022    0.000
 4669.00    2.67917   2.19009    0.000
 4670.00    1.95567   2.19516    0.000
 4671.00    1.59833   2.22860    0.000
 4672.00    1.78427   2.25963    0.000
 4673.00    2.15215   2.24907    0.000
 4674.00    2.75732   2.19520    0.000
 4675.00    2.85160   2.13071    0.000
 4676.00    2.35887   2.08782    0.000
 4677.00    1.85103   2.08396    0.000
 4678.00    1.32789   2.12016    0.000
 4679.00    1.42672   2.17439    0.000
 4680.00    2.08142   2.21410    0.000
 4681.00    2.55367   2.22378    0.000
 4682.00    2.88224   2.20958    0.000
 4683.00    2.68958   2.18749    0.000
 4684.00    2.13588   2.17282    0.000
 4685.00    2.22885   2.16678    0.000
 4686.00    2.71457   2.16014    0.000
 4687.00    2.70031   2.15534    0.000
 4688.00    2.42097   2.16673    0.000
 4689.00    2.28344   2.20096    0.000
 4690.00    2.21117   2.24897    0.000
 4691.00    1.80162   2.28565    0.000
 4692.00    1.25842   2.27773    0.000
 4693.00    1.46895   2.21534    0.000
 4694.00    1.93396   2.13467    0.000
 4695.00    2.40590   2.08349    0.000
 4696.00    2.87981   2.06716    0.000
 4697.00    2.65962   2.05830    0.000
 4698.00    2.27693   2.05035    0.000
 4699.00    2.05756   2.06411    0.000
 4700.00    1.86892   2.10201    0.000
 4701.00    2.05372   2.13086    0.000
 4702.00    2.29284   2.12297    0.000
 4703.00    2.56180   2.09136    0.000
 4704.00    2.83390   2.07360    0.000
 4705.00    2.66578   2.09656    0.000
 4706.00    2.46743   2.15438    0.000
 4707.00    2.52946   2.20710    0.000
 4708.00    2.60034   2.21408    0.000
 4709.00    2.76288   2.17993    0.000
 4710.00    2.91360   2.15570    0.000
 4711.00    2.67503   2.18605    0.000
 4712.00    2.46304   2.26217    0.000
 4713.00    2.65876   2.34227    0.000
 4714.00    2.84827   2.40213    0.000
 4715.00    2.97686   2.43833    0.000
 4716.00    3.05287   2.44593    0.000
 4717.00    2.75716   2.42722    0.000
 4718.00    2.51009   2.40706    0.000
 4719.00    2.52769   2.41060    0.000
 4720.00    2.53064   2.42447    0.000
 4721.00    2.46975   2.39985    0.000
 4722.00    2.49053   2.30730    0.000
 4723.00    2.80427   2.17935    0.000
 4724.00    3.08783   2.08293    0.000
 4725.00    3.28053   2.05494    0.000
 4726.00    3.28260   2.08426    0.000
 4727.00    2.79615   2.14224    0.000
 4728.00    2.38147   2.20406    0.000
 4729.00    2.12499   2.25178    0.000
 4730.00    2.04996   2.27460    0.000
 4731.00    2.32183   2.27041    0.000
 4732.00    2.40791   2.25875    0.000
 4733.00    2.18407   2.27277    0.000
 4734.00    2.12217   2.31086    0.000
 4735.00    2.29703   2.33353    0.000
 4736.00    2.51577   2.32676    0.000
 4737.00    2.79092   2.31993    0.000
 4738.00    2.87689   2.33340    0.000
 4739.00    2.74855   2.35294    0.000
 4740.00    2.64286   2.36453    0.000
 4741.00    2.55980   2.37873    0.000
 4742.00    2.55780   2.40365    0.000
 4743.00    2.62722   2.42514    0.000
 4744.00    2.78779   2.43128    0.000
 4745.00    3.01912   2.42636    0.000
 4746.00    3.09422   2.41168    0.000
 4747.00    3.06268   2.38101    0.000
 4748.00    2.76934   2.33817    0.000
 4749.00    2.31938   2.29834    0.000
 4750.00    2.37063   2.27362    0.000
 4751.00    2.68350   2.26723    0.000
 4752.00    2.93910   2.27700    0.000
 4753.00    3.16878   2.29928    0.000
 4754.00    3.11617   2.32749    0.000
 4755.00    2.95366   2.34534    0.000
 4756.00    2.95741   2.33065    0.000
 4757.00    3.01626   2.27972    0.000
 4758.00    3.13652   2.21701    0.000
 4759.00    3.27384   2.16442    0.000
 4760.00    3.15915   2.12251    0.000
 4761.00    2.98682   2.09634    0.008
 4762.00    2.90811   2.10826    0.007
 4763.00    2.84656   2.16826    0.007
 4764.00    2.39380   2.25212    0.007
 4765.00    1.88595   2.31644    0.007
 4766.00    2.26682   2.33297    0.007
 4767.00    2.73784   2.31789    0.007
 4768.00    2.72062   2.31877    0.008
 4769.00    2.67184   2.35887    0.008
 4770.00    2.87044   2.41170    0.008
 4771.00    3.07619   2.44368    0.007
 4772.00    3.11417   2.45513    0.007
 4773.00    3.14633   2.45958    0.007
 4774.00    3.00993   2.45425    0.008
 4775.00    2.87006   2.43369    0.008
 4776.00    2.67987   2.40172    0.008
 4777.00    2.49549   2.35991    0.007
 4778.00    2.36570   2.31347    0.007
 4779.00    2.24223   2.28162    0.007
 4780.00    2.16204   2.27216    0.007
 4781.00    2.17124   2.26786    0.007
 4782.00    2.65399   2.26027    0.007
 4783.00    2.98818   2.25940    0.007
 4784.00    2.68970   2.26499    0.007
 4785.00    2.37384   2.27202    0.007
 4786.00    1.99692   2.29120    0.007
 4787.00    1.81743   2.33565    0.007
 4788.00    2.22129   2.40566    0.007
 4789.00    2.61138   2.48615    0.007
 4790.00    2.96679   2.54624    0.007
 4791.00    3.16804   2.55648    0.008
 4792.00    3.03499   2.51371    0.008
 4793.00    3.03806   2.44068    0.008
 4794.00    3.29735   2.37050    0.008
 4795.00    3.25363   2.33768    0.008
 4796.00    2.71203   2.36227    0.007
 4797.00    2.45774   2.42697    0.007
 4798.00    2.61743   2.48246    0.008
 4799.00    2.76696   2.48863    0.008
 4800.00    2.90361   2.44812    0.008
 4801.00    2.91630   2.39352    0.008
 4802.00    2.79054   2.34961    0.008
 4803.00    2.81079   2.32566    0.008
 4804.00    2.97486   2.32987    0.008
 4805.00    3.05060   2.36112    0.008
 4806.00    3.04959   2.39767    0.008
 4807.00    2.93359   2.41796    0.008
 4808.00    2.72959   2.42232    0.008
 4809.00    2.65456   2.42573    0.008
 4810.00    2.66630   2.44056    0.008
 4811.00    2.83203   2.46923    0.008
 4812.00    3.08850   2.50547    0.007
 4813.00    2.83667   2.53998    0.008
 4814.00    2.32365   2.56465    0.008
 4815.00    2.04820   2.57040    0.008
 4816.00    1.87852   2.54621    0.008
 4817.00    1.97572   2.48605    0.008
 4818.00    2.17503   2.40403    0.008
 4819.00    2.37821   2.34340    0.008
 4820.00    2.58266   2.34367    0.008
 4821.00    2.99714   2.39028    0.008
 4822.00    3.46880   2.42847    0.008
 4823.00    3.23337   2.42933    0.008
 4824.00    2.83995   2.41001    0.008
 4825.00    2.62217   2.39161    0.008
 4826.00    2.43570   2.37067    0.008
 4827.00    2.43967   2.34649    0.008
 4828.00    2.46958   2.34397    0.008
 4829.00    2.25536   2.37760    0.008
 4830.00    2.01742   2.42229    0.008
 4831.00    1.99274   2.44668    0.008
 4832.00    1.98099   2.44442    0.008
 4833.00    1.93737   2.41933    0.008
 4834.00    1.89528   2.37575    0.008
 4835.00    2.27866   2.33291    0.008
 4836.00    2.65642   2.31467    0.008
 4837.00    2.88744   2.31949    0.008
 4838.00    3.10098   2.33112    0.008
 4839.00    3.07577   2.35415    0.008
 4840.00    3.06418   2.39989    0.008
 4841.00    3.17565   2.44622    0.008
 4842.00    3.23057   2.45353    0.007
 4843.00    2.91029   2.41798    0.008
 4844.00    2.61577   2.38143    0.008
 4845.00    2.45411   2.38170    0.008
 4846.00    2.45413   2.40850    0.008
 4847.00    3.12719   2.42423    0.008
 4848.00    3.56121   2.40551    0.000
 4849.00    3.17213   2.34710    0.000
 4850.00    2.85202   2.26613    0.000
 4851.00    2.73191   2.20884    0.000
 4852.00    2.54436   2.20121    0.000
 4853.00    2.18991   2.19903    0.000
 4854.00    2.11409   2.13224    0.000
 4855.00    2.63272   1.99158    0.000
 4856.00    3.07855   1.85093    0.000
 4857.00    3.38947   1.80591    0.000
 4858.00    3.48533   1.88134    0.000
 4859.00    3.23308   2.01280    0.000
 4860.00    3.10171   2.13051    0.000
 4861.00    3.14200   2.21524    0.000
 4862.00    3.10678   2.26875    0.000
 4863.00    2.97724   2.28977    0.000
 4864.00    2.76920   2.27486    0.000
 4865.00    2.47472   2.21502    0.000
 4866.00    2.31018   2.12147    0.000
 4867.00    2.27183   2.05546    0.000
 4868.00    2.26279   2.07392    0.000
 4869.00    2.27886   2.15493    0.000
 4870.00    2.18092   2.23383    0.000
 4871.00    1.99699   2.28700    0.000
 4872.00    2.05106   2.33191    0.000
 4873.00    2.26286   2.38254    0.000
 4874.00    2.48451   2.43293    0.000
 4875.00    2.71186   2.45706    0.007
 4876.00    2.96497   2.43417    0.007
 4877.00    3.23112   2.38916    0.007
 4878.00    3.38832   2.36066    0.007
 4879.00    3.49781   2.33793    0.007
 4880.00    3.29737   2.28962    0.007
 4881.00    2.98044   2.22983    0.007
 4882.00    2.90292   2.19994    0.007
 4883.00    2.90177   2.20372    0.007
 4884.00    3.14270   2.19959    0.007
 4885.00    3.44816   2.15737    0.007
 4886.00    3.43881   2.11136    0.007
 4887.00    3.36079   2.13983    0.007
 4888.00    3.27849   2.27313    0.007
 4889.00    3.19544   2.45083    0.007
 4890.00    3.35528   2.59228    0.007
 4891.00    3.54710   2.66507    0.007
 4892.00    3.63664   2.67885    0.007
 4893.00    3.71667   2.65258    0.007
 4894.00    3.44755   2.60012    0.007
 4895.00    3.15864   2.54217    0.007
 4896.00    2.78031   2.50341    0.007
 4897.00    2.40737   2.48318    0.007
 4898.00    2.84590   2.46638    0.007
 4899.00    3.25819   2.46554    0.007
 4900.00    3.04737   2.50344    0.007
 4901.00    2.86840   2.55945    0.007
 4902.00    3.10116   2.57788    0.007
 4903.00    3.31138   2.52947    0.007
 4904.00    3.32557   2.43784    0.007
 4905.00    3.28673   2.35394    0.007
 4906.00    2.90668   2.32163    0.007
 4907.00    2.68390   2.35126    0.007
 4908.00    3.25199   2.41758    0.007
 4909.00    3.68322   2.48907    0.007
 4910.00    3.55743   2.54445    0.007
 4911.00    3.40548   2.55571    0.007
 4912.00    3.16522   2.48728    0.007
 4913.00    3.07681   2.33253    0.007
 4914.00    3.42067   2.14290    0.007
 4915.00    3.61655   2.00772    0.007
 4916.00    3.45240   1.99259    0.007
 4917.00    3.37044   2.08381    0.007
 4918.00    3.46099   2.20048    0.007
 4919.00    3.47108   2.27761    0.007
 4920.00    3.33439   2.32522    0.007
 4921.00    3.23606   2.38650    0.007
 4922.00    3.19891   2.46933    0.007
 4923.00    3.18477   2.55114    0.007
 4924.00    3.20282   2.61496    0.007
 4925.00    3.36330   2.65075    0.007
 4926.00    3.69919   2.64712    0.007
 4927.00    3.74883   2.59602    0.007
 4928.00    3.48771   2.51066    0.007
 4929.00    3.00589   2.43828    0.007
 4930.00    2.31273   2.41537    0.007
 4931.00    2.39472   2.40995    0.007
 4932.00    3.13121   2.36206    0.007
 4933.00    3.44423   2.27536    0.007
 4934.00    3.44241   2.22411    0.008
 4935.00    3.50362   2.26740    0.007
 4936.00    3.60601   2.38439    0.007
 4937.00    3.59518   2.50661    0.007
 4938.00    3.51963   2.58915    0.007
 4939.00    3.04922   2.62432    0.007
 4940.00    2.38225   2.61992    0.000
 4941.00    2.17471   2.60096    0.000
 4942.00    2.16501   2.60117    0.000
 4943.00    2.60479   2.62820    0.000
 4944.00    3.21052   2.66186    0.000
 4945.00    3.22462   2.68612    0.000
 4946.00    3.05365   2.69604    0.000
 4947.00    2.70648   2.68491    0.000
 4948.00    2.31333   2.65073    0.000
 4949.00    2.06015   2.60039    0.000
 4950.00    1.83677   2.52576    0.000
 4951.00    2.16970   2.40309    0.000
 4952.00    2.59636   2.25449    0.000
 4953.00    2.74189   2.17661    0.000
 4954.00    2.85166   2.24198    0.000
 4955.00    3.08043   2.39796    0.000
 4956.00    3.31975   2.53056    0.000
 4957.00    3.34419   2.58865    0.000
 4958.00    3.35729   2.58950    0.000
 4959.00    3.11957   2.55171    0.000
 4960.00    2.87630   2.48414    0.000
 4961.00    2.57274   2.41471    0.000
 4962.00    2.29406   2.37687    0.000
 4963.00    2.55648   2.37628    0.000
 4964.00    2.82899   2.39814    0.000
 4965.00    3.22541   2.43235    0.000
 4966.00    3.60410   2.47748    0.000
 4967.00    3.83430   2.52991    0.000
 4968.00    3.92643   2.57817    0.000
 4969.00    3.15638   2.60899    0.000
 4970.00    2.59909   2.61385    0.000
 4971.00    3.08494   2.59009    0.000
 4972.00    3.42517   2.54098    0.000
 4973.00    3.18571   2.47710    0.000
 4974.00    3.01900   2.41507    0.000
 4975.00    3.09296   2.35945    0.000
 4976.00    3.18880   2.29105    0.000
 4977.00    3.34581   2.20053    0.000
 4978.00    3.54747   2.12301    0.000
 4979.00    3.85591   2.10687    0.000
 4980.00    3.90088   2.16165    0.000
 4981.00    3.40163   2.26001    0.000
 4982.00    2.88755   2.36535    0.000
 4983.00    2.34684   2.44176    0.000
 4984.00    2.18371   2.46760    0.000
 4985.00    2.61381   2.45361    0.000
 4986.00    2.91145   2.43358    0.000
 4987.00    3.02637   2.43108    0.000
 4988.00    2.96966   2.44119    0.000
 4989.00    2.70457   2.45215    0.000
 4990.00    2.74153   2.46664    0.000
 4991.00    3.10179   2.48378    0.000
 4992.00    3.45821   2.48548    0.000
 4993.00    3.81102   2.45437    0.000
 4994.00    3.63119   2.39194    0.000
 4995.00    3.00798   2.32184    0.000
 4996.00    2.91945   2.27412    0.000
 4997.00    3.22276   2.25849    0.000
 4998.00    3.18557   2.25599    0.000
 4999.00    2.92926   2.23634    0.000
 5000.00    2.95668   2.18896    0.000
 5001.00    3.14382   2.14686    0.000
 5002.00    3.26043   2.16240    0.000
 5003.00    3.34247   2.24318    0.000
 5004.00    3.40610   2.33284    0.000
 5005.00    3.46193   2.36833    0.000
 5006.00    3.39085   2.33087    0.000
 5007.00    3.27375   2.24310    0.000
 5008.00    3.15069   2.14891    0.000
 5009.00    3.02580   2.09458    0.000
 5010.00    3.21307   2.10118    0.000
 5011.00    3.48003   2.14612    0.000
 5012.00    3.53296   2.18676    0.000
 5013.00    3.54141   2.20824    0.000
 5014.00    3.32776   2.22719    0.000
 5015.00    3.07775   2.24917    0.000
 5016.00    3.04814   2.25867    0.000
 5017.00    3.04559   2.25631    0.000
 5018.00    2.72681   2.26878    0.000
 5019.00    2.38129   2.30799    0.000
 5020.00    2.63021   2.34774    0.000
 5021.00    2.90818   2.35594    0.000
 5022.00    2.87455   2.33587    0.000
 5023.00    2.83678   2.32643    0.000
 5024.00    2.84028   2.35853    0.000
 5025.00    2.86431   2.42226    0.000
 5026.00    3.30036   2.49129    0.000
 5027.00    3.71505   2.55252    0.000
 5028.00    3.88011   2.59030    0.000
 5029.00    3.98885   2.57465    0.007
 5030.00    3.64291   2.49738    0.007
 5031.00    3.33890   2.40108    0.007
 5032.00    3.28910   2.33471    0.007
 5033.00    3.19545   2.28812    0.007
 5034.00    2.89211   2.21279    0.007
 5035.00    2.64808   2.10440    0.008
 5036.00    2.63503   2.03000    0.019
 5037.00    2.63319   2.06373   -1.000
 5038.00    2.66768   2.20610   -1.000
 5039.00    2.72922   2.38498   -1.000
 5040.00    2.86499   2.52761   -1.000
 5041.00    3.03108   2.59650   -1.000
 5042.00    3.26849   2.57730   -1.000
 5043.00    3.43434   2.48615   -1.000
 5044.00    3.45472   2.37826   -1.000
 5045.00    3.36012   2.30969    0.038
 5046.00    3.06211   2.29635    0.010
 5047.00    2.97513   2.32529    0.007
 5048.00    3.21484   2.38359    0.007
 5049.00    3.29618   2.45697    0.007
 5050.00    3.16222   2.52216    0.007
 5051.00    2.92092   2.56228    0.007
 5052.00    2.55117   2.58162    0.007
 5053.00    2.55992   2.59546    0.007
 5054.00    2.96812   2.61325    0.007
 5055.00    3.33929   2.63686    0.007
 5056.00    3.67599   2.65864    0.007
 5057.00    3.62853   2.65416    0.007
 5058.00    3.26583   2.59607    0.007
 5059.00    3.29125   2.49130    0.007
 5060.00    3.59701   2.39201    0.007
 5061.00    3.50722   2.34650    0.007
 5062.00    3.16663   2.34979    0.007
 5063.00    3.11644   2.36971    0.007
 5064.00    3.22724   2.39508    0.007
 5065.00    3.40290   2.42264    0.007
 5066.00    3.60982   2.43348    0.007
 5067.00    3.34814   2.42208    0.007
 5068.00    2.89139   2.41368    0.007
 5069.00    2.75367   2.42408    0.007
 5070.00    2.72955   2.43829    0.007
 5071.00    2.78347   2.44075    0.007
 5072.00    2.86086   2.42287    0.007
 5073.00    2.61746   2.36521    0.007
 5074.00    2.29394   2.26539    0.007
 5075.00    2.44625   2.17402    0.007
 5076.00    2.69499   2.14913    0.007
 5077.00    2.90449   2.18826    0.007
 5078.00    3.10777   2.24832    0.007
 5079.00    3.28116   2.30692    0.007
 5080.00    3.45102   2.36509    0.007
 5081.00    2.99540   2.41638    0.007
 5082.00    2.48950   2.44995    0.007
 5083.00    2.77975   2.46953    0.007
 5084.00    3.10582   2.48691    0.007
 5085.00    3.09303   2.50688    0.007
 5086.00    3.07231   2.53095    0.007
 5087.00    2.85662   2.56188    0.006
 5088.00    2.67863   2.59106    0.006
 5089.00    3.20191   2.59539    0.007
 5090.00    3.62020   2.55860    0.007
 5091.00    2.86913   2.48520    0.007
 5092.00    2.25451   2.39138    0.007
 5093.00    2.70311   2.30134    0.007
 5094.00    3.12012   2.25309    0.007
 5095.00    3.35105   2.27700    0.007
 5096.00    3.51630   2.35572    0.007
 5097.00    3.37506   2.43040    0.007
 5098.00    3.21645   2.45799    0.007
 5099.00    2.99162   2.44303    0.007
 5100.00    2.87274   2.41135    0.007
 5101.00    3.09087   2.37573    0.007
 5102.00    3.29300   2.33792    0.007
 5103.00    3.45199   2.30575    0.007
 5104.00    3.37827   2.29054    0.007
 5105.00    2.76647   2.29908    0.007
 5106.00    2.49081   2.33426    0.007
 5107.00    2.88761   2.38837    0.007
 5108.00    3.20930   2.44285    0.007
 5109.00    3.40011   2.48657    0.007
 5110.00    3.30356   2.52293    0.007
 5111.00    2.76869   2.55908    0.007
 5112.00    2.62704   2.59413    0.007
 5113.00    3.01230   2.61418    0.007
 5114.00    3.26165   2.60217    0.007
 5115.00    3.35064   2.55400    0.007
 5116.00    3.16433   2.47933    0.007
 5117.00    2.69156   2.39073    0.007
 5118.00    2.86190   2.30327    0.007
 5119.00    3.62247   2.24008    0.007
 5120.00    3.86983   2.21866    0.007
 5121.00    3.70202   2.22957    0.007
 5122.00    3.53613   2.24635    0.007
 5123.00    3.37160   2.25551    0.007
 5124.00    3.10926   2.26571    0.007
 5125.00    2.78582   2.29207    0.007
 5126.00    2.96129   2.33668    0.007
 5127.00    3.40911   2.38523    0.007
 5128.00    3.32189   2.42510    0.007
 5129.00    2.98083   2.45658    0.007
 5130.00    2.74993   2.47564    0.007
 5131.00    2.56411   2.46344    0.007
 5132.00    2.56763   2.41175    0.007
 5133.00    2.63733   2.34458    0.007
 5134.00    2.97779   2.30073    0.007
 5135.00    3.39806   2.29615    0.007
 5136.00    3.23046   2.30649    0.007
 5137.00    2.91927   2.30243    0.007
 5138.00    2.82921   2.29319    0.007
 5139.00    2.78284   2.29892    0.007
 5140.00    2.63129   2.30643    0.007
 5141.00    2.46353   2.29555    0.007
 5142.00    2.42492   2.27818    0.007
 5143.00    2.40102   2.27886    0.007
 5144.00    2.64973   2.29640    0.007
 5145.00    2.91923   2.30591    0.007
 5146.00    2.86517   2.29314    0.007
 5147.00    2.79780   2.27110    0.007
 5148.00    2.58885   2.26269    0.007
 5149.00    2.39105   2.28279    0.007
 5150.00    2.71136   2.33488    0.007
 5151.00    3.02319   2.40886    0.007
 5152.00    3.18800   2.48207    0.007
 5153.00    3.33142   2.53232    0.007
 5154.00    3.24713   2.55306    0.007
 5155.00    3.14237   2.55003    0.007
 5156.00    2.88355   2.52469    0.007
 5157.00    2.70785   2.47392    0.006
 5158.00    3.00827   2.39747    0.007
 5159.00    3.28287   2.28621    0.007
 5160.00    3.43976   2.12319    0.007
 5161.00    3.53675   1.92227    0.007
 5162.00    3.41018   1.75120    0.007
 5163.00    3.29520   1.68741    0.007
 5164.00    3.21635   1.73563    0.007
 5165.00    3.25406   1.80226    0.007
 5166.00    3.60047   1.78708    0.007
 5167.00    3.60206   1.70643    0.007
 5168.00    2.81951   1.68529    0.007
 5169.00    2.45326   1.80686    0.007
 5170.00    2.90674   2.01841    0.007
 5171.00    3.07921   2.20792    0.007
 5172.00    2.76941   2.32014    0.008
 5173.00    2.36910   2.36415    0.008
 5174.00    1.83277   2.35486    0.008
 5175.00    1.72964   2.28577    0.009
 5176.00    2.19868   2.14261    0.009
 5177.00    2.62520   1.93855    0.008
 5178.00    3.00225   1.75139    0.007
 5179.00    3.32472   1.69757    0.007
 5180.00    3.59120   1.82664    0.007
 5181.00    3.63739   2.05983    0.007
 5182.00    3.48425   2.26933    0.007
 5183.00    3.40304   2.39319    0.007
 5184.00    3.37919   2.44226    0.007
 5185.00    3.11356   2.42949    0.007
 5186.00    2.67829   2.35607    0.007
 5187.00    2.63273   2.26133    0.007
 5188.00    2.82699   2.21266    0.007
 5189.00    2.86190   2.23068    0.007
 5190.00    2.81117   2.28119    0.000
 5191.00    2.69633   2.33773    0.000
 5192.00    2.55156   2.40035    0.000
 5193.00    2.63004   2.46675    0.000
 5194.00    2.79831   2.52205    0.000
 5195.00    2.89785   2.55064    0.000
 5196.00    2.97378   2.54483    0.000
 5197.00    2.90416   2.50409    0.000
 5198.00    2.79248   2.42727    0.000
 5199.00    2.63993   2.31641    0.000
 5200.00    2.47762   2.19562    0.000
 5201.00    2.93765   2.10330    0.000
 5202.00    3.51749   2.05588    0.000
 5203.00    3.35377   2.04804    0.000
 5204.00    3.07889   2.08575    0.000
 5205.00    3.44062   2.18088    0.000
 5206.00    3.87207   2.31807    0.000
 5207.00    3.79984   2.45313    0.000
 5208.00    3.69123   2.53831    0.000
 5209.00    3.68633   2.54959    0.000
 5210.00    3.68530   2.50602    0.000
 5211.00    3.57802   2.46168    0.007
 5212.00    3.46851   2.46440    0.007
 5213.00    3.29585   2.51882    0.007
 5214.00    3.12700   2.59181    0.007
 5215.00    3.02010   2.64691    0.007
 5216.00    2.90745   2.66439    0.006
 5217.00    2.73628   2.63479    0.006
 5218.00    2.58576   2.55251    0.006
 5219.00    2.58558   2.42397    0.006
 5220.00    2.63519   2.27709    0.006
 5221.00    2.96218   2.16362    0.006
 5222.00    3.23959   2.14283    0.006
 5223.00    3.29638   2.23412    0.006
 5224.00    3.34429   2.38481    0.006
 5225.00    3.35976   2.50959    0.006
 5226.00    3.43083   2.55644    0.007
 5227.00    3.67208   2.52955    0.007
 5228.00    3.74063   2.47644    0.006
 5229.00    3.35981   2.45550    0.007
 5230.00    3.04267   2.49479    0.007
 5231.00    2.86791   2.57680    0.007
 5232.00    2.95610   2.65995    0.007
 5233.00    3.55395   2.71105    0.007
 5234.00    3.75343   2.72604    0.007
 5235.00    3.27952   2.72308    0.007
 5236.00    3.06711   2.71870    0.007
 5237.00    3.24197   2.71880    0.007
 5238.00    3.28402   2.72578    0.007
 5239.00    3.15315   2.73167    0.007
 5240.00    3.01106   2.70865    0.007
 5241.00    2.85610   2.63882    0.007
 5242.00    2.84617   2.55027    0.007
 5243.00    2.98293   2.48822    0.007
 5244.00    2.93834   2.46080    0.007
 5245.00    2.73196   2.45128    0.007
 5246.00    2.59169   2.45987    0.007
 5247.00    2.50339   2.48994    0.007
 5248.00    2.54050   2.52001    0.007
 5249.00    2.66431   2.53135    0.007
 5250.00    2.73916   2.54630    0.007
 5251.00    2.78431   2.60253    0.007
 5252.00    3.16787   2.69540    0.007
 5253.00    3.73050   2.77420    0.007
 5254.00    3.46950   2.79086    0.007
 5255.00    2.83029   2.73091    0.007
 5256.00    2.60187   2.60782    0.007
 5257.00    2.53587   2.44985    0.007
 5258.00    2.61134   2.29138    0.007
 5259.00    2.73446   2.16361    0.007
 5260.00    2.80729   2.08966    0.007
 5261.00    2.86587   2.07718    0.007
 5262.00    3.15183   2.09516    0.007
 5263.00    3.49087   2.08261    0.007
 5264.00    3.31809   2.02861    0.007
 5265.00    3.04936   2.01221    0.007
 5266.00    3.04895   2.10238    0.007
 5267.00    3.08742   2.25907    0.007
 5268.00    3.21773   2.38754    0.007
 5269.00    3.35771   2.44879    0.007
 5270.00    3.52677   2.48074    0.007
 5271.00    3.69782   2.53970    0.007
 5272.00    3.24095   2.63665    0.007
 5273.00    2.76302   2.72519    0.007
 5274.00    2.86481   2.75179    0.007
 5275.00    2.95928   2.70730    0.007
 5276.00    2.79919   2.62495    0.007
 5277.00    2.65698   2.54792    0.007
 5278.00    2.78705   2.51304    0.007
 5279.00    2.91959   2.54763    0.007
 5280.00    3.07631   2.64956    0.006
 5281.00    3.23883   2.77150    0.006
 5282.00    3.44211   2.85599    0.006
 5283.00    3.57486   2.88904    0.006
 5284.00    3.32513   2.89972    0.006
 5285.00    3.02369   2.91142    0.006
 5286.00    2.49753   2.91684    0.006
 5287.00    2.17210   2.90114    0.006
 5288.00    2.56488   2.86542    0.006
 5289.00    2.90108   2.81409    0.006
 5290.00    3.06730   2.73569    0.007
 5291.00    3.21409   2.62172    0.007
 5292.00    3.31123   2.50403    0.007
 5293.00    3.27134   2.44398    0.007
 5294.00    2.93003   2.46764    0.007
 5295.00    2.65361   2.53704    0.007
 5296.00    2.50098   2.60464    0.007
 5297.00    2.40445   2.66820    0.007
 5298.00    2.40132   2.74773    0.007
 5299.00    2.38468   2.83550    0.007
 5300.00    2.34834   2.89731    0.007
 5301.00    2.47157   2.91398    0.007
 5302.00    2.79957   2.90425    0.007
 5303.00    3.02570   2.90283    0.007
 5304.00    3.13664   2.92189    0.007
 5305.00    3.17099   2.94347    0.007
 5306.00    3.12896   2.94598    0.007
 5307.00    3.05846   2.92669    0.007
 5308.00    2.96292   2.89752    0.007
 5309.00    2.77908   2.86801    0.007
 5310.00    2.52680   2.83874    0.007
 5311.00    2.52131   2.81145    0.007
 5312.00    2.68396   2.79508    0.007
 5313.00    2.93446   2.79400    0.007
 5314.00    3.23741   2.79969    0.007
 5315.00    3.48029   2.79942    0.007
 5316.00    3.69188   2.78289    0.007
 5317.00    3.52016   2.74182    0.007
 5318.00    3.17530   2.67923    0.007
 5319.00    3.11281   2.61455    0.007
 5320.00    3.16001   2.55425    0.006
 5321.00    3.29721   2.46776    0.006
 5322.00    3.46415   2.33853    0.006
 5323.00    3.50672   2.23024    0.006
 5324.00    3.51480   2.23760    0.006
 5325.00    3.38498   2.36854    0.006
 5326.00    3.22369   2.53377    0.006
 5327.00    3.03540   2.65475    0.006
 5328.00    2.84218   2.72955    0.006
 5329.00    2.76074   2.78848    0.006
 5330.00    2.69498   2.83571    0.006
 5331.00    2.66329   2.85435    0.006
 5332.00    2.63504   2.83531    0.006
 5333.00    2.92446   2.77783    0.006
 5334.00    3.23427   2.68996    0.006
 5335.00    2.91312   2.60859    0.006
 5336.00    2.57417   2.58650    0.006
 5337.00    2.63760   2.63546    0.006
 5338.00    2.69908   2.70854    0.006
 5339.00    2.70489   2.75135    0.006
 5340.00    2.71463   2.75145    0.006
 5341.00    2.78074   2.72992    0.006
 5342.00    2.88978   2.70420    0.006
 5343.00    3.40079   2.68075    0.006
 5344.00    3.83712   2.67631    0.006
 5345.00    3.76416   2.71217    0.006
 5346.00    3.60298   2.78229    0.006
 5347.00    2.97602   2.85621    0.006
 5348.00    2.52407   2.91625    0.006
 5349.00    2.81531   2.96749    0.006
 5350.00    3.07990   3.01330    0.006
 5351.00    3.25111   3.04599    0.006
 5352.00    3.35330   3.06036    0.006
 5353.00    3.25207   3.05877    0.006
 5354.00    3.21124   3.04174    0.006
 5355.00    3.32218   3.00542    0.006
 5356.00    3.44636   2.95248    0.006
 5357.00    3.59917   2.89695    0.006
 5358.00    3.62319   2.85018    0.006
 5359.00    3.40530   2.81219    0.006
 5360.00    3.16615   2.78206    0.007
 5361.00    2.89213   2.76074    0.006
 5362.00    2.65873   2.73862    0.006
 5363.00    2.48374   2.69228    0.006
 5364.00    2.47614   2.60695    0.006
 5365.00    2.68029   2.50937    0.006
 5366.00    2.94446   2.46610    0.006
 5367.00    3.27553   2.52543    0.006
 5368.00    3.39062   2.66314   -2.000
 5369.00    3.29332   2.80489   -2.000
 5370.00    3.03324   2.89245   -2.000
 5371.00    2.63199   2.91973   -2.000
 5372.00    2.54620   2.91777   -2.000
 5373.00    2.70138   2.91445   -2.000
 5374.00    2.93565   2.91112   -2.000
 5375.00    3.22303   2.89644   -2.000
 5376.00    3.20269   2.86870   -2.000
 5377.00    3.00134   2.83925   -2.000
 5378.00    3.01277   2.82545   -2.000
 5379.00    3.13333   2.83679   -2.000
 5380.00    3.15008   2.86161   -2.000
 5381.00    3.12071   2.87596   -2.000
 5382.00    2.95188   2.86435   -2.000
 5383.00    2.72981   2.82637    0.006
 5384.00    2.63742   2.77264    0.006
 5385.00    2.58709   2.72059    0.006
 5386.00    2.91357   2.68500    0.006
 5387.00    3.34238   2.66808    0.006
 5388.00    3.37849   2.66005    0.006
 5389.00    3.32712   2.64513    0.006
 5390.00    2.96576   2.60788    0.006
 5391.00    2.54934   2.55378    0.006
 5392.00    2.48921   2.52358    0.006
 5393.00    2.47742   2.55306    0.006
 5394.00    2.72912   2.62439    0.006
 5395.00    3.00628   2.69104    0.006
 5396.00    3.10580   2.72573    0.006
 5397.00    3.19463   2.71420    0.006
 5398.00    3.34707   2.64202    0.006
 5399.00    3.50192   2.52479    0.006
 5400.00    3.78291   2.42368    0.006
 5401.00    4.03467   2.39791    0.006
 5402.00    3.53287   2.44440    0.006
 5403.00    3.06802   2.50529    0.006
 5404.00    3.10421   2.54126    0.006
 5405.00    3.15019   2.57357    0.006
 5406.00    3.28427   2.63751    0.006
 5407.00    3.38937   2.72323    0.006
 5408.00    3.30303   2.79172    0.006
 5409.00    3.25721   2.82870    0.006
 5410.00    3.41984   2.85534    0.006
 5411.00    3.51998   2.88977    0.006
 5412.00    3.36069   2.91962    0.006
 5413.00    3.20175   2.92116    0.006
 5414.00    3.04403   2.89216    0.006
 5415.00    2.88577   2.85590    0.006
 5416.00    2.72593   2.83432    0.006
 5417.00    2.61869   2.82190    0.006
 5418.00    2.64137   2.80228    0.006
 5419.00    2.79014   2.78919    0.006
 5420.00    3.20735   2.81254    0.006
 5421.00    3.36908   2.85986    0.006
 5422.00    3.05833   2.87159    0.006
 5423.00    2.76144   2.80796    0.006
 5424.00    2.48697   2.70631    0.006
 5425.00    2.48668   2.64537    0.006
 5426.00    2.87504   2.64555    0.006
 5427.00    3.03973   2.65363    0.006
 5428.00    2.92548   2.63040    0.006
 5429.00    2.78765   2.59550    0.006
 5430.00    2.62392   2.59207    0.006
 5431.00    2.64019   2.64359    0.006
 5432.00    2.83100   2.74239    0.006
 5433.00    3.07763   2.85883    0.006
 5434.00    3.37200   2.95767    0.006
 5435.00    3.37494   3.01838    0.006
 5436.00    3.15844   3.04155    0.006
 5437.00    3.10362   3.03437    0.006
 5438.00    3.15577   2.99191    0.006
 5439.00    3.17359   2.90132    0.006
 5440.00    3.17152   2.77110    0.006
 5441.00    3.15847   2.65163    0.006
 5442.00    3.13989   2.61056    0.006
 5443.00    3.11253   2.66942    0.006
 5444.00    3.08133   2.77610    0.006
 5445.00    3.09750   2.85971    0.006
 5446.00    3.13142   2.88672    0.006
 5447.00    3.08311   2.85920    0.006
 5448.00    3.00863   2.78906    0.006
 5449.00    2.87813   2.69712    0.006
 5450.00    2.73274   2.62871    0.006
 5451.00    2.61077   2.63641    0.006
 5452.00    2.49390   2.72247    0.006
 5453.00    2.69906   2.82618    0.006
 5454.00    2.95984   2.88281    0.006
 5455.00    2.97784   2.87307    0.006
 5456.00    2.96400   2.81919    0.006
 5457.00    3.00388   2.75821    0.006
 5458.00    3.04873   2.72652    0.006
 5459.00    3.10363   2.74193    0.006
 5460.00    3.15910   2.78578    0.006
 5461.00    3.07116   2.82527    0.006
 5462.00    2.98071   2.84736    0.006
 5463.00    2.96293   2.85226    0.006
 5464.00    2.95954   2.83893    0.006
 5465.00    3.29385   2.81361    0.006
 5466.00    3.58437   2.78883    0.006
 5467.00    3.31249   2.76525    0.006
 5468.00    3.07840   2.73341    0.006
 5469.00    3.17133   2.68900    0.006
 5470.00    3.23815   2.63254    0.006
 5471.00    3.13768   2.58033    0.006
 5472.00    3.04508   2.57242    0.006
 5473.00    2.99190   2.62320    0.006
 5474.00    2.95829   2.68340    0.006
 5475.00    3.00415   2.69830    0.006
 5476.00    3.02645   2.67921    0.006
 5477.00    2.96941   2.68224    0.006
 5478.00    3.01439   2.73463   -2.000
 5479.00    3.34909   2.80941   -2.000
 5480.00    3.58380   2.85770   -2.000
 5481.00    3.57578   2.85229   -2.000
 5482.00    3.62515   2.81153   -2.000
 5483.00    3.79474   2.78010   -2.000
 5484.00    3.49169   2.78220   -2.000
 5485.00    2.32790   2.80635   -2.000
 5486.00    1.54879   2.83041   -2.000
 5487.00    1.38200   2.83997   -2.000
 5488.00    1.63847   2.83469   -2.000
 5489.00    2.48623   2.82748   -2.000
 5490.00    3.12959   2.82502   -2.000
 5491.00    3.52168   2.82107   -2.000
 5492.00    3.45671   2.81942   -2.000
 5493.00    2.89644   2.83430   -2.000
 5494.00    2.70698   2.85648   -2.000
 5495.00    2.87199   2.85430   -2.000
 5496.00    3.16586   2.82044   -2.000
 5497.00    3.56833   2.78326   -2.000
 5498.00    3.64971   2.76486   -2.000
 5499.00    3.49279   2.75633   -2.000
 5500.00    3.42196   2.74198   -2.000
 5501.00    3.40727   2.72981   -2.000
 5502.00    3.34366   2.74213    0.006
 5503.00    3.25212   2.77688    0.006
 5504.00    3.12208   2.80033    0.006
 5505.00    2.97290   2.78503    0.006
 5506.00    2.89387   2.73556    0.006
 5507.00    2.84499   2.68021    0.006
 5508.00    2.71266   2.65060    0.006
 5509.00    2.54959   2.66093    0.006
 5510.00    2.71077   2.70301    0.006
 5511.00    2.97312   2.76244    0.006
 5512.00    3.03674   2.82945    0.006
 5513.00    3.04864   2.89257    0.006
 5514.00    3.15482   2.93515    0.006
 5515.00    3.28102   2.94879    0.006
 5516.00    3.27785   2.94342    0.006
 5517.00    3.25297   2.93396    0.006
 5518.00    3.29384   2.92352    0.006
 5519.00    3.34304   2.90343    0.006
 5520.00    3.29375   2.86325    0.006
 5521.00    3.23577   2.80233    0.006
 5522.00    3.11571   2.73894    0.006
 5523.00    2.99239   2.70682    0.006
 5524.00    2.58573   2.72915    0.005
 5525.00    2.18141   2.78961    0.005
 5526.00    2.35474   2.84392    0.005
 5527.00    2.54096   2.86432    0.005
 5528.00    3.00478   2.85619    0.005
 5529.00    3.43235   2.83847    0.005
 5530.00    3.41764   2.82676    0.005
 5531.00    3.39803   2.82925    0.005
 5532.00    3.33766   2.84540    0.005
 5533.00    3.28127   2.87120    0.006
 5534.00    3.24964   2.90496    0.005
 5535.00    3.22153   2.93836    0.006
 5536.00    3.21067   2.95313    0.013
 5537.00    3.18862   2.94040   -1.000
 5538.00    3.12213   2.91319   -1.000
 5539.00    3.06757   2.89283   -1.000
 5540.00    3.05236   2.88957   -1.000
 5541.00    3.02398   2.90333   -1.000
 5542.00    2.95883   2.93368   -1.000
 5543.00    2.95448   2.97483    0.038
 5544.00    3.09525   3.00995    0.009
 5545.00    3.14362   3.02389    0.006
 5546.00    3.00148   3.01355    0.006
 5547.00    2.91252   2.98352    0.006
 5548.00    2.91890   2.94511    0.006
 5549.00    3.02706   2.91581    0.006
 5550.00    3.29483   2.90647    0.006
 5551.00    3.40331   2.91108    0.006
 5552.00    3.29249   2.91679    0.006
 5553.00    3.18645   2.91875    0.006
 5554.00    3.08620   2.91769    0.006
 5555.00    3.02162   2.90927    0.006
 5556.00    2.99518   2.88859    0.006
 5557.00    3.06092   2.86093    0.006
 5558.00    3.21353   2.83703    0.006
 5559.00    3.29397   2.82091    0.006
 5560.00    3.31445   2.80785    0.006
 5561.00    3.18045   2.79537    0.006
 5562.00    2.93345   2.78847    0.006
 5563.00    2.77645   2.79039    0.006
 5564.00    2.67725   2.79898    0.005
 5565.00    2.65246   2.81000    0.005
 5566.00    2.66947   2.81622    0.005
 5567.00    2.84004   2.81454    0.005
 5568.00    3.08569   2.81774    0.006
 5569.00    3.36280   2.83992    0.006
 5570.00    3.65320   2.87157    0.006
 5571.00    3.69260   2.89403    0.006
 5572.00    3.64120   2.90606    0.006
 5573.00    3.27987   2.91472    0.006
 5574.00    2.82370   2.92062    0.006
 5575.00    2.66749   2.92160    0.006
 5576.00    2.58766   2.91547    0.005
 5577.00    2.82328   2.90066    0.005
 5578.00    3.12423   2.87489    0.005
 5579.00    3.17534   2.82866    0.005
 5580.00    3.18570   2.75298    0.005
 5581.00    3.25745   2.65911    0.005
 5582.00    3.33669   2.57916    0.006
 5583.00    3.33731   2.54457    0.006
 5584.00    3.33133   2.56361    0.006
 5585.00    3.30501   2.61646    0.006
 5586.00    3.27771   2.67211    0.006
 5587.00    3.17000   2.71054    0.006
 5588.00    3.05885   2.73613    0.006
 5589.00    2.81533   2.76902    0.006
 5590.00    2.58391   2.81581    0.006
 5591.00    2.59268   2.85345    0.006
 5592.00    2.60128   2.85143    0.006
 5593.00    2.60787   2.80844    0.006
 5594.00    2.61797   2.75239    0.006
 5595.00    2.65636   2.70638    0.006
 5596.00    2.72555   2.67878    0.006
 5597.00    2.98083   2.68267    0.006
 5598.00    3.21353   2.73353    0.006
 5599.00    3.33860   2.82491    0.006
 5600.00    3.34937   2.92433    0.006
 5601.00    2.91614   2.99709    0.006
 5602.00    2.59046   3.03136    0.006
 5603.00    2.61273   3.03846    0.006
 5604.00    2.66915   3.03694    0.006
 5605.00    2.81909   3.03830    0.006
 5606.00    2.98753   3.03745    0.006
 5607.00    3.19939   3.01119    0.005
 5608.00    3.28956   2.93572    0.005
 5609.00    3.13287   2.82034    0.005
 5610.00    3.04095   2.71887    0.005
 5611.00    3.06343   2.68647    0.005
 5612.00    3.02605   2.72355    0.005
 5613.00    2.89620   2.78161    0.005
 5614.00    2.86720   2.82404    0.005
 5615.00    2.97506   2.85187    0.005
 5616.00    3.03010   2.86935    0.005
 5617.00    3.02202   2.86053    0.005
 5618.00    2.99880   2.81473    0.005
 5619.00    2.95964   2.75665    0.005
 5620.00    2.84566   2.73088    0.005
 5621.00    2.66215   2.75771    0.005
 5622.00    2.60333   2.81910    0.005
 5623.00    2.64663   2.88673    0.005
 5624.00    2.66683   2.94499    0.005
 5625.00    2.67036   2.98555    0.005
 5626.00    2.70287   3.00102    0.005
 5627.00    2.75373   2.99075    0.005
 5628.00    2.91635   2.96169    0.005
 5629.00    3.14083   2.92244    0.005
 5630.00    3.11668   2.88064    0.005
 5631.00    2.97290   2.84529    0.005
 5632.00    2.90167   2.82597    0.005
 5633.00    2.86056   2.82465    0.005
 5634.00    2.87469   2.82999    0.005
 5635.00    2.90845   2.82809    0.005
 5636.00    2.84453   2.82000    0.005
 5637.00    2.75130   2.81937    0.005
 5638.00    2.76790   2.83355    0.005
 5639.00    2.81186   2.85664    0.005
 5640.00    2.69446   2.87989    0.005
 5641.00    2.54447   2.89793    0.005
 5642.00    1.89271   2.90664    0.006
 5643.00    1.16150   2.90592    0.007
 5644.00    1.62061   2.90439    0.007
 5645.00    2.21985   2.91348    0.007
 5646.00    2.61974   2.93272    0.007
 5647.00    3.00371   2.94516    0.007
 5648.00    3.12680   2.93490    0.006
 5649.00    3.23827   2.90487    0.005
 5650.00    3.26149   2.86673    0.005
 5651.00    3.28422   2.82036    0.005
 5652.00    3.33246   2.76252    0.005
 5653.00    3.36995   2.71216    0.005
 5654.00    3.20926   2.69958    0.005
 5655.00    3.05012   2.72541    0.005
 5656.00    2.90800   2.75942    0.005
 5657.00    2.78132   2.78575    0.005
 5658.00    2.77440   2.81705    0.005
 5659.00    2.78742   2.85909    0.005
 5660.00    2.91747   2.89263    0.005
 5661.00    2.98814   2.89927    0.005
 5662.00    2.78253   2.88552    0.005
 5663.00    2.65738   2.87325    0.005
 5664.00    2.83808   2.87762    0.005
 5665.00    2.99532   2.90095    0.005
 5666.00    3.07813   2.93941    0.005
 5667.00    3.17574   2.98437    0.005
 5668.00    3.31316   3.02142    0.005
 5669.00    3.36160   3.04006    0.005
 5670.00    3.20472   3.04384    0.005
 5671.00    3.09313   3.04242    0.005
 5672.00    3.07195   3.03721    0.005
 5673.00    3.00198   3.02323    0.005
 5674.00    2.84714   2.99892    0.006
 5675.00    2.86279   2.96608    0.006
 5676.00    3.13802   2.92780    0.006
 5677.00    3.38978   2.89400    0.006
 5678.00    3.61017   2.87826    0.006
 5679.00    3.63602   2.88025    0.006
 5680.00    3.43273   2.88169    0.006
 5681.00    3.27184   2.86948    0.005
 5682.00    3.15498   2.85439    0.005
 5683.00    3.07995   2.85871    0.005
 5684.00    3.04327   2.89143    0.005
 5685.00    2.98528   2.94155    0.005
 5686.00    2.91011   2.98980    0.005
 5687.00    2.79217   3.02154    0.005
 5688.00    2.64386   3.03273    0.005
 5689.00    2.56693   3.02873    0.005
 5690.00    2.53450   3.01614    0.005
 5691.00    2.62527   2.99474    0.005
 5692.00    2.78317   2.96119    0.005
 5693.00    2.92352   2.91833    0.005
 5694.00    3.05557   2.87507    0.005
 5695.00    3.17462   2.84000    0.005
 5696.00    3.28837   2.82050    0.005
 5697.00    3.34588   2.82223    0.005
 5698.00    3.38378   2.83931    0.005
 5699.00    3.25021   2.84980    0.005
 5700.00    3.06621   2.83262    0.005
 5701.00    2.90973   2.78654    0.005
 5702.00    2.75995   2.72931    0.005
 5703.00    2.84555   2.68316    0.005
 5704.00    2.97750   2.66176    0.005
 5705.00    3.15682   2.66864    0.005
 5706.00    3.34343   2.70351    0.005
 5707.00    3.26807   2.76326    0.005
 5708.00    3.16302   2.83739    0.005
 5709.00    3.07804   2.90827    0.005
 5710.00    2.99458   2.96029    0.005
 5711.00    2.96820   2.99106    0.005
 5712.00    2.94414   3.01017    0.005
 5713.00    3.15368   3.02781    0.005
 5714.00    3.35582   3.04881    0.005
 5715.00    3.17726   3.07356    0.005
 5716.00    3.01206   3.09872    0.005
 5717.00    3.07617   3.11834    0.005
 5718.00    3.13553   3.12509    0.005
 5719.00    3.14462   3.11222    0.005
 5720.00    3.13735   3.07992    0.005
 5721.00    3.00744   3.04218    0.005
 5722.00    2.91314   3.01974    0.005
 5723.00    3.02216   3.01917    0.005
 5724.00    3.11820   3.02448    0.005
 5725.00    3.15529   3.01889    0.005
 5726.00    3.14646   3.00909    0.005
 5727.00    2.96673   3.01556    0.005
 5728.00    2.85872   3.04323    0.005
 5729.00    2.97395   3.07411    0.005
 5730.00    3.09468   3.08835    0.005
 5731.00    3.22998   3.08338    0.005
 5732.00    3.27961   3.07033    0.005
 5733.00    3.13487   3.05991    0.005
 5734.00    3.07599   3.05488    0.005
 5735.00    3.18589   3.05129    0.005
 5736.00    3.29531   3.04598    0.005
 5737.00    3.40392   3.04384    0.005
 5738.00    3.43062   3.05355    0.005
 5739.00    3.33443   3.07362    0.005
 5740.00    3.19866   3.08638    0.000
 5741.00    3.01071   3.07473    0.000
 5742.00    2.92839   3.04598    0.000
 5743.00    2.96875   3.02678    0.000
 5744.00    3.04312   3.03013    0.000
 5745.00    3.15234   3.03683    0.000
 5746.00    3.21626   3.01695    0.000
 5747.00    3.23926   2.96739    0.000
 5748.00    3.35757   2.92198    0.000
 5749.00    3.55175   2.91983    0.000
 5750.00    3.52900   2.96769    0.000
 5751.00    3.35433   3.03577    0.000
 5752.00    3.21283   3.08331    0.000
 5753.00    3.09170   3.08622    0.000
 5754.00    2.96813   3.04607    0.000
 5755.00    2.84324   2.98338    0.000
 5756.00    2.90701   2.92883    0.000
 5757.00    3.05867   2.91386    0.000
 5758.00    3.25808   2.95066    0.000
 5759.00    3.47667   3.02128    0.000
 5760.00    3.50884   3.09202    0.000
 5761.00    3.47719   3.13794    0.000
 5762.00    3.42443   3.15468    0.000
 5763.00    3.36560   3.15135    0.000
 5764.00    3.38508   3.13696    0.000
 5765.00    3.42321   3.11613    0.000
 5766.00    3.44085   3.09313    0.000
 5767.00    3.45457   3.07241    0.000
 5768.00    3.42371   3.05816    0.000
 5769.00    3.38622   3.05484    0.000
 5770.00    3.38458   3.06323    0.000
 5771.00    3.38685   3.07562    0.000
 5772.00    3.42019   3.07556    0.000
 5773.00    3.45575   3.04408    0.000
 5774.00    3.30146   2.97443    0.000
 5775.00    3.14016   2.88557    0.000
 5776.00    3.19862   2.81160    0.000
 5777.00    3.25878   2.77231    0.000
 5778.00    3.34692   2.76112    0.000
 5779.00    3.42555   2.76664    0.000
 5780.00    3.35133   2.79189    0.000
 5781.00    3.30212   2.84294    0.000
 5782.00    3.50608   2.90899    0.000
 5783.00    3.65634   2.96363    0.000
 5784.00    3.41748   2.98776    0.000
 5785.00    3.20193   2.98960    0.000
 5786.00    3.11583   2.99464    0.000
 5787.00    3.05131   3.01924    0.000
 5788.00    3.08250   3.05867    0.000
 5789.00    3.08648   3.09217    0.000
 5790.00    2.99126   3.09878    0.000
 5791.00    2.87854   3.07776   -2.000
 5792.00    2.71239   3.05493   -2.000
 5793.00    2.59928   3.06114   -2.000
 5794.00    2.62383   3.10174   -2.000
 5795.00    2.72682   3.15259   -2.000
 5796.00    3.00485   3.18191   -2.000
 5797.00    3.20611   3.17249   -2.000
 5798.00    3.25890   3.13193   -2.000
 5799.00    3.27104   3.08529   -2.000
 5800.00    3.21461   3.05613   -2.000
 5801.00    3.24522   3.05224   -2.000
 5802.00    3.40452   3.06604   -2.000
 5803.00    3.57348   3.08646   -2.000
 5804.00    3.75499   3.10769   -2.000
 5805.00    3.85309   3.12649   -2.000
 5806.00    3.85569   3.13774   -2.000
 5807.00    3.72812   3.13518   -2.000
 5808.00    3.46912   3.11446   -2.000
 5809.00    3.24443   3.07972   -2.000
 5810.00    3.05027   3.04895   -2.000
 5811.00    2.93074   3.04572    0.000
 5812.00    2.86976   3.07801    0.000
 5813.00    3.00804   3.12938    0.000
 5814.00    3.28384   3.17403    0.000
 5815.00    3.41253   3.19604    0.000
 5816.00    3.45221   3.19572    0.000
 5817.00    3.34042   3.18438    0.000
 5818.00    3.14864   3.17470    0.000
 5819.00    3.19090   3.17260    0.000
 5820.00    3.34040   3.17543    0.000
 5821.00    3.26708   3.17871    0.000
 5822.00    3.10586   3.18233    0.000
 5823.00    3.11220   3.18767    0.000
 5824.00    3.17485   3.19220    0.000
 5825.00    3.13771   3.19132    0.000
 5826.00    3.07239   3.18337    0.000
 5827.00    3.13550   3.16890    0.000
 5828.00    3.22850   3.15076    0.000
 5829.00    3.09418   3.13635    0.000
 5830.00    2.91737   3.13161    0.000
 5831.00    2.95282   3.13287    0.000
 5832.00    3.01889   3.13447    0.000
 5833.00    3.07484   3.14029    0.000
 5834.00    3.12974   3.15765    0.000
 5835.00    3.05319   3.18479    0.000
 5836.00    2.96774   3.21037    0.000
 5837.00    3.07727   3.22249    0.000
 5838.00    3.19325   3.21586    0.000
 5839.00    3.21393   3.19218    0.000
 5840.00    3.23367   3.15773    0.000
 5841.00    3.22584   3.12283    0.000
 5842.00    3.22829   3.09932    0.000
 5843.00    3.38605   3.09185    0.000
 5844.00    3.50705   3.09205    0.000
 5845.00    3.27135   3.08419    0.000
 5846.00    3.05556   3.05884    0.000
 5847.00    2.97942   3.02386    0.000
 5848.00    2.92171   2.99629    0.000
 5849.00    2.96359   2.97955    0.000
 5850.00    2.98672   2.95841    0.000
 5851.00    2.92864   2.92477    0.000
 5852.00    2.87811   2.89633    0.000
 5853.00    2.85458   2.89853    0.000
 5854.00    2.86092   2.93420    0.000
 5855.00    2.95672   2.98108    0.000
 5856.00    3.09898   3.01513    0.000
 5857.00    3.35980   3.03241    0.000
 5858.00    3.46995   3.04172    0.000
 5859.00    3.24930   3.04508    0.000
 5860.00    3.05304   3.04019    0.000
 5861.00    2.90325   3.03568    0.000
 5862.00    2.80692   3.04698    0.000
 5863.00    2.79944   3.07664    0.000
 5864.00    2.84095   3.11062    0.000
 5865.00    2.95384   3.13152    0.000
 5866.00    3.08586   3.13332    0.000
 5867.00    3.24236   3.12453    0.000
 5868.00    3.28186   3.11846    0.000
 5869.00    3.18929   3.11793    0.000
 5870.00    3.01585   3.11456    0.000
 5871.00    2.76189   3.10096    0.000
 5872.00    2.70343   3.07588    0.000
 5873.00    2.81661   3.04349    0.000
 5874.00    2.95064   3.01305    0.000
 5875.00    3.10079   2.99663    0.000
 5876.00    3.19343   2.99586    0.000
 5877.00    3.24695   2.99884    0.000
 5878.00    3.28863   2.99594    0.000
 5879.00    3.32327   2.98480    0.000
 5880.00    3.34116   2.95276    0.000
 5881.00    3.35035   2.86795    0.000
 5882.00    3.38227   2.70054    0.000
 5883.00    3.42444   2.46839    0.000
 5884.00    3.35436   2.26301    0.000
 5885.00    3.24077   2.18853    0.000
 5886.00    3.13359   2.25504    0.000
 5887.00    3.02853   2.37322    0.000
 5888.00    3.01546   2.44049    0.000
 5889.00    3.02784   2.41659    0.000
 5890.00    2.90004   2.36084    0.000
 5891.00    2.74037   2.37284    0.000
 5892.00    2.67791   2.48086    0.000
 5893.00    2.63313   2.63510    0.000
 5894.00    2.64515   2.77908    0.000
 5895.00    2.66510   2.88528    0.000
 5896.00    2.78636   2.95197    0.000
 5897.00    2.91778   2.98934    0.000
 5898.00    3.07663   3.00679    0.000
 5899.00    3.23722   3.01104    0.000
 5900.00    3.21376   3.01209    0.000
 5901.00    3.18492   3.02025   -1.000
 5902.00    3.16347   3.03641   -1.000
 5903.00    3.13972   3.05360   -1.000
 5904.00    3.05114   3.06694   -1.000
 5905.00    2.96047   3.07414   -1.000
 5906.00    2.83999   3.06835   -1.000
 5907.00    2.72265   3.04106   -1.000
 5908.00    2.63445   2.99734   -1.000
 5909.00    2.55674   2.95866   -1.000
 5910.00    2.55021   2.94450   -1.000
 5911.00    2.56877   2.95991   -1.000
 5912.00    2.71931   2.99411   -1.000
 5913.00    2.83593   3.03012    0.051
 5914.00    2.80890   3.05675    0.008
 5915.00    2.80339   3.06850    0.005
 5916.00    2.87313   3.06815    0.005
 5917.00    2.90975   3.06696    0.005
 5918.00    2.84899   3.07332    0.005
 5919.00    2.80307   3.08578    0.005
 5920.00    2.79431   3.09632    0.005
 5921.00    2.80249   3.09400    0.005
 5922.00    2.84721   3.07405    0.005
 5923.00    2.87007   3.04443    0.005
 5924.00    2.85194   3.02294    0.005
 5925.00    2.88493   3.02496    0.005
 5926.00    3.00161   3.04413    0.005
 5927.00    3.10892   3.05706    0.005
 5928.00    3.20280   3.05123    0.005
 5929.00    3.30504   3.03968    0.005
 5930.00    3.41787   3.04354    0.005
 5931.00    3.50489   3.06495    0.005
 5932.00    3.56320   3.08963    0.005
 5933.00    3.53580   3.10238    0.005
 5934.00    3.42425   3.09358    0.005
 5935.00    3.37880   3.06754    0.005
 5936.00    3.39057   3.04412    0.005
 5937.00    3.38698   3.04113    0.005
 5938.00    3.37168   3.06015    0.005
 5939.00    3.25542   3.08848    0.005
 5940.00    3.07149   3.10736    0.005
 5941.00    3.03385   3.10311    0.005
 5942.00    3.08209   3.07708    0.005
 5943.00    3.05908   3.04756    0.005
 5944.00    2.99961   3.03431    0.005
 5945.00    2.74030   3.03621    0.005
 5946.00    2.39238   3.03637    0.005
 5947.00    2.23615   3.03016    0.005
 5948.00    2.15295   3.02883    0.005
 5949.00    2.32913   3.03453    0.005
 5950.00    2.58925   3.03570    0.005
 5951.00    2.49231   3.02945    0.005
 5952.00    2.29869   3.02874    0.005
 5953.00    2.33528   3.04595    0.005
 5954.00    2.42302   3.07968    0.005
 5955.00    2.64831   3.11669    0.005
 5956.00    2.89796   3.14273    0.005
 5957.00    3.10690   3.15105    0.005
 5958.00    3.31035   3.14395    0.005
 5959.00    3.30200   3.12894    0.005
 5960.00    3.27330   3.11710    0.005
 5961.00    3.06351   3.11896    0.005
 5962.00    2.84291   3.13483    0.005
 5963.00    2.81510   3.15632    0.005
 5964.00    2.79242   3.17614    0.005
 5965.00    2.80095   3.19027    0.005
 5966.00    2.81001   3.19540    0.005
 5967.00    2.83240   3.18797    0.005
 5968.00    2.86272   3.16449    0.005
 5969.00    2.99965   3.12522    0.005
 5970.00    3.12610   3.07969    0.005
 5971.00    3.15880   3.04493    0.005
 5972.00    3.17766   3.03467    0.005
 5973.00    3.10550   3.05040    0.005
 5974.00    3.04339   3.07975    0.005
 5975.00    3.03282   3.10035    0.005
 5976.00    3.03361   3.09296    0.005
 5977.00    3.08134   3.05627    0.005
 5978.00    3.14663   3.01080    0.005
 5979.00    3.27207   2.98655    0.005
 5980.00    3.34533   2.99722    0.005
 5981.00    3.26798   3.03008    0.005
 5982.00    3.19315   3.06540    0.005
 5983.00    3.12450   3.09250    0.005
 5984.00    3.05994   3.10769    0.005
 5985.00    3.00407   3.11251    0.005
 5986.00    2.95757   3.11675    0.005
 5987.00    2.92837   3.13070    0.005
 5988.00    2.93768   3.14940    0.005
 5989.00    3.00912   3.15498    0.005
 5990.00    3.09123   3.13650    0.005
 5991.00    3.18842   3.10124    0.005
 5992.00    3.24991   3.06999    0.005
 5993.00    3.26696   3.05960    0.005
 5994.00    3.18659   3.06819    0.005
 5995.00    2.99936   3.07955    0.005
 5996.00    2.90934   3.08021    0.005
 5997.00    2.91341   3.07196    0.005
 5998.00    2.98266   3.06580    0.005
 5999.00    3.10754   3.06120    0.005
 6000.00    3.11156   3.04548    0.005
 6001.00    3.02474   3.01668    0.005
 6002.00    2.92763   2.99318    0.005
 6003.00    2.82372   2.99820    0.005
 6004.00    2.70887   3.03279    0.005
 6005.00    2.58768   3.06784    0.005
 6006.00    2.63126   3.07542    0.005
 6007.00    2.75783   3.05777    0.005
 6008.00    2.90367   3.03729    0.005
 6009.00    3.05791   3.02844    0.005
 6010.00    2.90444   3.02640    0.005
 6011.00    2.63584   3.02326    0.005
 6012.00    2.64428   3.01886    0.005
 6013.00    2.74065   3.01213    0.005
 6014.00    2.92974   3.00170    0.005
 6015.00    3.14341   2.99483    0.005
 6016.00    3.22035   3.00033    0.005
 6017.00    3.26764   3.01836    0.005
 6018.00    3.25659   3.04319    0.005
 6019.00    3.23551   3.06974    0.005
 6020.00    3.18141   3.09491    0.005
 6021.00    3.12299   3.11595    0.005
 6022.00    3.05299   3.13496    0.005
 6023.00    2.98191   3.15482    0.005
 6024.00    2.91292   3.17225    0.005
 6025.00    2.84404   3.18478    0.005
 6026.00    2.79823   3.19541    0.005
 6027.00    2.75402   3.20653    0.005
 6028.00    2.81866   3.21557    0.005
 6029.00    2.88426   3.22017    0.005
 6030.00    2.97226   3.22145    0.005
 6031.00    3.05946   3.22040    0.005
 6032.00    3.13655   3.21539    0.005
 6033.00    3.20400   3.20451    0.005
 6034.00    3.18828   3.19014    0.005
 6035.00    3.16607   3.18007    0.005
 6036.00    3.10244   3.18103    0.005
 6037.00    3.06160   3.19404    0.005
 6038.00    3.13470   3.21503    0.005
 6039.00    3.19669   3.23517    0.005
 6040.00    3.21377   3.24792    0.005
 6041.00    3.23178   3.25328    0.005
 6042.00    3.25290   3.25406    0.005
 6043.00    3.25115   3.25331    0.005
 6044.00    3.18459   3.25253    0.005
 6045.00    3.10597   3.24869    0.005
 6046.00    2.99814   3.23580    0.005
 6047.00    2.92686   3.21243    0.005
 6048.00    2.93200   3.18385    0.005
 6049.00    2.95016   3.15780    0.005
 6050.00    2.99198   3.14005    0.005
 6051.00    2.98964   3.13548    0.005
 6052.00    2.91712   3.14751    0.005
 6053.00    2.87175   3.17093    0.005
 6054.00    2.86426   3.19275    0.005
 6055.00    2.81998   3.19928    0.005
 6056.00    2.73055   3.18369    0.005
 6057.00    2.69744   3.14826    0.005
 6058.00    2.72527   3.10614    0.005
 6059.00    2.86530   3.07791    0.005
 6060.00    3.11240   3.08287    0.005
 6061.00    3.21153   3.12723    0.005
 6062.00    3.18616   3.19094    0.005
 6063.00    3.07768   3.24454    0.005
 6064.00    2.90762   3.27583    0.005
 6065.00    2.87293   3.28993    0.005
 6066.00    2.92632   3.29577    0.005
 6067.00    2.89974   3.29760    0.005
 6068.00    2.82762   3.29439    0.005
 6069.00    2.83845   3.28239    0.005
 6070.00    2.89042   3.25777    0.005
 6071.00    2.92844   3.22098    0.005
 6072.00    2.96049   3.17966    0.005
 6073.00    2.98426   3.14427    0.005
 6074.00    3.00498   3.12169    0.005
 6075.00    3.15839   3.10909    0.005
 6076.00    3.35310   3.09897    0.005
 6077.00    3.36061   3.09332    0.005
 6078.00    3.31955   3.09741    0.005
 6079.00    3.11507   3.10687    0.005
 6080.00    2.87602   3.11639    0.005
 6081.00    2.80339   3.12538    0.005
 6082.00    2.75860   3.12959    0.005
 6083.00    2.57055   3.12160    0.005
 6084.00    2.36445   3.10126    0.005
 6085.00    2.45191   3.08109    0.005
 6086.00    2.56510   3.07643    0.005
 6087.00    2.88037   3.09044    0.005
 6088.00    3.20609   3.11653    0.005
 6089.00    3.17108   3.14605    0.005
 6090.00    3.12881   3.16794    0.004
 6091.00    3.03595   3.17641    0.004
 6092.00    2.94348   3.17864    0.005
 6093.00    2.85934   3.17828    0.005
 6094.00    2.79385   3.16042    0.005
 6095.00    2.95458   3.10903    0.005
 6096.00    3.11071   3.03493    0.005
 6097.00    3.22873   2.97837    0.005
 6098.00    3.33375   2.98017    0.005
 6099.00    3.35818   3.03675    0.005
 6100.00    3.36525   3.10115    0.005
 6101.00    3.28774   3.14092    0.005
 6102.00    3.21168   3.15820    0.005
 6103.00    3.14143   3.16685    0.005
 6104.00    3.07917   3.17425    0.005
 6105.00    3.04324   3.17854    0.005
 6106.00    3.01466   3.18221    0.005
 6107.00    3.00652   3.19359    0.005
 6108.00    3.00815   3.20834    0.005
 6109.00    3.03305   3.21242    0.005
 6110.00    3.06754   3.20130    0.005
 6111.00    3.12179   3.18184    0.005
 6112.00    3.11901   3.16005    0.005
 6113.00    3.01416   3.12794    0.005
 6114.00    2.95181   3.07533    0.005
 6115.00    2.95601   3.01507    0.005
 6116.00    3.00076   2.97700    0.005
 6117.00    3.10125   2.98226    0.005
 6118.00    3.18168   3.02805    0.004
 6119.00    3.23783   3.08125    0.004
 6120.00    3.19078   3.10822    0.004
 6121.00    3.03367   3.10878    0.005
 6122.00    2.90983   3.10337    0.005
 6123.00    2.81728   3.11008    0.005
 6124.00    2.83685   3.13485    0.005
 6125.00    2.94941   3.16790    0.005
 6126.00    3.06311   3.18958    0.005
 6127.00    3.17764   3.18101    0.005
 6128.00    3.21457   3.12897    0.005
 6129.00    3.20175   3.03170    0.005
 6130.00    3.16967   2.91589    0.005
 6131.00    3.12677   2.83484    0.005
 6132.00    3.10478   2.83301    0.005
 6133.00    3.09299   2.90747    0.005
 6134.00    3.10028   3.00320    0.005
 6135.00    3.11561   3.06748    0.005
 6136.00    3.09492   3.09773    0.005
 6137.00    3.06122   3.12374    0.005
 6138.00    3.01176   3.16099    0.005
 6139.00    2.95748   3.19472    0.005
 6140.00    2.98520   3.20600    0.005
 6141.00    3.03374   3.19224    0.005
 6142.00    3.02060   3.16259    0.005
 6143.00    2.99473   3.13075    0.005
 6144.00    2.87320   3.11112    0.005
 6145.00    2.73612   3.11065    0.005
 6146.00    2.71574   3.12285    0.005
 6147.00    2.70955   3.13222    0.004
 6148.00    2.77842   3.12840    0.004
 6149.00    2.85355   3.11416    0.004
 6150.00    2.91793   3.10118    0.005
 6151.00    2.98180   3.09390    0.005
 6152.00    3.07360   3.07890    0.005
 6153.00    3.16510   3.03429    0.004
 6154.00    3.21514   2.94778    0.005
 6155.00    3.26169   2.83239    0.005
 6156.00    3.23984   2.73147    0.005
 6157.00    3.21415   2.69372    0.005
 6158.00    3.14410   2.73165    0.005
 6159.00    3.07242   2.81335    0.005
 6160.00    2.98770   2.89169    0.005
 6161.00    2.90835   2.93204    0.005
 6162.00    2.86130   2.92581    0.005
 6163.00    2.84343   2.89181    0.005
 6164.00    2.96424   2.86732    0.005
 6165.00    3.05494   2.88365    0.005
 6166.00    3.02899   2.93641    0.005
 6167.00    3.01582   2.99213    0.005
 6168.00    3.04385   3.02640    0.005
 6169.00    3.06089   3.04073    0.005
 6170.00    3.04787   3.04675    0.005
 6171.00    3.04124   3.05381    0.005
 6172.00    3.04956   3.06624    0.004
 6173.00    3.10322   3.08281    0.004
 6174.00    3.24865   3.09913    0.004
 6175.00    3.31908   3.11376    0.004
 6176.00    3.25730   3.12807    0.004
 6177.00    3.18454   3.13763    0.004
 6178.00    3.09483   3.13388    0.004
 6179.00    3.09194   3.11280    0.005
 6180.00    3.20667   3.07788    0.005
 6181.00    3.23458   3.03696    0.005
 6182.00    3.15894   2.99818    0.005
 6183.00    3.03374   2.96075    0.005
 6184.00    2.85641   2.92023    0.005
 6185.00    2.78613   2.88763    0.005
 6186.00    2.81513   2.88578    0.005
 6187.00    2.92617   2.92766    0.005
 6188.00    3.10429   2.99868    0.005
 6189.00    3.22263   3.06586    0.005
 6190.00    3.29795   3.10798    0.005
 6191.00    3.18422   3.11857    0.005
 6192.00    2.95108   3.09833    0.005
 6193.00    2.70523   3.06090    0.005
 6194.00    2.45236   3.03254    0.005
 6195.00    2.29728   3.03537    0.005
 6196.00    2.18915   3.06799   -2.000
 6197.00    2.39639   3.10783   -2.000
 6198.00    2.73435   3.13550   -2.000
 6199.00    3.39269   3.14856   -2.000
 6200.00    4.16458   3.15399   -2.000
 6201.00    4.16595   3.15644   -2.000
 6202.00    3.93673   3.15402   -2.000
 6203.00    3.63625   3.14270   -2.000
 6204.00    3.31807   3.12015   -2.000
 6205.00    3.08117   3.08340   -2.000
 6206.00    2.86063   3.02965   -2.000
 6207.00    2.96509   2.96396   -2.000
 6208.00    3.12081   2.90167    0.005
 6209.00    3.18735   2.86431    0.005
 6210.00    3.24343   2.86370    0.005
 6211.00    3.22971   2.88741    0.005
 6212.00    3.21046   2.91019    0.005
 6213.00    3.09850   2.91621    0.005
 6214.00    2.98246   2.91140    0.005
 6215.00    2.83091   2.91425    0.005
 6216.00    2.68265   2.93284    0.005
 6217.00    2.70956   2.95818    0.004
 6218.00    2.73436   2.97979    0.004
 6219.00    2.72044   2.99441    0.005
 6220.00    2.70393   3.00272    0.005
 6221.00    2.65902   2.99968    0.004
 6222.00    2.63252   2.97288    0.004
 6223.00    2.74828   2.91862    0.004
 6224.00    2.87643   2.85435    0.004
 6225.00    3.07712   2.81242    0.004
 6226.00    3.23556   2.81828    0.004
 6227.00    3.19799   2.87365    0.004
 6228.00    3.13022   2.95239    0.005
 6229.00    2.94791   3.02095    0.004
 6230.00    2.78534   3.05560    0.004
 6231.00    2.68525   3.04957    0.004
 6232.00    2.62223   3.01307    0.005
 6233.00    2.65872   2.96536    0.005
 6234.00    2.73271   2.92436    0.004
 6235.00    2.89305   2.89511    0.004
 6236.00    3.02356   2.87282    0.004
 6237.00    3.09466   2.85563    0.005
 6238.00    3.09704   2.84678    0.005
 6239.00    2.98012   2.85449    0.005
 6240.00    2.86175   2.88429    0.005
 6241.00    2.74118   2.93011    0.005
 6242.00    2.65954   2.97805    0.005
 6243.00    2.62989   3.00988    0.005
 6244.00    2.61592   3.00818    0.004
 6245.00    2.62040   2.97035    0.004
 6246.00    2.63641   2.91354    0.004
 6247.00    2.66437   2.86117    0.004
 6248.00    2.70500   2.82743    0.004
 6249.00    2.75720   2.80781    0.004
 6250.00    2.81304   2.78854    0.004
 6251.00    2.87180   2.76613    0.004
 6252.00    2.94992   2.75583    0.004
 6253.00    3.04177   2.77618    0.004
 6254.00    3.04350   2.82817    0.004
 6255.00    2.98915   2.89822    0.004
 6256.00    2.88166   2.96479    0.004
 6257.00    2.74528   3.00807    0.004
 6258.00    2.66785   3.02119    0.005
 6259.00    2.61827   3.01424    0.005
 6260.00    2.63417   3.00546    0.005
 6261.00    2.67675   3.00545    0.006
 6262.00    2.89738   3.01094    0.006
 6263.00    3.17997   3.01420    0.006
 6264.00    3.25925   3.01604    0.006
 6265.00    3.27889   3.02330    0.006
 6266.00    3.21402   3.03748    0.005
 6267.00    3.12863   3.05217    0.005
 6268.00    3.17305   3.06242    0.005
 6269.00    3.24296   3.06722    0.005
 6270.00    3.07163   3.06747    0.005
 6271.00    2.86340   3.06296    0.005
 6272.00    2.80235   3.04986    0.005
 6273.00    2.75791   3.02691    0.005
 6274.00    2.80600   3.00330    0.005
 6275.00    2.86105   2.99280    0.004
 6276.00    2.85971   3.00384    0.004
 6277.00    2.85610   3.03317    0.004
 6278.00    2.82101   3.06618    0.004
 6279.00    2.78878   3.09415    0.004
 6280.00    2.88222   3.11759    0.000
 6281.00    2.97992   3.13914    0.000
 6282.00    3.15034   3.15587    0.000
 6283.00    3.30659   3.15784    0.000
 6284.00    3.31377   3.14052    0.000
 6285.00    3.31191   3.11173    0.000
 6286.00    3.24265   3.08525    0.000
 6287.00    3.17318   3.07013    0.000
 6288.00    3.10245   3.06160    0.000
 6289.00    3.01878   3.04638    0.000
 6290.00    2.87648   3.02069    0.000
 6291.00    2.76227   2.99499    0.000
 6292.00    2.75232   2.98186    0.000
 6293.00    2.75367   2.98069    0.000
 6294.00    2.79011   2.97842    0.000
 6295.00    2.84258   2.96928    0.000
 6296.00    2.93731   2.96371    0.000
 6297.00    3.00284   2.97456    0.000
 6298.00    3.00227   3.00245    0.000
 6299.00    2.97036   3.03900    0.000
 6300.00    2.87699   3.07744    0.000
 6301.00    2.80553   3.11208    0.000
 6302.00    2.77153   3.13501    0.000
 6303.00    2.77658   3.13743    0.000
 6304.00    2.84012   3.11855    0.000
 6305.00    2.86704   3.08993    0.000
 6306.00    2.84576   3.06369    0.000
 6307.00    2.78773   3.04032    0.000
 6308.00    2.68707   3.01444    0.000
 6309.00    2.66348   2.98666    0.000
 6310.00    2.71867   2.96050    0.000
 6311.00    2.77293   2.93930    0.000
 6312.00    2.82636   2.93059    0.000
 6313.00    2.84916   2.94146    0.000
 6314.00    2.84761   2.97153    0.000
 6315.00    2.85576   3.01084    0.000
 6316.00    2.87069   3.04783    0.000
 6317.00    2.84646   3.07962    0.000
 6318.00    2.79823   3.10733    0.000
 6319.00    2.82751   3.12951    0.000
 6320.00    2.89830   3.14183    0.000
 6321.00    2.97780   3.14541    0.005
 6322.00    3.06136   3.14535    0.005
 6323.00    3.10117   3.14366    0.005
 6324.00    3.12345   3.14322    0.005
 6325.00    3.05659   3.14670    0.005
 6326.00    2.95929   3.15020    0.004
 6327.00    2.85889   3.14071    0.004
 6328.00    2.75761   3.10518    0.004
 6329.00    2.80179   3.05087    0.004
 6330.00    2.88050   3.00538    0.004
 6331.00    2.93926   2.99219    0.004
 6332.00    2.99419   3.01276    0.004
 6333.00    2.89041   3.05139    0.004
 6334.00    2.76308   3.08719    0.004
 6335.00    2.76716   3.10308    0.004
 6336.00    2.78549   3.09274    0.004
 6337.00    2.91244   3.06447    0.004
 6338.00    3.04711   3.04058    0.004
 6339.00    3.03754   3.04000    0.004
 6340.00    3.02273   3.06311    0.005
 6341.00    2.95494   3.09748    0.004
 6342.00    2.88722   3.12958    0.004
 6343.00    2.82912   3.15281    0.005
 6344.00    2.77527   3.16647    0.005
 6345.00    2.78915   3.16934    0.005
 6346.00    2.79507   3.15849    0.004
 6347.00    2.72078   3.13309    0.004
 6348.00    2.64379   3.09871    0.004
 6349.00    2.54727   3.06613    0.004
 6350.00    2.48987   3.03974    0.004
 6351.00    2.64890   3.01253    0.004
 6352.00    2.78574   2.97804    0.004
 6353.00    2.82452   2.93971    0.004
 6354.00    2.86479   2.90597    0.004
 6355.00    2.91048   2.88327    0.004
 6356.00    2.94852   2.87573    0.004
 6357.00    2.96331   2.88749    0.004
 6358.00    2.92558   2.92035    0.004
 6359.00    2.75180   2.96937    0.004
 6360.00    2.63692   3.02436    0.004
 6361.00    2.65323   3.07570    0.004
 6362.00    2.67078   3.11567    0.004
 6363.00    2.69075   3.14092    0.005
 6364.00    2.68380   3.15598    0.005
 6365.00    2.63154   3.16992    0.005
 6366.00    2.66219   3.18769    0.005
 6367.00    2.81519   3.20522    0.005
 6368.00    2.93401   3.21544    0.005
 6369.00    3.00847   3.21565    0.005
 6370.00    2.98866   3.20693    0.005
 6371.00    2.86111   3.19013    0.005
 6372.00    2.79487   3.16774    0.005
 6373.00    2.79044   3.14690    0.004
 6374.00    2.75143   3.13515    0.004
 6375.00    2.68168   3.13599    0.004
 6376.00    2.64187   3.14541    0.004
 6377.00    2.62551   3.15514    0.004
 6378.00    2.60294   3.16214    0.004
 6379.00    2.57608   3.16962    0.004
 6380.00    2.57725   3.18051    0.004
 6381.00    2.59533   3.19299    0.004
 6382.00    2.56786   3.20160    0.004
 6383.00    2.51638   3.20050    0.004
 6384.00    2.51512   3.18362    0.004
 6385.00    2.53682   3.14672    0.004
 6386.00    2.57553   3.09538    0.004
 6387.00    2.62093   3.05197    0.004
 6388.00    2.64444   3.04361    0.004
 6389.00    2.66062   3.07505    0.004
 6390.00    2.64882   3.12159    0.004
 6391.00    2.62914   3.14648    0.004
 6392.00    2.59564   3.12843    0.004
 6393.00    2.55894   3.08073    0.005
 6394.00    2.69170   3.04473    0.005
 6395.00    2.85603   3.05534    0.005
 6396.00    2.96693   3.10839    0.005
 6397.00    3.07014   3.17106    0.005
 6398.00    2.93800   3.20961    0.005
 6399.00    2.78136   3.21060    0.005
 6400.00    2.76639   3.18378    0.004
 6401.00    2.76094   3.14793    0.004
 6402.00    2.81886   3.12179    0.004
 6403.00    2.87885   3.11197    0.004
 6404.00    2.92547   3.10850    0.004
 6405.00    2.96916   3.10303    0.004
 6406.00    2.92194   3.09962    0.004
 6407.00    2.87547   3.10597    0.004
 6408.00    2.84033   3.12371    0.004
 6409.00    2.81136   3.14614    0.004
 6410.00    2.84200   3.16175    0.004
 6411.00    2.86874   3.16057    0.004
 6412.00    2.86827   3.13841    0.004
 6413.00    2.83631   3.10116    0.004
 6414.00    2.63472   3.06860    0.004
 6415.00    2.46269   3.06417    0.004
 6416.00    2.41840   3.09600    0.005
 6417.00    2.39505   3.14885    0.005
 6418.00    2.44624   3.19790    0.005
 6419.00    2.51750   3.23045    0.005
 6420.00    2.64875   3.24684    0.005
 6421.00    2.74520   3.24816    0.005
 6422.00    2.75309   3.22848    0.004
 6423.00    2.74161   3.18441    0.004
 6424.00    2.68773   3.12987    0.004
 6425.00    2.67897   3.09385    0.004
 6426.00    2.75595   3.09634    0.004
 6427.00    2.83577   3.13166    0.004
 6428.00    2.92028   3.17650    0.004
 6429.00    2.97407   3.20627    0.004
 6430.00    2.98318   3.20693    0.004
 6431.00    2.92888   3.17955    0.004
 6432.00    2.79351   3.14130    0.004
 6433.00    2.71862   3.12188    0.004
 6434.00    2.71188   3.14114    0.004
 6435.00    2.76834   3.19065    0.004
 6436.00    2.88760   3.24460    0.004
 6437.00    2.99010   3.28314    0.004
 6438.00    3.07790   3.30221    0.005
 6439.00    3.06967   3.30581    0.005
 6440.00    2.98730   3.28939    0.004
 6441.00    2.92663   3.24066    0.005
 6442.00    2.88071   3.15751    0.005
 6443.00    2.85376   3.06404    0.005
 6444.00    2.83811   3.00520    0.004
 6445.00    2.89206   3.01056    0.004
 6446.00    2.98211   3.06562    0.004
 6447.00    3.06160   3.12925    0.004
 6448.00    3.13634   3.16693    0.005
 6449.00    3.10602   3.17658    0.005
 6450.00    3.03507   3.18239    0.005
 6451.00    2.91613   3.20399    0.004
 6452.00    2.78139   3.23751    0.004
 6453.00    2.72671   3.25948    0.004
 6454.00    2.69413   3.24657    0.004
 6455.00    2.66273   3.19566    0.004
 6456.00    2.63160   3.13252    0.004
 6457.00    2.52726   3.09683    0.004
 6458.00    2.40965   3.10968    0.004
 6459.00    2.22347   3.15665    0.004
 6460.00    2.02774   3.20852    0.004
 6461.00    1.97686   3.24097    0.004
 6462.00    1.94044   3.24697    0.004
 6463.00    2.06085   3.23251    0.004
 6464.00    2.19116   3.21099    0.004
 6465.00    2.37930   3.19480    0.004
 6466.00    2.56900   3.19120    0.005
 6467.00    2.72503   3.19706    0.005
 6468.00    2.87657   3.20251    0.005
 6469.00    2.90304   3.20566    0.004
 6470.00    2.92484   3.21149    0.004
 6471.00    2.88069   3.22206    0.004
 6472.00    2.82867   3.22937    0.004
 6473.00    2.70387   3.22217    0.004
 6474.00    2.58750   3.19391    0.004
 6475.00    2.52826   3.15087    0.004
 6476.00    2.49661   3.11311    0.004
 6477.00    2.60969   3.10158    0.004
 6478.00    2.70732   3.12072    0.004
 6479.00    2.73967   3.15712    0.004
 6480.00    2.77560   3.19218    0.004
 6481.00    2.82403   3.21323    0.004
 6482.00    2.83304   3.21553    0.004
 6483.00    2.72635   3.19851    0.004
 6484.00    2.65412   3.16280    0.004
 6485.00    2.66810   3.10684    0.004
 6486.00    2.66363   3.02596    0.004
 6487.00    2.61942   2.92164    0.004
 6488.00    2.60303   2.81423    0.004
 6489.00    2.63871   2.74038    0.004
 6490.00    2.68239   2.72387    0.004
 6491.00    2.73918   2.75910    0.004
 6492.00    2.73757   2.82330    0.004
 6493.00    2.65229   2.89353    0.004
 6494.00    2.60825   2.96261    0.004
 6495.00    2.61621   3.02745    0.004
 6496.00    2.60631   3.08388    0.004
 6497.00    2.57658   3.12969    0.004
 6498.00    2.57564   3.16343    0.004
 6499.00    2.60291   3.18629    0.004
 6500.00    2.63651   3.19719    0.004
 6501.00    2.67558   3.19658    0.004
 6502.00    2.69942   3.18973    0.004
 6503.00    2.71166   3.18689    0.004
 6504.00    2.72187   3.19337    0.004
 6505.00    2.73073   3.20553    0.004
 6506.00    2.71647   3.21421    0.004
 6507.00    2.68866   3.21267    0.004
 6508.00    2.68596   3.19792    0.004
 6509.00    2.69607   3.17209    0.004
 6510.00    2.74715   3.14193    0.004
 6511.00    2.81636   3.11758    0.004
 6512.00    2.80378   3.10789    0.004
 6513.00    2.76013   3.11918    0.004
 6514.00    2.77839   3.14857    0.004
 6515.00    2.81662   3.18285    0.005
 6516.00    2.89003   3.20975    0.004
 6517.00    2.97293   3.22383    0.004
 6518.00    3.01993   3.22453    0.004
 6519.00    3.05899   3.21336    0.004
 6520.00    3.04807   3.19475    0.004
 6521.00    3.02835   3.17968    0.004
 6522.00    2.97486   3.17799    0.004
 6523.00    2.91683   3.18577    0.004
 6524.00    2.78706   3.19034    0.004
 6525.00    2.65044   3.18353    0.004
 6526.00    2.55724   3.17065    0.004
 6527.00    2.46661   3.16576    0.004
 6528.00    2.56061   3.17665    0.000
 6529.00    2.65895   3.19810    0.000
 6530.00    2.71296   3.21839    0.000
 6531.00    2.76665   3.23184    0.000
 6532.00    2.81243   3.24247    0.000
 6533.00    2.85247   3.25284    0.000
 6534.00    2.81576   3.25780    0.000
 6535.00    2.78105   3.24963    0.000
 6536.00    2.76427   3.22673    0.000
 6537.00    2.75020   3.19298    0.000
 6538.00    2.75399   3.15383    0.000
 6539.00    2.77118   3.11684    0.000
 6540.00    2.85694   3.09239    0.000
 6541.00    2.94754   3.09108    0.000
 6542.00    3.05812   3.10895    0.000
 6543.00    3.10565   3.12901    0.000
 6544.00    2.93771   3.13674    0.000
 6545.00    2.79549   3.12650    0.000
 6546.00    2.72738   3.10274    0.000
 6547.00    2.65234   3.07056    0.000
 6548.00    2.56026   3.03646    0.000
 6549.00    2.50453   3.01036    0.000
 6550.00    2.52588   3.00011    0.000
 6551.00    2.57271   3.00055    0.000
 6552.00    2.66651   2.99013    0.000
 6553.00    2.72981   2.93698    0.000
 6554.00    2.74401   2.81836    0.000
 6555.00    2.72275   2.64764    0.000
 6556.00    2.65141   2.48817    0.000
 6557.00    2.60696   2.42742    0.000
 6558.00    2.59593   2.50991    0.000
 6559.00    2.60244   2.68704    0.000
 6560.00    2.62816   2.86915    0.000
 6561.00    2.68848   2.99450    0.000
 6562.00    2.78223   3.05124    0.000
 6563.00    2.79944   3.06177    0.000
 6564.00    2.75143   3.05346    0.000
 6565.00    2.70596   3.03855    0.000
 6566.00    2.66241   3.01856    0.000
 6567.00    2.62937   2.99901    0.000
 6568.00    2.60325   2.99452    0.000
 6569.00    2.59332   3.01652    0.000
 6570.00    2.59273   3.06315    0.000
 6571.00    2.62001   3.11503    0.000
 6572.00    2.66131   3.14965    0.000
 6573.00    2.60878   3.15740    0.000
 6574.00    2.51543   3.14641    0.000
 6575.00    2.49032   3.13404    0.000
 6576.00    2.49069   3.13384    0.000
 6577.00    2.54348   3.14442    0.000
 6578.00    2.61287   3.15629    0.000
 6579.00    2.56304   3.16477    0.000
 6580.00    2.48167   3.17260    0.000
 6581.00    2.48080   3.18506    0.000
 6582.00    2.49734   3.19872    0.000
 6583.00    2.62553   3.19998    0.000
 6584.00    2.77287   3.17440    0.000
 6585.00    2.85003   3.11909    0.000
 6586.00    2.91807   3.05182    0.000
 6587.00    2.87625   3.00418    0.000
 6588.00    2.82439   2.99964    0.000
 6589.00    2.76405   3.03223    0.000
 6590.00    2.70324   3.07375    0.000
 6591.00    2.66564   3.10351    0.000
 6592.00    2.62993   3.12206    0.000
 6593.00    2.72661   3.14172    0.000
 6594.00    2.82231   3.16822    0.000
 6595.00    2.89574   3.19317    0.000
 6596.00    2.95983   3.20398    0.000
 6597.00    2.90563   3.19531    0.000
 6598.00    2.85412   3.17160    0.000
 6599.00    2.82571   3.14086    0.000
 6600.00    2.80712   3.10913    0.000
 6601.00    2.85098   3.07998    0.000
 6602.00    2.87006   3.06105    0.000
 6603.00    2.76572   3.06223    0.000
 6604.00    2.68941   3.08774    0.000
 6605.00    2.72628   3.12664    0.000
 6606.00    2.75436   3.16105    0.000
 6607.00    2.75302   3.18323    0.000
 6608.00    2.73279   3.19740    0.000
 6609.00    2.65915   3.20990    0.004
 6610.00    2.62497   3.22023    0.004
 6611.00    2.68615   3.22668    0.004
 6612.00    2.69233   3.23141    0.004
 6613.00    2.58373   3.23685    0.004
 6614.00    2.53855   3.23988    0.004
 6615.00    2.60843   3.23323    0.004
 6616.00    2.70928   3.21138    0.004
 6617.00    2.85924   3.17819    0.004
 6618.00    2.90698   3.14675    0.004
 6619.00    2.81243   3.13061    0.004
 6620.00    2.73169   3.13359    0.004
 6621.00    2.66785   3.14597    0.004
 6622.00    2.63881   3.15458    0.004
 6623.00    2.64737   3.15183    0.004
 6624.00    2.67028   3.13543    0.004
 6625.00    2.70686   3.10717    0.004
 6626.00    2.66868   3.07333    0.004
 6627.00    2.56770   3.04701    0.004
 6628.00    2.57599   3.04272    0.004
 6629.00    2.66509   3.06524    0.004
 6630.00    2.72822   3.10261    0.004
 6631.00    2.77449   3.13558    0.004
 6632.00    2.73056   3.15252    0.004
 6633.00    2.63538   3.15515    0.004
 6634.00    2.60146   3.15053    0.004
 6635.00    2.59786   3.14170    0.004
 6636.00    2.63168   3.12773    0.004
 6637.00    2.68152   3.11281    0.004
 6638.00    2.70962   3.10689    0.004
 6639.00    2.72976   3.11428    0.004
 6640.00    2.66206   3.12871    0.004
 6641.00    2.56707   3.14206    0.004
 6642.00    2.53350   3.15200    0.004
 6643.00    2.51583   3.15927    0.004
 6644.00    2.58576   3.16328    0.004
 6645.00    2.67418   3.16316    0.004
 6646.00    2.68236   3.16062    0.004
 6647.00    2.67716   3.15866    0.004
 6648.00    2.73969   3.15872    0.004
 6649.00    2.81073   3.16008    0.004
 6650.00    2.85817   3.16111    0.004
 6651.00    2.90356   3.16069    0.004
 6652.00    2.81889   3.15729    0.004
 6653.00    2.72754   3.14748    0.004
 6654.00    2.76928   3.12785    0.004
 6655.00    2.81340   3.09840    0.004
 6656.00    2.85934   3.06571    0.004
 6657.00    2.89756   3.04063    0.004
 6658.00    2.77289   3.03203    0.004
 6659.00    2.65769   3.03908    0.004
 6660.00    2.65664   3.05422    0.004
 6661.00    2.66556   3.07314    0.004
 6662.00    2.75682   3.09666    0.004
 6663.00    2.83926   3.12488    0.004
 6664.00    2.86721   3.15286    0.004
 6665.00    2.88555   3.17367    0.004
 6666.00    2.85725   3.18390    0.004
 6667.00    2.84430   3.18362    0.004
 6668.00    2.89197   3.17120    0.004
 6669.00    2.92626   3.14216    0.004
 6670.00    2.91657   3.09635    0.004
 6671.00    2.90144   3.04734    0.004
 6672.00    2.87120   3.01800    0.004
 6673.00    2.80120   3.02283    0.004
 6674.00    2.63669   3.05434    0.004
 6675.00    2.51563   3.09288    0.004
 6676.00    2.48376   3.12474    0.004
 6677.00    2.51363   3.14671    0.004
 6678.00    2.65382   3.16031    0.004
 6679.00    2.70685   3.16661    0.004
 6680.00    2.62369   3.16690    0.004
 6681.00    2.62243   3.16432    0.004
 6682.00    2.73353   3.16280    0.004
 6683.00    2.80987   3.16453    0.004
 6684.00    2.84421   3.16802    0.004
 6685.00    2.75598   3.16977    0.004
 6686.00    2.53725   3.16591    0.004
 6687.00    2.44438   3.15326    0.004
 6688.00    2.46971   3.13054    0.004
 6689.00    2.56266   3.10170    0.004
 6690.00    2.71160   3.07716    0.004
 6691.00    2.77771   3.06858    0.004
 6692.00    2.78344   3.07986    0.004
 6693.00    2.74214   3.10404    0.004
 6694.00    2.67073   3.12767    0.004
 6695.00    2.59505   3.13835    0.004
 6696.00    2.51698   3.13240    0.000
 6697.00    2.49771   3.11694    0.000
 6698.00    2.50709   3.10493    0.000
 6699.00    2.52647   3.10520    0.000
 6700.00    2.55007   3.11590    0.000
 6701.00    2.51752   3.12746    0.000
 6702.00    2.46475   3.13127    0.000
 6703.00    2.50143   3.12549    0.000
 6704.00    2.56535   3.11360    0.000
 6705.00    2.59688   3.09899    0.000
 6706.00    2.62020   3.08131    0.000
 6707.00    2.70934   3.05818    0.000
 6708.00    2.81204   3.02894    0.000
 6709.00    2.93343   2.99715    0.000
 6710.00    3.05785   2.97188    0.000
 6711.00    3.01065   2.96504    0.000
 6712.00    2.94267   2.98290    0.000
 6713.00    2.90008   3.01864    0.000
 6714.00    2.85960   3.05682    0.000
 6715.00    2.76219   3.08600    0.000
 6716.00    2.66209   3.10426    0.000
 6717.00    2.63632   3.11349    0.000
 6718.00    2.61149   3.11429    0.000
 6719.00    2.58071   3.10866    0.000
 6720.00    2.54835   3.10331    0.000
 6721.00    2.48524   3.10547    0.000
 6722.00    2.44171   3.11644    0.000
 6723.00    2.62279   3.13096    0.000
 6724.00    2.79331   3.14174    0.000
 6725.00    2.87973   3.14463    0.000
 6726.00    2.92790   3.14077    0.000
 6727.00    2.74665   3.13511    0.000
 6728.00    2.58503   3.13135    0.000
 6729.00    2.51649   3.12788    0.000
 6730.00    2.47772   3.11927    0.000
 6731.00    2.55395   3.10320    0.000
 6732.00    2.61900   3.08485    0.000
 6733.00    2.64809   3.07256    0.000
 6734.00    2.66142   3.06930    0.000
 6735.00    2.63177   3.07044    0.000
 6736.00    2.58356   3.07088    0.000
 6737.00    2.49197   3.07042    0.000
 6738.00    2.48612   3.07088    0.000
 6739.00    2.65348   3.07131    0.000
 6740.00    2.76332   3.06901    0.000
 6741.00    2.77198   3.06281    0.000
 6742.00    2.77684   3.05452    0.000
 6743.00    2.77586   3.04694    0.000
 6744.00    2.83481   3.04254    0.000
 6745.00    2.97477   3.04217    0.000
 6746.00    3.05067   3.04622    0.000
 6747.00    3.05028   3.05687    0.000
 6748.00    2.98383   3.07514    0.000
 6749.00    2.84801   3.09973    0.000
 6750.00    2.77166   3.12678    0.000
 6751.00    2.75036   3.15193    0.000
 6752.00    2.82451   3.17177    0.000
 6753.00    2.97658   3.18382    0.005
 6754.00    3.02747   3.18742    0.005
 6755.00    3.00568   3.18437    0.005
 6756.00    2.81064   3.17763    0.005
 6757.00    2.50637   3.16800    0.005
 6758.00    2.21493   3.15315    0.005
 6759.00    1.93056   3.13116    0.005
 6760.00    2.21244   3.10554    0.005
 6761.00    2.76567   3.08454    0.005
 6762.00    3.00068   3.07444    0.005
 6763.00    3.10406   3.07384    0.005
 6764.00    3.00787   3.07858    0.005
 6765.00    2.84111   3.08871    0.005
 6766.00    2.90359   3.10760    0.005
 6767.00    3.03450   3.13513    0.005
 6768.00    3.11922   3.16450    0.005
 6769.00    3.19251   3.18774    0.005
 6770.00    3.12256   3.20164    0.005
 6771.00    3.02387   3.20859    0.005
 6772.00    2.93475   3.21130    0.005
 6773.00    2.84713   3.20728    0.005
 6774.00    2.78857   3.19109    0.005
 6775.00    2.73339   3.15941    0.005
 6776.00    2.48204   3.11685    0.005
 6777.00    2.21521   3.07543    0.005
 6778.00    2.21937   3.04897    0.005
 6779.00    2.23532   3.04482    0.005
 6780.00    2.41670   3.06115    0.005
 6781.00    2.59617   3.08857    0.005
 6782.00    2.60606   3.11541    0.005
 6783.00    2.61553   3.13411    0.005
 6784.00    2.61732   3.14206    0.005
 6785.00    2.61750   3.13992    0.005
 6786.00    2.59998   3.12994    0.005
 6787.00    2.57363   3.11712    0.005
 6788.00    2.47940   3.10760    0.004
 6789.00    2.40411   3.10528    0.004
 6790.00    2.43922   3.11046    0.005
 6791.00    2.46784   3.12009    0.005
 6792.00    2.46646   3.13165    0.005
 6793.00    2.45750   3.14355    0.005
 6794.00    2.41989   3.15392    0.005
 6795.00    2.36733   3.16004    0.005
 6796.00    2.26756   3.15985    0.005
 6797.00    2.23670   3.15420    0.005
 6798.00    2.39035   3.14708    0.005
 6799.00    2.55454   3.14157    0.005
 6800.00    2.74298   3.13837    0.005
 6801.00    2.87567   3.13749    0.005
 6802.00    2.89751   3.13716    0.005
 6803.00    2.96217   3.13695    0.005
 6804.00    3.10103   3.13754    0.005
 6805.00    3.11159   3.13806    0.005
 6806.00    2.92754   3.13676    0.005
 6807.00    2.75976   3.13249    0.004
 6808.00    2.61363   3.12897    0.004
 6809.00    2.52704   3.13277    0.004
 6810.00    2.51032   3.14425    0.005
 6811.00    2.57423   3.15591    0.005
 6812.00    2.72159   3.16008    0.005
 6813.00    2.79121   3.15722    0.005
 6814.00    2.78986   3.15649    0.005
 6815.00    2.75645   3.16505    0.005
 6816.00    2.69726   3.18121    0.005
 6817.00    2.65469   3.19687    0.005
 6818.00    2.62389   3.20375    0.005
 6819.00    2.60531   3.19844    0.005
 6820.00    2.59433   3.18253    0.005
 6821.00    2.58748   3.16254    0.005
 6822.00    2.58286   3.14855    0.005
 6823.00    2.57842   3.14710    0.005
 6824.00    2.57407   3.15642    0.005
 6825.00    2.62148   3.16885    0.005
 6826.00    2.68993   3.17868    0.004
 6827.00    2.70979   3.18562    0.004
 6828.00    2.71278   3.19014    0.004
 6829.00    2.60979   3.18895    0.004
 6830.00    2.47579   3.17713    0.004
 6831.00    2.47145   3.15209    0.004
 6832.00    2.49853   3.11540    0.005
 6833.00    2.61895   3.07400    0.004
 6834.00    2.75763   3.03753    0.004
 6835.00    2.95047   3.01801    0.005
 6836.00    3.15157   3.02335    0.005
 6837.00    2.96426   3.05246    0.005
 6838.00    2.73336   3.09437    0.005
 6839.00    2.74043   3.13418    0.005
 6840.00    2.76530   3.16173    0.005
 6841.00    2.79920   3.17503    0.005
 6842.00    2.83347   3.17758    0.005
 6843.00    2.68590   3.17499    0.005
 6844.00    2.54481   3.17065    0.005
 6845.00    2.71125   3.16402    0.004
 6846.00    2.86272   3.15139    0.004
 6847.00    2.76137   3.12896    0.004
 6848.00    2.66610   3.10033    0.004
 6849.00    2.63442   3.07688    0.004
 6850.00    2.60175   3.06718    0.004
 6851.00    2.56168   3.07016    0.004
 6852.00    2.50620   3.07674    0.004
 6853.00    2.36342   3.07753    0.004
 6854.00    2.24868   3.07293    0.004
 6855.00    2.26056   3.07395    0.004
 6856.00    2.29413   3.08983    0.005
 6857.00    2.40805   3.11727    0.004
 6858.00    2.49998   3.13973    0.004
 6859.00    2.52384   3.14246    0.005
 6860.00    2.56125   3.12408    0.005
 6861.00    2.63433   3.09914    0.005
 6862.00    2.69918   3.08419    0.005
 6863.00    2.74543   3.08424    0.005
 6864.00    2.81059   3.09071    0.005
 6865.00    2.91279   3.09457    0.014
 6866.00    2.90400   3.09483   -1.000
 6867.00    2.70582   3.09644   -1.000
 6868.00    2.44650   3.10335   -1.000
 6869.00    2.09580   3.11675   -1.000
 6870.00    1.99700   3.13514   -1.000
 6871.00    2.22912   3.15363   -1.000
 6872.00    2.41213   3.16432   -1.000
 6873.00    2.53832   3.16093   -1.000
 6874.00    2.60876   3.14283   -1.000
 6875.00    2.62231   3.11890   -1.000
 6876.00    2.54956   3.10204    0.016
 6877.00    2.39914   3.10137    0.006
 6878.00    2.21796   3.11482    0.004
 6879.00    2.01239   3.13489    0.004
 6880.00    2.05711   3.15741    0.004
 6881.00    2.27647   3.18017    0.005
 6882.00    2.42321   3.20201    0.005
 6883.00    2.52551   3.22057    0.005
 6884.00    2.67185   3.23222    0.005
 6885.00    2.84173   3.23480    0.005
 6886.00    2.88264   3.22939    0.005
 6887.00    2.86373   3.21946    0.004
 6888.00    2.74276   3.20788    0.004
 6889.00    2.58100   3.19993    0.004
 6890.00    2.58109   3.19786    0.004
 6891.00    2.63634   3.20059    0.004
 6892.00    2.65942   3.20421    0.004
 6893.00    2.67328   3.20714    0.004
 6894.00    2.62900   3.21159    0.004
 6895.00    2.57095   3.21923    0.004
 6896.00    2.58828   3.22681    0.004
 6897.00    2.61998   3.23153    0.004
 6898.00    2.63199   3.23372    0.005
 6899.00    2.64109   3.23746    0.005
 6900.00    2.77669   3.24504    0.005
 6901.00    2.92593   3.25315    0.005
 6902.00    2.86889   3.25780    0.005
 6903.00    2.79726   3.25477    0.005
 6904.00    2.48962   3.24229    0.005
 6905.00    2.17351   3.22129    0.004
 6906.00    2.33437   3.19555    0.004
 6907.00    2.49379   3.17150    0.004
 6908.00    2.54901   3.15708    0.004
 6909.00    2.59581   3.15447    0.004
 6910.00    2.50941   3.16202    0.004
 6911.00    2.42737   3.17781    0.004
 6912.00    2.38912   3.19817    0.004
 6913.00    2.36549   3.21998    0.004
 6914.00    2.44700   3.23599    0.004
 6915.00    2.52425   3.23824    0.004
 6916.00    2.57808   3.22207    0.004
 6917.00    2.61439   3.19161    0.004
 6918.00    2.57347   3.16032    0.004
 6919.00    2.53224   3.14326    0.004
 6920.00    2.48988   3.14814    0.005
 6921.00    2.44946   3.16892    0.005
 6922.00    2.41492   3.19251    0.005
 6923.00    2.40025   3.20744    0.005
 6924.00    2.43694   3.20931    0.005
 6925.00    2.43248   3.20107    0.005
 6926.00    2.33656   3.19036    0.005
 6927.00    2.25457   3.18636    0.004
 6928.00    2.19945   3.19272    0.004
 6929.00    2.20680   3.20551    0.004
 6930.00    2.31917   3.21901    0.004
 6931.00    2.45937   3.22931    0.004
 6932.00    2.64055   3.23795    0.004
 6933.00    2.70787   3.24502    0.005
 6934.00    2.62777   3.24624    0.005
 6935.00    2.54362   3.23592    0.005
 6936.00    2.45485   3.21280    0.005
 6937.00    2.41463   3.18310    0.005
 6938.00    2.42327   3.15912    0.005
 6939.00    2.42387   3.15269    0.005
 6940.00    2.41735   3.16530    0.005
 6941.00    2.34689   3.18769    0.005
 6942.00    2.22643   3.20610    0.005
 6943.00    2.31676   3.20919    0.005
 6944.00    2.55204   3.19731    0.005
 6945.00    2.71115   3.17944    0.005
 6946.00    2.82436   3.16554    0.005
 6947.00    2.87961   3.16311    0.005
 6948.00    2.90437   3.17361    0.005
 6949.00    2.77929   3.19253    0.005
 6950.00    2.58584   3.21357    0.005
 6951.00    2.54458   3.23055    0.005
 6952.00    2.56310   3.24135    0.005
 6953.00    2.45460   3.24720    0.004
 6954.00    2.30362   3.25218    0.004
 6955.00    2.22353   3.25717    0.004
 6956.00    2.16337   3.26147    0.005
 6957.00    2.19358   3.26311    0.005
 6958.00    2.24470   3.26170    0.004
 6959.00    2.39332   3.26127    0.005
 6960.00    2.56003   3.26606    0.005
 6961.00    2.48468   3.27525    0.005
 6962.00    2.37469   3.28290    0.005
 6963.00    2.30321   3.28327    0.005
 6964.00    2.23572   3.27682    0.005
 6965.00    2.37925   3.27001    0.005
 6966.00    2.53684   3.26410    0.005
 6967.00    2.49544   3.25239    0.005
 6968.00    2.44767   3.22588    0.005
 6969.00    2.47154   3.18030    0.005
 6970.00    2.49065   3.12218    0.005
 6971.00    2.36355   3.06814    0.005
 6972.00    2.25076   3.04016    0.005
 6973.00    2.35102   3.05271    0.004
 6974.00    2.45109   3.10209    0.004
 6975.00    2.54937   3.16944    0.005
 6976.00    2.61323   3.23107    0.005
 6977.00    2.43776   3.27327    0.005
 6978.00    2.29861   3.29454    0.005
 6979.00    2.35450   3.29838    0.005
 6980.00    2.43834   3.28976    0.005
 6981.00    2.64262   3.27421    0.005
 6982.00    2.84240   3.25909    0.005
 6983.00    3.02622   3.25249    0.005
 6984.00    3.08837   3.25776    0.005
 6985.00    2.78764   3.27083    0.005
 6986.00    2.53633   3.28303    0.005
 6987.00    2.41051   3.28797    0.005
 6988.00    2.32949   3.28651    0.005
 6989.00    2.34645   3.28160    0.005
 6990.00    2.30779   3.27332    0.005
 6991.00    2.16363   3.25853    0.005
 6992.00    2.08380   3.23694    0.005
 6993.00    2.11047   3.21633    0.005
 6994.00    2.19169   3.20630    0.005
 6995.00    2.35207   3.20814    0.005
 6996.00    2.42584   3.21361    0.005
 6997.00    2.38905   3.21291    0.005
 6998.00    2.37750   3.20553    0.005
 6999.00    2.39434   3.19905    0.005
 7000.00    2.47062   3.20161    0.005
 7001.00    2.60586   3.21362    0.005
 7002.00    2.61430   3.22921    0.005
 7003.00    2.51183   3.24100    0.005
 7004.00    2.34420   3.24600    0.005
 7005.00    2.12636   3.24423    0.005
 7006.00    2.20163   3.23416    0.005
 7007.00    2.47552   3.21122    0.005
 7008.00    2.57919   3.17438    0.005
 7009.00    2.58177   3.13655    0.005
 7010.00    2.60742   3.12088    0.005
 7011.00    2.64501   3.14115    0.005
 7012.00    2.58650   3.18920    0.005
 7013.00    2.48485   3.23946    0.005
 7014.00    2.54928   3.26592    0.005
 7015.00    2.67782   3.25930    0.005
 7016.00    2.61891   3.22901    0.005
 7017.00    2.49848   3.19545    0.005
 7018.00    2.47472   3.17770    0.005
 7019.00    2.47755   3.18247    0.005
 7020.00    2.53707   3.20269    0.005
 7021.00    2.60941   3.22650    0.005
 7022.00    2.55627   3.24562    0.005
 7023.00    2.48045   3.25854    0.005
 7024.00    2.31797   3.26571    0.005
 7025.00    2.14348   3.26844    0.005
 7026.00    2.40083   3.26869    0.005
 7027.00    2.70105   3.26833    0.005
 7028.00    2.70849   3.26725    0.005
 7029.00    2.69758   3.26156    0.005
 7030.00    2.56942   3.24780    0.005
 7031.00    2.43875   3.23347    0.005
 7032.00    2.52720   3.23473    0.005
 7033.00    2.60317   3.26300    0.005
 7034.00    2.33637   3.31290    0.005
 7035.00    2.09288   3.36334    0.005
 7036.00    2.17664   3.39281    0.005
 7037.00    2.23365   3.39681    0.005
 7038.00    2.04398   3.38767    0.005
 7039.00    1.91129   3.38264    0.005
 7040.00    2.16252   3.39080    0.005
 7041.00    2.40478   3.40781    0.005
 7042.00    2.60013   3.41890    0.005
 7043.00    2.74679   3.40969    0.005
 7044.00    2.68851   3.37333    0.005
 7045.00    2.59334   3.31411    0.005
 7046.00    2.36990   3.24792    0.005
 7047.00    2.21908   3.19451    0.005
 7048.00    2.28085   3.16770    0.005
 7049.00    2.33262   3.16715    0.005
 7050.00    2.35945   3.17811   -2.000
 7051.00    2.41040   3.18266   -2.000
 7052.00    2.51324   3.17188   -2.000
 7053.00    2.56980   3.15122   -2.000
 7054.00    2.53990   3.13403   -2.000
 7055.00    2.56084   3.12958   -2.000
 7056.00    2.66467   3.13740   -2.000
 7057.00    2.70712   3.14747   -2.000
 7058.00    2.66177   3.14747   -2.000
 7059.00    2.58350   3.13186   -2.000
 7060.00    2.46381   3.10457   -2.000
 7061.00    2.48758   3.08008   -2.000
 7062.00    2.67043   3.07525   -2.000
 7063.00    2.73536   3.09582   -2.000
 7064.00    2.68495   3.13329   -2.000
 7065.00    2.68542   3.17221   -2.000
 7066.00    2.72976   3.20064   -2.000
 7067.00    2.67279   3.21611   -2.000
 7068.00    2.53884   3.22305   -2.000
 7069.00    2.60916   3.22668   -2.000
 7070.00    2.81589   3.23092   -2.000
 7071.00    2.90181   3.23718   -2.000
 7072.00    2.91709   3.24391   -2.000
 7073.00    2.87864   3.24626   -2.000
 7074.00    2.81279   3.23618   -2.000
 7075.00    2.87931   3.20677   -2.000
 7076.00    3.00428   3.15761   -2.000
 7077.00    3.05323   3.09944   -2.000
 7078.00    3.07336   3.04986   -2.000
 7079.00    2.72611   3.01950   -2.000
 7080.00    2.26057   3.00676   -2.000
 7081.00    2.30042   3.00179   -2.000
 7082.00    2.47641   2.99533   -2.000
 7083.00    2.91530   2.98698   -2.000
 7084.00    3.41223   2.98071   -2.000
 7085.00    3.12822   2.97823   -2.000
 7086.00    2.70694   2.97978   -2.000
 7087.00    2.86265   2.98340   -2.000
 7088.00    3.09565   2.98794   -2.000
 7089.00    3.00770   2.99601   -2.000
 7090.00    2.88924   3.00928   -2.000
 7091.00    2.91415   3.02982   -2.000
 7092.00    2.94746   3.05295   -2.000
 7093.00    2.95876   3.07159   -2.000
 7094.00    2.96858   3.08062   -2.000
 7095.00    2.85091   3.08082   -2.000
 7096.00    2.72937   3.08036   -2.000
 7097.00    2.51160   3.08453   -2.000
 7098.00    2.32394   3.09150   -2.000
 7099.00    2.53611   3.09504   -2.000
 7100.00    2.68308   3.09134   -2.000
 7101.00    2.25215   3.08126   -2.000
 7102.00    1.89894   3.06749   -2.000
 7103.00    2.05356   3.05235   -2.000
 7104.00    2.25934   3.03986   -2.000
 7105.00    2.72573   3.03571   -2.000
 7106.00    2.98309   3.04401   -2.000
 7107.00    2.38008   3.06249   -2.000
 7108.00    1.95773   3.08391   -2.000
 7109.00    2.15116   3.10055   -2.000
 7110.00    2.36493   3.10886   -2.000
 7111.00    2.63710   3.10923   -2.000
 7112.00    2.81066   3.10307   -2.000
 7113.00    2.74225   3.09339   -2.000
 7114.00    2.73939   3.08230   -2.000
 7115.00    2.87529   3.07370   -2.000
 7116.00    2.83359   3.06894   -2.000
 7117.00    2.46534   3.06450   -2.000
 7118.00    2.17858   3.05700   -2.000
 7119.00    2.02278   3.04409   -2.000
 7120.00    1.99782   3.02772   -2.000
 7121.00    2.15735   3.01000   -2.000
 7122.00    2.08314   2.99040   -2.000
 7123.00    1.71901   2.97127   -2.000
 7124.00    1.77473   2.96052   -2.000
 7125.00    2.28948   2.96639   -2.000
 7126.00    2.78000   2.99108   -2.000
 7127.00    3.24715   3.02613   -2.000
 7128.00    3.27233   3.05924   -2.000
 7129.00    2.92167   3.08307   -2.000
 7130.00    2.61415   3.09412   -2.000
 7131.00    2.33893   3.09421   -2.000
 7132.00    2.46774   3.08962   -2.000
 7133.00    2.86238   3.08674   -2.000
 7134.00    2.92023   3.08858   -2.000
 7135.00    2.78410   3.09421   -2.000
 7136.00    2.57450   3.09869   -2.000
 7137.00    2.32805   3.09737   -2.000
 7138.00    2.33197   3.08894   -2.000
 7139.00    2.44462   3.07162   -2.000
 7140.00    2.51651   3.04651   -2.000
 7141.00    2.57323   3.02333   -2.000
 7142.00    2.42529   3.01261   -2.000
 7143.00    2.21270   3.02118   -2.000
 7144.00    2.51197   3.04832   -2.000
 7145.00    2.94624   3.08284   -2.000
 7146.00    2.77725   3.11202   -2.000
 7147.00    2.47824   3.12926   -2.000
 7148.00    2.36648   3.13668   -2.000
 7149.00    2.28672   3.14112   -2.000
 7150.00    2.14363   3.14494   -2.000
 7151.00    1.99234   3.14669   -2.000
 7152.00    2.20604   3.14231   -2.000
 7153.00    2.45289   3.13258   -2.000
 7154.00    2.40908   3.12080   -2.000
 7155.00    2.34938   3.10497   -2.000
 7156.00    2.33938   3.08079   -2.000
 7157.00    2.32779   3.05163   -2.000
 7158.00    2.07442   3.03157   -2.000
 7159.00    1.85673   3.03409   -2.000
 7160.00    2.44860   3.06123   -2.000
 7161.00    3.04043   3.09994   -2.000
 7162.00    3.63173   3.13448   -2.000
 7163.00    4.14455   3.15911   -2.000
 7164.00    3.98785   3.17639   -2.000
 7165.00    3.72416   3.18925   -2.000
 7166.00    2.78231   3.19594   -2.000
 7167.00    2.08146   3.19188   -2.000
 7168.00    2.57725   3.17740   -2.000
 7169.00    3.05693   3.16075   -2.000
 7170.00    3.47175   3.14810   -2.000
 7171.00    3.73820   3.13670   -2.000
 7172.00    3.50893   3.11968   -2.000
 7173.00    3.24284   3.09552   -2.000
 7174.00    2.87291   3.07574   -2.000
 7175.00    2.67078   3.07472   -2.000
 7176.00    2.87337   3.09352   -2.000
 7177.00    2.87672   3.11747   -2.000
 7178.00    2.46521   3.12592   -2.000
 7179.00    2.33264   3.10798   -2.000
 7180.00    2.70509   3.07258   -2.000
 7181.00    2.84436   3.03790   -2.000
 7182.00    2.61452   3.02002   -2.000
 7183.00    2.50474   3.02431   -2.000
 7184.00    2.56174   3.04102   -2.000
 7185.00    2.41962   3.05893   -2.000
 7186.00    2.03400   3.07298   -2.000
 7187.00    2.03381   3.08400   -2.000
 7188.00    2.44912   3.09351   -2.000
 7189.00    2.61252   3.10147   -2.000
 7190.00    2.53642   3.10846   -2.000
 7191.00    2.54919   3.11564   -2.000
 7192.00    2.63645   3.12467   -2.000
 7193.00    2.67628   3.13410   -2.000
 7194.00    2.68111   3.14126   -2.000
 7195.00    2.70151   3.14811   -2.000
 7196.00    2.73199   3.15577   -2.000
 7197.00    2.38033   3.15879   -2.000
 7198.00    1.81188   3.14658   -2.000
 7199.00    1.88205   3.11445   -2.000
 7200.00    2.26761   3.07457   -2.000
 7201.00    2.72282   3.04792   -2.000
 7202.00    3.20777   3.05096   -2.000
 7203.00    3.52349   3.08179   -2.000
 7204.00    3.77730   3.12026   -2.000
 7205.00    3.08293   3.14762   -2.000
 7206.00    2.09484   3.15603   -2.000
 7207.00    2.10036   3.15129   -2.000
 7208.00    2.36232   3.14685   -2.000
 7209.00    2.19463   3.15261   -2.000
 7210.00    1.93656   3.16807   -2.000
 7211.00    1.80614   3.18554   -2.000
 7212.00    1.69691   3.19633   -2.000
 7213.00    2.09277   3.19597   -2.000
 7214.00    2.55174   3.18827   -2.000
 7215.00    2.80750   3.18097   -2.000
 7216.00    3.04566   3.18184   -2.000
 7217.00    2.87546   3.19366   -2.000
 7218.00    2.68451   3.21295   -2.000
