###################################################################
## OUTPUT of StarlightChains_v04.for    [Cid@UFSC - 01/Apr/2007] ##
###################################################################

## Some input info
KUG0210-078._22_27.txt                   [arq_obs]
Base.CB07.vall.4m                        [arq_base]
Masks.EmLines.NEW.gm                     [arq_masks]
StCv04.C11.config                        [arq_config]
   66                                    [N_base]
    0                                    [N_YAV_components = # of components with extra extinction!]
    0                                    [i_FitPowerLaw (1/0 = Yes/No)]
-9.99                                    [alpha_PowerLaw]
CCM                                      [red_law_option]
 1.458241                                [q_norm = A(l_norm)/A(V)]

## (Re)Sampling Parameters
 3741.00                                 [l_ini (A)]
 7218.00                                 [l_fin (A)]
    1.00                                 [dl    (A)]     (OBS: dl_cushion =    50.00 A)

## Normalization info
 4020.00                                 [l_norm (A) - for base]
 4010.00                                 [llow_norm (A) - window for f_obs]
 4060.00                                 [lupp_norm (A) - window for f_obs]
7.792254E-18                             [fobs_norm (in input units)]

## S/N
 3691.00                                 [llow_SN (A) - window for S/N]
 7268.00                                 [lupp_SN (A) - window for S/N]
   3.264                                 [S/N in S/N window]
   2.891                                 [S/N in norm. window]
   0.011                                 [S/N_err in S/N window]
   0.009                                 [S/N_err in norm. window]
  1.0000                                 [fscale_chi2]

## etc...
    -2007243                             [idum_orig]
  2384                                   [NOl_eff]
  2350                                   [Nl_eff]
    34    NSIGMA                         [Ntot_cliped & clip_method]
   862050                                [Nglobal_steps]
   7                                     [N_chains]
   7                                     [NEX0s_base = N_base in EX0s-fits]
 0   0   1       34   2.0   1.929E+03    [Clip-Bug, RC-Crash & Burn-In warning-flags, n_censored_weights, wei_nsig_threshold & wei_limit]
    15     14.746     14.278      0.468  [idt_all, wdt_TotTime, wdt_UsrTime & wdt_SysTime (sec)]

## Synthesis Results - Best model ##

 4.17809E-05                             [chi2/Nl_eff]
    51.85396                             [adev (%)]

   115.19101                             [sum-of-x (%)]
 5.37480E-17                             [Flux_tot (units of input spectrum!)]
 6.11817E-13                             [Mini_tot (???)]
 3.06437E-13                             [Mcor_tot (???)]

 400.36                                  [v0_min  (km/s)]
   0.18                                  [vd_min  (km/s)]
 1.3326                                  [AV_min  (mag)]
 0.0000                                  [YAV_min (mag)]

# j     x_j(%)      Mini_j(%)     Mcor_j(%)     age_j(yr)     Z_j      (L/M)_j    YAV?  Mstars   component_j        a/Fe...       SSP_chi2r SSP_adev(%)   SSP_AV   SSP_x(%)
  1      0.0000     0.0000E+00    0.0000E+00    1.000000E+06  0.00400  1.094E-02    0   1.0000   age020_m42            0.0000     4.7018E-05    57.1968   2.8626   107.3657
  2      0.0000     0.0000E+00    0.0000E+00    3.160000E+06  0.00400  4.007E-02    0   0.9999   age045_m42            0.0000     5.1835E-05    56.9011   2.1450   114.1560
  3      0.0000     0.0000E+00    0.0000E+00    5.010000E+06  0.00400  2.539E-02    0   0.9488   age055_m42            0.0000     4.9464E-05    57.0731   2.4642   111.5521
  4      0.0000     0.0000E+00    0.0000E+00    6.610000E+06  0.00400  2.620E-02    0   0.9220   age061_m42            0.0000     5.2047E-05    56.5046   2.0842   114.0103
  5      0.0000     0.0000E+00    0.0000E+00    1.000000E+07  0.00400  1.322E-02    0   0.8862   age070_m42            0.0000     4.9698E-05    54.9373   1.8604   115.0006
  6      0.0000     0.0000E+00    0.0000E+00    1.445000E+07  0.00400  7.883E-03    0   0.8571   age078_m42            0.0000     4.8538E-05    55.3614   2.1774   112.4302
  7      0.0000     0.0000E+00    0.0000E+00    2.512000E+07  0.00400  5.251E-03    0   0.8174   age090_m42            0.0000     4.9801E-05    54.6348   1.7421   115.3130
  8      0.0000     0.0000E+00    0.0000E+00    4.000000E+07  0.00400  3.649E-03    0   0.7851   age104_m42            0.0000     5.0845E-05    54.6739   1.5100   116.3705
  9      0.0000     0.0000E+00    0.0000E+00    5.500000E+07  0.00400  3.098E-03    0   0.7629   age110_m42            0.0000     5.3291E-05    55.0808   1.6458   116.6076
 10      0.0000     0.0000E+00    0.0000E+00    1.015200E+08  0.00400  2.228E-03    0   0.7207   age116_m42            0.0000     5.5338E-05    55.0819   1.6644   116.6562
 11      0.0000     0.0000E+00    0.0000E+00    2.861200E+08  0.00400  1.093E-03    0   0.6648   age125_m42            0.0000     5.6319E-05    54.3949   1.1210   119.2392
 12      0.0000     0.0000E+00    0.0000E+00    5.088000E+08  0.00400  6.597E-04    0   0.6365   age130_m42            0.0000     5.9389E-05    54.5940   1.1044   120.1226
 13      0.0000     0.0000E+00    0.0000E+00    1.434000E+09  0.00400  2.132E-04    0   0.5798   age139_m42            0.0000     5.9741E-05    55.5444   0.1088   123.4181
 14      0.0000     0.0000E+00    0.0000E+00    4.250000E+09  0.00400  5.895E-05    0   0.5377   age158_m42            0.0000     5.7236E-05    58.1846  -0.4212   121.7288
 15      0.0000     0.0000E+00    0.0000E+00    7.500000E+09  0.00400  3.510E-05    0   0.5212   age171_m42            0.0000     5.7928E-05    58.6842  -0.6264   121.3587
 16      0.0000     0.0000E+00    0.0000E+00    1.300000E+10  0.00400  2.005E-05    0   0.5034   age193_m42            0.0000     5.8523E-05    59.0174  -0.8034   120.9667
 17      0.0000     0.0000E+00    0.0000E+00    1.800000E+10  0.00400  1.525E-05    0   0.4967   age213_m42            0.0000     5.8073E-05    58.9428  -0.8247   120.4775
 18      1.8835     1.1603E-02    2.3166E-02    1.000000E+06  0.00800  1.238E-02    0   1.0000   age020_m52            0.0000     4.7003E-05    57.2294   2.8603   107.5628
 19      0.0000     0.0000E+00    0.0000E+00    3.160000E+06  0.00800  3.074E-02    0   0.9966   age045_m52            0.0000     4.7248E-05    57.4537   2.7790   108.6149
 20      0.0000     0.0000E+00    0.0000E+00    5.010000E+06  0.00800  2.668E-02    0   0.9443   age055_m52            0.0000     4.8589E-05    57.0471   2.5506   110.5263
 21      0.0000     0.0000E+00    0.0000E+00    6.610000E+06  0.00800  2.136E-02    0   0.9177   age061_m52            0.0000     4.8135E-05    55.5821   1.3415   117.1386
 22      0.0000     0.0000E+00    0.0000E+00    1.000000E+07  0.00800  1.215E-02    0   0.8827   age070_m52            0.0000     4.8288E-05    54.7622   2.0504   114.4987
 23      0.0000     0.0000E+00    0.0000E+00    1.445000E+07  0.00800  8.717E-03    0   0.8552   age078_m52            0.0000     4.8895E-05    55.2467   2.1478   113.8461
 24      0.0000     0.0000E+00    0.0000E+00    2.512000E+07  0.00800  5.592E-03    0   0.8162   age090_m52            0.0000     5.0070E-05    54.5455   1.8093   116.5232
 25      0.0000     0.0000E+00    0.0000E+00    4.000000E+07  0.00800  3.896E-03    0   0.7841   age104_m52            0.0000     5.1757E-05    54.7518   1.7147   117.4581
 26      0.0000     0.0000E+00    0.0000E+00    1.015200E+08  0.00800  2.148E-03    0   0.7226   age116_m52            0.0000     5.4169E-05    55.1018   1.6402   117.4499
 27      0.0000     0.0000E+00    0.0000E+00    2.861200E+08  0.00800  9.925E-04    0   0.6683   age125_m52            0.0000     5.9447E-05    54.3535   1.1724   121.1156
 28      0.0000     0.0000E+00    0.0000E+00    9.047900E+08  0.00800  3.141E-04    0   0.6138   age135_m52            0.0000     6.2697E-05    55.8603   0.3370   127.0074
 29      0.0000     0.0000E+00    0.0000E+00    1.434000E+09  0.00800  1.719E-04    0   0.5853   age139_m52            0.0000     5.9490E-05    57.2647  -0.2836   126.1665
 30      0.0000     0.0000E+00    0.0000E+00    2.500000E+09  0.00800  7.872E-05    0   0.5600   age150_m52            0.0000     6.0006E-05    58.8104  -0.6099   124.6366
 31      0.0000     0.0000E+00    0.0000E+00    4.250000E+09  0.00800  4.336E-05    0   0.5426   age158_m52            0.0000     5.9633E-05    59.0590  -0.6312   123.6893
 32      0.0000     0.0000E+00    0.0000E+00    6.250000E+09  0.00800  3.159E-05    0   0.5319   age166_m52            0.0000     6.1628E-05    59.5054  -0.8525   124.0409
 33      0.0000     0.0000E+00    0.0000E+00    1.300000E+10  0.00800  1.361E-05    0   0.5073   age193_m52            0.0000     6.4832E-05    54.9918  -1.0000   114.7670
 34     12.9057     9.9560E+01    9.9190E+01    1.800000E+10  0.00800  9.886E-06    0   0.4990   age213_m52            0.0000     6.7701E-05    53.6383  -1.0000   110.8743
 35      0.0000     0.0000E+00    0.0000E+00    1.000000E+06  0.02000  1.544E-02    0   1.0000   age020_m62            0.0000     4.6845E-05    57.2922   2.8566   107.8281
 36      0.0000     0.0000E+00    0.0000E+00    3.160000E+06  0.02000  3.762E-02    0   0.9858   age045_m62            0.0000     4.6847E-05    57.4345   2.7937   108.8180
 37      0.0000     0.0000E+00    0.0000E+00    5.010000E+06  0.02000  3.296E-02    0   0.9342   age055_m62            0.0000     5.0627E-05    56.9566   2.4227   112.9120
 38      0.0000     0.0000E+00    0.0000E+00    8.710000E+06  0.02000  1.154E-02    0   0.8861   age067_m62            0.0000     4.3172E-05    52.0289   1.6009   115.2212
 39      0.0000     0.0000E+00    0.0000E+00    1.445000E+07  0.02000  7.663E-03    0   0.8472   age078_m62            0.0000     4.6809E-05    54.0560   1.7243   116.4382
 40      0.0000     0.0000E+00    0.0000E+00    2.512000E+07  0.02000  4.532E-03    0   0.8099   age090_m62            0.0000     4.7276E-05    53.8133   1.7257   115.7643
 41      0.0000     0.0000E+00    0.0000E+00    5.500000E+07  0.02000  2.733E-03    0   0.7595   age110_m62            0.0000     5.1043E-05    54.7587   1.6978   116.6806
 42      0.0000     0.0000E+00    0.0000E+00    1.609000E+08  0.02000  1.369E-03    0   0.6985   age120_m62            0.0000     5.6765E-05    54.4186   1.5352   119.3512
 43      0.0000     0.0000E+00    0.0000E+00    2.861200E+08  0.02000  9.013E-04    0   0.6714   age125_m62            0.0000     6.1144E-05    53.7839   1.3040   121.7402
 44      0.0000     0.0000E+00    0.0000E+00    5.088000E+08  0.02000  5.028E-04    0   0.6449   age130_m62            0.0000     6.4883E-05    54.8200   0.9002   125.3540
 45      0.0000     0.0000E+00    0.0000E+00    9.047900E+08  0.02000  2.428E-04    0   0.6179   age135_m62            0.0000     6.2377E-05    57.2084   0.2425   127.3945
 46      0.0000     0.0000E+00    0.0000E+00    1.434000E+09  0.02000  1.263E-04    0   0.5908   age139_m62            0.0000     6.0805E-05    58.4146  -0.2404   127.0043
 47      0.0000     0.0000E+00    0.0000E+00    2.500000E+09  0.02000  5.985E-05    0   0.5673   age150_m62            0.0000     6.1711E-05    59.4650  -0.6475   126.4968
 48      0.0000     0.0000E+00    0.0000E+00    4.250000E+09  0.02000  3.271E-05    0   0.5468   age158_m62            0.0000     6.4668E-05    60.1530  -0.9849   126.0312
 49      0.0000     0.0000E+00    0.0000E+00    1.000000E+10  0.02000  1.360E-05    0   0.5167   age181_m62            0.0000     6.9702E-05    55.4632  -1.0000   116.0931
 50      0.0000     0.0000E+00    0.0000E+00    1.800000E+10  0.02000  7.124E-06    0   0.5013   age213_m62            0.0000     7.4054E-05    52.7632  -1.0000   108.5676
 51     42.5596     1.2522E-01    2.4996E-01    1.000000E+06  0.05000  2.592E-02    0   0.9998   age020_m72            0.0000     4.6391E-05    57.4158   2.8493   107.8606
 52      0.0000     0.0000E+00    0.0000E+00    3.160000E+06  0.05000  4.845E-02    0   0.9577   age045_m72            0.0000     4.8304E-05    57.4945   2.6726   110.2577
 53      0.0000     0.0000E+00    0.0000E+00    5.010000E+06  0.05000  3.072E-02    0   0.9147   age055_m72            0.0000     4.6640E-05    55.4950   2.2683   113.0675
 54     57.8421     3.0318E-01    5.3734E-01    6.610000E+06  0.05000  1.455E-02    0   0.8877   age061_m72            0.0000     4.1984E-05    51.8348   1.6709   115.1914
 55      0.0000     0.0000E+00    0.0000E+00    1.000000E+07  0.05000  9.074E-03    0   0.8524   age070_m72            0.0000     4.6986E-05    55.7126   2.4451   112.6487
 56      0.0000     0.0000E+00    0.0000E+00    2.512000E+07  0.05000  4.250E-03    0   0.7902   age090_m72            0.0000     4.9338E-05    55.1007   2.1610   114.2831
 57      0.0000     0.0000E+00    0.0000E+00    4.000000E+07  0.05000  3.087E-03    0   0.7618   age104_m72            0.0000     5.0376E-05    54.5156   1.9513   115.6274
 58      0.0000     0.0000E+00    0.0000E+00    1.015200E+08  0.05000  1.700E-03    0   0.7096   age116_m72            0.0000     5.5647E-05    54.2407   1.6896   118.5701
 59      0.0000     0.0000E+00    0.0000E+00    2.861200E+08  0.05000  7.384E-04    0   0.6633   age125_m72            0.0000     6.3700E-05    54.1537   1.1647   123.3370
 60      0.0000     0.0000E+00    0.0000E+00    5.088000E+08  0.05000  3.819E-04    0   0.6372   age130_m72            0.0000     6.4045E-05    56.2278   0.6092   127.4668
 61      0.0000     0.0000E+00    0.0000E+00    9.047900E+08  0.05000  1.676E-04    0   0.6110   age135_m72            0.0000     6.2782E-05    59.0505  -0.1836   128.6601
 62      0.0000     0.0000E+00    0.0000E+00    1.434000E+09  0.05000  8.837E-05    0   0.5874   age139_m72            0.0000     6.2885E-05    59.5690  -0.6525   128.3734
 63      0.0000     0.0000E+00    0.0000E+00    2.500000E+09  0.05000  4.233E-05    0   0.5598   age150_m72            0.0000     6.5575E-05    60.4042  -0.9969   127.4431
 64      0.0000     0.0000E+00    0.0000E+00    6.250000E+09  0.05000  1.435E-05    0   0.5249   age166_m72            0.0000     7.0677E-05    54.3143  -1.0000   112.9021
 65      0.0000     0.0000E+00    0.0000E+00    1.300000E+10  0.05000  6.513E-06    0   0.5036   age193_m72            0.0000     7.6482E-05    50.7236  -1.0000   104.7025
 66      0.0000     0.0000E+00    0.0000E+00    1.800000E+10  0.05000  4.527E-06    0   0.4945   age213_m72            0.0000     8.0174E-05    48.7595  -1.0000    99.0048


## Synthesis Results - Average & Chains ##

# j      x_j: min, <> & last-chain-values for 1 ...  7 chains
  1      0.0000      0.9955      0.8413      0.6946      0.6668      0.7176      0.9459      0.7076      0.8069
  2      0.0000      0.4582      0.0000      0.0000      0.0009      0.0000      0.0007      0.0000      0.0000
  3      0.0000      0.6429      0.0239      0.0000      0.0000      0.0013      0.0000      0.0000      0.0000
  4      0.0000      0.4285      0.0000      0.0000      0.0000      0.0000      0.0000      0.0000      0.0000
  5      0.0000      0.5425      0.0000      0.0000      0.0000      0.0000      0.0000      0.0000      0.0000
  6      0.0000      0.3994      0.0443      0.0000      0.0000      0.0000      0.0000      0.0000      0.0000
  7      0.0000      0.7012      0.0020      0.0000      0.0000      0.0000      0.0000      0.0000      0.0000
  8      0.0000      0.5777      0.0000      0.0000      0.0000      0.0000      0.0000      0.0009      0.0000
  9      0.0000      0.5469      0.0000      0.0000      0.0000      0.0000      0.0000      0.0000      0.0000
 10      0.0000      0.9295      0.0064      0.0000      0.0000      0.0000      0.0000      0.0000      0.0419
 11      0.0000      0.6248      0.0000      0.0000      0.0000      0.0000      0.0000      0.0000      0.0000
 12      0.0000      0.6225      0.0000      0.0000      0.0000      0.0000      0.0000      0.0000      0.0000
 13      0.0000      0.7014      0.0000      0.0000      0.0000      0.0000      0.0000      0.0000      0.0000
 14      0.0000      0.7096      0.0000      0.0000      0.0000      0.0000      0.0000      0.0000      0.0000
 15      0.0000      0.5164      0.0000      0.0000      0.0000      0.0000      0.0000      0.0008      0.0000
 16      0.0000      0.4735      0.0000      0.0000      0.0000      0.0000      0.0000      0.0000      0.0000
 17      0.0000      0.5659      0.0000      0.0000      0.0000      0.0000      0.0000      0.0000      0.0000
 18      1.8835      1.7315      2.8356      2.6019      2.8100      2.6585      2.8980      2.8161      2.8091
 19      0.0000      0.8105      0.1902      0.1081      0.0444      0.0596      0.1792      0.0770      0.4447
 20      0.0000      0.6376      0.0000      0.0000      0.0000      0.0854      0.0000      0.0000      0.0000
 21      0.0000      0.5669      0.0000      0.0000      0.0000      0.0000      0.0000      0.0000      0.0000
 22      0.0000      0.5995      0.0235      0.0064      0.0000      0.0000      0.0000      0.0000      0.0000
 23      0.0000      0.5117      0.0000      0.0000      0.0000      0.0177      0.0000      0.0000      0.0001
 24      0.0000      0.4369      0.0000      0.0000      0.0000      0.0010      0.0000      0.0000      0.0000
 25      0.0000      0.5205      0.0000      0.0000      0.0000      0.0000      0.0000      0.0000      0.0000
 26      0.0000      0.4297      0.0000      0.0000      0.0000      0.0000      0.0000      0.0000      0.0000
 27      0.0000      0.6428      0.0000      0.0000      0.0000      0.0000      0.0000      0.0000      0.0000
 28      0.0000      0.4629      0.0000      0.0000      0.0000      0.0000      0.0000      0.0000      0.0333
 29      0.0000      0.6144      0.0000      0.0000      0.0000      0.0000      0.0000      0.0000      0.0000
 30      0.0000      0.8388      0.0000      0.0000      0.0000      0.0000      0.0000      0.0000      0.0000
 31      0.0000      0.6874      0.0000      0.0000      0.0000      0.0000      0.0000      0.0000      0.0000
 32      0.0000      0.7590      0.0000      0.0000      0.0000      0.0000      0.0000      0.0000      0.0000
 33      0.0000      2.4838      4.7552      4.7279      4.7552      4.8312      2.8453      3.9342      4.2978
 34     12.9057      5.5640     11.1968     11.2912     11.4424     11.2989     11.4470     11.6696     11.4369
 35      0.0000      0.5865      0.6485      0.8452      0.7318      0.7076      0.7817      0.6406      1.3640
 36      0.0000      0.4922      0.0735      0.1222      0.1298      0.0777      0.1108      0.1330      0.0891
 37      0.0000      0.6712      0.0000      0.0000      0.0000      0.0000      0.0000      0.0000      0.0280
 38      0.0000     10.7103     21.7072     21.8716     21.7938     21.8770     27.5981     23.6482     21.7254
 39      0.0000      0.9012      0.0206      0.0023      0.0000      0.0007      0.0000      0.0000      0.0000
 40      0.0000      0.5466      0.0090      0.0013      0.0000      0.0153      0.0152      0.0000      0.0000
 41      0.0000      0.6569      0.0000      0.0039      0.0000      0.0000      0.0000      0.0000      0.0000
 42      0.0000      0.5806      0.0000      0.0000      0.0003      0.0000      0.0000      0.0000      0.0000
 43      0.0000      0.6915      0.0000      0.0000      0.0000      0.0000      0.0000      0.0000      0.0000
 44      0.0000      0.3173      0.0000      0.0000      0.0011      0.0000      0.0000      0.0000      0.0000
 45      0.0000      0.5633      0.0000      0.0000      0.0000      0.0000      0.0000      0.0000      0.0000
 46      0.0000      0.6851      0.0000      0.0000      0.0000      0.0000      0.0000      0.0000      0.0000
 47      0.0000      0.8109      0.0000      0.0000      0.0000      0.0000      0.0000      0.0000      0.0000
 48      0.0000      0.4997      0.0000      0.0000      0.0000      0.0000      0.0000      0.0000      0.0000
 49      0.0000      0.5870      0.0000      0.0000      0.0000      0.0000      0.0000      0.0000      0.0000
 50      0.0000      0.8017      0.0000      0.0000      0.0000      0.0000      0.0000      0.0000      0.0000
 51     42.5596      2.8300      5.5193      5.4881      5.5563      5.5574      5.7716      5.6463      5.6527
 52      0.0000      0.4436      0.0107      0.0166      0.0319      0.0000      0.0260      0.0000      0.0569
 53      0.0000      0.4777      0.0417      0.0001      0.0000      0.0000      0.0000      0.0000      0.0048
 54     57.8421     10.5805     22.0503     22.2128     22.0352     22.0604     17.3806     20.9873     21.2085
 55      0.0000      0.6775      0.0000      0.0000      0.0000      0.0078      0.0000      0.0000      0.0000
 56      0.0000      0.5706      0.0000      0.0000      0.0000      0.0248      0.0000      0.0000      0.0000
 57      0.0000      0.6584      0.0000      0.0059      0.0000      0.0000      0.0000      0.0000      0.0000
 58      0.0000      0.5526      0.0000      0.0000      0.0000      0.0000      0.0000      0.0000      0.0000
 59      0.0000      0.5997      0.0000      0.0000      0.0000      0.0000      0.0000      0.0000      0.0000
 60      0.0000      0.4641      0.0000      0.0000      0.0000      0.0000      0.0000      0.0000      0.0000
 61      0.0000      0.5519      0.0000      0.0000      0.0000      0.0000      0.0000      0.0000      0.0000
 62      0.0000      0.7018      0.0000      0.0000      0.0000      0.0000      0.0000      0.0000      0.0000
 63      0.0000      0.5395      0.0000      0.0000      0.0000      0.0000      0.0000      0.0000      0.0000
 64      0.0000      0.7942      0.0000      0.0000      0.0000      0.0000      0.0000      0.0000      0.0000
 65      0.0000      0.3838      0.0000      0.0000      0.0000      0.0000      0.0000      0.0000      0.0000
 66      0.0000      0.7117      0.0000      0.0000      0.0000      0.0000      0.0000      0.0000      0.0000

# j      m_j: min, <> & last-chain-values for 1 ...  7 chains
  1  0.0000E+00  1.2855E-02  1.0309E-02  8.4684E-03  8.0373E-03  8.6998E-03  1.2573E-02  8.7487E-03  9.9515E-03
  2  0.0000E+00  1.6153E-03  0.0000E+00  0.0000E+00  2.9933E-06  0.0000E+00  2.4133E-06  0.0000E+00  0.0000E+00
  3  0.0000E+00  3.3940E-03  1.1954E-04  0.0000E+00  0.0000E+00  6.6113E-06  0.0000E+00  0.0000E+00  0.0000E+00
  4  0.0000E+00  2.1300E-03  0.0000E+00  0.0000E+00  0.0000E+00  0.0000E+00  0.0000E+00  0.0000E+00  0.0000E+00
  5  0.0000E+00  5.1377E-03  0.0000E+00  0.0000E+00  0.0000E+00  0.0000E+00  0.0000E+00  0.0000E+00  0.0000E+00
  6  0.0000E+00  6.1348E-03  6.4529E-04  0.0000E+00  0.0000E+00  0.0000E+00  0.0000E+00  0.0000E+00  0.0000E+00
  7  0.0000E+00  1.5419E-02  4.1878E-05  0.0000E+00  0.0000E+00  0.0000E+00  0.0000E+00  0.0000E+00  0.0000E+00
  8  0.0000E+00  1.7558E-02  0.0000E+00  0.0000E+00  0.0000E+00  0.0000E+00  0.0000E+00  2.6396E-05  0.0000E+00
  9  0.0000E+00  1.9025E-02  0.0000E+00  0.0000E+00  0.0000E+00  0.0000E+00  0.0000E+00  0.0000E+00  0.0000E+00
 10  0.0000E+00  4.2475E-02  2.7755E-04  0.0000E+00  0.0000E+00  0.0000E+00  0.0000E+00  0.0000E+00  1.8267E-03
 11  0.0000E+00  5.3688E-02  0.0000E+00  0.0000E+00  0.0000E+00  0.0000E+00  0.0000E+00  0.0000E+00  0.0000E+00
 12  0.0000E+00  8.4847E-02  0.0000E+00  0.0000E+00  0.0000E+00  0.0000E+00  0.0000E+00  0.0000E+00  0.0000E+00
 13  0.0000E+00  2.6946E-01  0.0000E+00  0.0000E+00  0.0000E+00  0.0000E+00  0.0000E+00  0.0000E+00  0.0000E+00
 14  0.0000E+00  9.1435E-01  0.0000E+00  0.0000E+00  0.0000E+00  0.0000E+00  0.0000E+00  0.0000E+00  0.0000E+00
 15  0.0000E+00  1.0833E+00  0.0000E+00  0.0000E+00  0.0000E+00  0.0000E+00  0.0000E+00  1.6230E-03  0.0000E+00
 16  0.0000E+00  1.6795E+00  0.0000E+00  0.0000E+00  0.0000E+00  0.0000E+00  0.0000E+00  0.0000E+00  0.0000E+00
 17  0.0000E+00  2.6036E+00  0.0000E+00  0.0000E+00  0.0000E+00  0.0000E+00  0.0000E+00  0.0000E+00  0.0000E+00
 18  2.3166E-02  1.9758E-02  3.0703E-02  2.8032E-02  2.9930E-02  2.8481E-02  3.4043E-02  3.0767E-02  3.0616E-02
 19  0.0000E+00  3.7118E-03  8.2637E-04  4.6732E-04  1.8990E-04  2.5642E-04  8.4481E-04  3.3747E-04  1.9454E-03
 20  0.0000E+00  3.1878E-03  0.0000E+00  0.0000E+00  0.0000E+00  4.0106E-04  0.0000E+00  0.0000E+00  0.0000E+00
 21  0.0000E+00  3.4407E-03  0.0000E+00  0.0000E+00  1.0249E-07  0.0000E+00  0.0000E+00  0.0000E+00  0.0000E+00
 22  0.0000E+00  6.1524E-03  2.2906E-04  6.1992E-05  0.0000E+00  0.0000E+00  0.0000E+00  0.0000E+00  0.0000E+00
 23  0.0000E+00  7.0922E-03  0.0000E+00  0.0000E+00  0.0000E+00  2.3062E-04  0.0000E+00  0.0000E+00  8.3241E-07
 24  0.0000E+00  9.0091E-03  0.0000E+00  0.0000E+00  0.0000E+00  1.9726E-05  0.0000E+00  0.0000E+00  0.0000E+00
 25  0.0000E+00  1.4799E-02  0.0000E+00  0.0000E+00  0.0000E+00  0.0000E+00  0.0000E+00  0.0000E+00  0.0000E+00
 26  0.0000E+00  2.0423E-02  0.0000E+00  0.0000E+00  0.0000E+00  0.0000E+00  0.0000E+00  0.0000E+00  0.0000E+00
 27  0.0000E+00  6.1142E-02  0.0000E+00  0.0000E+00  0.0000E+00  0.0000E+00  0.0000E+00  0.0000E+00  0.0000E+00
 28  0.0000E+00  1.2780E-01  0.0000E+00  0.0000E+00  0.0000E+00  0.0000E+00  0.0000E+00  0.0000E+00  8.7776E-03
 29  0.0000E+00  2.9551E-01  0.0000E+00  0.0000E+00  0.0000E+00  0.0000E+00  0.0000E+00  0.0000E+00  0.0000E+00
 30  0.0000E+00  8.4295E-01  0.0000E+00  0.0000E+00  0.0000E+00  0.0000E+00  0.0000E+00  0.0000E+00  0.0000E+00
 31  0.0000E+00  1.2152E+00  0.0000E+00  0.0000E+00  0.0000E+00  0.0000E+00  0.0000E+00  0.0000E+00  0.0000E+00
 32  0.0000E+00  1.8053E+00  0.0000E+00  0.0000E+00  0.0000E+00  0.0000E+00  0.0000E+00  0.0000E+00  0.0000E+00
 33  0.0000E+00  1.3079E+01  2.3759E+01  2.3505E+01  2.3372E+01  2.3884E+01  1.5423E+01  1.9835E+01  2.1614E+01
 34  9.9190E+01  3.9674E+01  7.5759E+01  7.6016E+01  7.6157E+01  7.5641E+01  8.4026E+01  7.9670E+01  7.7891E+01
 35  0.0000E+00  5.3660E-03  5.6300E-03  7.3012E-03  6.2496E-03  6.0784E-03  7.3628E-03  5.6114E-03  1.1920E-02
 36  0.0000E+00  1.8220E-03  2.5829E-04  4.2715E-04  4.4843E-04  2.6995E-04  4.2216E-04  4.7132E-04  3.1493E-04
 37  0.0000E+00  2.6873E-03  0.0000E+00  0.0000E+00  0.0000E+00  0.0000E+00  0.0000E+00  0.0000E+00  1.0712E-04
 38  0.0000E+00  1.1618E-01  2.2343E-01  2.2400E-01  2.2066E-01  2.2280E-01  3.0818E-01  2.4560E-01  2.2508E-01
 39  0.0000E+00  1.4076E-02  3.0577E-04  3.3854E-05  0.0000E+00  1.0850E-05  0.0000E+00  0.0000E+00  0.0000E+00
 40  0.0000E+00  1.3798E-02  2.1638E-04  3.0605E-05  0.0000E+00  3.6200E-04  3.9539E-04  0.0000E+00  0.0000E+00
 41  0.0000E+00  2.5790E-02  0.0000E+00  1.4371E-04  0.0000E+00  0.0000E+00  0.0000E+00  0.0000E+00  0.0000E+00
 42  0.0000E+00  4.1846E-02  0.0000E+00  0.0000E+00  1.8672E-05  0.0000E+00  0.0000E+00  0.0000E+00  0.0000E+00
 43  0.0000E+00  7.2774E-02  0.0000E+00  0.0000E+00  0.0000E+00  0.0000E+00  0.0000E+00  0.0000E+00  0.0000E+00
 44  0.0000E+00  5.7496E-02  0.0000E+00  0.0000E+00  1.9273E-04  0.0000E+00  0.0000E+00  0.0000E+00  0.0000E+00
 45  0.0000E+00  2.0251E-01  0.0000E+00  0.0000E+00  0.0000E+00  0.0000E+00  0.0000E+00  0.0000E+00  0.0000E+00
 46  0.0000E+00  4.5272E-01  0.0000E+00  0.0000E+00  0.0000E+00  0.0000E+00  0.0000E+00  0.0000E+00  0.0000E+00
 47  0.0000E+00  1.0858E+00  0.0000E+00  0.0000E+00  0.0000E+00  0.0000E+00  0.0000E+00  0.0000E+00  0.0000E+00
 48  0.0000E+00  1.1800E+00  0.0000E+00  0.0000E+00  0.0000E+00  0.0000E+00  0.0000E+00  0.0000E+00  0.0000E+00
 49  0.0000E+00  3.1507E+00  0.0000E+00  0.0000E+00  0.0000E+00  0.0000E+00  0.0000E+00  0.0000E+00  0.0000E+00
 50  0.0000E+00  7.9695E+00  0.0000E+00  0.0000E+00  0.0000E+00  0.0000E+00  0.0000E+00  0.0000E+00  0.0000E+00
 51  2.4996E-01  1.5421E-02  2.8538E-02  2.8235E-02  2.8260E-02  2.8431E-02  3.2376E-02  2.9458E-02  2.9419E-02
 52  0.0000E+00  1.2388E-03  2.8429E-05  4.3864E-05  8.3138E-05  0.0000E+00  7.4781E-05  0.0000E+00  1.5184E-04
 53  0.0000E+00  2.0094E-03  1.6646E-04  2.8881E-07  0.0000E+00  0.0000E+00  0.0000E+00  0.0000E+00  1.9338E-05
 54  5.3734E-01  9.1190E-02  1.8033E-01  1.8076E-01  1.7727E-01  1.7851E-01  1.5421E-01  1.7319E-01  1.7459E-01
 55  0.0000E+00  8.9902E-03  0.0000E+00  0.0000E+00  0.0000E+00  9.7450E-05  0.0000E+00  0.0000E+00  0.0000E+00
 56  0.0000E+00  1.4986E-02  0.0000E+00  0.0000E+00  0.0000E+00  6.1238E-04  0.0000E+00  0.0000E+00  0.0000E+00
 57  0.0000E+00  2.2952E-02  0.0000E+00  1.9337E-04  0.0000E+00  0.0000E+00  0.0000E+00  0.0000E+00  0.0000E+00
 58  0.0000E+00  3.2588E-02  0.0000E+00  0.0000E+00  0.0000E+00  0.0000E+00  0.0000E+00  0.0000E+00  0.0000E+00
 59  0.0000E+00  7.6108E-02  0.0000E+00  0.0000E+00  0.0000E+00  0.0000E+00  0.0000E+00  0.0000E+00  0.0000E+00
 60  0.0000E+00  1.0940E-01  0.0000E+00  0.0000E+00  0.0000E+00  0.0000E+00  0.0000E+00  0.0000E+00  0.0000E+00
 61  0.0000E+00  2.8422E-01  0.0000E+00  0.0000E+00  0.0000E+00  0.0000E+00  0.0000E+00  0.0000E+00  0.0000E+00
 62  0.0000E+00  6.5900E-01  0.0000E+00  0.0000E+00  0.0000E+00  0.0000E+00  0.0000E+00  0.0000E+00  0.0000E+00
 63  0.0000E+00  1.0078E+00  0.0000E+00  0.0000E+00  0.0000E+00  0.0000E+00  0.0000E+00  0.0000E+00  0.0000E+00
 64  0.0000E+00  4.1040E+00  0.0000E+00  0.0000E+00  0.0000E+00  0.0000E+00  0.0000E+00  0.0000E+00  0.0000E+00
 65  0.0000E+00  4.1928E+00  0.0000E+00  0.0000E+00  0.0000E+00  0.0000E+00  0.0000E+00  0.0000E+00  0.0000E+00
 66  0.0000E+00  1.0982E+01  0.0000E+00  0.0000E+00  0.0000E+00  0.0000E+00  0.0000E+00  0.0000E+00  0.0000E+00

# AV, chi2 & Mass for <> & i_chain = 1 ...  7 solutions
AV       1.3326      1.7848      1.7758      1.7691      1.7613      1.7638      1.8578      1.7833      1.7921
chi2 4.1781E-05  6.4669E-05  6.1143E-05  6.1162E-05  6.1191E-05  6.1188E-05  6.0904E-05  6.0900E-05  6.1076E-05
Mass 3.0644E-13  6.0627E-13  6.3130E-13  6.2873E-13  6.2941E-13  6.2786E-13  6.4962E-13  6.3199E-13  6.4102E-13
 400.36                                  [v0_min (km/s) before EX0s...]
   0.18                                  [vd_min (km/s) before EX0s...]


## Synthetic spectrum (Best Model) ##l_obs f_obs f_syn wei
 3478    [Nl_obs]
 3741.00    1.02676   0.93220    0.000
 3742.00    0.54982   0.99088    0.000
 3743.00    0.08811   1.04609    0.000
 3744.00   -0.06200   1.09039    0.000
 3745.00   -0.03056   1.11806    0.000
 3746.00    1.42800   1.13468    0.032
 3747.00    3.61128   1.13593    0.035
 3748.00    3.35252   1.12438    0.035
 3749.00    2.01994   1.10621    0.035
 3750.00    1.55554   1.07867    0.033
 3751.00    1.41890   1.04490    0.031
 3752.00    0.58254   1.00785    0.030
 3753.00   -0.47808   0.94721    0.000
 3754.00   -0.10848   0.87117    0.000
 3755.00    0.64439   0.83662    0.030
 3756.00    1.22865   0.88042    0.029
 3757.00    1.77591   0.95985    0.029
 3758.00    1.49411   1.02001    0.029
 3759.00    1.06759   1.05212    0.030
 3760.00    1.21737   1.07910    0.037
 3761.00    1.44371   1.10016    0.052
 3762.00    0.70969   1.09719    0.036
 3763.00   -0.11458   1.09349    0.000
 3764.00    0.43457   1.08957    0.027
 3765.00    1.06295   1.09361    0.027
 3766.00    1.53867   1.11872    0.029
 3767.00    2.00815   1.12621    0.031
 3768.00    2.15864   1.11998    0.030
 3769.00    2.28572   1.11978    0.029
 3770.00    1.84428   1.11095    0.028
 3771.00    1.41537   1.07956    0.026
 3772.00    1.15061   1.03656    0.026
 3773.00    0.97167   0.98976    0.026
 3774.00    1.54608   0.92432    0.026
 3775.00    2.03363   0.85297    0.026
 3776.00    1.95802   0.84000    0.026
 3777.00    1.74348   0.90335    0.026
 3778.00    0.82575   0.97553    0.025
 3779.00    0.25555   1.02651    0.024
 3780.00    1.10785   1.07418    0.025
 3781.00    1.84586   1.11125    0.026
 3782.00    2.19620   1.12900    0.027
 3783.00    2.58056   1.13882    0.027
 3784.00    3.06220   1.15466    0.028
 3785.00    3.16951   1.17512    0.029
 3786.00    2.36221   1.18751    0.028
 3787.00    1.85856   1.19014    0.029
 3788.00    1.99492   1.19129    0.032
 3789.00    1.74180   1.18818    0.032
 3790.00    0.77529   1.17719    0.029
 3791.00   -0.08960   1.16617    0.000
 3792.00   -0.79181   1.15849    0.000
 3793.00   -0.48239   1.15246    0.000
 3794.00    1.24799   1.14316    0.027
 3795.00    2.54785   1.12406    0.028
 3796.00    3.31556   1.09836    0.028
 3797.00    3.10263   1.08408    0.028
 3798.00    1.82130   1.06931    0.027
 3799.00    1.24894   1.03101    0.027
 3800.00    1.35791   0.97248    0.027
 3801.00    1.27320   0.89679    0.027
 3802.00    1.02438   0.81267    0.025
 3803.00    0.18973   0.77164    0.025
 3804.00   -1.08206   0.81849    0.000
 3805.00   -1.54797   0.91320    0.000
 3806.00   -1.48560   0.99593    0.000
 3807.00   -1.06434   1.05121    0.000
 3808.00   -0.43714   1.09055    0.000
 3809.00    0.06788   1.11835    0.024
 3810.00    0.51183   1.12160    0.024
 3811.00    0.47057   1.10528    0.024
 3812.00    0.21949   1.11023    0.025
 3813.00    0.28760   1.14258    0.025
 3814.00    0.47408   1.16755    0.024
 3815.00    0.97839   1.17665    0.024
 3816.00    1.58261   1.17831    0.025
 3817.00    1.25534   1.17441    0.025
 3818.00    0.68371   1.16385    0.025
 3819.00    0.72470   1.15424    0.024
 3820.00    0.89695   1.14704    0.024
 3821.00    1.35098   1.14040    0.024
 3822.00    1.85283   1.13274    0.025
 3823.00    1.74563   1.09501    0.025
 3824.00    1.56028   1.01759    0.024
 3825.00    2.04102   0.98508    0.025
 3826.00    2.58156   1.03811    0.025
 3827.00    1.10412   1.10224    0.024
 3828.00   -0.48178   1.13103    0.000
 3829.00   -0.55908   1.12924    0.000
 3830.00   -0.58808   1.11738    0.000
 3831.00    0.90716   1.10999    0.029
 3832.00    2.31426   1.10390    0.034
 3833.00    1.76319   1.09441    0.034
 3834.00    1.21129   1.07844    0.034
 3835.00    0.64911   1.05609    0.034
 3836.00    0.05879   1.02092    0.033
 3837.00   -0.76931   0.96701    0.000
 3838.00   -1.35558   0.89822    0.000
 3839.00   -0.42040   0.81460    0.000
 3840.00    0.41908   0.74729    0.027
 3841.00    0.78638   0.75375    0.025
 3842.00    1.02557   0.82166    0.023
 3843.00    0.75189   0.89316    0.023
 3844.00    0.70596   0.95705    0.023
 3845.00    1.41716   1.01081    0.024
 3846.00    1.87317   1.04967    0.024
 3847.00    1.61256   1.08091    0.000
 3848.00    1.49709   1.10413    0.000
 3849.00    1.73021   1.12137    0.000
 3850.00    1.89081   1.13206    0.000
 3851.00    1.90103   1.13755    0.000
 3852.00    2.05413   1.14135    0.000
 3853.00    2.46491   1.14247    0.000
 3854.00    2.49133   1.13940    0.000
 3855.00    1.91156   1.12883    0.000
 3856.00    1.20057   1.12661    0.000
 3857.00    0.30790   1.14063    0.000
 3858.00   -0.01800   1.14829    0.000
 3859.00    0.34668   1.14227    0.000
 3860.00    1.13221   1.12977    0.000
 3861.00    2.36980   1.11754    0.000
 3862.00    2.34515   1.11955    0.000
 3863.00    1.12455   1.12665    0.000
 3864.00    0.60744   1.12333    0.000
 3865.00    0.67801   1.11577    0.000
 3866.00    0.88864   1.11894    0.000
 3867.00    1.20226   1.12950    0.000
 3868.00    1.43999   1.13110    0.000
 3869.00    1.62869   1.12289    0.000
 3870.00    1.22882   1.12133    0.000
 3871.00    0.49631   1.12384    0.000
 3872.00    0.43013   1.11287    0.000
 3873.00    0.69171   1.11117    0.000
 3874.00    0.75049   1.12763    0.000
 3875.00    0.72303   1.12909    0.000
 3876.00    1.04330   1.10492    0.000
 3877.00    1.49022   1.08306    0.000
 3878.00    1.80986   1.09341    0.000
 3879.00    2.09025   1.11640    0.000
 3880.00    1.66097   1.11464    0.000
 3881.00    1.04952   1.09200    0.021
 3882.00    1.01370   1.08391    0.021
 3883.00    1.09822   1.08945    0.021
 3884.00    0.85802   1.09337    0.021
 3885.00    0.56428   1.09377    0.021
 3886.00    0.84141   1.07980    0.021
 3887.00    1.18924   1.05379    0.021
 3888.00    1.72231   1.03704    0.022
 3889.00    2.27123   1.02769    0.022
 3890.00    1.42254   0.99594    0.022
 3891.00    0.50419   0.93553    0.022
 3892.00    0.93428   0.86071    0.022
 3893.00    1.37722   0.77393    0.022
 3894.00    1.22363   0.71691    0.022
 3895.00    1.08474   0.75115    0.022
 3896.00    1.24650   0.84705    0.022
 3897.00    1.33719   0.93577    0.022
 3898.00    0.58732   0.99699    0.021
 3899.00    0.00646   1.03614    0.021
 3900.00    0.80236   1.05949    0.021
 3901.00    1.39179   1.07951    0.020
 3902.00    0.72005   1.09878    0.020
 3903.00    0.42965   1.10320    0.019
 3904.00    1.97437   1.09786    0.020
 3905.00    2.93178   1.10562    0.020
 3906.00    1.58923   1.12474    0.019
 3907.00    0.59850   1.13491    0.018
 3908.00    0.75452   1.13564    0.019
 3909.00    0.71704   1.13755    0.019
 3910.00    0.14598   1.13518    0.020
 3911.00   -0.28251   1.13055    0.000
 3912.00   -0.37428   1.13480    0.000
 3913.00   -0.06761   1.14643    0.000
 3914.00    1.05225   1.15650    0.021
 3915.00    1.55432   1.15822    0.021
 3916.00    0.95908   1.14933    0.021
 3917.00    0.58080   1.14125    0.021
 3918.00    0.53963   1.14610    0.021
 3919.00    0.43834   1.15435    0.021
 3920.00    0.25500   1.15668    0.020
 3921.00    0.44570   1.15359    0.020
 3922.00    1.08569   1.14655    0.021
 3923.00    1.51698   1.12466    0.021
 3924.00    1.72726   1.08729    0.021
 3925.00    1.30126   1.05862    0.021
 3926.00    0.28086   1.06007    0.021
 3927.00   -0.09818   1.08199    0.000
 3928.00    0.05096   1.09116    0.021
 3929.00    0.28655   1.08668    0.020
 3930.00    0.58479   1.08179    0.020
 3931.00    0.75989   1.07171    0.020
 3932.00    0.85662   1.06481    0.021
 3933.00    1.02642   1.06863    0.021
 3934.00    1.23688   1.07405    0.021
 3935.00    1.15107   1.07828    0.021
 3936.00    0.92183   1.07601    0.021
 3937.00    1.00757   1.06435    0.021
 3938.00    1.22500   1.04430    0.021
 3939.00    1.27903   1.03108    0.022
 3940.00    1.27461   1.03854    0.022
 3941.00    1.14071   1.05750    0.022
 3942.00    0.96766   1.07637    0.021
 3943.00    1.10612   1.08955    0.021
 3944.00    1.32282   1.09969    0.022
 3945.00    0.85681   1.10899    0.022
 3946.00    0.25158   1.11306    0.021
 3947.00    0.46856   1.11266    0.022
 3948.00    0.81718   1.10742    0.022
 3949.00    1.23747   1.09601    0.022
 3950.00    1.66632   1.09191    0.022
 3951.00    1.19161   1.10572    0.022
 3952.00    0.64333   1.11666    0.021
 3953.00    0.55968   1.11565    0.021
 3954.00    0.49739   1.11925    0.021
 3955.00    0.86385   1.12991    0.021
 3956.00    1.22814   1.13515    0.021
 3957.00    1.19353   1.12798    0.022
 3958.00    1.17795   1.11668    0.021
 3959.00    1.52305   1.10876    0.021
 3960.00    1.81462   1.10656    0.000
 3961.00    1.50286   1.10530    0.000
 3962.00    1.21141   1.10508    0.000
 3963.00    1.07955   1.10759    0.000
 3964.00    0.95595   1.10788    0.000
 3965.00    0.88136   1.09254    0.000
 3966.00    0.78878   1.05504    0.000
 3967.00    0.61165   1.02137    0.000
 3968.00    0.52155   1.00522    0.000
 3969.00    0.76498   0.97829    0.000
 3970.00    0.88484   0.94159    0.000
 3971.00    0.60977   0.91330    0.000
 3972.00    0.52984   0.87279    0.000
 3973.00    0.97840   0.80231    0.000
 3974.00    1.24617   0.71404    0.000
 3975.00    1.09413   0.65570    0.000
 3976.00    0.93634   0.67931    0.000
 3977.00    0.76700   0.76330    0.000
 3978.00    1.01473   0.84720    0.000
 3979.00    1.99198   0.91566    0.000
 3980.00    2.31042   0.97381    0.000
 3981.00    1.62022   1.01485    0.021
 3982.00    1.29226   1.04214    0.021
 3983.00    1.45145   1.06380    0.021
 3984.00    1.53209   1.08141    0.022
 3985.00    1.51971   1.09613    0.022
 3986.00    1.43981   1.10394    0.022
 3987.00    1.28943   1.09932    0.022
 3988.00    1.07270   1.09323    0.022
 3989.00    0.79487   1.10083    0.021
 3990.00    0.85895   1.11683    0.021
 3991.00    1.20063   1.12787    0.021
 3992.00    1.38504   1.13463    0.021
 3993.00    1.45709   1.14200    0.021
 3994.00    1.36998   1.14382    0.021
 3995.00    1.18308   1.14051    0.021
 3996.00    1.71124   1.14100    0.021
 3997.00    2.63127   1.14634    0.021
 3998.00    2.27566   1.14821    0.021
 3999.00    1.31240   1.13674    0.020
 4000.00    0.89755   1.12225    0.020
 4001.00    0.70811   1.12165    0.020
 4002.00    0.97641   1.12697    0.020
 4003.00    1.40549   1.12650    0.020
 4004.00    1.58085   1.13126    0.020
 4005.00    1.68105   1.14292    0.020
 4006.00    1.45305   1.14918    0.020
 4007.00    1.14443   1.14887    0.020
 4008.00    1.42684   1.14513    0.020
 4009.00    1.82676   1.13402    0.020
 4010.00    1.66712   1.11703    0.020
 4011.00    1.42054   1.10879    0.020
 4012.00    1.70119   1.11225    0.020
 4013.00    2.04246   1.10549    0.019
 4014.00    1.62807   1.08544    0.019
 4015.00    1.15526   1.08394    0.019
 4016.00    1.08601   1.10828    0.019
 4017.00    1.03375   1.13220    0.019
 4018.00    1.00000   1.14390    0.019
 4019.00    0.96457   1.14874    0.019
 4020.00    0.84836   1.15288    0.019
 4021.00    0.74319   1.15507    0.019
 4022.00    0.83268   1.15075    0.019
 4023.00    0.87012   1.14687    0.019
 4024.00    0.34742   1.15052    0.019
 4025.00   -0.03683   1.15233    0.000
 4026.00    0.62989   1.14501    0.019
 4027.00    1.22290   1.13327    0.020
 4028.00    1.39070   1.11650    0.020
 4029.00    1.47712   1.08231    0.020
 4030.00    1.19060   1.02166    0.019
 4031.00    0.97884   0.96669    0.019
 4032.00    1.04753   0.97874    0.019
 4033.00    1.14385   1.04833    0.019
 4034.00    1.32676   1.10459    0.019
 4035.00    1.34086   1.11912    0.019
 4036.00    0.90589   1.11301    0.019
 4037.00    0.70246   1.10678    0.019
 4038.00    1.02771   1.10374    0.019
 4039.00    1.12862   1.10298    0.020
 4040.00    0.78605   1.10673    0.019
 4041.00    0.49456   1.12342    0.020
 4042.00    0.29105   1.14820    0.020
 4043.00    0.53195   1.16269    0.020
 4044.00    1.44326   1.16178    0.020
 4045.00    1.87585   1.15023    0.020
 4046.00    1.67386   1.13679    0.020
 4047.00    1.42775   1.13372    0.021
 4048.00    1.13015   1.13291    0.020
 4049.00    0.60826   1.11907    0.020
 4050.00   -0.14453   1.09805    0.000
 4051.00   -0.31061   1.09018    0.000
 4052.00    0.05610   1.10493    0.020
 4053.00    0.53174   1.12686    0.020
 4054.00    1.09455   1.14037    0.020
 4055.00    1.17505   1.14856    0.020
 4056.00    0.91593   1.15372    0.020
 4057.00    0.75679   1.15078    0.020
 4058.00    0.65941   1.14032    0.020
 4059.00    0.68710   1.12795    0.020
 4060.00    0.78228   1.11966    0.020
 4061.00    0.73386   1.11846    0.020
 4062.00    0.61815   1.11926    0.019
 4063.00    0.82978   1.11804    0.019
 4064.00    1.17365   1.11768    0.019
 4065.00    1.25087   1.11859    0.019
 4066.00    1.23613   1.11942    0.019
 4067.00    1.21188   1.11456    0.019
 4068.00    1.18485   1.10001    0.018
 4069.00    1.15463   1.09202    0.018
 4070.00    1.12365   1.10423    0.018
 4071.00    1.11365   1.11852    0.018
 4072.00    1.10772   1.11336    0.018
 4073.00    1.43102   1.09435    0.018
 4074.00    1.80392   1.07452    0.018
 4075.00    1.43357   1.05978    0.018
 4076.00    0.98101   1.05323    0.018
 4077.00    1.02622   1.05677    0.018
 4078.00    1.10788   1.07653    0.018
 4079.00    1.04248   1.09608    0.018
 4080.00    0.97145   1.08648    0.018
 4081.00    0.55548   1.06255    0.018
 4082.00    0.15770   1.05716    0.018
 4083.00    0.51738   1.06849    0.018
 4084.00    0.86933   1.08363    0.018
 4085.00    1.09395   1.10185    0.018
 4086.00    1.28003   1.11798    0.018
 4087.00    1.06957   1.12303    0.018
 4088.00    0.86081   1.11560    0.018
 4089.00    0.66450   1.10164    0.018
 4090.00    0.58072   1.09220    0.018
 4091.00    1.12823   1.09484    0.018
 4092.00    1.52783   1.10193    0.000
 4093.00    1.26549   1.09560    0.000
 4094.00    1.02449   1.07893    0.000
 4095.00    0.86190   1.08059    0.000
 4096.00    0.72719   1.09836    0.000
 4097.00    0.67824   1.10063    0.000
 4098.00    0.62282   1.08924    0.000
 4099.00    0.55051   1.08004    0.000
 4100.00    0.51891   1.05969    0.000
 4101.00    0.57874   1.01656    0.000
 4102.00    0.52804   0.96727    0.000
 4103.00    0.26223   0.93343    0.000
 4104.00    0.54926   0.90570    0.000
 4105.00    1.77434   0.84875    0.000
 4106.00    2.20214   0.75935    0.000
 4107.00    1.44478   0.69915    0.000
 4108.00    0.65982   0.72492    0.000
 4109.00   -0.16120   0.80969    0.000
 4110.00   -0.01002   0.89588    0.000
 4111.00    1.26020   0.96415    0.000
 4112.00    1.81354   1.01203    0.000
 4113.00    1.63917   1.03869    0.019
 4114.00    0.95833   1.05143    0.019
 4115.00   -0.17596   1.05590    0.000
 4116.00   -0.47735   1.05807    0.000
 4117.00   -0.12157   1.06598    0.000
 4118.00    0.12609   1.08109    0.018
 4119.00    0.29874   1.09369    0.018
 4120.00    0.46249   1.09122    0.018
 4121.00    0.62082   1.08061    0.018
 4122.00    0.87052   1.08214    0.018
 4123.00    1.16875   1.08679    0.019
 4124.00    0.85081   1.07054    0.018
 4125.00    0.24875   1.04296    0.018
 4126.00    0.28916   1.02917    0.018
 4127.00    0.58467   1.04245    0.018
 4128.00    1.14259   1.07493    0.018
 4129.00    1.78930   1.10443    0.018
 4130.00    1.63233   1.12181    0.018
 4131.00    1.24669   1.12616    0.017
 4132.00    1.25202   1.11553    0.017
 4133.00    1.34914   1.09808    0.017
 4134.00    1.33600   1.08943    0.017
 4135.00    1.30205   1.08851    0.017
 4136.00    0.96667   1.08201    0.017
 4137.00    0.58727   1.07106    0.017
 4138.00    0.58513   1.06719    0.017
 4139.00    0.62308   1.07627    0.017
 4140.00    0.54719   1.09478    0.017
 4141.00    0.46343   1.11267    0.017
 4142.00    0.76582   1.11853    0.017
 4143.00    1.08153   1.11616    0.018
 4144.00    1.25304   1.11615    0.017
 4145.00    1.40135   1.11634    0.017
 4146.00    0.79294   1.10944    0.017
 4147.00    0.22845   1.08298    0.017
 4148.00    0.34296   1.03133    0.017
 4149.00    0.42622   0.99134    0.017
 4150.00    0.20140   1.00664    0.017
 4151.00   -0.00190   1.05610    0.000
 4152.00   -0.05242   1.09195    0.000
 4153.00   -0.02154   1.10597    0.000
 4154.00    0.45376   1.10428    0.018
 4155.00    0.78560   1.09279    0.018
 4156.00    0.49042   1.08788    0.017
 4157.00    0.26283   1.08875    0.017
 4158.00    0.27835   1.08176    0.017
 4159.00    0.37991   1.07689    0.017
 4160.00    0.74111   1.08393    0.017
 4161.00    0.93139   1.08877    0.017
 4162.00    0.68275   1.08936    0.017
 4163.00    0.49450   1.09967    0.018
 4164.00    0.43964   1.11462    0.017
 4165.00    0.43761   1.12092    0.018
 4166.00    0.53679   1.11832    0.018
 4167.00    0.60777   1.11361    0.018
 4168.00    0.63164   1.10975    0.018
 4169.00    0.71439   1.10526    0.018
 4170.00    0.88341   1.10156    0.018
 4171.00    0.71615   1.10140    0.018
 4172.00    0.11579   1.09918    0.018
 4173.00   -0.20705   1.08988    0.000
 4174.00   -0.21497   1.08268    0.000
 4175.00    0.19360   1.08777    0.018
 4176.00    1.01900   1.09385    0.018
 4177.00    0.98120   1.08452    0.018
 4178.00    0.18143   1.06977    0.018
 4179.00    0.09465   1.06752    0.017
 4180.00    0.56240   1.07489    0.018
 4181.00    0.85499   1.08113    0.018
 4182.00    1.02778   1.08270    0.018
 4183.00    0.95908   1.08330    0.018
 4184.00    0.74561   1.08799    0.018
 4185.00    0.57701   1.09619    0.017
 4186.00    0.43187   1.10065    0.017
 4187.00    0.48456   1.09792    0.017
 4188.00    0.62698   1.09534    0.017
 4189.00    0.64510   1.09679    0.017
 4190.00    0.61471   1.09620    0.017
 4191.00    0.54854   1.08899    0.017
 4192.00    0.47048   1.07717    0.017
 4193.00    0.35244   1.07208    0.017
 4194.00    0.22326   1.07655    0.017
 4195.00    0.07199   1.07869    0.017
 4196.00   -0.08433   1.08122    0.000
 4197.00   -0.12089   1.09157    0.000
 4198.00   -0.13544   1.10554    0.000
 4199.00    0.42693   1.11262    0.017
 4200.00    1.07088   1.10357    0.017
 4201.00    0.85811   1.08526    0.016
 4202.00    0.55799   1.07193    0.016
 4203.00    0.49761   1.06032    0.016
 4204.00    0.45286   1.04223    0.016
 4205.00    0.46448   1.02764    0.016
 4206.00    0.47784   1.02961    0.016
 4207.00    0.49759   1.04396    0.016
 4208.00    0.51309   1.06125    0.016
 4209.00    0.40347   1.07711    0.016
 4210.00    0.31979   1.08650    0.016
 4211.00    0.61368   1.09260    0.016
 4212.00    0.88153   1.10154    0.016
 4213.00    0.90317   1.11013    0.016
 4214.00    0.89102   1.11313    0.016
 4215.00    0.64660   1.10794    0.016
 4216.00    0.50229   1.10102    0.016
 4217.00    0.89005   1.09806    0.016
 4218.00    1.20201   1.09731    0.016
 4219.00    1.19021   1.09523    0.016
 4220.00    1.13394   1.08573    0.016
 4221.00    0.92097   1.07328    0.016
 4222.00    0.74621   1.07686    0.015
 4223.00    0.68461   1.09537    0.015
 4224.00    0.67589   1.10827    0.015
 4225.00    0.80061   1.11244    0.015
 4226.00    0.89565   1.11266    0.016
 4227.00    0.92623   1.10462    0.016
 4228.00    0.86903   1.08870    0.016
 4229.00    0.64628   1.07363    0.015
 4230.00    0.52817   1.05657    0.015
 4231.00    0.58233   1.03206    0.015
 4232.00    0.55608   1.01071    0.015
 4233.00    0.41375   1.01512    0.015
 4234.00    0.36814   1.04758    0.015
 4235.00    0.44532   1.07869    0.015
 4236.00    0.59403   1.09288    0.015
 4237.00    0.82276   1.09519    0.015
 4238.00    0.84511   1.08790    0.015
 4239.00    0.66382   1.08013    0.015
 4240.00    0.80999   1.08024    0.015
 4241.00    1.24114   1.07496    0.015
 4242.00    1.44344   1.06316    0.015
 4243.00    1.47030   1.06380    0.016
 4244.00    1.15955   1.07422    0.016
 4245.00    0.62129   1.08051    0.015
 4246.00    0.58828   1.08226    0.016
 4247.00    0.85358   1.08252    0.016
 4248.00    0.69251   1.08602    0.017
 4249.00    0.31191   1.09922    0.017
 4250.00    0.20147   1.11359    0.017
 4251.00    0.21155   1.11165    0.017
 4252.00    0.41301   1.09584    0.016
 4253.00    0.68783   1.08292    0.016
 4254.00    0.53009   1.07776    0.016
 4255.00    0.23138   1.07192    0.016
 4256.00    0.38601   1.06576    0.016
 4257.00    0.66438   1.06996    0.016
 4258.00    0.75587   1.07078    0.016
 4259.00    0.80547   1.05200    0.017
 4260.00    1.02170   1.04104    0.017
 4261.00    1.26772   1.05775    0.017
 4262.00    1.12276   1.08165    0.016
 4263.00    0.92431   1.09063    0.016
 4264.00    1.05093   1.08099    0.016
 4265.00    1.20932   1.06504    0.017
 4266.00    0.71751   1.05562    0.016
 4267.00    0.18593   1.06289    0.016
 4268.00    0.46942   1.08419    0.016
 4269.00    0.77414   1.10238    0.016
 4270.00    0.93073   1.10732    0.016
 4271.00    1.08640   1.09339    0.016
 4272.00    1.21778   1.05398    0.016
 4273.00    1.32457   1.02306    0.015
 4274.00    1.09335   1.03833    0.016
 4275.00    0.88887   1.06282    0.016
 4276.00    0.92735   1.05629    0.016
 4277.00    0.98452   1.03692    0.016
 4278.00    1.16618   1.03240    0.016
 4279.00    1.25055   1.03723    0.016
 4280.00    0.83120   1.03252    0.017
 4281.00    0.52245   1.02593    0.017
 4282.00    0.67534   1.03612   -2.000
 4283.00    0.79217   1.06031   -2.000
 4284.00    0.78448   1.08327   -2.000
 4285.00    0.68478   1.08722   -2.000
 4286.00    0.31766   1.07469   -2.000
 4287.00   -0.02484   1.06531   -2.000
 4288.00   -0.30628   1.06099   -2.000
 4289.00   -0.45337   1.05869   -2.000
 4290.00   -0.31325   1.05587   -2.000
 4291.00   -0.16806   1.05177   -2.000
 4292.00   -0.01348   1.05645   -2.000
 4293.00    0.08781   1.06271   -2.000
 4294.00    0.10266   1.05096   -2.000
 4295.00    0.37262   1.02902   -2.000
 4296.00    1.00551   1.02273   -2.000
 4297.00    1.29041   1.03936   -2.000
 4298.00    1.13980   1.06439    0.016
 4299.00    0.93490   1.07317    0.016
 4300.00    0.67014   1.05978    0.016
 4301.00    0.43913   1.05342    0.016
 4302.00    0.24095   1.05788    0.015
 4303.00    0.05770   1.05443    0.015
 4304.00   -0.11274   1.03966    0.000
 4305.00   -0.05791   1.02061    0.000
 4306.00    0.16715   1.01365    0.015
 4307.00    0.14979   1.01919    0.015
 4308.00   -0.02855   1.01488    0.000
 4309.00    0.04548   1.00319    0.015
 4310.00    0.26628   1.00609    0.015
 4311.00    0.34196   1.01615    0.015
 4312.00    0.34410   1.01548    0.015
 4313.00    0.34678   1.00230    0.015
 4314.00    0.34972   0.99082    0.015
 4315.00    0.63890   0.99506    0.014
 4316.00    1.03591   1.01277    0.014
 4317.00    0.88552   1.03030    0.014
 4318.00    0.56012   1.03839    0.014
 4319.00    0.36455   1.03882    0.014
 4320.00    0.20367   1.04446    0.014
 4321.00    0.55633   1.06531    0.014
 4322.00    1.02136   1.09054    0.015
 4323.00    1.10392   1.10034    0.015
 4324.00    1.11995   1.09681    0.015
 4325.00    0.65126   1.09085    0.015
 4326.00    0.11845   1.08868    0.015
 4327.00    0.01408   1.09124    0.015
 4328.00   -0.05026   1.08692    0.000
 4329.00   -0.01093   1.06501    0.000
 4330.00    0.03433   1.02978    0.000
 4331.00    0.29765   0.99910    0.000
 4332.00    0.56690   1.00203    0.000
 4333.00    0.93539   1.03941    0.000
 4334.00    1.27637   1.07364    0.000
 4335.00    0.95687   1.08235    0.000
 4336.00    0.65848   1.07319    0.000
 4337.00    0.63491   1.06132    0.000
 4338.00    0.59307   1.05334    0.000
 4339.00    0.39169   1.04642    0.000
 4340.00    0.28900   1.04124    0.000
 4341.00    0.82376   1.02808    0.000
 4342.00    1.30091   0.98248    0.000
 4343.00    1.48738   0.90363    0.000
 4344.00    1.52901   0.81932    0.000
 4345.00    0.97943   0.73732    0.000
 4346.00    0.57209   0.68143    0.000
 4347.00    0.64595   0.71511    0.000
 4348.00    0.68424   0.81794    0.000
 4349.00    0.62103   0.90176    0.000
 4350.00    0.52929   0.94710    0.000
 4351.00    0.36798   0.98057    0.015
 4352.00    0.35691   1.00334    0.015
 4353.00    0.66185   1.01825    0.015
 4354.00    0.83371   1.03777    0.015
 4355.00    0.76228   1.05378    0.015
 4356.00    0.55484   1.04366    0.015
 4357.00    0.13008   1.01478    0.015
 4358.00    0.06622   1.00857    0.015
 4359.00    0.50837   1.03439    0.015
 4360.00    0.70281   1.06100    0.015
 4361.00    0.59164   1.07810    0.016
 4362.00    0.47840   1.09271    0.016
 4363.00    0.36291   1.09996    0.016
 4364.00    0.41330   1.09017    0.016
 4365.00    0.62282   1.07705    0.016
 4366.00    0.69063   1.08044    0.016
 4367.00    0.63859   1.09364    0.016
 4368.00    0.46819   1.10375    0.016
 4369.00    0.20964   1.10847    0.016
 4370.00    0.49973   1.11290    0.016
 4371.00    1.14880   1.11455    0.016
 4372.00    1.13034   1.09702    0.015
 4373.00    0.72956   1.07453    0.015
 4374.00    0.70614   1.07198    0.015
 4375.00    0.87097   1.08169    0.015
 4376.00    0.93561   1.08619    0.016
 4377.00    0.95703   1.08128    0.016
 4378.00    0.80984   1.07291    0.016
 4379.00    0.60026   1.06370    0.015
 4380.00    0.50125   1.05162    0.015
 4381.00    0.43691   1.04786    0.015
 4382.00    0.57960   1.06424    0.015
 4383.00    0.77645   1.08812    0.015
 4384.00    0.70229   1.09551    0.015
 4385.00    0.57024   1.08801    0.015
 4386.00    0.45166   1.08603    0.015
 4387.00    0.33536   1.08207    0.015
 4388.00    0.32637   1.05133    0.015
 4389.00    0.33109   1.00463    0.015
 4390.00    0.39219   0.98534    0.015
 4391.00    0.45831   1.00796    0.015
 4392.00    0.75609   1.03126    0.015
 4393.00    1.06621   1.01505    0.015
 4394.00    1.06340   0.99828    0.015
 4395.00    1.05428   1.02021    0.015
 4396.00    1.03044   1.04785    0.016
 4397.00    1.00129   1.06544    0.016
 4398.00    0.85564   1.08507    0.015
 4399.00    0.69756   1.09162    0.015
 4400.00    0.38597   1.07736    0.015
 4401.00    0.07318   1.06380    0.015
 4402.00   -0.24972   1.07862    0.000
 4403.00   -0.47039   1.10750    0.000
 4404.00   -0.05030   1.11422    0.000
 4405.00    0.30206   1.09710    0.015
 4406.00    0.32126   1.07771    0.015
 4407.00    0.33646   1.08000    0.015
 4408.00    0.33574   1.09785    0.015
 4409.00    0.29200   1.08733    0.015
 4410.00    0.10557   1.04696    0.015
 4411.00    0.11909   1.02997    0.015
 4412.00    0.69279   1.04796    0.015
 4413.00    1.01248   1.06255    0.015
 4414.00    0.72340   1.06280    0.015
 4415.00    0.48227   1.07416    0.015
 4416.00    0.34042   1.09450    0.015
 4417.00    0.30890   1.10266    0.015
 4418.00    0.47601   1.10958    0.015
 4419.00    0.56714   1.10588    0.015
 4420.00    0.53867   1.06602    0.015
 4421.00    0.49163   1.02846    0.015
 4422.00    0.41896   1.03201    0.015
 4423.00    0.40541   1.05645    0.015
 4424.00    0.46376   1.08517    0.015
 4425.00    0.50119   1.10793    0.015
 4426.00    0.51617   1.11374    0.015
 4427.00    0.58434   1.10583    0.015
 4428.00    0.70283   1.09136    0.015
 4429.00    0.53818   1.08850    0.015
 4430.00    0.13743   1.09874    0.015
 4431.00    0.01717   1.10037    0.015
 4432.00    0.10285   1.09164    0.015
 4433.00    0.33769   1.08580    0.015
 4434.00    0.66869   1.09178    0.015
 4435.00    0.78064   1.09394    0.015
 4436.00    0.76905   1.08047    0.015
 4437.00    0.50984   1.07943    0.014
 4438.00    0.12908   1.09051    0.014
 4439.00   -0.03335   1.08440    0.000
 4440.00   -0.10314   1.06543    0.000
 4441.00   -0.13300   1.05200    0.000
 4442.00   -0.14836   1.05688    0.000
 4443.00    0.28252   1.07621    0.015
 4444.00    0.85062   1.10261    0.015
 4445.00    0.86125   1.12244    0.015
 4446.00    0.72915   1.11507    0.015
 4447.00    0.71457   1.08708    0.015
 4448.00    0.72450   1.06233    0.014
 4449.00    0.81319   1.05946    0.014
 4450.00    0.91482   1.08173    0.014
 4451.00    0.74824   1.11017    0.014
 4452.00    0.54860   1.11343    0.014
 4453.00    0.41585   1.09824    0.014
 4454.00    0.28879   1.09934    0.014
 4455.00    0.57841   1.10887    0.014
 4456.00    0.88860   1.10695    0.014
 4457.00    0.74090   1.10471    0.014
 4458.00    0.59141   1.10242    0.014
 4459.00    0.78707   1.09445    0.014
 4460.00    0.96595   1.07918    0.014
 4461.00    0.80481   1.06256    0.000
 4462.00    0.63752   1.06479    0.000
 4463.00    0.39798   1.07684    0.000
 4464.00    0.19413   1.07895    0.000
 4465.00    0.27961   1.07377    0.000
 4466.00    0.38804   1.06945    0.000
 4467.00    0.63606   1.06087    0.000
 4468.00    0.84366   1.05958    0.000
 4469.00    0.85736   1.08070    0.000
 4470.00    0.82467   1.09721    0.000
 4471.00    0.61083   1.09089    0.000
 4472.00    0.47493   1.08118    0.000
 4473.00    0.59245   1.07603    0.000
 4474.00    0.67569   1.06784    0.000
 4475.00    0.66464   1.04885    0.000
 4476.00    0.64920   1.00709    0.000
 4477.00    0.62339   0.95402    0.000
 4478.00    0.54904   0.96650    0.000
 4479.00    0.37577   1.04920    0.000
 4480.00    0.29127   1.10551    0.000
 4481.00    0.36411   1.11573    0.000
 4482.00    0.47117   1.12323    0.014
 4483.00    0.63130   1.13872    0.014
 4484.00    0.61697   1.14046    0.014
 4485.00    0.36505   1.11220    0.013
 4486.00    0.24744   1.06315    0.013
 4487.00    0.29089   1.03248    0.013
 4488.00    0.40861   1.04948    0.013
 4489.00    0.60485   1.09516    0.013
 4490.00    0.76197   1.12732    0.013
 4491.00    0.88258   1.14182    0.014
 4492.00    0.92492   1.14638    0.014
 4493.00    0.90289   1.13512    0.014
 4494.00    0.96246   1.10893    0.014
 4495.00    1.08108   1.08571    0.014
 4496.00    1.05589   1.08589    0.014
 4497.00    0.93935   1.10746    0.014
 4498.00    0.86109   1.12589    0.014
 4499.00    0.80410   1.12429    0.013
 4500.00    0.77473   1.10325    0.013
 4501.00    0.75869   1.08672    0.014
 4502.00    0.75333   1.08740    0.014
 4503.00    0.75243   1.10011    0.014
 4504.00    0.83812   1.12066    0.013
 4505.00    0.95473   1.13298    0.013
 4506.00    0.92163   1.12775    0.013
 4507.00    0.84340   1.11375    0.014
 4508.00    0.88488   1.11888    0.014
 4509.00    0.95635   1.14857    0.013
 4510.00    1.27041   1.16751    0.013
 4511.00    1.63377   1.16312    0.014
 4512.00    1.30906   1.14854    0.014
 4513.00    0.87458   1.13597    0.013
 4514.00    0.66646   1.13279    0.013
 4515.00    0.48525   1.13811    0.013
 4516.00    0.60851   1.14005    0.013
 4517.00    0.75642   1.13174    0.013
 4518.00    0.81000   1.11731    0.013
 4519.00    0.85930   1.10650    0.013
 4520.00    0.88985   1.09806    0.013
 4521.00    0.92015   1.09760    0.013
 4522.00    0.94957   1.11062    0.013
 4523.00    0.97324   1.11363    0.013
 4524.00    0.88894   1.10760    0.013
 4525.00    0.79990   1.11702    0.013
 4526.00    0.65766   1.13546    0.013
 4527.00    0.55105   1.14497    0.013
 4528.00    0.72331   1.12934    0.013
 4529.00    0.84300   1.10646    0.013
 4530.00    0.65196   1.10133    0.013
 4531.00    0.47271   1.09994    0.013
 4532.00    0.34868   1.09037    0.013
 4533.00    0.34894   1.07450    0.013
 4534.00    0.82425   1.05486    0.013
 4535.00    1.17936   1.04449    0.013
 4536.00    1.15118   1.05374    0.013
 4537.00    1.04747   1.07517    0.013
 4538.00    0.73965   1.09616    0.013
 4539.00    0.52042   1.09267    0.013
 4540.00    0.50645   1.06856    0.013
 4541.00    0.54821   1.05475    0.013
 4542.00    0.70166   1.07426    0.013
 4543.00    0.83838   1.11610    0.013
 4544.00    0.94588   1.13470    0.013
 4545.00    1.00740   1.11948    0.013
 4546.00    0.99865   1.08601    0.013
 4547.00    1.04147   1.05739    0.013
 4548.00    1.15352   1.06341    0.013
 4549.00    1.07219   1.09313    0.013
 4550.00    0.76226   1.10214    0.000
 4551.00    0.66127   1.09667    0.000
 4552.00    0.77807   1.10349    0.000
 4553.00    0.91830   1.11332    0.000
 4554.00    1.08006   1.10866    0.000
 4555.00    0.98035   1.09255    0.000
 4556.00    0.66873   1.09511    0.000
 4557.00    0.50221   1.10562    0.000
 4558.00    0.43917   1.08872    0.000
 4559.00    0.62833   1.07031    0.000
 4560.00    0.97532   1.07130    0.000
 4561.00    1.06478   1.08047    0.000
 4562.00    1.01338   1.10005    0.000
 4563.00    0.89825   1.12645    0.000
 4564.00    0.75283   1.14135    0.000
 4565.00    0.73116   1.14350    0.000
 4566.00    0.76023   1.14100    0.000
 4567.00    0.68715   1.14088    0.000
 4568.00    0.57826   1.14005    0.000
 4569.00    0.71887   1.12541    0.000
 4570.00    0.93323   1.10724    0.000
 4571.00    0.99000   1.10279    0.000
 4572.00    1.00816   1.11269    0.000
 4573.00    1.12593   1.12439    0.000
 4574.00    1.26343   1.12826    0.000
 4575.00    1.21280   1.13206    0.000
 4576.00    1.13305   1.13048    0.000
 4577.00    0.76984   1.11253    0.000
 4578.00    0.37419   1.10853    0.000
 4579.00    0.53535   1.13037    0.000
 4580.00    0.73926   1.13747    0.000
 4581.00    1.03193   1.12814    0.000
 4582.00    1.32829   1.13261    0.000
 4583.00    1.14048   1.14092    0.000
 4584.00    0.94917   1.13531    0.000
 4585.00    0.78822   1.11554    0.000
 4586.00    0.64322   1.09809    0.000
 4587.00    0.77684   1.09937    0.000
 4588.00    0.88373   1.11314    0.000
 4589.00    0.70456   1.11872    0.000
 4590.00    0.54711   1.11410    0.000
 4591.00    0.55387   1.10824    0.000
 4592.00    0.55643   1.10480    0.000
 4593.00    0.53483   1.11223    0.000
 4594.00    0.56948   1.12882    0.000
 4595.00    0.86116   1.13774    0.000
 4596.00    1.09906   1.12513    0.000
 4597.00    1.13575   1.10248    0.000
 4598.00    1.08990   1.09538    0.000
 4599.00    0.78587   1.10289    0.000
 4600.00    0.58158   1.10503    0.000
 4601.00    0.64202   1.09607    0.000
 4602.00    0.74723   1.09115    0.000
 4603.00    0.95445   1.09880    0.000
 4604.00    1.07233   1.11332    0.000
 4605.00    1.01396   1.12153    0.000
 4606.00    1.00960   1.11183    0.000
 4607.00    1.09811   1.09390    0.000
 4608.00    1.19560   1.09310    0.000
 4609.00    1.30657   1.10625    0.000
 4610.00    1.37158   1.11672    0.000
 4611.00    1.37577   1.11504    0.000
 4612.00    1.21016   1.10846    0.000
 4613.00    0.84666   1.11267    0.000
 4614.00    0.79093   1.13129    0.000
 4615.00    1.05149   1.14486    0.000
 4616.00    1.10952   1.14063    0.000
 4617.00    0.98396   1.13563    0.000
 4618.00    0.99273   1.13371    0.000
 4619.00    1.10883   1.12605    0.000
 4620.00    0.99331   1.12794    0.000
 4621.00    0.71499   1.14214    0.000
 4622.00    0.71699   1.14709    0.000
 4623.00    0.89181   1.14810    0.000
 4624.00    1.03665   1.13837    0.000
 4625.00    1.16532   1.11790    0.000
 4626.00    1.27412   1.11695    0.000
 4627.00    1.37363   1.13425    0.000
 4628.00    1.25720   1.14276    0.000
 4629.00    1.05372   1.14650    0.000
 4630.00    0.97211   1.15020    0.000
 4631.00    0.93242   1.14483    0.000
 4632.00    1.00336   1.13625    0.000
 4633.00    1.10633   1.13462    0.000
 4634.00    1.10703   1.13321    0.000
 4635.00    1.08325   1.12016    0.000
 4636.00    1.14455   1.10779    0.000
 4637.00    1.22229   1.11379    0.000
 4638.00    1.06033   1.12531    0.000
 4639.00    0.86239   1.12117    0.000
 4640.00    0.78679   1.11396    0.000
 4641.00    0.72465   1.11558    0.000
 4642.00    0.86015   1.11980    0.000
 4643.00    1.01003   1.11250    0.000
 4644.00    0.93273   1.09463    0.000
 4645.00    0.84685   1.08052    0.000
 4646.00    0.86573   1.07777    0.000
 4647.00    0.88855   1.08396    0.000
 4648.00    1.03756   1.09273    0.000
 4649.00    1.18188   1.10201    0.000
 4650.00    1.24958   1.11002    0.000
 4651.00    1.30070   1.10488    0.000
 4652.00    1.18206   1.07316    0.000
 4653.00    1.07867   1.03833    0.000
 4654.00    1.08664   1.03064    0.000
 4655.00    1.08850   1.03960    0.000
 4656.00    1.05621   1.04402    0.000
 4657.00    1.07930   1.05466    0.000
 4658.00    1.34947   1.08249    0.000
 4659.00    1.54910   1.10542    0.000
 4660.00    1.49034   1.09770    0.000
 4661.00    1.32970   1.08508    0.000
 4662.00    0.85650   1.08925    0.000
 4663.00    0.57874   1.10444    0.000
 4664.00    0.81066   1.12893    0.000
 4665.00    0.97805   1.15321    0.000
 4666.00    1.00084   1.16053    0.000
 4667.00    0.99738   1.14471    0.000
 4668.00    0.94295   1.12091    0.000
 4669.00    0.92693   1.10879    0.000
 4670.00    0.97596   1.10939    0.000
 4671.00    1.03290   1.10801    0.000
 4672.00    1.10156   1.09029    0.000
 4673.00    1.04409   1.06213    0.000
 4674.00    0.82212   1.04975    0.000
 4675.00    0.78322   1.06376    0.000
 4676.00    0.95465   1.09123    0.000
 4677.00    1.01528   1.11524    0.000
 4678.00    0.96362   1.12041    0.000
 4679.00    0.89659   1.10664    0.000
 4680.00    0.81581   1.09515    0.000
 4681.00    0.87889   1.09646    0.000
 4682.00    1.05525   1.10758    0.000
 4683.00    1.15264   1.11648    0.000
 4684.00    1.19533   1.11602    0.000
 4685.00    1.02216   1.10855    0.000
 4686.00    0.71788   1.10055    0.000
 4687.00    0.46742   1.09294    0.000
 4688.00    0.24550   1.09023    0.000
 4689.00    0.34993   1.09710    0.000
 4690.00    0.60453   1.09424    0.000
 4691.00    0.71030   1.06872    0.000
 4692.00    0.75710   1.05208    0.000
 4693.00    0.67228   1.06631    0.000
 4694.00    0.54301   1.09181    0.000
 4695.00    0.67335   1.10953    0.000
 4696.00    0.87736   1.11371    0.000
 4697.00    1.11715   1.10758    0.000
 4698.00    1.36532   1.10832    0.000
 4699.00    1.31746   1.11768    0.000
 4700.00    1.21390   1.12616    0.000
 4701.00    1.18872   1.13452    0.000
 4702.00    1.17495   1.14107    0.000
 4703.00    1.15316   1.13556    0.000
 4704.00    1.13051   1.10966    0.000
 4705.00    0.99817   1.08509    0.000
 4706.00    0.85830   1.08661    0.000
 4707.00    0.63305   1.09884    0.000
 4708.00    0.40490   1.09756    0.000
 4709.00    0.30292   1.09088    0.000
 4710.00    0.21029   1.09258    0.000
 4711.00    0.41556   1.09954    0.000
 4712.00    0.61613   1.10170    0.000
 4713.00    0.74473   1.09911    0.000
 4714.00    0.86854   1.09385    0.000
 4715.00    0.94547   1.08903    0.000
 4716.00    0.98978   1.09473    0.000
 4717.00    0.80342   1.11320    0.000
 4718.00    0.65930   1.10949    0.000
 4719.00    0.74501   1.07935    0.000
 4720.00    0.83526   1.06408    0.000
 4721.00    0.94526   1.07959    0.000
 4722.00    0.98097   1.10054    0.000
 4723.00    0.75015   1.11802    0.000
 4724.00    0.64448   1.13153    0.000
 4725.00    0.91560   1.14291    0.000
 4726.00    1.10865   1.15072    0.000
 4727.00    1.10168   1.15128    0.000
 4728.00    1.00582   1.14329    0.000
 4729.00    0.71400   1.13724    0.000
 4730.00    0.55435   1.14355    0.000
 4731.00    0.64737   1.15418    0.000
 4732.00    0.78981   1.15073    0.000
 4733.00    1.01469   1.12541    0.000
 4734.00    1.10442   1.09803    0.000
 4735.00    0.99652   1.08961    0.000
 4736.00    0.96199   1.09441    0.000
 4737.00    1.02178   1.10105    0.000
 4738.00    1.02920   1.10998    0.000
 4739.00    0.97730   1.11871    0.000
 4740.00    1.07761   1.12474    0.000
 4741.00    1.32997   1.13079    0.000
 4742.00    1.41588   1.12736    0.000
 4743.00    1.35511   1.11823    0.000
 4744.00    1.21039   1.12371    0.000
 4745.00    1.00049   1.13505    0.000
 4746.00    1.00225   1.13236    0.000
 4747.00    1.14848   1.12099    0.000
 4748.00    1.29275   1.11819    0.000
 4749.00    1.43585   1.12783    0.000
 4750.00    1.26528   1.13617    0.000
 4751.00    0.93098   1.13547    0.000
 4752.00    0.91479   1.13787    0.000
 4753.00    1.04260   1.14597    0.000
 4754.00    0.93452   1.14805    0.000
 4755.00    0.73459   1.14600    0.000
 4756.00    0.69333   1.14633    0.000
 4757.00    0.70463   1.14508    0.000
 4758.00    0.79005   1.13827    0.000
 4759.00    0.89608   1.13184    0.000
 4760.00    1.00016   1.12865    0.000
 4761.00    1.10379   1.12885    0.012
 4762.00    1.12263   1.12917    0.012
 4763.00    1.12594   1.12769    0.012
 4764.00    1.12759   1.12537    0.012
 4765.00    1.12900   1.12598    0.012
 4766.00    1.07753   1.12934    0.012
 4767.00    1.02069   1.12314    0.012
 4768.00    0.93511   1.10487    0.012
 4769.00    0.84767   1.09038    0.012
 4770.00    0.76152   1.08548    0.012
 4771.00    0.67577   1.08091    0.012
 4772.00    0.76586   1.07620    0.012
 4773.00    0.85950   1.08086    0.012
 4774.00    1.05604   1.09336    0.012
 4775.00    1.23529   1.10720    0.012
 4776.00    1.16482   1.11662    0.012
 4777.00    1.10211   1.11353    0.012
 4778.00    1.11242   1.10323    0.012
 4779.00    1.11113   1.10240    0.012
 4780.00    1.03036   1.11483    0.012
 4781.00    0.98838   1.12682    0.012
 4782.00    1.15189   1.12873    0.011
 4783.00    1.28683   1.12822    0.011
 4784.00    1.30009   1.12783    0.012
 4785.00    1.25314   1.12088    0.012
 4786.00    0.99461   1.11266    0.012
 4787.00    0.77469   1.11095    0.012
 4788.00    0.66884   1.10891    0.012
 4789.00    0.66792   1.10042    0.012
 4790.00    0.93121   1.09782    0.012
 4791.00    1.08305   1.10341    0.012
 4792.00    0.99317   1.10060    0.012
 4793.00    1.00444   1.09387    0.012
 4794.00    1.20609   1.09535    0.012
 4795.00    1.33579   1.09678    0.012
 4796.00    1.34726   1.09851    0.012
 4797.00    1.29450   1.10430    0.012
 4798.00    1.14921   1.11022    0.012
 4799.00    1.06503   1.12014    0.012
 4800.00    1.05831   1.13641    0.012
 4801.00    1.05166   1.14873    0.012
 4802.00    1.04508   1.14861    0.012
 4803.00    1.12151   1.13921    0.012
 4804.00    1.27970   1.12549    0.012
 4805.00    1.31801   1.11148    0.012
 4806.00    1.25217   1.10641    0.012
 4807.00    1.25474   1.11548    0.012
 4808.00    1.30966   1.12876    0.012
 4809.00    1.22092   1.13389    0.012
 4810.00    1.03555   1.12785    0.012
 4811.00    0.90856   1.11528    0.012
 4812.00    0.81598   1.10644    0.012
 4813.00    0.83948   1.10278    0.012
 4814.00    0.92262   1.09942    0.012
 4815.00    0.89632   1.10056    0.012
 4816.00    0.82129   1.10680    0.012
 4817.00    1.14258   1.11146    0.012
 4818.00    1.61548   1.11067    0.012
 4819.00    1.51707   1.10777    0.012
 4820.00    1.23292   1.10783    0.012
 4821.00    1.21932   1.11111    0.012
 4822.00    1.27937   1.11662    0.012
 4823.00    1.19762   1.12543    0.012
 4824.00    1.08419   1.13221    0.012
 4825.00    1.01563   1.13075    0.012
 4826.00    0.95508   1.12584    0.012
 4827.00    0.96298   1.12647    0.012
 4828.00    0.98021   1.12626    0.012
 4829.00    0.96736   1.11091    0.012
 4830.00    0.95158   1.09477    0.012
 4831.00    1.01420   1.10074    0.012
 4832.00    1.08158   1.11832    0.012
 4833.00    1.01064   1.12388    0.012
 4834.00    0.93596   1.11252    0.012
 4835.00    0.84826   1.10090    0.012
 4836.00    0.76686   1.10363    0.012
 4837.00    0.84994   1.10758    0.012
 4838.00    0.93782   1.09931    0.012
 4839.00    1.09119   1.09733    0.012
 4840.00    1.20634   1.11127    0.012
 4841.00    0.97598   1.12196    0.011
 4842.00    0.77598   1.12117    0.011
 4843.00    0.77742   1.12002    0.011
 4844.00    0.76578   1.11938    0.011
 4845.00    0.68666   1.11069    0.011
 4846.00    0.65693   1.09984    0.011
 4847.00    0.83273   1.09927    0.011
 4848.00    0.96055   1.10318    0.000
 4849.00    0.92310   1.09805    0.000
 4850.00    0.93008   1.09359    0.000
 4851.00    1.06591   1.10387    0.000
 4852.00    1.12291   1.11655    0.000
 4853.00    0.98481   1.11397    0.000
 4854.00    0.89474   1.09596    0.000
 4855.00    0.90716   1.08058    0.000
 4856.00    0.87258   1.08179    0.000
 4857.00    0.75089   1.08628    0.000
 4858.00    0.74347   1.08222    0.000
 4859.00    0.92099   1.07557    0.000
 4860.00    1.05277   1.06056    0.000
 4861.00    1.11958   1.02914    0.000
 4862.00    1.18789   1.00057    0.000
 4863.00    1.25810   0.98951    0.000
 4864.00    1.21143   0.97189    0.000
 4865.00    1.03606   0.92046    0.000
 4866.00    0.84462   0.83352    0.000
 4867.00    0.63758   0.74227    0.000
 4868.00    0.55308   0.71671    0.000
 4869.00    0.57353   0.78487    0.000
 4870.00    0.59997   0.87806    0.000
 4871.00    0.63092   0.94113    0.000
 4872.00    0.71004   0.98207    0.000
 4873.00    0.82108   1.01018    0.000
 4874.00    0.96831   1.02884    0.000
 4875.00    1.13656   1.04687    0.011
 4876.00    1.15138   1.05475    0.011
 4877.00    1.08859   1.03869    0.011
 4878.00    0.97843   1.02410    0.011
 4879.00    0.84751   1.03914    0.011
 4880.00    0.74808   1.06563    0.011
 4881.00    0.66047   1.07677    0.011
 4882.00    0.72857   1.08034    0.011
 4883.00    0.84633   1.08960    0.011
 4884.00    0.83394   1.09955    0.011
 4885.00    0.78686   1.11113    0.011
 4886.00    0.73913   1.12014    0.011
 4887.00    0.69126   1.10990    0.011
 4888.00    0.68120   1.09363    0.011
 4889.00    0.67769   1.09522    0.011
 4890.00    0.71850   1.10210    0.011
 4891.00    0.76516   1.09464    0.011
 4892.00    0.82823   1.08158    0.011
 4893.00    0.89283   1.08067    0.011
 4894.00    0.92374   1.09041    0.011
 4895.00    0.95274   1.09470    0.011
 4896.00    1.04514   1.08175    0.011
 4897.00    1.13756   1.05923    0.011
 4898.00    1.07399   1.05944    0.011
 4899.00    1.01156   1.09294    0.011
 4900.00    0.97592   1.12847    0.011
 4901.00    0.94880   1.14977    0.011
 4902.00    1.03188   1.16100    0.011
 4903.00    1.09189   1.16400    0.011
 4904.00    0.95126   1.16170    0.011
 4905.00    0.83191   1.14909    0.011
 4906.00    0.84954   1.12810    0.011
 4907.00    0.87462   1.12022    0.011
 4908.00    0.93722   1.12671    0.011
 4909.00    1.00809   1.12490    0.011
 4910.00    1.11262   1.11766    0.011
 4911.00    1.18946   1.12562    0.011
 4912.00    1.17287   1.14332    0.011
 4913.00    1.11214   1.14897    0.011
 4914.00    0.92572   1.13973    0.011
 4915.00    0.83520   1.12533    0.011
 4916.00    0.97796   1.11049    0.011
 4917.00    1.05803   1.10448    0.011
 4918.00    1.00647   1.11377    0.011
 4919.00    0.95537   1.12635    0.011
 4920.00    0.90510   1.13386    0.011
 4921.00    0.92020   1.14305    0.011
 4922.00    1.03955   1.15289    0.011
 4923.00    1.07247   1.14793    0.011
 4924.00    0.98442   1.12123    0.011
 4925.00    0.92518   1.08104    0.011
 4926.00    0.90142   1.04191    0.011
 4927.00    0.89294   1.01348    0.011
 4928.00    0.90106   1.01074    0.011
 4929.00    0.91492   1.03795    0.011
 4930.00    0.93428   1.06398    0.011
 4931.00    0.94858   1.07513    0.011
 4932.00    0.95861   1.09485    0.011
 4933.00    0.91276   1.12890    0.011
 4934.00    0.82537   1.15135    0.011
 4935.00    0.80332   1.16218    0.011
 4936.00    0.82395   1.16944    0.011
 4937.00    0.94358   1.17005    0.011
 4938.00    1.11980   1.16273    0.011
 4939.00    1.11148   1.14003    0.011
 4940.00    1.01130   1.11193    0.000
 4941.00    1.06734   1.11099    0.000
 4942.00    1.19066   1.13174    0.000
 4943.00    1.12462   1.13379    0.000
 4944.00    0.98867   1.10876    0.000
 4945.00    1.08625   1.08511    0.000
 4946.00    1.25687   1.08851    0.000
 4947.00    1.35633   1.11303    0.000
 4948.00    1.43721   1.13016    0.000
 4949.00    1.25745   1.13433    0.000
 4950.00    1.02218   1.14472    0.000
 4951.00    1.02062   1.15441    0.000
 4952.00    1.05844   1.15282    0.000
 4953.00    0.98821   1.15255    0.000
 4954.00    0.90425   1.16170    0.000
 4955.00    1.12720   1.16872    0.000
 4956.00    1.37738   1.17212    0.000
 4957.00    1.19408   1.17692    0.000
 4958.00    0.98790   1.17777    0.000
 4959.00    1.18930   1.16742    0.000
 4960.00    1.39571   1.14987    0.000
 4961.00    1.38441   1.13038    0.000
 4962.00    1.36873   1.10446    0.000
 4963.00    1.25789   1.06555    0.000
 4964.00    1.16220   1.03377    0.000
 4965.00    1.25252   1.04662    0.000
 4966.00    1.32537   1.08931    0.000
 4967.00    1.25192   1.11501    0.000
 4968.00    1.16221   1.11608    0.000
 4969.00    0.97094   1.11313    0.000
 4970.00    0.82957   1.11206    0.000
 4971.00    0.93281   1.10214    0.000
 4972.00    1.05456   1.08672    0.000
 4973.00    1.24999   1.08112    0.000
 4974.00    1.38967   1.08435    0.000
 4975.00    1.34494   1.08950    0.000
 4976.00    1.27020   1.09628    0.000
 4977.00    1.11156   1.10279    0.000
 4978.00    0.99851   1.11131    0.000
 4979.00    0.99452   1.12080    0.000
 4980.00    1.01911   1.12770    0.000
 4981.00    1.10276   1.13217    0.000
 4982.00    1.07821   1.13105    0.000
 4983.00    0.85926   1.12470    0.000
 4984.00    0.79059   1.11369    0.000
 4985.00    0.95803   1.10022    0.000
 4986.00    1.03703   1.09349    0.000
 4987.00    0.99404   1.08648    0.000
 4988.00    1.02559   1.06478    0.000
 4989.00    1.14767   1.04128    0.000
 4990.00    1.25573   1.04082    0.000
 4991.00    1.34880   1.05919    0.000
 4992.00    1.29744   1.07649    0.000
 4993.00    1.10971   1.09217    0.000
 4994.00    1.11869   1.10794    0.000
 4995.00    1.29140   1.11213    0.000
 4996.00    1.23567   1.10358    0.000
 4997.00    1.01253   1.09290    0.000
 4998.00    0.92546   1.09265    0.000
 4999.00    0.92595   1.10234    0.000
 5000.00    0.90550   1.10164    0.000
 5001.00    0.87325   1.09797    0.000
 5002.00    0.95811   1.10693    0.000
 5003.00    1.10035   1.11497    0.000
 5004.00    1.20525   1.11170    0.000
 5005.00    1.29434   1.09773    0.000
 5006.00    1.22001   1.07291    0.000
 5007.00    1.08643   1.05039    0.000
 5008.00    1.10995   1.04512    0.000
 5009.00    1.18167   1.05486    0.000
 5010.00    1.13050   1.06641    0.000
 5011.00    1.04796   1.05956    0.000
 5012.00    1.04150   1.04059    0.000
 5013.00    1.05086   1.03241    0.000
 5014.00    1.08136   1.05077    0.000
 5015.00    1.11533   1.07812    0.000
 5016.00    0.99092   1.08822    0.000
 5017.00    0.84707   1.08082    0.000
 5018.00    1.16590   1.06620    0.000
 5019.00    1.52385   1.04632    0.000
 5020.00    1.28627   1.02526    0.000
 5021.00    1.01958   1.00567    0.000
 5022.00    0.94454   0.99885    0.000
 5023.00    0.87542   1.01828    0.000
 5024.00    0.98711   1.04220    0.000
 5025.00    1.09679   1.05664    0.000
 5026.00    1.16598   1.06857    0.000
 5027.00    1.21603   1.07808    0.000
 5028.00    1.04242   1.07257    0.000
 5029.00    0.89835   1.06331    0.011
 5030.00    0.99269   1.07151    0.011
 5031.00    1.08373   1.08644    0.011
 5032.00    1.15473   1.08943    0.011
 5033.00    1.17565   1.08241    0.011
 5034.00    0.95699   1.07320    0.011
 5035.00    0.80000   1.07907    0.011
 5036.00    0.88313   1.09731    0.011
 5037.00    0.95241   1.10649    0.011
 5038.00    0.97671   1.11110    0.011
 5039.00    0.94513   1.12104    0.011
 5040.00    0.76015   1.12935    0.010
 5041.00    0.68134   1.11811    0.010
 5042.00    0.85220   1.08744    0.011
 5043.00    0.97269   1.07008    0.011
 5044.00    0.99083   1.07875    0.011
 5045.00    1.02747   1.07782    0.011
 5046.00    1.09685   1.04945    0.011
 5047.00    1.13690   1.01155    0.011
 5048.00    1.13155   1.00266    0.010
 5049.00    1.13336   1.04136    0.010
 5050.00    1.14490   1.08913    0.010
 5051.00    1.11374   1.11216    0.010
 5052.00    1.03147   1.12706    0.010
 5053.00    1.03246   1.13026    0.010
 5054.00    1.12130   1.10879    0.010
 5055.00    1.14965   1.07936    0.010
 5056.00    1.12169   1.06823    0.010
 5057.00    1.12807   1.07226    0.010
 5058.00    1.16262   1.07638    0.010
 5059.00    1.07577   1.08572    0.010
 5060.00    0.90124   1.10210    0.010
 5061.00    0.94257   1.11349    0.010
 5062.00    1.12077   1.10982    0.010
 5063.00    1.16317   1.10711    0.010
 5064.00    1.13028   1.11621    0.010
 5065.00    1.08128   1.12920    0.010
 5066.00    1.02452   1.13092    0.010
 5067.00    1.00696   1.13518    0.010
 5068.00    1.00572   1.14305    0.010
 5069.00    1.05141   1.13984    0.010
 5070.00    1.11380   1.11650    0.010
 5071.00    1.14136   1.08209    0.010
 5072.00    1.15845   1.06874    0.010
 5073.00    1.00377   1.08423    0.010
 5074.00    0.80620   1.09325    0.010
 5075.00    0.84699   1.08961    0.010
 5076.00    0.93608   1.09613    0.010
 5077.00    0.96503   1.10868    0.010
 5078.00    0.98442   1.10252    0.010
 5079.00    0.86899   1.08818    0.010
 5080.00    0.73762   1.09256    0.010
 5081.00    0.80970   1.10369    0.010
 5082.00    0.89814   1.10046    0.010
 5083.00    1.01467   1.09706    0.010
 5084.00    1.13247   1.10136    0.010
 5085.00    1.15547   1.08924    0.010
 5086.00    1.17497   1.05297    0.010
 5087.00    1.07649   1.03689    0.010
 5088.00    0.98132   1.05214    0.009
 5089.00    0.94776   1.06641    0.010
 5090.00    0.93603   1.06974    0.010
 5091.00    1.16741   1.08051    0.010
 5092.00    1.34648   1.09614    0.010
 5093.00    1.11796   1.10110    0.010
 5094.00    0.93228   1.09953    0.010
 5095.00    0.99893   1.10283    0.010
 5096.00    1.04477   1.10918    0.010
 5097.00    0.99352   1.10811    0.010
 5098.00    0.96493   1.10795    0.010
 5099.00    1.02270   1.11818    0.010
 5100.00    1.06360   1.12996    0.010
 5101.00    1.05086   1.12663    0.010
 5102.00    1.06192   1.11133    0.010
 5103.00    1.13711   1.09809    0.010
 5104.00    1.07595   1.08662    0.010
 5105.00    0.69948   1.06933    0.010
 5106.00    0.57577   1.05671    0.010
 5107.00    0.95770   1.07027    0.010
 5108.00    1.14028   1.09482    0.010
 5109.00    0.97546   1.10368    0.010
 5110.00    0.86504   1.09803    0.010
 5111.00    0.83758   1.09031    0.010
 5112.00    0.90985   1.08769    0.011
 5113.00    1.11575   1.08232    0.011
 5114.00    1.17464   1.07164    0.011
 5115.00    1.06006   1.07057    0.011
 5116.00    1.01606   1.07359    0.011
 5117.00    1.04550   1.07033    0.011
 5118.00    1.04622   1.07867    0.011
 5119.00    1.02057   1.09126    0.011
 5120.00    1.14294   1.09332    0.011
 5121.00    1.38506   1.09983    0.011
 5122.00    1.36537   1.11087    0.010
 5123.00    1.15929   1.12112    0.010
 5124.00    1.07001   1.13190    0.010
 5125.00    1.05369   1.13360    0.010
 5126.00    0.97270   1.12324    0.010
 5127.00    0.85640   1.10906    0.010
 5128.00    0.86331   1.09258    0.010
 5129.00    0.92867   1.07368    0.010
 5130.00    0.95775   1.05254    0.010
 5131.00    0.97199   1.04682    0.010
 5132.00    0.96057   1.05925    0.010
 5133.00    0.94018   1.06319    0.010
 5134.00    0.90587   1.05571    0.010
 5135.00    0.86746   1.05329    0.010
 5136.00    0.91280   1.05818    0.010
 5137.00    0.97861   1.06766    0.010
 5138.00    0.92902   1.08311    0.010
 5139.00    0.85663   1.08909    0.010
 5140.00    0.90302   1.08729    0.010
 5141.00    0.96771   1.09762    0.010
 5142.00    0.96253   1.11624    0.010
 5143.00    0.94939   1.11173    0.010
 5144.00    0.98426   1.09261    0.010
 5145.00    1.02279   1.07612    0.010
 5146.00    1.03003   1.06659    0.010
 5147.00    1.03598   1.08105    0.010
 5148.00    0.96811   1.09243    0.010
 5149.00    0.90470   1.06840    0.010
 5150.00    1.05442   1.05569    0.010
 5151.00    1.19749   1.06729    0.010
 5152.00    1.22544   1.06807    0.010
 5153.00    1.25036   1.05970    0.010
 5154.00    1.24308   1.06236    0.010
 5155.00    1.22281   1.07182    0.010
 5156.00    1.10476   1.08219    0.010
 5157.00    1.00895   1.07281    0.010
 5158.00    1.04059   1.05438    0.010
 5159.00    1.07707   1.04720    0.010
 5160.00    1.13563   1.04983    0.010
 5161.00    1.15593   1.05726    0.010
 5162.00    1.03353   1.07267    0.010
 5163.00    0.96002   1.09613    0.010
 5164.00    1.03902   1.11844    0.010
 5165.00    1.02631   1.13025    0.010
 5166.00    0.77071   1.12344    0.010
 5167.00    0.64002   1.12300    0.010
 5168.00    0.79335   1.12541    0.010
 5169.00    0.90519   1.11456    0.010
 5170.00    0.93531   1.10510    0.010
 5171.00    0.89809   1.09414    0.010
 5172.00    0.74530   1.05380    0.010
 5173.00    0.66865   0.99024    0.010
 5174.00    0.70642   0.93631    0.010
 5175.00    0.77615   0.92591    0.010
 5176.00    0.88809   0.95852    0.010
 5177.00    0.94817   0.99082    0.010
 5178.00    0.94791   0.97372    0.010
 5179.00    0.96326   0.92441    0.010
 5180.00    0.99463   0.91928    0.010
 5181.00    0.95328   0.97494    0.010
 5182.00    0.84613   1.02658    0.010
 5183.00    0.80472   1.04483    0.010
 5184.00    0.81575   1.05157    0.010
 5185.00    0.82719   1.05756    0.010
 5186.00    0.83892   1.05328    0.010
 5187.00    0.85243   1.04305    0.010
 5188.00    0.86704   1.02477    0.010
 5189.00    0.96376   0.98228    0.010
 5190.00    1.10461   0.92772    0.000
 5191.00    0.98889   0.92468    0.000
 5192.00    0.75340   0.98624    0.000
 5193.00    0.81744   1.04740    0.000
 5194.00    1.00196   1.07119    0.000
 5195.00    1.08382   1.07113    0.000
 5196.00    1.13045   1.07610    0.000
 5197.00    1.12026   1.08125    0.000
 5198.00    1.09366   1.05072    0.000
 5199.00    1.16823   1.01251    0.000
 5200.00    1.26696   1.01508    0.000
 5201.00    1.25860   1.03837    0.000
 5202.00    1.22962   1.04730    0.000
 5203.00    1.13040   1.05902    0.000
 5204.00    1.02068   1.07599    0.000
 5205.00    0.99469   1.08551    0.000
 5206.00    0.97786   1.09190    0.000
 5207.00    0.93670   1.08870    0.000
 5208.00    0.89377   1.08025    0.000
 5209.00    1.01188   1.07294    0.000
 5210.00    1.13600   1.06609    0.000
 5211.00    1.14253   1.03656    0.010
 5212.00    1.14676   0.99975    0.010
 5213.00    1.08705   0.98996    0.010
 5214.00    1.02654   0.99742    0.009
 5215.00    0.95323   0.99188    0.009
 5216.00    0.90326   0.99440    0.009
 5217.00    1.09097   1.01768    0.009
 5218.00    1.24155   1.04708    0.010
 5219.00    1.12194   1.07722    0.009
 5220.00    0.99045   1.10131    0.009
 5221.00    0.79278   1.10701    0.010
 5222.00    0.68019   1.08911    0.010
 5223.00    0.94609   1.07221    0.010
 5224.00    1.11883   1.07946    0.010
 5225.00    0.95123   1.09963    0.010
 5226.00    0.84135   1.11414    0.010
 5227.00    0.90814   1.12058    0.010
 5228.00    0.95397   1.12773    0.010
 5229.00    0.94529   1.12568    0.010
 5230.00    0.94902   1.10650    0.010
 5231.00    0.98052   1.07495    0.010
 5232.00    1.02161   1.04085    0.010
 5233.00    1.08128   1.00983    0.010
 5234.00    1.15280   1.00547    0.010
 5235.00    1.24436   1.05178    0.010
 5236.00    1.27645   1.10302    0.010
 5237.00    1.22045   1.12327    0.010
 5238.00    1.21696   1.13014    0.010
 5239.00    1.28184   1.11365    0.010
 5240.00    1.32000   1.08272    0.010
 5241.00    1.32752   1.07482    0.010
 5242.00    1.30566   1.09030    0.010
 5243.00    1.25408   1.11727    0.010
 5244.00    1.13387   1.13746    0.010
 5245.00    0.95243   1.14018    0.010
 5246.00    0.97987   1.13067    0.010
 5247.00    1.17153   1.12291    0.010
 5248.00    1.21765   1.12377    0.010
 5249.00    1.16315   1.12336    0.010
 5250.00    1.09568   1.12247    0.010
 5251.00    1.02034   1.13471    0.010
 5252.00    0.98658   1.14094    0.010
 5253.00    0.97483   1.10532    0.010
 5254.00    1.07899   1.06384    0.010
 5255.00    1.23637   1.06677    0.010
 5256.00    1.20629   1.08162    0.010
 5257.00    1.10209   1.06770    0.010
 5258.00    1.06520   1.06235    0.010
 5259.00    1.05099   1.08226    0.010
 5260.00    1.07579   1.10028    0.010
 5261.00    1.11164   1.09461    0.010
 5262.00    0.99493   1.08051    0.010
 5263.00    0.84261   1.09843    0.010
 5264.00    0.89099   1.13534    0.010
 5265.00    0.97701   1.15541    0.010
 5266.00    0.99556   1.15234    0.010
 5267.00    1.00433   1.13357    0.010
 5268.00    0.84972   1.10778    0.010
 5269.00    0.67793   1.07745    0.010
 5270.00    0.67862   1.04523    0.010
 5271.00    0.69108   1.02136    0.010
 5272.00    0.75505   1.00566    0.010
 5273.00    0.82075   1.00928    0.010
 5274.00    0.86264   1.04392    0.010
 5275.00    0.90351   1.05222    0.010
 5276.00    0.91233   0.99625    0.010
 5277.00    0.91763   0.96515    0.009
 5278.00    0.86917   1.01374    0.010
 5279.00    0.82726   1.07074    0.010
 5280.00    0.84923   1.08850    0.010
 5281.00    0.88454   1.08965    0.010
 5282.00    1.01378   1.08151    0.010
 5283.00    1.12018   1.08410    0.010
 5284.00    1.10270   1.12007    0.010
 5285.00    1.09600   1.15240    0.010
 5286.00    1.13615   1.15432    0.010
 5287.00    1.18375   1.13603    0.010
 5288.00    1.25801   1.11396    0.010
 5289.00    1.29405   1.09570    0.010
 5290.00    1.21530   1.08251    0.010
 5291.00    1.15791   1.08688    0.010
 5292.00    1.15517   1.12386    0.010
 5293.00    1.17281   1.16377    0.010
 5294.00    1.23531   1.17434    0.010
 5295.00    1.20745   1.16244    0.010
 5296.00    1.00722   1.15410    0.010
 5297.00    0.89997   1.15905    0.010
 5298.00    0.94756   1.16452    0.010
 5299.00    1.00403   1.15938    0.010
 5300.00    1.07344   1.15085    0.010
 5301.00    1.05888   1.15211    0.010
 5302.00    0.93655   1.14748    0.010
 5303.00    0.93058   1.11654    0.010
 5304.00    1.05618   1.07050    0.010
 5305.00    1.14853   1.05221    0.010
 5306.00    1.20771   1.07838    0.010
 5307.00    1.22568   1.10780    0.010
 5308.00    1.20741   1.10782    0.010
 5309.00    1.19081   1.10760    0.010
 5310.00    1.17550   1.12817    0.010
 5311.00    1.11164   1.15911    0.010
 5312.00    1.01469   1.17549    0.010
 5313.00    1.08564   1.16663    0.010
 5314.00    1.25685   1.14765    0.010
 5315.00    1.29004   1.14555    0.010
 5316.00    1.25133   1.15957    0.009
 5317.00    1.22492   1.16701    0.009
 5318.00    1.20407   1.16295    0.009
 5319.00    1.09659   1.15611    0.009
 5320.00    0.95546   1.14957    0.009
 5321.00    0.95805   1.14865    0.009
 5322.00    1.00813   1.14746    0.009
 5323.00    1.02184   1.13747    0.009
 5324.00    1.02547   1.13166    0.009
 5325.00    1.05102   1.13734    0.009
 5326.00    1.08158   1.13946    0.009
 5327.00    0.98522   1.13381    0.009
 5328.00    0.86569   1.13339    0.009
 5329.00    0.80817   1.13350    0.009
 5330.00    0.75933   1.12255    0.009
 5331.00    0.94255   1.10463    0.009
 5332.00    1.14918   1.10896    0.009
 5333.00    1.14934   1.11300    0.009
 5334.00    1.13625   1.06880    0.009
 5335.00    1.22848   1.00207    0.009
 5336.00    1.32322   1.00125    0.009
 5337.00    1.16288   1.06041    0.009
 5338.00    1.00896   1.10845    0.009
 5339.00    1.03870   1.11948    0.009
 5340.00    1.07011   1.11869    0.009
 5341.00    1.12554   1.13294    0.009
 5342.00    1.16951   1.14884    0.009
 5343.00    1.10614   1.14599    0.009
 5344.00    1.04135   1.13811    0.009
 5345.00    0.96681   1.13672    0.009
 5346.00    0.92240   1.12305    0.009
 5347.00    1.03704   1.09039    0.009
 5348.00    1.12204   1.07684    0.009
 5349.00    1.08119   1.10056    0.009
 5350.00    1.04400   1.12582    0.009
 5351.00    1.01966   1.13476    0.009
 5352.00    1.00676   1.12135    0.009
 5353.00    1.02755   1.11128    0.009
 5354.00    1.08444   1.11910    0.010
 5355.00    1.23202   1.11769    0.010
 5356.00    1.29580   1.10190    0.010
 5357.00    1.17822   1.10794    0.010
 5358.00    1.12255   1.13716    0.010
 5359.00    1.18316   1.15946    0.010
 5360.00    1.20509   1.16444    0.010
 5361.00    1.16358   1.17288    0.010
 5362.00    1.14560   1.18627    0.010
 5363.00    1.16147   1.18975    0.010
 5364.00    1.15725   1.18883    0.010
 5365.00    1.12760   1.18900    0.010
 5366.00    1.08505   1.18719    0.010
 5367.00    1.02812   1.17853    0.009
 5368.00    1.03771   1.16046   -2.000
 5369.00    1.11270   1.14306   -2.000
 5370.00    1.14525   1.13915   -2.000
 5371.00    1.14099   1.13897   -2.000
 5372.00    1.01955   1.13383   -2.000
 5373.00    0.80859   1.13340   -2.000
 5374.00    0.88896   1.13664   -2.000
 5375.00    1.16494   1.13685   -2.000
 5376.00    1.20345   1.12123   -2.000
 5377.00    1.10230   1.08458   -2.000
 5378.00    1.02058   1.05255   -2.000
 5379.00    0.94884   1.06485   -2.000
 5380.00    1.04901   1.11480   -2.000
 5381.00    1.22556   1.15702   -2.000
 5382.00    1.24268   1.17315   -2.000
 5383.00    1.19894   1.16762    0.009
 5384.00    1.17414   1.15885    0.009
 5385.00    1.15549   1.16452    0.009
 5386.00    1.24296   1.17232    0.009
 5387.00    1.35924   1.16589    0.009
 5388.00    1.41292   1.15348    0.009
 5389.00    1.45265   1.14588    0.009
 5390.00    1.32139   1.13988    0.009
 5391.00    1.15977   1.14199    0.009
 5392.00    1.12197   1.15258    0.009
 5393.00    1.10098   1.15852    0.009
 5394.00    1.10935   1.15842    0.009
 5395.00    1.12056   1.15362    0.009
 5396.00    1.12026   1.13993    0.009
 5397.00    1.11925   1.12311    0.009
 5398.00    1.08470   1.11522    0.009
 5399.00    1.04971   1.11695    0.010
 5400.00    1.08826   1.11992    0.009
 5401.00    1.12463   1.11905    0.009
 5402.00    1.10487   1.11425    0.009
 5403.00    1.08710   1.09160    0.009
 5404.00    1.09627   1.06390    0.009
 5405.00    1.09979   1.07851    0.009
 5406.00    1.05237   1.11845    0.009
 5407.00    1.00750   1.13419    0.009
 5408.00    0.97945   1.13181    0.009
 5409.00    0.95139   1.13552    0.009
 5410.00    0.92329   1.13067    0.009
 5411.00    0.90832   1.09953    0.009
 5412.00    0.94783   1.05933    0.009
 5413.00    0.98618   1.04555    0.009
 5414.00    1.02057   1.06881    0.009
 5415.00    1.07119   1.09154    0.009
 5416.00    1.16878   1.07886    0.009
 5417.00    1.21975   1.05137    0.009
 5418.00    1.15562   1.05380    0.009
 5419.00    1.08520   1.08538    0.009
 5420.00    1.00139   1.11658    0.009
 5421.00    0.97371   1.13158    0.009
 5422.00    1.04984   1.13801    0.009
 5423.00    1.08648   1.15203    0.009
 5424.00    1.05930   1.16760    0.009
 5425.00    1.03189   1.17027    0.009
 5426.00    1.00414   1.16030    0.009
 5427.00    0.96753   1.14736    0.009
 5428.00    0.91987   1.14515    0.009
 5429.00    0.93913   1.15609    0.009
 5430.00    1.03195   1.15447    0.009
 5431.00    1.02368   1.13573    0.009
 5432.00    0.91741   1.13284    0.009
 5433.00    0.92867   1.15403    0.009
 5434.00    1.04039   1.17560    0.009
 5435.00    1.09709   1.16369    0.009
 5436.00    1.11238   1.11225    0.009
 5437.00    1.08603   1.08243    0.009
 5438.00    1.03214   1.10235    0.009
 5439.00    1.00542   1.11704    0.009
 5440.00    0.99443   1.10440    0.009
 5441.00    1.05163   1.08720    0.009
 5442.00    1.14326   1.08413    0.009
 5443.00    1.22085   1.09620    0.009
 5444.00    1.29231   1.11772    0.009
 5445.00    1.21854   1.14373    0.009
 5446.00    1.09032   1.16729    0.009
 5447.00    1.02361   1.18241    0.009
 5448.00    0.97646   1.18840    0.009
 5449.00    1.02418   1.19022    0.009
 5450.00    1.09712   1.19215    0.009
 5451.00    1.08646   1.18483    0.009
 5452.00    1.05763   1.15426    0.009
 5453.00    1.02754   1.10260    0.009
 5454.00    0.99723   1.06499    0.009
 5455.00    1.06739   1.07233    0.009
 5456.00    1.15071   1.09926    0.009
 5457.00    1.08635   1.11390    0.009
 5458.00    1.00834   1.11413    0.009
 5459.00    0.90860   1.10906    0.009
 5460.00    0.80763   1.09853    0.009
 5461.00    0.94625   1.07842    0.009
 5462.00    1.08958   1.04991    0.009
 5463.00    1.16478   1.04343    0.009
 5464.00    1.23685   1.07134    0.009
 5465.00    1.23555   1.10646    0.009
 5466.00    1.23446   1.12146    0.009
 5467.00    1.23605   1.11563    0.009
 5468.00    1.23056   1.10459    0.009
 5469.00    1.16379   1.09457    0.009
 5470.00    1.11597   1.08573    0.009
 5471.00    1.18963   1.09053    0.009
 5472.00    1.24306   1.10500    0.009
 5473.00    1.19510   1.10953    0.009
 5474.00    1.14342   1.11170    0.009
 5475.00    1.07661   1.12041    0.009
 5476.00    1.01514   1.12273    0.009
 5477.00    0.97166   1.11221    0.009
 5478.00    0.91884   1.10543   -2.000
 5479.00    0.83945   1.10434   -2.000
 5480.00    0.81690   1.09520   -2.000
 5481.00    0.93229   1.08689   -2.000
 5482.00    1.02743   1.08569   -2.000
 5483.00    1.08012   1.06993   -2.000
 5484.00    1.01026   1.05241   -2.000
 5485.00    0.71721   1.06993   -2.000
 5486.00    0.34297   1.10400   -2.000
 5487.00   -0.16050   1.11246   -2.000
 5488.00   -0.26409   1.09213   -2.000
 5489.00    0.19096   1.07945   -2.000
 5490.00    0.64047   1.09131   -2.000
 5491.00    1.08318   1.11466   -2.000
 5492.00    1.32737   1.13370   -2.000
 5493.00    1.35643   1.13490   -2.000
 5494.00    1.22585   1.11812   -2.000
 5495.00    0.94267   1.10625   -2.000
 5496.00    0.87747   1.11045   -2.000
 5497.00    0.99601   1.11457   -2.000
 5498.00    0.98477   1.11807   -2.000
 5499.00    0.87721   1.12566   -2.000
 5500.00    0.89032   1.12518   -2.000
 5501.00    0.98209   1.12010   -2.000
 5502.00    1.07273   1.12244   -1.000
 5503.00    1.16273   1.12072   -1.000
 5504.00    1.16478   1.10439    0.026
 5505.00    1.12315   1.09911    0.011
 5506.00    1.08875   1.11632    0.009
 5507.00    1.05748   1.12457    0.009
 5508.00    1.02606   1.10804    0.014
 5509.00    0.99459   1.09263    0.074
 5510.00    0.97132   1.09598   -1.000
 5511.00    0.95060   1.10621   -1.000
 5512.00    0.96125   1.10506   -1.000
 5513.00    0.98007   1.08818   -1.000
 5514.00    1.01440   1.07856    0.021
 5515.00    1.05202   1.09338    0.010
 5516.00    1.18620   1.10967    0.009
 5517.00    1.33659   1.11168    0.009
 5518.00    1.20464   1.10260    0.009
 5519.00    1.03693   1.08494    0.009
 5520.00    1.00161   1.07176    0.009
 5521.00    0.97796   1.07139    0.008
 5522.00    1.01108   1.07949    0.008
 5523.00    1.04716   1.09193    0.008
 5524.00    1.09229   1.10753    0.008
 5525.00    1.13595   1.12765    0.008
 5526.00    1.05643   1.14468    0.008
 5527.00    0.98335   1.14816    0.008
 5528.00    1.04898   1.14321    0.008
 5529.00    1.10729   1.14005    0.008
 5530.00    1.07634   1.14022    0.008
 5531.00    1.05424   1.13952    0.008
 5532.00    1.10582   1.13299    0.008
 5533.00    1.14735   1.12012    0.008
 5534.00    1.12629   1.10211    0.008
 5535.00    1.10135   1.08474    0.008
 5536.00    1.05745   1.08755    0.008
 5537.00    1.01489   1.11280    0.008
 5538.00    0.97762   1.13362    0.008
 5539.00    0.95241   1.13532    0.008
 5540.00    0.96701   1.12787    0.008
 5541.00    1.01560   1.11903    0.009
 5542.00    1.15899   1.11090    0.009
 5543.00    1.24748   1.11243    0.009
 5544.00    1.20495   1.12220    0.009
 5545.00    1.17524   1.12696    0.009
 5546.00    1.17195   1.13079    0.009
 5547.00    1.16255   1.14238    0.009
 5548.00    1.14222   1.15391    0.009
 5549.00    1.14752   1.15244    0.009
 5550.00    1.19301   1.13917    0.009
 5551.00    1.22307   1.12950    0.009
 5552.00    1.23187   1.12846    0.009
 5553.00    1.22099   1.12750    0.009
 5554.00    1.18625   1.13027    0.009
 5555.00    1.18841   1.14289    0.009
 5556.00    1.22999   1.15520    0.009
 5557.00    1.20861   1.15873    0.009
 5558.00    1.12787   1.15703    0.009
 5559.00    1.08997   1.15233    0.009
 5560.00    1.08766   1.14238    0.008
 5561.00    1.15544   1.13107    0.008
 5562.00    1.27449   1.12663    0.008
 5563.00    1.21558   1.12868    0.008
 5564.00    1.04235   1.12838    0.008
 5565.00    1.08848   1.12677    0.008
 5566.00    1.25785   1.12981    0.008
 5567.00    1.23803   1.13298    0.008
 5568.00    1.12571   1.13103    0.008
 5569.00    1.09024   1.12441    0.008
 5570.00    1.08723   1.11753    0.008
 5571.00    1.07370   1.11589    0.008
 5572.00    1.05636   1.11444    0.008
 5573.00    1.08608   1.10805    0.008
 5574.00    1.13020   1.10590    0.008
 5575.00    1.12770   1.11022    0.008
 5576.00    1.11333   1.11103    0.008
 5577.00    1.06610   1.11156    0.008
 5578.00    1.01207   1.12026    0.008
 5579.00    1.06673   1.12083    0.008
 5580.00    1.13912   1.10941    0.008
 5581.00    1.11941   1.11149    0.008
 5582.00    1.08844   1.12416    0.008
 5583.00    1.28171   1.12710    0.008
 5584.00    1.49382   1.12777    0.008
 5585.00    1.42376   1.13069    0.008
 5586.00    1.34006   1.13062    0.009
 5587.00    1.21168   1.13347    0.009
 5588.00    1.08375   1.13500    0.008
 5589.00    1.02193   1.12777    0.009
 5590.00    0.96916   1.12320    0.009
 5591.00    1.09618   1.12402    0.009
 5592.00    1.20613   1.11840    0.009
 5593.00    1.11793   1.10127    0.009
 5594.00    1.03205   1.07698    0.009
 5595.00    0.96478   1.05846    0.009
 5596.00    0.94073   1.05565    0.009
 5597.00    1.17776   1.06746    0.009
 5598.00    1.34977   1.07931    0.009
 5599.00    1.21182   1.07987    0.009
 5600.00    1.08633   1.07650    0.009
 5601.00    1.00928   1.08151    0.009
 5602.00    0.96527   1.09762    0.009
 5603.00    1.02815   1.12057    0.009
 5604.00    1.06288   1.12807    0.009
 5605.00    1.02053   1.10415    0.008
 5606.00    1.02925   1.07734    0.008
 5607.00    1.15777   1.07185    0.008
 5608.00    1.24995   1.07373    0.008
 5609.00    1.26840   1.07057    0.008
 5610.00    1.28963   1.06996    0.008
 5611.00    1.31576   1.08274    0.008
 5612.00    1.30801   1.10343    0.008
 5613.00    1.24791   1.12000    0.008
 5614.00    1.21698   1.13014    0.008
 5615.00    1.22563   1.13558    0.008
 5616.00    1.20512   1.13586    0.008
 5617.00    1.14977   1.13229    0.008
 5618.00    1.11599   1.13194    0.008
 5619.00    1.10494   1.13834    0.008
 5620.00    1.10124   1.14262    0.008
 5621.00    1.10435   1.12678    0.008
 5622.00    1.12479   1.08757    0.008
 5623.00    1.15941   1.05938    0.008
 5624.00    1.12677   1.06990    0.008
 5625.00    1.04565   1.09362    0.008
 5626.00    1.03703   1.10060    0.008
 5627.00    1.07429   1.09748    0.008
 5628.00    1.12497   1.10179    0.008
 5629.00    1.18307   1.11360    0.008
 5630.00    1.20204   1.11454    0.008
 5631.00    1.20217   1.09370    0.008
 5632.00    1.19462   1.07192    0.008
 5633.00    1.18387   1.07540    0.008
 5634.00    1.21963   1.09439    0.008
 5635.00    1.27190   1.10600    0.008
 5636.00    1.27669   1.10970    0.008
 5637.00    1.26724   1.11262    0.008
 5638.00    1.29072   1.11597    0.008
 5639.00    1.32240   1.11971    0.008
 5640.00    1.24820   1.12180    0.008
 5641.00    1.15262   1.12056    0.008
 5642.00    1.15126   1.11547    0.008
 5643.00    1.16482   1.10594    0.008
 5644.00    1.23277   1.09491    0.008
 5645.00    1.30712   1.08980    0.008
 5646.00    1.32380   1.09027    0.008
 5647.00    1.33586   1.08750    0.008
 5648.00    1.26644   1.08025    0.008
 5649.00    1.19340   1.08019    0.008
 5650.00    1.18696   1.09020    0.008
 5651.00    1.18136   1.09748    0.008
 5652.00    1.18014   1.09996    0.008
 5653.00    1.17575   1.10235    0.008
 5654.00    1.11295   1.10497    0.008
 5655.00    1.05098   1.10720    0.008
 5656.00    0.99826   1.10808    0.008
 5657.00    0.95376   1.11020    0.008
 5658.00    0.97300   1.11772    0.008
 5659.00    0.99299   1.12863    0.008
 5660.00    1.01734   1.13585    0.008
 5661.00    1.04438   1.13211    0.008
 5662.00    1.08388   1.12146    0.008
 5663.00    1.11664   1.11720    0.008
 5664.00    1.12377   1.11063    0.008
 5665.00    1.12905   1.08218    0.008
 5666.00    1.12848   1.05704    0.008
 5667.00    1.15440   1.07010    0.008
 5668.00    1.25160   1.09387    0.008
 5669.00    1.30206   1.09028    0.008
 5670.00    1.24468   1.07734    0.008
 5671.00    1.19998   1.08427    0.008
 5672.00    1.18061   1.10229    0.008
 5673.00    1.16112   1.10858    0.008
 5674.00    1.14140   1.10111    0.008
 5675.00    1.17360   1.09035    0.008
 5676.00    1.28482   1.08798    0.008
 5677.00    1.29839   1.09417    0.008
 5678.00    1.18135   1.10020    0.008
 5679.00    1.14435   1.10840    0.008
 5680.00    1.20163   1.12305    0.008
 5681.00    1.17634   1.13475    0.008
 5682.00    1.06530   1.13254    0.008
 5683.00    1.06843   1.12707    0.008
 5684.00    1.17616   1.13149    0.008
 5685.00    1.23324   1.13532    0.008
 5686.00    1.24942   1.12736    0.008
 5687.00    1.22204   1.11912    0.008
 5688.00    1.16372   1.11907    0.008
 5689.00    1.13353   1.11573    0.008
 5690.00    1.12089   1.10633    0.008
 5691.00    1.12617   1.10704    0.008
 5692.00    1.14121   1.11900    0.008
 5693.00    1.13986   1.12172    0.008
 5694.00    1.13075   1.10940    0.008
 5695.00    1.16524   1.09637    0.008
 5696.00    1.21755   1.09791    0.008
 5697.00    1.23041   1.11213    0.008
 5698.00    1.22952   1.12803    0.008
 5699.00    1.24080   1.14009    0.008
 5700.00    1.25567   1.14795    0.008
 5701.00    1.30378   1.14718    0.008
 5702.00    1.35999   1.13836    0.008
 5703.00    1.30773   1.12992    0.008
 5704.00    1.23411   1.12611    0.008
 5705.00    1.16615   1.12031    0.008
 5706.00    1.09905   1.11291    0.008
 5707.00    1.11958   1.11031    0.008
 5708.00    1.15006   1.10541    0.008
 5709.00    1.19055   1.09621    0.008
 5710.00    1.23180   1.09521    0.008
 5711.00    1.22767   1.10689    0.008
 5712.00    1.22169   1.11808    0.008
 5713.00    1.22614   1.11480    0.008
 5714.00    1.22931   1.09965    0.008
 5715.00    1.17682   1.08455    0.008
 5716.00    1.12376   1.07202    0.008
 5717.00    1.06102   1.06838    0.008
 5718.00    1.00714   1.07583    0.008
 5719.00    1.04693   1.08096    0.008
 5720.00    1.08957   1.09124    0.008
 5721.00    1.15355   1.11525    0.008
 5722.00    1.22070   1.13223    0.008
 5723.00    1.30592   1.13741    0.008
 5724.00    1.37913   1.13754    0.008
 5725.00    1.39779   1.13249    0.008
 5726.00    1.39486   1.12949    0.008
 5727.00    1.31162   1.13507    0.008
 5728.00    1.24472   1.14278    0.008
 5729.00    1.22868   1.14862    0.008
 5730.00    1.22140   1.15329    0.008
 5731.00    1.23730   1.15432    0.007
 5732.00    1.22622   1.15144    0.007
 5733.00    1.15390   1.14279    0.007
 5734.00    1.10959   1.12448    0.007
 5735.00    1.12033   1.11196    0.007
 5736.00    1.14392   1.12144    0.007
 5737.00    1.18953   1.13731    0.008
 5738.00    1.22122   1.13540    0.008
 5739.00    1.23203   1.12485    0.008
 5740.00    1.21712   1.12956    0.000
 5741.00    1.16830   1.14520    0.000
 5742.00    1.12548   1.15353    0.000
 5743.00    1.08962   1.15240    0.000
 5744.00    1.11118   1.14699    0.000
 5745.00    1.19154   1.14218    0.000
 5746.00    1.25101   1.13804    0.000
 5747.00    1.29161   1.13371    0.000
 5748.00    1.30387   1.13382    0.000
 5749.00    1.29357   1.13879    0.000
 5750.00    1.32230   1.14043    0.000
 5751.00    1.37835   1.13944    0.000
 5752.00    1.36807   1.14929    0.000
 5753.00    1.31703   1.16246    0.000
 5754.00    1.23018   1.16186    0.000
 5755.00    1.12412   1.14412    0.000
 5756.00    1.11315   1.13111    0.000
 5757.00    1.14649   1.14096    0.000
 5758.00    1.17005   1.15764    0.000
 5759.00    1.18970   1.15722    0.000
 5760.00    1.19084   1.13802    0.000
 5761.00    1.18566   1.11803    0.000
 5762.00    1.19275   1.11624    0.000
 5763.00    1.20337   1.13578    0.000
 5764.00    1.24685   1.15931    0.000
 5765.00    1.29815   1.17063    0.000
 5766.00    1.26314   1.16765    0.000
 5767.00    1.21157   1.15170    0.000
 5768.00    1.25384   1.12918    0.000
 5769.00    1.31009   1.10904    0.000
 5770.00    1.39288   1.09824    0.000
 5771.00    1.47857   1.10737    0.000
 5772.00    1.38964   1.13258    0.000
 5773.00    1.28818   1.15007    0.000
 5774.00    1.20472   1.15317    0.000
 5775.00    1.12192   1.15198    0.000
 5776.00    1.23412   1.15059    0.000
 5777.00    1.34677   1.14849    0.000
 5778.00    1.44635   1.14703    0.000
 5779.00    1.53121   1.14434    0.000
 5780.00    1.37940   1.14135    0.000
 5781.00    1.23925   1.14032    0.000
 5782.00    1.21710   1.13859    0.000
 5783.00    1.19939   1.13864    0.000
 5784.00    1.21393   1.14320    0.000
 5785.00    1.21822   1.14664    0.000
 5786.00    1.16556   1.14504    0.000
 5787.00    1.13729   1.13283    0.000
 5788.00    1.21718   1.10794    0.000
 5789.00    1.25953   1.08551    0.000
 5790.00    1.16508   1.08404    0.000
 5791.00    1.09224   1.09284   -2.000
 5792.00    1.08538   1.09160   -2.000
 5793.00    1.08427   1.08724   -2.000
 5794.00    1.09805   1.10012   -2.000
 5795.00    1.08406   1.12195   -2.000
 5796.00    1.00811   1.13460   -2.000
 5797.00    0.99541   1.13695   -2.000
 5798.00    1.10508   1.12780   -2.000
 5799.00    1.16846   1.12080   -2.000
 5800.00    1.15372   1.13267   -2.000
 5801.00    1.14921   1.15178   -2.000
 5802.00    1.15980   1.16594   -2.000
 5803.00    1.19128   1.17109   -2.000
 5804.00    1.24988   1.16028   -2.000
 5805.00    1.31637   1.13929   -2.000
 5806.00    1.39190   1.13376   -2.000
 5807.00    1.35687   1.15137   -2.000
 5808.00    1.21021   1.16588   -2.000
 5809.00    1.12971   1.17118   -2.000
 5810.00    1.10812   1.17526   -2.000
 5811.00    1.13557   1.17223    0.000
 5812.00    1.20151   1.15818    0.000
 5813.00    1.19848   1.15175    0.000
 5814.00    1.14785   1.15692    0.000
 5815.00    1.10820   1.16266    0.000
 5816.00    1.07517   1.16497    0.000
 5817.00    1.09315   1.16435    0.000
 5818.00    1.13807   1.15928    0.000
 5819.00    1.13901   1.14946    0.000
 5820.00    1.11979   1.14356    0.000
 5821.00    1.14727   1.14304    0.000
 5822.00    1.19317   1.14039    0.000
 5823.00    1.18442   1.12819    0.000
 5824.00    1.15730   1.12264    0.000
 5825.00    1.20986   1.13219    0.000
 5826.00    1.28491   1.14744    0.000
 5827.00    1.26538   1.15506    0.000
 5828.00    1.22383   1.15752    0.000
 5829.00    1.24815   1.15866    0.000
 5830.00    1.28479   1.15475    0.000
 5831.00    1.23911   1.14976    0.000
 5832.00    1.18157   1.15086    0.000
 5833.00    1.20006   1.15824    0.000
 5834.00    1.22650   1.16230    0.000
 5835.00    1.24884   1.16213    0.000
 5836.00    1.27089   1.16262    0.000
 5837.00    1.24530   1.16623    0.000
 5838.00    1.21812   1.16901    0.000
 5839.00    1.22693   1.16783    0.000
 5840.00    1.23593   1.16680    0.000
 5841.00    1.25037   1.16189    0.000
 5842.00    1.26123   1.15238    0.000
 5843.00    1.21816   1.15001    0.000
 5844.00    1.17731   1.15950    0.000
 5845.00    1.15812   1.16130    0.000
 5846.00    1.14668   1.15128    0.000
 5847.00    1.18959   1.14733    0.000
 5848.00    1.22953   1.15687    0.000
 5849.00    1.25336   1.16797    0.000
 5850.00    1.26052   1.17373    0.000
 5851.00    1.19541   1.17383    0.000
 5852.00    1.15332   1.16914    0.000
 5853.00    1.19341   1.16105    0.000
 5854.00    1.23785   1.14933    0.000
 5855.00    1.29531   1.13553    0.000
 5856.00    1.32889   1.12917    0.000
 5857.00    1.30156   1.12940    0.000
 5858.00    1.27377   1.12789    0.000
 5859.00    1.24498   1.11845    0.000
 5860.00    1.22301   1.10146    0.000
 5861.00    1.21400   1.08805    0.000
 5862.00    1.21734   1.09389    0.000
 5863.00    1.24117   1.10684    0.000
 5864.00    1.25189   1.10053    0.000
 5865.00    1.24350   1.08130    0.000
 5866.00    1.23486   1.07800    0.000
 5867.00    1.22589   1.09551    0.000
 5868.00    1.20680   1.11248    0.000
 5869.00    1.17626   1.11697    0.000
 5870.00    1.19057   1.10846    0.000
 5871.00    1.24953   1.10263    0.000
 5872.00    1.27549   1.10839    0.000
 5873.00    1.27246   1.11090    0.000
 5874.00    1.26024   1.10145    0.000
 5875.00    1.24092   1.09663    0.000
 5876.00    1.23824   1.10735    0.000
 5877.00    1.24687   1.12176    0.000
 5878.00    1.23676   1.12936    0.000
 5879.00    1.21547   1.12801    0.000
 5880.00    1.20748   1.11754    0.000
 5881.00    1.20641   1.10330    0.000
 5882.00    1.16283   1.07050    0.000
 5883.00    1.10009   1.03455    0.000
 5884.00    1.08264   1.02641    0.000
 5885.00    1.08274   1.05122    0.000
 5886.00    1.09144   1.08652    0.000
 5887.00    1.10296   1.08572    0.000
 5888.00    1.10137   1.07882    0.000
 5889.00    1.09615   1.08428    0.000
 5890.00    1.08305   1.09609    0.000
 5891.00    1.06817   1.09589    0.000
 5892.00    1.04422   1.09061    0.000
 5893.00    1.01862   1.09164    0.000
 5894.00    0.99713   1.09087    0.000
 5895.00    0.97621   1.07360    0.000
 5896.00    1.00821   1.01450    0.000
 5897.00    1.04552   0.91854    0.000
 5898.00    1.07582   0.86305    0.000
 5899.00    1.10568   0.90742    0.000
 5900.00    1.12489   0.98466    0.000
 5901.00    1.14368   1.01994    0.007
 5902.00    1.12847   1.01071    0.007
 5903.00    1.11411   0.95372    0.007
 5904.00    1.12395   0.91501    0.007
 5905.00    1.13302   0.95540    0.007
 5906.00    1.13118   1.01523    0.007
 5907.00    1.13150   1.03836    0.007
 5908.00    1.15188   1.04989    0.007
 5909.00    1.17494   1.06643    0.007
 5910.00    1.21613   1.07638    0.007
 5911.00    1.25372   1.08163    0.007
 5912.00    1.27245   1.08347    0.007
 5913.00    1.28367   1.07803    0.008
 5914.00    1.26315   1.07254    0.018
 5915.00    1.25240   1.07766   -1.000
 5916.00    1.27584   1.08593   -1.000
 5917.00    1.27425   1.08767   -1.000
 5918.00    1.19904   1.08750   -1.000
 5919.00    1.14091   1.09247   -1.000
 5920.00    1.12557   1.09247   -1.000
 5921.00    1.13640   1.07787   -1.000
 5922.00    1.20373   1.06144   -1.000
 5923.00    1.25257   1.06028   -1.000
 5924.00    1.26673   1.06672   -1.000
 5925.00    1.26450   1.07648    0.037
 5926.00    1.23543   1.08289    0.010
 5927.00    1.21880   1.08406    0.007
 5928.00    1.22003   1.08889    0.007
 5929.00    1.20927   1.08818    0.007
 5930.00    1.18336   1.08147    0.007
 5931.00    1.20207   1.08153    0.007
 5932.00    1.27043   1.08759    0.007
 5933.00    1.30223   1.09194    0.007
 5934.00    1.29813   1.09477    0.007
 5935.00    1.27398   1.09353    0.007
 5936.00    1.23246   1.08531    0.007
 5937.00    1.21673   1.07542    0.007
 5938.00    1.22067   1.07207    0.007
 5939.00    1.21432   1.08269    0.007
 5940.00    1.20108   1.09847    0.007
 5941.00    1.18640   1.09786    0.007
 5942.00    1.17086   1.08536    0.007
 5943.00    1.21179   1.07939    0.007
 5944.00    1.28163   1.09077    0.007
 5945.00    1.28296   1.10214    0.007
 5946.00    1.25390   1.10708    0.007
 5947.00    1.26200   1.10907    0.007
 5948.00    1.28424   1.09840    0.007
 5949.00    1.28755   1.07979    0.007
 5950.00    1.28474   1.07871    0.007
 5951.00    1.23600   1.09145    0.007
 5952.00    1.17483   1.10263    0.007
 5953.00    1.21430   1.11213    0.007
 5954.00    1.27613   1.11906    0.007
 5955.00    1.33598   1.11355    0.007
 5956.00    1.39547   1.09353    0.007
 5957.00    1.32106   1.07902    0.007
 5958.00    1.22857   1.08345    0.007
 5959.00    1.19274   1.09214    0.007
 5960.00    1.16236   1.08563    0.007
 5961.00    1.14367   1.07787    0.007
 5962.00    1.12569   1.08774    0.007
 5963.00    1.18001   1.09308    0.007
 5964.00    1.23559   1.07859    0.007
 5965.00    1.19942   1.06715    0.007
 5966.00    1.16758   1.07408    0.007
 5967.00    1.24593   1.08971    0.007
 5968.00    1.32274   1.10460    0.007
 5969.00    1.37881   1.11308    0.007
 5970.00    1.42452   1.11533    0.007
 5971.00    1.37738   1.11250    0.007
 5972.00    1.33533   1.10950    0.007
 5973.00    1.32669   1.10267    0.007
 5974.00    1.31956   1.09837    0.007
 5975.00    1.32019   1.10684    0.007
 5976.00    1.30813   1.11655    0.007
 5977.00    1.24353   1.12113    0.007
 5978.00    1.20638   1.12506    0.007
 5979.00    1.26326   1.12661    0.007
 5980.00    1.30558   1.12292    0.007
 5981.00    1.30591   1.11927    0.007
 5982.00    1.31074   1.11517    0.007
 5983.00    1.32668   1.10497    0.007
 5984.00    1.32660   1.09286    0.007
 5985.00    1.29244   1.08608    0.007
 5986.00    1.28197   1.08163    0.007
 5987.00    1.31519   1.08694    0.007
 5988.00    1.33017   1.10055    0.007
 5989.00    1.31571   1.11160    0.007
 5990.00    1.30571   1.10963    0.007
 5991.00    1.30203   1.09342    0.007
 5992.00    1.30654   1.07396    0.007
 5993.00    1.32126   1.07770    0.007
 5994.00    1.30685   1.10025    0.007
 5995.00    1.26048   1.11016    0.007
 5996.00    1.22404   1.10870    0.007
 5997.00    1.19722   1.11147    0.007
 5998.00    1.19242   1.11476    0.007
 5999.00    1.20641   1.11178    0.007
 6000.00    1.21193   1.11321    0.007
 6001.00    1.21110   1.12874    0.007
 6002.00    1.19624   1.14200    0.007
 6003.00    1.17212   1.14178    0.007
 6004.00    1.14548   1.13082    0.007
 6005.00    1.11738   1.11813    0.007
 6006.00    1.12189   1.11149    0.007
 6007.00    1.14283   1.11150    0.007
 6008.00    1.16944   1.11427    0.007
 6009.00    1.19852   1.11488    0.007
 6010.00    1.25225   1.10614    0.007
 6011.00    1.31519   1.09936    0.007
 6012.00    1.27580   1.11034    0.007
 6013.00    1.20393   1.11827    0.007
 6014.00    1.14084   1.10954    0.007
 6015.00    1.08008   1.09179    0.007
 6016.00    1.07703   1.07831    0.007
 6017.00    1.08650   1.08980    0.007
 6018.00    1.17265   1.11642    0.007
 6019.00    1.27201   1.12752    0.007
 6020.00    1.34400   1.11618    0.007
 6021.00    1.41241   1.10155    0.007
 6022.00    1.39097   1.10395    0.007
 6023.00    1.36128   1.11486    0.007
 6024.00    1.33148   1.11123    0.007
 6025.00    1.30167   1.10309    0.007
 6026.00    1.31850   1.10728    0.007
 6027.00    1.33623   1.10971    0.007
 6028.00    1.34182   1.10401    0.007
 6029.00    1.34524   1.10310    0.007
 6030.00    1.29838   1.10932    0.007
 6031.00    1.25473   1.11394    0.007
 6032.00    1.25198   1.11569    0.007
 6033.00    1.24941   1.12395    0.007
 6034.00    1.24833   1.13142    0.007
 6035.00    1.24963   1.12973    0.007
 6036.00    1.26615   1.13455    0.007
 6037.00    1.27319   1.14456    0.007
 6038.00    1.23289   1.14532    0.007
 6039.00    1.19514   1.13754    0.007
 6040.00    1.16778   1.13643    0.007
 6041.00    1.14233   1.14489    0.007
 6042.00    1.12329   1.15194    0.007
 6043.00    1.11741   1.15218    0.007
 6044.00    1.14879   1.14855    0.007
 6045.00    1.17580   1.14577    0.007
 6046.00    1.19224   1.14622    0.007
 6047.00    1.20325   1.14445    0.007
 6048.00    1.20291   1.14087    0.007
 6049.00    1.21153   1.14255    0.007
 6050.00    1.23642   1.14548    0.007
 6051.00    1.27255   1.15307    0.007
 6052.00    1.32655   1.16280    0.007
 6053.00    1.34326   1.16738    0.007
 6054.00    1.30797   1.16933    0.007
 6055.00    1.28181   1.16979    0.007
 6056.00    1.26686   1.16644    0.007
 6057.00    1.28217   1.16264    0.007
 6058.00    1.33022   1.16549    0.007
 6059.00    1.35709   1.16862    0.007
 6060.00    1.36376   1.16377    0.007
 6061.00    1.36427   1.15606    0.007
 6062.00    1.35959   1.15181    0.007
 6063.00    1.36946   1.14850    0.007
 6064.00    1.39011   1.14199    0.007
 6065.00    1.38139   1.13743    0.007
 6066.00    1.35355   1.13813    0.007
 6067.00    1.31831   1.14780    0.007
 6068.00    1.27885   1.15910    0.007
 6069.00    1.29470   1.16232    0.007
 6070.00    1.33797   1.15548    0.007
 6071.00    1.34714   1.14268    0.007
 6072.00    1.34167   1.12545    0.007
 6073.00    1.34258   1.10637    0.007
 6074.00    1.34582   1.11193    0.007
 6075.00    1.32560   1.14528    0.007
 6076.00    1.29808   1.16990    0.007
 6077.00    1.29708   1.17700    0.007
 6078.00    1.30296   1.17889    0.007
 6079.00    1.32383   1.18053    0.007
 6080.00    1.34788   1.18101    0.007
 6081.00    1.32934   1.17930    0.007
 6082.00    1.30367   1.17884    0.007
 6083.00    1.30273   1.17882    0.007
 6084.00    1.30492   1.17599    0.007
 6085.00    1.30242   1.16787    0.007
 6086.00    1.29951   1.15274    0.007
 6087.00    1.31040   1.14281    0.007
 6088.00    1.32200   1.14500    0.007
 6089.00    1.33978   1.14037    0.007
 6090.00    1.35702   1.12901    0.006
 6091.00    1.32690   1.13089    0.007
 6092.00    1.29886   1.14249    0.007
 6093.00    1.31500   1.14352    0.007
 6094.00    1.33005   1.14249    0.007
 6095.00    1.33183   1.15018    0.007
 6096.00    1.32961   1.15810    0.007
 6097.00    1.29413   1.15138    0.007
 6098.00    1.26583   1.13371    0.007
 6099.00    1.28206   1.12799    0.007
 6100.00    1.29444   1.13591    0.007
 6101.00    1.28805   1.14057    0.007
 6102.00    1.29242   1.14988    0.007
 6103.00    1.33945   1.16657    0.007
 6104.00    1.37314   1.17140    0.007
 6105.00    1.36293   1.16157    0.007
 6106.00    1.33103   1.15889    0.007
 6107.00    1.23879   1.16899    0.007
 6108.00    1.17132   1.17691    0.007
 6109.00    1.16281   1.16204    0.007
 6110.00    1.17857   1.11538    0.008
 6111.00    1.24424   1.08316    0.022
 6112.00    1.26813   1.10626   -1.000
 6113.00    1.21722   1.14490   -1.000
 6114.00    1.18352   1.16140   -1.000
 6115.00    1.17678   1.15815   -1.000
 6116.00    1.15562   1.15089   -1.000
 6117.00    1.11465   1.15647   -1.000
 6118.00    1.07719   1.16327   -1.000
 6119.00    1.04396   1.15472   -1.000
 6120.00    1.06698   1.15013    0.027
 6121.00    1.14998   1.16318    0.009
 6122.00    1.21297   1.17801    0.007
 6123.00    1.25715   1.17940    0.007
 6124.00    1.28921   1.16668    0.007
 6125.00    1.31123   1.16086    0.007
 6126.00    1.31715   1.16688    0.007
 6127.00    1.31132   1.16076    0.007
 6128.00    1.26514   1.13634    0.007
 6129.00    1.19309   1.10707    0.007
 6130.00    1.17737   1.08505    0.007
 6131.00    1.19323   1.10113    0.007
 6132.00    1.23234   1.14386    0.007
 6133.00    1.28280   1.16248    0.007
 6134.00    1.25232   1.15530    0.007
 6135.00    1.18771   1.14401    0.007
 6136.00    1.18267   1.13637    0.007
 6137.00    1.19915   1.13984    0.007
 6138.00    1.26195   1.15881    0.007
 6139.00    1.33890   1.17643    0.007
 6140.00    1.31030   1.17932    0.007
 6141.00    1.25491   1.17428    0.007
 6142.00    1.22353   1.16049    0.007
 6143.00    1.19711   1.12934    0.007
 6144.00    1.24237   1.08361    0.007
 6145.00    1.29929   1.04613    0.007
 6146.00    1.28745   1.06114    0.007
 6147.00    1.26724   1.12042    0.006
 6148.00    1.29154   1.15814    0.007
 6149.00    1.31956   1.14643    0.007
 6150.00    1.32656   1.12687    0.007
 6151.00    1.33255   1.14050    0.007
 6152.00    1.24965   1.17067    0.007
 6153.00    1.16694   1.18612    0.007
 6154.00    1.16963   1.18387    0.007
 6155.00    1.17178   1.17487    0.007
 6156.00    1.16308   1.15733    0.007
 6157.00    1.15139   1.13022    0.007
 6158.00    1.10521   1.10983    0.007
 6159.00    1.06844   1.11381    0.007
 6160.00    1.10708   1.13424    0.007
 6161.00    1.13992   1.15031    0.007
 6162.00    1.13782   1.14587    0.007
 6163.00    1.12743   1.13139    0.007
 6164.00    1.07762   1.12793    0.007
 6165.00    1.05059   1.12546    0.007
 6166.00    1.11177   1.11327    0.007
 6167.00    1.16171   1.09526    0.007
 6168.00    1.17535   1.06908    0.007
 6169.00    1.17631   1.02514    0.007
 6170.00    1.14263   0.98324    0.007
 6171.00    1.11846   0.97826    0.007
 6172.00    1.11656   1.00547    0.007
 6173.00    1.12636   1.03391    0.007
 6174.00    1.15984   1.04817    0.006
 6175.00    1.17892   1.05757    0.006
 6176.00    1.17259   1.05719    0.006
 6177.00    1.16735   1.03210    0.006
 6178.00    1.16381   1.01385    0.006
 6179.00    1.16867   1.03386    0.006
 6180.00    1.18492   1.06451    0.006
 6181.00    1.21338   1.07091    0.007
 6182.00    1.25638   1.06402    0.007
 6183.00    1.29923   1.06131    0.007
 6184.00    1.34191   1.06204    0.007
 6185.00    1.35269   1.06512    0.007
 6186.00    1.33389   1.07536    0.007
 6187.00    1.30792   1.08516    0.007
 6188.00    1.27608   1.08537    0.007
 6189.00    1.23930   1.08705    0.007
 6190.00    1.19897   1.09416    0.007
 6191.00    1.17024   1.09537    0.007
 6192.00    1.14885   1.09106    0.007
 6193.00    1.16934   1.08443    0.007
 6194.00    1.21297   1.06888    0.007
 6195.00    1.22578   1.04998    0.007
 6196.00    1.22378   1.04169   -2.000
 6197.00    1.15166   1.04099   -2.000
 6198.00    1.05046   1.03103   -2.000
 6199.00    0.91067   1.00627   -2.000
 6200.00    0.75719   0.99766   -2.000
 6201.00    0.68216   1.02150   -2.000
 6202.00    0.63060   1.04743   -2.000
 6203.00    0.77250   1.05999   -2.000
 6204.00    0.96246   1.06768   -2.000
 6205.00    0.99702   1.07426   -2.000
 6206.00    1.00029   1.07248   -2.000
 6207.00    0.99068   1.05718   -2.000
 6208.00    0.97905   1.04202    0.007
 6209.00    0.99377   1.04640    0.007
 6210.00    1.01159   1.06471    0.007
 6211.00    1.03279   1.07882    0.007
 6212.00    1.05427   1.08164    0.007
 6213.00    1.10475   1.07950    0.007
 6214.00    1.15652   1.08154    0.007
 6215.00    1.16995   1.08685    0.007
 6216.00    1.18280   1.09018    0.007
 6217.00    1.18744   1.08929    0.007
 6218.00    1.19081   1.08213    0.007
 6219.00    1.17074   1.07228    0.007
 6220.00    1.15552   1.06275    0.007
 6221.00    1.19352   1.04480    0.007
 6222.00    1.22785   1.02188    0.007
 6223.00    1.23383   1.00751    0.007
 6224.00    1.23853   1.00559    0.007
 6225.00    1.23572   1.01810    0.007
 6226.00    1.23886   1.03185    0.007
 6227.00    1.26954   1.02958    0.007
 6228.00    1.29133   1.02207    0.006
 6229.00    1.27942   1.02338    0.007
 6230.00    1.26837   1.02934    0.007
 6231.00    1.26006   1.02977    0.007
 6232.00    1.25566   1.02363    0.006
 6233.00    1.26176   1.02219    0.006
 6234.00    1.24823   1.02823    0.006
 6235.00    1.18949   1.03307    0.006
 6236.00    1.16758   1.03325    0.006
 6237.00    1.21902   1.02244    0.007
 6238.00    1.25726   0.99673    0.007
 6239.00    1.27255   0.97800    0.007
 6240.00    1.27368   0.98528    0.007
 6241.00    1.25327   1.00560    0.007
 6242.00    1.21626   1.02923    0.007
 6243.00    1.15707   1.05032    0.007
 6244.00    1.13771   1.05721    0.007
 6245.00    1.16519   1.04970    0.007
 6246.00    1.19446   1.03491    0.007
 6247.00    1.22558   1.01749    0.007
 6248.00    1.22499   1.00489    0.007
 6249.00    1.19539   1.00883    0.007
 6250.00    1.16215   1.01598    0.007
 6251.00    1.12596   1.00635    0.007
 6252.00    1.11367   0.99838    0.007
 6253.00    1.11833   1.00344    0.007
 6254.00    1.15489   1.00869    0.007
 6255.00    1.21130   1.01932    0.006
 6256.00    1.24171   1.03916    0.006
 6257.00    1.25797   1.05403    0.007
 6258.00    1.23208   1.05768    0.007
 6259.00    1.18628   1.04972    0.007
 6260.00    1.11527   1.02942    0.007
 6261.00    1.03400   1.01346    0.008
 6262.00    1.02912   1.01450    0.008
 6263.00    1.05083   1.02272    0.008
 6264.00    1.07883   1.02183    0.008
 6265.00    1.10868   1.00737    0.008
 6266.00    1.15375   0.98888    0.008
 6267.00    1.20251   0.98724    0.007
 6268.00    1.25757   1.00949    0.007
 6269.00    1.31386   1.03046    0.007
 6270.00    1.33821   1.04413    0.007
 6271.00    1.35769   1.06192    0.007
 6272.00    1.35093   1.07052    0.007
 6273.00    1.34121   1.06003    0.007
 6274.00    1.34768   1.05170    0.007
 6275.00    1.35537   1.05711    0.007
 6276.00    1.30934   1.05965    0.007
 6277.00    1.26115   1.05222    0.007
 6278.00    1.29023   1.04861    0.007
 6279.00    1.31798   1.05555    0.007
 6280.00    1.26916   1.06642    0.000
 6281.00    1.22152   1.07239    0.000
 6282.00    1.19401   1.06965    0.000
 6283.00    1.17512   1.06516    0.000
 6284.00    1.24694   1.06461    0.000
 6285.00    1.31666   1.06620    0.000
 6286.00    1.37069   1.06783    0.000
 6287.00    1.41424   1.06476    0.000
 6288.00    1.39823   1.05284    0.000
 6289.00    1.37075   1.04419    0.000
 6290.00    1.29137   1.04958    0.000
 6291.00    1.24666   1.06253    0.000
 6292.00    1.33060   1.07369    0.000
 6293.00    1.40575   1.07626    0.000
 6294.00    1.45360   1.07812    0.000
 6295.00    1.47005   1.08937    0.000
 6296.00    1.40367   1.10310    0.000
 6297.00    1.34705   1.11020    0.000
 6298.00    1.31251   1.10705    0.000
 6299.00    1.30655   1.09735    0.000
 6300.00    1.35664   1.08794    0.000
 6301.00    1.39786   1.08242    0.000
 6302.00    1.42391   1.08398    0.000
 6303.00    1.43776   1.08447    0.000
 6304.00    1.43335   1.07082    0.000
 6305.00    1.42825   1.05430    0.000
 6306.00    1.42221   1.05531    0.000
 6307.00    1.41229   1.07055    0.000
 6308.00    1.39785   1.07956    0.000
 6309.00    1.37968   1.07267    0.000
 6310.00    1.35771   1.06315    0.000
 6311.00    1.32957   1.06777    0.000
 6312.00    1.29589   1.08073    0.000
 6313.00    1.27063   1.08566    0.000
 6314.00    1.25206   1.08555    0.000
 6315.00    1.23992   1.09674    0.000
 6316.00    1.23226   1.11421    0.000
 6317.00    1.24542   1.12030    0.000
 6318.00    1.27136   1.11335    0.000
 6319.00    1.29288   1.10198    0.000
 6320.00    1.31205   1.09517    0.000
 6321.00    1.30040   1.09777    0.007
 6322.00    1.27444   1.09867    0.007
 6323.00    1.27978   1.08971    0.007
 6324.00    1.29766   1.08628    0.007
 6325.00    1.32006   1.09016    0.007
 6326.00    1.34401   1.08356    0.007
 6327.00    1.35674   1.07756    0.007
 6328.00    1.36626   1.08884    0.007
 6329.00    1.38504   1.10216    0.007
 6330.00    1.40603   1.10388    0.006
 6331.00    1.39444   1.10485    0.006
 6332.00    1.37663   1.11382    0.006
 6333.00    1.33754   1.12054    0.006
 6334.00    1.29529   1.12100    0.006
 6335.00    1.25369   1.12096    0.006
 6336.00    1.21216   1.12413    0.006
 6337.00    1.22600   1.12901    0.006
 6338.00    1.24378   1.12637    0.006
 6339.00    1.29205   1.12281    0.006
 6340.00    1.34143   1.13214    0.006
 6341.00    1.35386   1.14520    0.006
 6342.00    1.36537   1.14286    0.006
 6343.00    1.34925   1.11739    0.006
 6344.00    1.33208   1.08867    0.007
 6345.00    1.29804   1.08632    0.007
 6346.00    1.26722   1.10615    0.007
 6347.00    1.26866   1.12303    0.007
 6348.00    1.26741   1.13356    0.007
 6349.00    1.24672   1.14397    0.007
 6350.00    1.24006   1.14528    0.007
 6351.00    1.31109   1.13128    0.007
 6352.00    1.37123   1.10980    0.007
 6353.00    1.38320   1.09625    0.007
 6354.00    1.39159   1.09632    0.006
 6355.00    1.38702   1.10548    0.006
 6356.00    1.38264   1.11891    0.006
 6357.00    1.37887   1.13355    0.006
 6358.00    1.36140   1.14403    0.006
 6359.00    1.30840   1.14561    0.006
 6360.00    1.25128   1.14140    0.006
 6361.00    1.18497   1.13344    0.006
 6362.00    1.16283   1.11958    0.006
 6363.00    1.22596   1.10492    0.006
 6364.00    1.27255   1.10232    0.006
 6365.00    1.29128   1.10610    0.006
 6366.00    1.29239   1.09536    0.006
 6367.00    1.26750   1.07601    0.006
 6368.00    1.25484   1.06989    0.006
 6369.00    1.25806   1.07395    0.007
 6370.00    1.28081   1.07344    0.007
 6371.00    1.32589   1.07131    0.007
 6372.00    1.37378   1.07691    0.007
 6373.00    1.42452   1.08882    0.007
 6374.00    1.45020   1.10149    0.007
 6375.00    1.45361   1.11469    0.007
 6376.00    1.45667   1.12965    0.007
 6377.00    1.45945   1.13929    0.007
 6378.00    1.44507   1.13643    0.007
 6379.00    1.41888   1.13073    0.007
 6380.00    1.38064   1.13646    0.006
 6381.00    1.33513   1.15118    0.006
 6382.00    1.33812   1.16132    0.006
 6383.00    1.36668   1.16105    0.006
 6384.00    1.40617   1.15868    0.006
 6385.00    1.45067   1.15767    0.006
 6386.00    1.44788   1.14830    0.006
 6387.00    1.42648   1.13083    0.006
 6388.00    1.40605   1.12078    0.006
 6389.00    1.38594   1.12260    0.006
 6390.00    1.36338   1.13074    0.006
 6391.00    1.34014   1.13962    0.006
 6392.00    1.32517   1.13993    0.006
 6393.00    1.31211   1.13311    0.007
 6394.00    1.30364   1.13212    0.007
 6395.00    1.29603   1.13822    0.007
 6396.00    1.27944   1.14108    0.007
 6397.00    1.26157   1.13999    0.007
 6398.00    1.31971   1.14100    0.007
 6399.00    1.38575   1.14259    0.007
 6400.00    1.40793   1.13433    0.007
 6401.00    1.42717   1.11079    0.007
 6402.00    1.42177   1.09351    0.007
 6403.00    1.41557   1.10754    0.007
 6404.00    1.45396   1.13904    0.007
 6405.00    1.49025   1.16094    0.007
 6406.00    1.46109   1.16545    0.006
 6407.00    1.43053   1.14739    0.006
 6408.00    1.37911   1.11179    0.006
 6409.00    1.33344   1.09734    0.006
 6410.00    1.34326   1.12540    0.006
 6411.00    1.35026   1.16113    0.006
 6412.00    1.33756   1.17754    0.006
 6413.00    1.32667   1.17955    0.006
 6414.00    1.32550   1.17247    0.006
 6415.00    1.33159   1.15867    0.006
 6416.00    1.36902   1.14471    0.006
 6417.00    1.40199   1.14634    0.006
 6418.00    1.41907   1.16092    0.006
 6419.00    1.42327   1.15910    0.006
 6420.00    1.38894   1.14022    0.006
 6421.00    1.36504   1.13165    0.006
 6422.00    1.36768   1.13705    0.006
 6423.00    1.37059   1.14578    0.006
 6424.00    1.37408   1.15494    0.007
 6425.00    1.37102   1.16049    0.007
 6426.00    1.35551   1.15806    0.007
 6427.00    1.36114   1.14729    0.007
 6428.00    1.40183   1.12771    0.007
 6429.00    1.41793   1.10790    0.007
 6430.00    1.39827   1.10952    0.007
 6431.00    1.39431   1.13774    0.007
 6432.00    1.41041   1.16423    0.006
 6433.00    1.41962   1.16862    0.006
 6434.00    1.42108   1.16666    0.006
 6435.00    1.39457   1.17186    0.006
 6436.00    1.34028   1.17689    0.006
 6437.00    1.27761   1.17021    0.006
 6438.00    1.20759   1.14591    0.006
 6439.00    1.20870   1.11579    0.006
 6440.00    1.26473   1.10931    0.006
 6441.00    1.35422   1.13169    0.006
 6442.00    1.46643   1.15571    0.006
 6443.00    1.49554   1.16715    0.006
 6444.00    1.47522   1.17205    0.006
 6445.00    1.43014   1.17371    0.007
 6446.00    1.37221   1.16035    0.007
 6447.00    1.42616   1.13397    0.007
 6448.00    1.53045   1.12878    0.007
 6449.00    1.55435   1.15832    0.007
 6450.00    1.54716   1.18919    0.007
 6451.00    1.47812   1.20124    0.007
 6452.00    1.38872   1.20352    0.007
 6453.00    1.33059   1.20291    0.007
 6454.00    1.28110   1.20193    0.007
 6455.00    1.23454   1.19910    0.007
 6456.00    1.18865   1.18402    0.006
 6457.00    1.19724   1.14597    0.006
 6458.00    1.21570   1.09955    0.006
 6459.00    1.27889   1.08641    0.006
 6460.00    1.34830   1.11736    0.006
 6461.00    1.38259   1.15575    0.006
 6462.00    1.41337   1.17679    0.006
 6463.00    1.36694   1.17342    0.006
 6464.00    1.31563   1.15530    0.006
 6465.00    1.26989   1.15331    0.006
 6466.00    1.22460   1.17541    0.006
 6467.00    1.26762   1.19892    0.006
 6468.00    1.30969   1.20875    0.006
 6469.00    1.32524   1.19879    0.006
 6470.00    1.33878   1.16350    0.006
 6471.00    1.32376   1.12244    0.007
 6472.00    1.31376   1.12080    0.007
 6473.00    1.35025   1.15580    0.007
 6474.00    1.38443   1.18380    0.007
 6475.00    1.40303   1.19514    0.007
 6476.00    1.42622   1.19953    0.007
 6477.00    1.47343   1.19843    0.007
 6478.00    1.50536   1.19119    0.007
 6479.00    1.47278   1.18129    0.007
 6480.00    1.43386   1.17369    0.007
 6481.00    1.37286   1.17342    0.007
 6482.00    1.31892   1.17107    0.006
 6483.00    1.28568   1.15583    0.006
 6484.00    1.26584   1.14742    0.006
 6485.00    1.27951   1.16117    0.006
 6486.00    1.29821   1.17870    0.006
 6487.00    1.32776   1.18201    0.006
 6488.00    1.35904   1.17514    0.006
 6489.00    1.39355   1.15858    0.006
 6490.00    1.42385   1.12996    0.006
 6491.00    1.44727   1.10807    0.006
 6492.00    1.44180   1.11107    0.007
 6493.00    1.39491   1.12944    0.006
 6494.00    1.33541   1.14507    0.006
 6495.00    1.26003   1.15483    0.007
 6496.00    1.19535   1.16052    0.007
 6497.00    1.14255   1.16012    0.007
 6498.00    1.12346   1.15111    0.007
 6499.00    1.13740   1.13797    0.007
 6500.00    1.16486   1.13005    0.007
 6501.00    1.20402   1.11925    0.007
 6502.00    1.24773   1.08492    0.007
 6503.00    1.29492   1.03905    0.006
 6504.00    1.34034   1.01621    0.006
 6505.00    1.38458   1.02213    0.006
 6506.00    1.41793   1.04323    0.006
 6507.00    1.44491   1.06535    0.006
 6508.00    1.42868   1.08064    0.006
 6509.00    1.39038   1.10149    0.006
 6510.00    1.36365   1.12505    0.006
 6511.00    1.34203   1.14012    0.006
 6512.00    1.37505   1.14765    0.006
 6513.00    1.42883   1.15130    0.006
 6514.00    1.43649   1.15715    0.006
 6515.00    1.42927   1.16086    0.006
 6516.00    1.39160   1.15291    0.006
 6517.00    1.34571   1.14064    0.007
 6518.00    1.33563   1.14122    0.007
 6519.00    1.33347   1.15452    0.007
 6520.00    1.35715   1.16402    0.007
 6521.00    1.38538   1.16336    0.007
 6522.00    1.41698   1.15899    0.007
 6523.00    1.44904   1.15169    0.007
 6524.00    1.45578   1.14060    0.007
 6525.00    1.46011   1.13291    0.007
 6526.00    1.45547   1.13039    0.007
 6527.00    1.45030   1.12896    0.007
 6528.00    1.45079   1.13773    0.000
 6529.00    1.45104   1.15507    0.000
 6530.00    1.39509   1.16637    0.000
 6531.00    1.34090   1.16825    0.000
 6532.00    1.33092   1.16724    0.000
 6533.00    1.32221   1.16844    0.000
 6534.00    1.33047   1.16608    0.000
 6535.00    1.34082   1.15596    0.000
 6536.00    1.36979   1.15071    0.000
 6537.00    1.39457   1.16054    0.000
 6538.00    1.39190   1.17392    0.000
 6539.00    1.40140   1.17622    0.000
 6540.00    1.47310   1.16669    0.000
 6541.00    1.54293   1.15641    0.000
 6542.00    1.60505   1.15746    0.000
 6543.00    1.65153   1.17107    0.000
 6544.00    1.64452   1.18513    0.000
 6545.00    1.64508   1.18786    0.000
 6546.00    1.66746   1.18113    0.000
 6547.00    1.68147   1.18022    0.000
 6548.00    1.67489   1.19108    0.000
 6549.00    1.66632   1.19916    0.000
 6550.00    1.65354   1.19305    0.000
 6551.00    1.65462   1.17688    0.000
 6552.00    1.68123   1.15889    0.000
 6553.00    1.69602   1.14506    0.000
 6554.00    1.69181   1.13001    0.000
 6555.00    1.62956   1.11762    0.000
 6556.00    1.48532   1.12548    0.000
 6557.00    1.38470   1.14238    0.000
 6558.00    1.33825   1.14455    0.000
 6559.00    1.37692   1.13369    0.000
 6560.00    1.50880   1.12292    0.000
 6561.00    1.71236   1.11929    0.000
 6562.00    1.98515   1.11485    0.000
 6563.00    2.26516   1.09968    0.000
 6564.00    2.55134   1.08329    0.000
 6565.00    2.68851   1.07841    0.000
 6566.00    2.71389   1.08162    0.000
 6567.00    2.53287   1.07946    0.000
 6568.00    2.21579   1.06561    0.000
 6569.00    1.94808   1.02932    0.000
 6570.00    1.70887   0.93532    0.000
 6571.00    1.58064   0.80106    0.000
 6572.00    1.50820   0.75734    0.000
 6573.00    1.45865   0.86625    0.000
 6574.00    1.41906   1.00079    0.000
 6575.00    1.40913   1.06875    0.000
 6576.00    1.41028   1.09609    0.000
 6577.00    1.42397   1.10378    0.000
 6578.00    1.44164   1.10138    0.000
 6579.00    1.49031   1.10774    0.000
 6580.00    1.54718   1.11452    0.000
 6581.00    1.60361   1.10343    0.000
 6582.00    1.65993   1.08742    0.000
 6583.00    1.79091   1.08545    0.000
 6584.00    1.93468   1.09946    0.000
 6585.00    2.04464   1.12074    0.000
 6586.00    2.15021   1.13471    0.000
 6587.00    2.07871   1.13674    0.000
 6588.00    1.99104   1.13191    0.000
 6589.00    1.83505   1.12516    0.000
 6590.00    1.67529   1.11965    0.000
 6591.00    1.62514   1.12715    0.000
 6592.00    1.57734   1.14363    0.000
 6593.00    1.53062   1.15109    0.000
 6594.00    1.48623   1.15281    0.000
 6595.00    1.49521   1.15091    0.000
 6596.00    1.50528   1.15993    0.000
 6597.00    1.52930   1.17410    0.000
 6598.00    1.55012   1.17850    0.000
 6599.00    1.54346   1.17346    0.000
 6600.00    1.53603   1.15278    0.000
 6601.00    1.52365   1.11346    0.000
 6602.00    1.51338   1.08385    0.000
 6603.00    1.51363   1.09448    0.000
 6604.00    1.51274   1.12892    0.000
 6605.00    1.50722   1.15003    0.000
 6606.00    1.51373   1.14753    0.000
 6607.00    1.56056   1.13524    0.000
 6608.00    1.60434   1.13351    0.000
 6609.00    1.63946   1.15041    0.006
 6610.00    1.64923   1.16837    0.006
 6611.00    1.59772   1.17220    0.006
 6612.00    1.54712   1.16493    0.007
 6613.00    1.49842   1.15159    0.006
 6614.00    1.47204   1.13972    0.007
 6615.00    1.48614   1.13454    0.007
 6616.00    1.50186   1.13060    0.007
 6617.00    1.52015   1.11972    0.007
 6618.00    1.54240   1.11104    0.007
 6619.00    1.57014   1.12638    0.007
 6620.00    1.56815   1.15461    0.007
 6621.00    1.52974   1.16290    0.007
 6622.00    1.53247   1.15180    0.007
 6623.00    1.57961   1.14738    0.007
 6624.00    1.61643   1.16039    0.007
 6625.00    1.64340   1.16998    0.006
 6626.00    1.61604   1.16769    0.006
 6627.00    1.54305   1.16245    0.006
 6628.00    1.51556   1.16206    0.006
 6629.00    1.52173   1.16617    0.006
 6630.00    1.52792   1.16787    0.006
 6631.00    1.53413   1.16124    0.006
 6632.00    1.49026   1.14564    0.006
 6633.00    1.41793   1.12565    0.006
 6634.00    1.40366   1.11553    0.006
 6635.00    1.41813   1.12427    0.007
 6636.00    1.41335   1.13657    0.007
 6637.00    1.40034   1.14099    0.007
 6638.00    1.37922   1.14007    0.007
 6639.00    1.35512   1.13788    0.007
 6640.00    1.38290   1.13782    0.007
 6641.00    1.42680   1.13298    0.007
 6642.00    1.44772   1.12025    0.007
 6643.00    1.46270   1.11339    0.007
 6644.00    1.48468   1.12190    0.007
 6645.00    1.50814   1.13452    0.007
 6646.00    1.51042   1.14281    0.007
 6647.00    1.50917   1.14440    0.007
 6648.00    1.49922   1.14077    0.006
 6649.00    1.48818   1.14042    0.006
 6650.00    1.52503   1.14711    0.006
 6651.00    1.56606   1.14369    0.006
 6652.00    1.59022   1.12396    0.006
 6653.00    1.61351   1.11585    0.006
 6654.00    1.55201   1.13118    0.006
 6655.00    1.48872   1.14385    0.006
 6656.00    1.40554   1.14257    0.006
 6657.00    1.32674   1.13955    0.007
 6658.00    1.34051   1.13936    0.014
 6659.00    1.36144   1.13056   -1.000
 6660.00    1.46854   1.11341   -1.000
 6661.00    1.55970   1.10241   -1.000
 6662.00    1.51920   1.10530   -1.000
 6663.00    1.47852   1.11279   -1.000
 6664.00    1.43668   1.11675   -1.000
 6665.00    1.39170   1.11559   -1.000
 6666.00    1.33149   1.11452   -1.000
 6667.00    1.28929   1.11646   -1.000
 6668.00    1.31819   1.11787   -1.000
 6669.00    1.35194   1.11536    0.056
 6670.00    1.40161   1.11132    0.011
 6671.00    1.44348   1.10150    0.007
 6672.00    1.46366   1.08668    0.006
 6673.00    1.49733   1.08921    0.006
 6674.00    1.56304   1.10539    0.006
 6675.00    1.61044   1.10915    0.006
 6676.00    1.62025   1.10570    0.007
 6677.00    1.61050   1.11112    0.007
 6678.00    1.56581   1.12520    0.007
 6679.00    1.51413   1.13703    0.007
 6680.00    1.45155   1.14186    0.007
 6681.00    1.39165   1.14156    0.007
 6682.00    1.33545   1.13956    0.007
 6683.00    1.31614   1.13747    0.007
 6684.00    1.34139   1.13557    0.007
 6685.00    1.37353   1.11856    0.007
 6686.00    1.41299   1.07444    0.007
 6687.00    1.44755   1.04139    0.007
 6688.00    1.47751   1.05308    0.007
 6689.00    1.46446   1.08137    0.007
 6690.00    1.41579   1.08551    0.007
 6691.00    1.40345   1.08011    0.007
 6692.00    1.41758   1.08713    0.007
 6693.00    1.44945   1.09763    0.007
 6694.00    1.49267   1.10191    0.007
 6695.00    1.47069   1.10108    0.007
 6696.00    1.41224   1.09799    0.000
 6697.00    1.37574   1.09691    0.000
 6698.00    1.34995   1.10169    0.000
 6699.00    1.31966   1.10641    0.000
 6700.00    1.28747   1.10785    0.000
 6701.00    1.33825   1.10685    0.000
 6702.00    1.41892   1.10677    0.000
 6703.00    1.45199   1.10580    0.000
 6704.00    1.47056   1.09803    0.000
 6705.00    1.46448   1.08744    0.000
 6706.00    1.45215   1.08749    0.000
 6707.00    1.41928   1.09573    0.000
 6708.00    1.38219   1.10500    0.000
 6709.00    1.33839   1.11597    0.000
 6710.00    1.29350   1.12210    0.000
 6711.00    1.34591   1.11955    0.000
 6712.00    1.41009   1.11086    0.000
 6713.00    1.39939   1.10248    0.000
 6714.00    1.38249   1.10392    0.000
 6715.00    1.45506   1.11148    0.000
 6716.00    1.53187   1.11648    0.000
 6717.00    1.63732   1.11763    0.000
 6718.00    1.74049   1.11646    0.000
 6719.00    1.69248   1.11070    0.000
 6720.00    1.64470   1.10938    0.000
 6721.00    1.60145   1.11047    0.000
 6722.00    1.55580   1.10233    0.000
 6723.00    1.48255   1.08591    0.000
 6724.00    1.41278   1.06731    0.000
 6725.00    1.37083   1.05076    0.000
 6726.00    1.33801   1.03507    0.000
 6727.00    1.36003   1.03332    0.000
 6728.00    1.39108   1.05318    0.000
 6729.00    1.46495   1.06946    0.000
 6730.00    1.53427   1.07173    0.000
 6731.00    1.58598   1.07001    0.000
 6732.00    1.62593   1.07551    0.000
 6733.00    1.62800   1.08131    0.000
 6734.00    1.62611   1.07874    0.000
 6735.00    1.61345   1.07384    0.000
 6736.00    1.59389   1.07643    0.000
 6737.00    1.55821   1.08437    0.000
 6738.00    1.51549   1.08964    0.000
 6739.00    1.45853   1.09237    0.000
 6740.00    1.43105   1.09269    0.000
 6741.00    1.45541   1.09089    0.000
 6742.00    1.46607   1.08884    0.000
 6743.00    1.45563   1.08986    0.000
 6744.00    1.45650   1.09338    0.000
 6745.00    1.47266   1.09729    0.000
 6746.00    1.48027   1.09602    0.000
 6747.00    1.47771   1.08679    0.000
 6748.00    1.46535   1.07815    0.000
 6749.00    1.44269   1.08005    0.000
 6750.00    1.38486   1.08981    0.000
 6751.00    1.29446   1.08697    0.000
 6752.00    1.24912   1.07616    0.000
 6753.00    1.24057   1.08055    0.007
 6754.00    1.21792   1.09097    0.008
 6755.00    1.18515   1.09013    0.008
 6756.00    1.21257   1.08082    0.008
 6757.00    1.27794   1.06967    0.008
 6758.00    1.28165   1.06163    0.008
 6759.00    1.25138   1.06124    0.008
 6760.00    1.31342   1.06908    0.008
 6761.00    1.41971   1.06939    0.008
 6762.00    1.52141   1.06152    0.008
 6763.00    1.62123   1.06853    0.008
 6764.00    1.62504   1.08183    0.008
 6765.00    1.59490   1.09098    0.008
 6766.00    1.58950   1.10044    0.008
 6767.00    1.59148   1.10708    0.008
 6768.00    1.62643   1.10881    0.008
 6769.00    1.66955   1.10977    0.008
 6770.00    1.69628   1.10967    0.008
 6771.00    1.71972   1.10710    0.008
 6772.00    1.65178   1.10771    0.007
 6773.00    1.56949   1.11119    0.007
 6774.00    1.53669   1.10980    0.007
 6775.00    1.50967   1.09867    0.007
 6776.00    1.48573   1.08534    0.007
 6777.00    1.46204   1.08797    0.007
 6778.00    1.49478   1.10101    0.008
 6779.00    1.52998   1.10336    0.008
 6780.00    1.45770   1.09727    0.008
 6781.00    1.38615   1.10055    0.008
 6782.00    1.40087   1.11246    0.008
 6783.00    1.41586   1.12223    0.008
 6784.00    1.43582   1.12979    0.008
 6785.00    1.44706   1.13509    0.007
 6786.00    1.36288   1.13524    0.007
 6787.00    1.28711   1.13360    0.007
 6788.00    1.27611   1.13380    0.007
 6789.00    1.27712   1.13136    0.007
 6790.00    1.34808   1.11885    0.007
 6791.00    1.41302   1.09516    0.007
 6792.00    1.45016   1.07146    0.007
 6793.00    1.50732   1.05864    0.007
 6794.00    1.64020   1.05773    0.008
 6795.00    1.71677   1.06476    0.008
 6796.00    1.61551   1.07724    0.007
 6797.00    1.54064   1.08939    0.007
 6798.00    1.53643   1.09178    0.007
 6799.00    1.50523   1.08779    0.007
 6800.00    1.41201   1.08923    0.007
 6801.00    1.35017   1.09211    0.007
 6802.00    1.35073   1.08754    0.008
 6803.00    1.35430   1.08219    0.008
 6804.00    1.36307   1.08586    0.008
 6805.00    1.36550   1.09329    0.007
 6806.00    1.35832   1.10102    0.007
 6807.00    1.34524   1.10468    0.007
 6808.00    1.32427   1.10552    0.007
 6809.00    1.37829   1.11044    0.007
 6810.00    1.52034   1.11619    0.007
 6811.00    1.54454   1.11891    0.007
 6812.00    1.44677   1.11803    0.007
 6813.00    1.41249   1.11336    0.008
 6814.00    1.43615   1.11354    0.008
 6815.00    1.46474   1.11260    0.008
 6816.00    1.49727   1.10937    0.008
 6817.00    1.46615   1.11370    0.008
 6818.00    1.38996   1.11794    0.007
 6819.00    1.42168   1.11536    0.007
 6820.00    1.52042   1.11676    0.007
 6821.00    1.52516   1.12024    0.007
 6822.00    1.47889   1.12024    0.007
 6823.00    1.47182   1.11271    0.007
 6824.00    1.48324   1.09974    0.007
 6825.00    1.42347   1.09920    0.007
 6826.00    1.33476   1.11275    0.007
 6827.00    1.30296   1.12144    0.007
 6828.00    1.29092   1.11826    0.007
 6829.00    1.29776   1.11105    0.007
 6830.00    1.31011   1.11231    0.007
 6831.00    1.29852   1.12181    0.007
 6832.00    1.28112   1.12908    0.007
 6833.00    1.28344   1.13145    0.007
 6834.00    1.28961   1.13366    0.007
 6835.00    1.38401   1.13464    0.008
 6836.00    1.49186   1.12639    0.008
 6837.00    1.43355   1.11282    0.008
 6838.00    1.35659   1.11023    0.008
 6839.00    1.38688   1.11997    0.008
 6840.00    1.42520   1.12922    0.008
 6841.00    1.46774   1.12759    0.008
 6842.00    1.51045   1.12263    0.008
 6843.00    1.41538   1.12979    0.008
 6844.00    1.32405   1.14147    0.008
 6845.00    1.41898   1.14455    0.008
 6846.00    1.50407   1.14178    0.008
 6847.00    1.42300   1.13590    0.008
 6848.00    1.35167   1.12610    0.007
 6849.00    1.38205   1.11451    0.008
 6850.00    1.41227   1.10270    0.008
 6851.00    1.44123   1.09817    0.008
 6852.00    1.46829   1.10835    0.007
 6853.00    1.48453   1.12685    0.007
 6854.00    1.50026   1.14118    0.007
 6855.00    1.51364   1.14321    0.007
 6856.00    1.51079   1.14009    0.007
 6857.00    1.44783   1.14045    0.007
 6858.00    1.37961   1.13665    0.008
 6859.00    1.29508   1.12641    0.007
 6860.00    1.26634   1.12063    0.007
 6861.00    1.38437   1.12139    0.007
 6862.00    1.46842   1.12173    0.007
 6863.00    1.47570   1.11415    0.007
 6864.00    1.44186   1.10076    0.008
 6865.00    1.32752   1.09824    0.008
 6866.00    1.22507   1.10599    0.008
 6867.00    1.14289   1.11289    0.008
 6868.00    1.13157   1.11779    0.008
 6869.00    1.22619   1.11421    0.008
 6870.00    1.28078   1.09999    0.008
 6871.00    1.28279   1.09460    0.008
 6872.00    1.31387   1.11288    0.008
 6873.00    1.37859   1.13783    0.007
 6874.00    1.41582   1.14588    0.007
 6875.00    1.42498   1.13853    0.007
 6876.00    1.42272   1.12466    0.008
 6877.00    1.41017   1.11085    0.007
 6878.00    1.40965   1.10936    0.007
 6879.00    1.41866   1.11955    0.007
 6880.00    1.44070   1.12219    0.007
 6881.00    1.47181   1.11518    0.007
 6882.00    1.47043   1.11606    0.007
 6883.00    1.44916   1.12552    0.007
 6884.00    1.41336   1.13166    0.008
 6885.00    1.36979   1.13687    0.008
 6886.00    1.36616   1.14516    0.008
 6887.00    1.38107   1.15411    0.008
 6888.00    1.39646   1.15857    0.008
 6889.00    1.41206   1.15668    0.008
 6890.00    1.37127   1.14596    0.008
 6891.00    1.31126   1.13188    0.008
 6892.00    1.32743   1.12228    0.008
 6893.00    1.36544   1.12444    0.008
 6894.00    1.37989   1.13269    0.008
 6895.00    1.38876   1.13632    0.008
 6896.00    1.47808   1.14265    0.008
 6897.00    1.58275   1.15154    0.008
 6898.00    1.57695   1.15503    0.008
 6899.00    1.55482   1.15761    0.008
 6900.00    1.47316   1.16149    0.008
 6901.00    1.38507   1.16172    0.008
 6902.00    1.31650   1.16077    0.008
 6903.00    1.24931   1.16297    0.008
 6904.00    1.38205   1.16370    0.008
 6905.00    1.52197   1.16044    0.008
 6906.00    1.43208   1.16032    0.008
 6907.00    1.34464   1.16629    0.008
 6908.00    1.36856   1.16746    0.008
 6909.00    1.39595   1.15726    0.008
 6910.00    1.47819   1.15250    0.008
 6911.00    1.54366   1.16448    0.008
 6912.00    1.44113   1.17685    0.008
 6913.00    1.35178   1.17608    0.008
 6914.00    1.35710   1.17099    0.008
 6915.00    1.37476   1.17669    0.008
 6916.00    1.46045   1.18825    0.008
 6917.00    1.52445   1.19338    0.008
 6918.00    1.49275   1.19348    0.008
 6919.00    1.46185   1.19222    0.008
 6920.00    1.43379   1.18664    0.008
 6921.00    1.42679   1.17931    0.008
 6922.00    1.48376   1.17160    0.008
 6923.00    1.48885   1.16295    0.008
 6924.00    1.35983   1.16397    0.008
 6925.00    1.28218   1.17220    0.008
 6926.00    1.31868   1.17543    0.008
 6927.00    1.36477   1.17555    0.008
 6928.00    1.42931   1.17228    0.008
 6929.00    1.45637   1.17196    0.008
 6930.00    1.42043   1.17910    0.008
 6931.00    1.38640   1.18505    0.008
 6932.00    1.35519   1.18031    0.008
 6933.00    1.32527   1.16333    0.008
 6934.00    1.29703   1.14845    0.008
 6935.00    1.26370   1.14833    0.008
 6936.00    1.22457   1.16283    0.008
 6937.00    1.25176   1.17908    0.008
 6938.00    1.34567   1.18681    0.008
 6939.00    1.35691   1.18712    0.008
 6940.00    1.29476   1.18478    0.008
 6941.00    1.27232   1.17954    0.008
 6942.00    1.28092   1.16953    0.008
 6943.00    1.34486   1.16815    0.008
 6944.00    1.44687   1.17882    0.008
 6945.00    1.47603   1.18678    0.008
 6946.00    1.46129   1.18668    0.008
 6947.00    1.43956   1.18514    0.008
 6948.00    1.41416   1.18709    0.008
 6949.00    1.37333   1.19423    0.008
 6950.00    1.32546   1.20254    0.008
 6951.00    1.26832   1.20296    0.008
 6952.00    1.20754   1.19579    0.008
 6953.00    1.25202   1.18283    0.008
 6954.00    1.33170   1.16922    0.008
 6955.00    1.39306   1.17174    0.008
 6956.00    1.44927   1.19117    0.008
 6957.00    1.38775   1.20657    0.008
 6958.00    1.29899   1.21210    0.008
 6959.00    1.35012   1.21044    0.008
 6960.00    1.42723   1.20016    0.008
 6961.00    1.37851   1.18843    0.008
 6962.00    1.31178   1.18084    0.008
 6963.00    1.26865   1.17642    0.008
 6964.00    1.22797   1.18176    0.008
 6965.00    1.24578   1.19552    0.008
 6966.00    1.26750   1.20572    0.008
 6967.00    1.27256   1.20836    0.008
 6968.00    1.27708   1.20904    0.008
 6969.00    1.29075   1.21182    0.008
 6970.00    1.30650   1.21680    0.008
 6971.00    1.38586   1.22054    0.008
 6972.00    1.45517   1.22446    0.008
 6973.00    1.37494   1.22813    0.008
 6974.00    1.30207   1.22548    0.008
 6975.00    1.29996   1.21944    0.009
 6976.00    1.31740   1.22165    0.009
 6977.00    1.47084   1.23327    0.009
 6978.00    1.57759   1.23950    0.009
 6979.00    1.43370   1.23357    0.009
 6980.00    1.32097   1.22414    0.009
 6981.00    1.34253   1.22149    0.008
 6982.00    1.35742   1.22789    0.008
 6983.00    1.34862   1.23099    0.008
 6984.00    1.36188   1.22509    0.008
 6985.00    1.44094   1.21459    0.008
 6986.00    1.49895   1.19787    0.008
 6987.00    1.50351   1.16818    0.008
 6988.00    1.50479   1.14662    0.008
 6989.00    1.49893   1.16173    0.008
 6990.00    1.49291   1.19656    0.008
 6991.00    1.48658   1.22365    0.008
 6992.00    1.43582   1.23783    0.008
 6993.00    1.31153   1.24229    0.008
 6994.00    1.23930   1.24484    0.008
 6995.00    1.24263   1.24791    0.009
 6996.00    1.28346   1.24575    0.009
 6997.00    1.37214   1.23380    0.009
 6998.00    1.43793   1.21637    0.009
 6999.00    1.47796   1.20600    0.009
 7000.00    1.49358   1.20908    0.009
 7001.00    1.48496   1.22147    0.008
 7002.00    1.45368   1.23060    0.008
 7003.00    1.40257   1.22988    0.008
 7004.00    1.38326   1.22608    0.008
 7005.00    1.38846   1.22641    0.008
 7006.00    1.33412   1.22859    0.008
 7007.00    1.23945   1.22734    0.008
 7008.00    1.21962   1.21620    0.008
 7009.00    1.24424   1.20440    0.008
 7010.00    1.31098   1.20795    0.008
 7011.00    1.39955   1.22384    0.008
 7012.00    1.33637   1.23297    0.008
 7013.00    1.20507   1.22483    0.008
 7014.00    1.19894   1.21205    0.008
 7015.00    1.24112   1.21065    0.009
 7016.00    1.31574   1.21861    0.009
 7017.00    1.40101   1.22662    0.008
 7018.00    1.37836   1.23440    0.009
 7019.00    1.32601   1.23861    0.009
 7020.00    1.31503   1.23447    0.009
 7021.00    1.31340   1.23344    0.009
 7022.00    1.30443   1.24293    0.009
 7023.00    1.29413   1.24575    0.008
 7024.00    1.29896   1.22379    0.008
 7025.00    1.30588   1.18788    0.008
 7026.00    1.28449   1.17718    0.008
 7027.00    1.26030   1.20694    0.008
 7028.00    1.30785   1.24394    0.008
 7029.00    1.35991   1.26113    0.009
 7030.00    1.39020   1.26432    0.008
 7031.00    1.41974   1.25774    0.008
 7032.00    1.41187   1.23806    0.009
 7033.00    1.40260   1.21801    0.009
 7034.00    1.35501   1.21549    0.009
 7035.00    1.31275   1.22803    0.009
 7036.00    1.34533   1.23625    0.009
 7037.00    1.37623   1.23585    0.009
 7038.00    1.39163   1.23927    0.009
 7039.00    1.39873   1.24879    0.009
 7040.00    1.34991   1.25665    0.009
 7041.00    1.30284   1.25741    0.009
 7042.00    1.26490   1.25268    0.009
 7043.00    1.26502   1.24896    0.009
 7044.00    1.42540   1.25194    0.009
 7045.00    1.55931   1.25902    0.009
 7046.00    1.60114   1.25412    0.009
 7047.00    1.57698   1.22889    0.009
 7048.00    1.35967   1.21264    0.009
 7049.00    1.19830   1.23389    0.009
 7050.00    1.17658   1.27166   -2.000
 7051.00    1.15343   1.29605   -2.000
 7052.00    1.12721   1.30436   -2.000
 7053.00    1.19939   1.30016   -2.000
 7054.00    1.45534   1.28810   -2.000
 7055.00    1.59287   1.28303   -2.000
 7056.00    1.53727   1.29142   -2.000
 7057.00    1.49493   1.30486   -2.000
 7058.00    1.47157   1.31317   -2.000
 7059.00    1.48873   1.30961   -2.000
 7060.00    1.55689   1.29506   -2.000
 7061.00    1.56180   1.26949   -2.000
 7062.00    1.49657   1.22975   -2.000
 7063.00    1.47151   1.17876   -2.000
 7064.00    1.48574   1.13245   -2.000
 7065.00    1.49508   1.11779   -2.000
 7066.00    1.50020   1.13681   -2.000
 7067.00    1.48466   1.15738   -2.000
 7068.00    1.45344   1.15484   -2.000
 7069.00    1.32721   1.13470   -2.000
 7070.00    1.13754   1.11910   -2.000
 7071.00    1.23781   1.11828   -2.000
 7072.00    1.50765   1.12511   -2.000
 7073.00    1.57797   1.13325   -2.000
 7074.00    1.54656   1.13710   -2.000
 7075.00    1.50700   1.13075   -2.000
 7076.00    1.46383   1.12124   -2.000
 7077.00    1.42176   1.11521   -2.000
 7078.00    1.38012   1.11629   -2.000
 7079.00    1.36773   1.13094   -2.000
 7080.00    1.36476   1.15325   -2.000
 7081.00    1.43334   1.16930   -2.000
 7082.00    1.52120   1.17635   -2.000
 7083.00    1.41504   1.17860   -2.000
 7084.00    1.26605   1.17771   -2.000
 7085.00    1.26208   1.17595   -2.000
 7086.00    1.28360   1.17629   -2.000
 7087.00    1.33468   1.17951   -2.000
 7088.00    1.38973   1.18400   -2.000
 7089.00    1.29653   1.19035   -2.000
 7090.00    1.18925   1.19734   -2.000
 7091.00    1.25699   1.19639   -2.000
 7092.00    1.33501   1.18035   -2.000
 7093.00    1.21808   1.15282   -2.000
 7094.00    1.09789   1.13023   -2.000
 7095.00    1.18635   1.12527   -2.000
 7096.00    1.27364   1.11767   -2.000
 7097.00    1.33196   1.08694   -2.000
 7098.00    1.38359   1.05606   -2.000
 7099.00    1.34636   1.04900   -2.000
 7100.00    1.31008   1.05966   -2.000
 7101.00    1.28218   1.07451   -2.000
 7102.00    1.24912   1.08021   -2.000
 7103.00    1.18231   1.07606   -2.000
 7104.00    1.14455   1.07052   -2.000
 7105.00    1.25479   1.06747   -2.000
 7106.00    1.34088   1.06964   -2.000
 7107.00    1.32760   1.07700   -2.000
 7108.00    1.29758   1.08851   -2.000
 7109.00    1.21052   1.09812   -2.000
 7110.00    1.16585   1.09920   -2.000
 7111.00    1.24301   1.09248   -2.000
 7112.00    1.28187   1.08421   -2.000
 7113.00    1.22677   1.08474   -2.000
 7114.00    1.16864   1.09712   -2.000
 7115.00    1.10409   1.10988   -2.000
 7116.00    1.10074   1.11420   -2.000
 7117.00    1.20992   1.11643   -2.000
 7118.00    1.31689   1.12043   -2.000
 7119.00    1.42033   1.11721   -2.000
 7120.00    1.56414   1.10324   -2.000
 7121.00    1.76485   1.09328   -2.000
 7122.00    1.78738   1.10001   -2.000
 7123.00    1.58888   1.11380   -2.000
 7124.00    1.24677   1.12123   -2.000
 7125.00    0.74767   1.12581   -2.000
 7126.00    0.63265   1.13374   -2.000
 7127.00    0.88803   1.13972   -2.000
 7128.00    1.00829   1.14111   -2.000
 7129.00    1.01366   1.14138   -2.000
 7130.00    0.96758   1.14084   -2.000
 7131.00    0.88295   1.13703   -2.000
 7132.00    0.80309   1.13526   -2.000
 7133.00    0.72636   1.13591   -2.000
 7134.00    0.90362   1.11646   -2.000
 7135.00    1.22718   1.07200   -2.000
 7136.00    1.30270   1.03765   -2.000
 7137.00    1.25375   1.03582   -2.000
 7138.00    1.20784   1.04646   -2.000
 7139.00    1.16325   1.04477   -2.000
 7140.00    1.05654   1.03238   -2.000
 7141.00    0.92670   1.02708   -2.000
 7142.00    1.00309   1.03518   -2.000
 7143.00    1.14462   1.04851   -2.000
 7144.00    1.24462   1.05941   -2.000
 7145.00    1.33366   1.06471   -2.000
 7146.00    1.19446   1.06734   -2.000
 7147.00    1.00606   1.06731   -2.000
 7148.00    1.14371   1.06212   -2.000
 7149.00    1.33710   1.06059   -2.000
 7150.00    1.33154   1.06950   -2.000
 7151.00    1.30024   1.07967   -2.000
 7152.00    1.20934   1.08423   -2.000
 7153.00    1.11303   1.08626   -2.000
 7154.00    1.08076   1.08716   -2.000
 7155.00    1.05198   1.08711   -2.000
 7156.00    1.13263   1.08294   -2.000
 7157.00    1.21567   1.07001   -2.000
 7158.00    1.30739   1.06154   -2.000
 7159.00    1.37859   1.07004   -2.000
 7160.00    0.98424   1.08333   -2.000
 7161.00    0.58909   1.09371   -2.000
 7162.00    0.18407   1.10683   -2.000
 7163.00   -0.11376   1.11747   -2.000
 7164.00    0.50278   1.11779   -2.000
 7165.00    1.10899   1.11749   -2.000
 7166.00    1.64969   1.12676   -2.000
 7167.00    1.99276   1.13188   -2.000
 7168.00    1.35460   1.11795   -2.000
 7169.00    0.83572   1.09868   -2.000
 7170.00    0.79699   1.09442   -2.000
 7171.00    0.82539   1.10514   -2.000
 7172.00    1.07812   1.11261   -2.000
 7173.00    1.28651   1.10140   -2.000
 7174.00    1.36984   1.08136   -2.000
 7175.00    1.40110   1.07864   -2.000
 7176.00    1.30678   1.09762   -2.000
 7177.00    1.23105   1.11656   -2.000
 7178.00    1.19402   1.12068   -2.000
 7179.00    1.12750   1.11711   -2.000
 7180.00    1.00755   1.12045   -2.000
 7181.00    0.98813   1.13070   -2.000
 7182.00    1.12783   1.13768   -2.000
 7183.00    1.23360   1.13752   -2.000
 7184.00    1.29221   1.13270   -2.000
 7185.00    1.33156   1.12660   -2.000
 7186.00    1.34735   1.12448   -2.000
 7187.00    1.34901   1.13023   -2.000
 7188.00    1.33545   1.13597   -2.000
 7189.00    1.26913   1.12909   -2.000
 7190.00    1.15265   1.11316   -2.000
 7191.00    1.07082   1.10786   -2.000
 7192.00    1.01805   1.12460   -2.000
 7193.00    1.03986   1.15067   -2.000
 7194.00    1.11674   1.16463   -2.000
 7195.00    1.18758   1.15716   -2.000
 7196.00    1.25450   1.13136   -2.000
 7197.00    1.21400   1.10345   -2.000
 7198.00    1.11255   1.09362   -2.000
 7199.00    0.96592   1.10527   -2.000
 7200.00    0.79698   1.12750   -2.000
 7201.00    0.54123   1.14305   -2.000
 7202.00    0.24840   1.14213   -2.000
 7203.00    0.28567   1.13954   -2.000
 7204.00    0.44370   1.14698   -2.000
 7205.00    0.81418   1.15207   -2.000
 7206.00    1.25047   1.14045   -2.000
 7207.00    1.28387   1.12166   -2.000
 7208.00    1.21327   1.11901   -2.000
 7209.00    1.02684   1.13129   -2.000
 7210.00    0.81603   1.13618   -2.000
 7211.00    1.09472   1.12621   -2.000
 7212.00    1.45471   1.12125   -2.000
 7213.00    0.96811   1.13661   -2.000
 7214.00    0.37573   1.15355   -2.000
 7215.00    0.40268   1.14932   -2.000
 7216.00    0.48327   1.12253   -2.000
 7217.00    0.73886   1.09591   -2.000
 7218.00    1.00334   1.09377   -2.000
