###################################################################
## OUTPUT of StarlightChains_v04.for    [Cid@UFSC - 01/Apr/2007] ##
###################################################################

## Some input info
KUG0210-078._46_38.txt                   [arq_obs]
Base.CB07.vall.4m                        [arq_base]
Masks.EmLines.NEW.gm                     [arq_masks]
StCv04.C11.config                        [arq_config]
   66                                    [N_base]
    0                                    [N_YAV_components = # of components with extra extinction!]
    0                                    [i_FitPowerLaw (1/0 = Yes/No)]
-9.99                                    [alpha_PowerLaw]
CCM                                      [red_law_option]
 1.458241                                [q_norm = A(l_norm)/A(V)]

## (Re)Sampling Parameters
 3741.00                                 [l_ini (A)]
 7218.00                                 [l_fin (A)]
    1.00                                 [dl    (A)]     (OBS: dl_cushion =    50.00 A)

## Normalization info
 4020.00                                 [l_norm (A) - for base]
 4010.00                                 [llow_norm (A) - window for f_obs]
 4060.00                                 [lupp_norm (A) - window for f_obs]
1.581180E-17                             [fobs_norm (in input units)]

## S/N
 3691.00                                 [llow_SN (A) - window for S/N]
 7268.00                                 [lupp_SN (A) - window for S/N]
   3.129                                 [S/N in S/N window]
   4.969                                 [S/N in norm. window]
   0.012                                 [S/N_err in S/N window]
   0.019                                 [S/N_err in norm. window]
  1.0000                                 [fscale_chi2]

## etc...
    -2007889                             [idum_orig]
  2417                                   [NOl_eff]
  2401                                   [Nl_eff]
    16    NSIGMA                         [Ntot_cliped & clip_method]
   349020                                [Nglobal_steps]
   7                                     [N_chains]
   9                                     [NEX0s_base = N_base in EX0s-fits]
 0   0   1       16   2.0   2.628E+03    [Clip-Bug, RC-Crash & Burn-In warning-flags, n_censored_weights, wei_nsig_threshold & wei_limit]
    10     10.287      9.728      0.559  [idt_all, wdt_TotTime, wdt_UsrTime & wdt_SysTime (sec)]

## Synthesis Results - Best model ##

 2.56912E-05                             [chi2/Nl_eff]
    18.14620                             [adev (%)]

    99.36623                             [sum-of-x (%)]
 4.96050E-18                             [Flux_tot (units of input spectrum!)]
 4.83945E-14                             [Mini_tot (???)]
 2.78460E-14                             [Mcor_tot (???)]

-107.27                                  [v0_min  (km/s)]
 198.89                                  [vd_min  (km/s)]
-0.8584                                  [AV_min  (mag)]
 0.0000                                  [YAV_min (mag)]

# j     x_j(%)      Mini_j(%)     Mcor_j(%)     age_j(yr)     Z_j      (L/M)_j    YAV?  Mstars   component_j        a/Fe...       SSP_chi2r SSP_adev(%)   SSP_AV   SSP_x(%)
  1      0.0000     0.0000E+00    0.0000E+00    1.000000E+06  0.00400  1.094E-02    0   1.0000   age020_m42            0.0000     3.1472E-05    23.8781   2.3236    78.8930
  2      0.0000     0.0000E+00    0.0000E+00    3.160000E+06  0.00400  4.007E-02    0   0.9999   age045_m42            0.0000     2.8628E-05    22.0758   1.5484    85.1341
  3      0.0000     0.0000E+00    0.0000E+00    5.010000E+06  0.00400  2.539E-02    0   0.9488   age055_m42            0.0000     2.9918E-05    22.9337   1.8942    82.5970
  4      0.0000     0.0000E+00    0.0000E+00    6.610000E+06  0.00400  2.620E-02    0   0.9220   age061_m42            0.0000     2.8881E-05    22.1901   1.4840    85.0806
  5      0.0000     0.0000E+00    0.0000E+00    1.000000E+07  0.00400  1.322E-02    0   0.8862   age070_m42            0.0000     2.9869E-05    24.1038   1.2771    85.2066
  6      0.0000     0.0000E+00    0.0000E+00    1.445000E+07  0.00400  7.883E-03    0   0.8571   age078_m42            0.0000     3.0418E-05    24.3814   1.6077    83.0819
  7      0.0000     0.0000E+00    0.0000E+00    2.512000E+07  0.00400  5.251E-03    0   0.8174   age090_m42            0.0000     2.9870E-05    24.3504   1.1574    85.4451
  8      0.0000     0.0000E+00    0.0000E+00    4.000000E+07  0.00400  3.649E-03    0   0.7851   age104_m42            0.0000     2.9351E-05    23.8464   0.9154    86.4588
  9      0.0000     0.0000E+00    0.0000E+00    5.500000E+07  0.00400  3.098E-03    0   0.7629   age110_m42            0.0000     2.8849E-05    22.6881   1.0273    87.3728
 10      0.0000     0.0000E+00    0.0000E+00    1.015200E+08  0.00400  2.228E-03    0   0.7207   age116_m42            0.0000     2.8659E-05    21.8894   1.0191    88.1025
 11      0.0000     0.0000E+00    0.0000E+00    2.861200E+08  0.00400  1.093E-03    0   0.6648   age125_m42            0.0000     2.8532E-05    22.1812   0.4651    90.1687
 12      0.0000     0.0000E+00    0.0000E+00    5.088000E+08  0.00400  6.597E-04    0   0.6365   age130_m42            0.0000     2.8196E-05    20.9586   0.4068    91.9992
 13      0.0000     0.0000E+00    0.0000E+00    1.434000E+09  0.00400  2.132E-04    0   0.5798   age139_m42            0.0000     2.6706E-05    19.8446  -0.5960    94.4292
 14      0.0000     0.0000E+00    0.0000E+00    4.250000E+09  0.00400  5.895E-05    0   0.5377   age158_m42            0.0000     2.6225E-05    20.1557  -1.0000    90.7192
 15      0.0000     0.0000E+00    0.0000E+00    7.500000E+09  0.00400  3.510E-05    0   0.5212   age171_m42            0.0000     2.7287E-05    23.9241  -1.0000    87.7431
 16      0.0000     0.0000E+00    0.0000E+00    1.300000E+10  0.00400  2.005E-05    0   0.5034   age193_m42            0.0000     2.9311E-05    27.8985  -1.0000    84.9083
 17      0.0000     0.0000E+00    0.0000E+00    1.800000E+10  0.00400  1.525E-05    0   0.4967   age213_m42            0.0000     2.9478E-05    28.5148  -1.0000    84.1540
 18      0.0000     0.0000E+00    0.0000E+00    1.000000E+06  0.00800  1.238E-02    0   1.0000   age020_m52            0.0000     3.1433E-05    23.8657   2.3200    79.0634
 19      0.0000     0.0000E+00    0.0000E+00    3.160000E+06  0.00800  3.074E-02    0   0.9966   age045_m52            0.0000     3.1108E-05    23.5854   2.2350    79.9163
 20      0.0000     0.0000E+00    0.0000E+00    5.010000E+06  0.00800  2.668E-02    0   0.9443   age055_m52            0.0000     3.0279E-05    23.1643   1.9851    81.7181
 21      0.0000     0.0000E+00    0.0000E+00    6.610000E+06  0.00800  2.136E-02    0   0.9177   age061_m52            0.0000     2.9420E-05    23.9649   0.7769    86.2310
 22      0.0000     0.0000E+00    0.0000E+00    1.000000E+07  0.00800  1.215E-02    0   0.8827   age070_m52            0.0000     3.0390E-05    24.9132   1.4804    84.5351
 23      0.0000     0.0000E+00    0.0000E+00    1.445000E+07  0.00800  8.717E-03    0   0.8552   age078_m52            0.0000     3.0100E-05    24.2284   1.5699    84.2773
 24      0.0000     0.0000E+00    0.0000E+00    2.512000E+07  0.00800  5.592E-03    0   0.8162   age090_m52            0.0000     2.9686E-05    24.3525   1.2209    86.4585
 25      0.0000     0.0000E+00    0.0000E+00    4.000000E+07  0.00800  3.896E-03    0   0.7841   age104_m52            0.0000     2.9056E-05    23.5969   1.1094    87.6084
 26      0.0000     0.0000E+00    0.0000E+00    1.015200E+08  0.00800  2.148E-03    0   0.7226   age116_m52            0.0000     2.8436E-05    22.2721   1.0053    88.3284
 27      0.0000     0.0000E+00    0.0000E+00    2.861200E+08  0.00800  9.925E-04    0   0.6683   age125_m52            0.0000     2.8190E-05    20.9029   0.4745    92.7729
 28      0.0000     0.0000E+00    0.0000E+00    9.047900E+08  0.00800  3.141E-04    0   0.6138   age135_m52            0.0000     2.6195E-05    18.9049  -0.4152    98.6474
 29      0.0000     0.0000E+00    0.0000E+00    1.434000E+09  0.00800  1.719E-04    0   0.5853   age139_m52            0.0000     2.5750E-05    19.1831  -0.9849    96.3231
 30      0.0000     0.0000E+00    0.0000E+00    2.500000E+09  0.00800  7.872E-05    0   0.5600   age150_m52            0.0000     2.6965E-05    23.3599  -1.0000    90.7603
 31      0.0000     0.0000E+00    0.0000E+00    4.250000E+09  0.00800  4.336E-05    0   0.5426   age158_m52            0.0000     2.7243E-05    23.7541  -1.0000    89.6841
 32      0.0000     0.0000E+00    0.0000E+00    6.250000E+09  0.00800  3.159E-05    0   0.5319   age166_m52            0.0000     3.0042E-05    28.4937  -1.0000    86.7010
 33      0.0000     0.0000E+00    0.0000E+00    1.300000E+10  0.00800  1.361E-05    0   0.5073   age193_m52            0.0000     4.0686E-05    39.8500  -1.0000    77.8113
 34      0.0000     0.0000E+00    0.0000E+00    1.800000E+10  0.00800  9.886E-06    0   0.4990   age213_m52            0.0000     4.5201E-05    42.1818  -1.0000    75.3288
 35      0.0000     0.0000E+00    0.0000E+00    1.000000E+06  0.02000  1.544E-02    0   1.0000   age020_m62            0.0000     3.1475E-05    23.8097   2.3126    79.2881
 36      0.0000     0.0000E+00    0.0000E+00    3.160000E+06  0.02000  3.762E-02    0   0.9858   age045_m62            0.0000     3.1418E-05    23.7698   2.2505    80.0675
 37      0.0000     0.0000E+00    0.0000E+00    5.010000E+06  0.02000  3.296E-02    0   0.9342   age055_m62            0.0000     2.9447E-05    22.3761   1.8389    83.9455
 38      0.0000     0.0000E+00    0.0000E+00    8.710000E+06  0.02000  1.154E-02    0   0.8861   age067_m62            0.0000     3.3674E-05    29.5276   1.0702    83.8409
 39      0.0000     0.0000E+00    0.0000E+00    1.445000E+07  0.02000  7.663E-03    0   0.8472   age078_m62            0.0000     3.0809E-05    26.1415   1.1665    85.5601
 40      0.0000     0.0000E+00    0.0000E+00    2.512000E+07  0.02000  4.532E-03    0   0.8099   age090_m62            0.0000     3.0963E-05    26.2421   1.1633    85.1502
 41      0.0000     0.0000E+00    0.0000E+00    5.500000E+07  0.02000  2.733E-03    0   0.7595   age110_m62            0.0000     2.9368E-05    23.7028   1.0976    86.8325
 42      4.9977     3.7658E-01    4.5715E-01    1.609000E+08  0.02000  1.369E-03    0   0.6985   age120_m62            0.0000     2.8706E-05    21.7503   0.8728    90.5560
 43      0.0000     0.0000E+00    0.0000E+00    2.861200E+08  0.02000  9.013E-04    0   0.6714   age125_m62            0.0000     2.8550E-05    20.5672   0.5792    94.0958
 44      0.0000     0.0000E+00    0.0000E+00    5.088000E+08  0.02000  5.028E-04    0   0.6449   age130_m62            0.0000     2.7222E-05    18.7354   0.1145    98.6388
 45      0.0000     0.0000E+00    0.0000E+00    9.047900E+08  0.02000  2.428E-04    0   0.6179   age135_m62            0.0000     2.5517E-05    18.1261  -0.5090    98.8271
 46      0.0000     0.0000E+00    0.0000E+00    1.434000E+09  0.02000  1.263E-04    0   0.5908   age139_m62            0.0000     2.5416E-05    18.1134  -0.9605    97.4830
 47     41.3029     7.1188E+01    7.0187E+01    2.500000E+09  0.02000  5.985E-05    0   0.5673   age150_m62            0.0000     2.7525E-05    23.6512  -1.0000    91.8604
 48      0.0000     0.0000E+00    0.0000E+00    4.250000E+09  0.02000  3.271E-05    0   0.5468   age158_m62            0.0000     3.3030E-05    30.8718  -1.0000    86.2115
 49      0.0000     0.0000E+00    0.0000E+00    1.000000E+10  0.02000  1.360E-05    0   0.5167   age181_m62            0.0000     4.3138E-05    38.9660  -1.0000    79.3326
 50      0.0000     0.0000E+00    0.0000E+00    1.800000E+10  0.02000  7.124E-06    0   0.5013   age213_m62            0.0000     5.1621E-05    43.4672  -1.0000    74.3922
 51      0.0000     0.0000E+00    0.0000E+00    1.000000E+06  0.05000  2.592E-02    0   0.9998   age020_m72            0.0000     3.1664E-05    24.0049   2.3112    79.1998
 52      0.0000     0.0000E+00    0.0000E+00    3.160000E+06  0.05000  4.845E-02    0   0.9577   age045_m72            0.0000     3.0547E-05    23.0606   2.1139    81.4570
 53      0.0000     0.0000E+00    0.0000E+00    5.010000E+06  0.05000  3.072E-02    0   0.9147   age055_m72            0.0000     3.1027E-05    25.2081   1.7116    83.1913
 54      0.0000     0.0000E+00    0.0000E+00    6.610000E+06  0.05000  1.455E-02    0   0.8877   age061_m72            0.0000     3.5495E-05    31.3139   1.1569    83.4205
 55      0.0000     0.0000E+00    0.0000E+00    1.000000E+07  0.05000  9.074E-03    0   0.8524   age070_m72            0.0000     3.1258E-05    25.3774   1.8883    82.9457
 56      0.0000     0.0000E+00    0.0000E+00    2.512000E+07  0.05000  4.250E-03    0   0.7902   age090_m72            0.0000     3.0243E-05    24.6749   1.5795    84.6749
 57      0.0000     0.0000E+00    0.0000E+00    4.000000E+07  0.05000  3.087E-03    0   0.7618   age104_m72            0.0000     3.0070E-05    24.7167   1.3575    85.9142
 58      0.0000     0.0000E+00    0.0000E+00    1.015200E+08  0.05000  1.700E-03    0   0.7096   age116_m72            0.0000     2.8957E-05    22.5018   1.0405    89.5950
 59      0.0000     0.0000E+00    0.0000E+00    2.861200E+08  0.05000  7.384E-04    0   0.6633   age125_m72            0.0000     2.7931E-05    19.5880   0.4019    96.4444
 60     46.5575     1.2576E+01    1.3926E+01    5.088000E+08  0.05000  3.819E-04    0   0.6372   age130_m72            0.0000     2.6040E-05    18.1843  -0.1667    99.8201
 61      0.0000     0.0000E+00    0.0000E+00    9.047900E+08  0.05000  1.676E-04    0   0.6110   age135_m72            0.0000     2.5357E-05    17.6013  -0.9354    99.6572
 62      0.0000     0.0000E+00    0.0000E+00    1.434000E+09  0.05000  8.837E-05    0   0.5874   age139_m72            0.0000     2.7601E-05    23.6927  -1.0000    93.3528
 63      6.5080     1.5860E+01    1.5430E+01    2.500000E+09  0.05000  4.233E-05    0   0.5598   age150_m72            0.0000     3.3562E-05    30.8658  -1.0000    87.0823
 64      0.0000     0.0000E+00    0.0000E+00    6.250000E+09  0.05000  1.435E-05    0   0.5249   age166_m72            0.0000     4.6407E-05    41.1689  -1.0000    77.0897
 65      0.0000     0.0000E+00    0.0000E+00    1.300000E+10  0.05000  6.513E-06    0   0.5036   age193_m72            0.0000     5.8620E-05    46.9308  -1.0000    71.7464
 66      0.0000     0.0000E+00    0.0000E+00    1.800000E+10  0.05000  4.527E-06    0   0.4945   age213_m72            0.0000     6.6569E-05    49.9493  -1.0000    67.9635


## Synthesis Results - Average & Chains ##

# j      x_j: min, <> & last-chain-values for 1 ...  7 chains
  1      0.0000      0.8657      0.0000      0.0000      0.0001      0.0019      0.0000      0.0000      0.0000
  2      0.0000      0.9664      0.4456      0.0000      0.0000      0.0000      0.0000      0.0000      0.0000
  3      0.0000      1.2680      0.0000      0.0000      0.0000      0.0000      0.0000      0.0000      0.0000
  4      0.0000      1.0128      0.0000      0.0000      0.0000      0.0005      0.0000      0.0000      0.0069
  5      0.0000      1.3350      0.0000      0.0016      0.0000      0.0000      0.0000      0.0000      0.0000
  6      0.0000      1.2060      0.2371      0.0000      0.0000      0.0637      0.0000      0.0000      0.0000
  7      0.0000      0.9217      0.0000      0.0000      0.0000      1.3352      0.0000      0.0000      0.0000
  8      0.0000      1.0637      0.0000      0.0000      0.0000      0.0000      0.0000      0.0000      0.0000
  9      0.0000      1.1042      0.7284      0.0000      0.0000      0.0000      0.0023      0.0000      0.0000
 10      0.0000      1.0937      0.0005      0.0000      0.0000      0.2074      0.0000      0.0000      0.0000
 11      0.0000      0.9688      0.4059      0.0000      0.0001      0.0000      0.0012      0.0000      0.0000
 12      0.0000      1.0043      0.0543      0.0000      0.0000      0.0000      0.0011      0.0000      0.0000
 13      0.0000      1.0929      1.7501      0.0000      0.0000      0.0000      0.0000      0.0000      0.0002
 14      0.0000      0.7386      0.0000      0.0000      0.0000      0.4086      0.0000      0.0000      0.0000
 15      0.0000      1.0925      0.0000      0.0000      0.0000      0.0996      0.0000      0.0000      0.0000
 16      0.0000      1.1230      0.0414      0.0000      0.0000      0.0000      0.0000      0.0000      0.0000
 17      0.0000      1.2386      0.0000      0.0000      0.0000      0.0000      0.0000      0.0000      0.0000
 18      0.0000      0.9699      0.0000      0.0000      0.0000      0.0000      0.0000      0.0000      0.0000
 19      0.0000      1.1224      0.9740      0.0000      0.0000      0.0000      0.0000      0.0000      0.0000
 20      0.0000      1.0095      0.7043      0.0000      0.0000      0.0000      0.0000      0.0000      0.0000
 21      0.0000      1.0425      0.0000      0.0000      0.0000      0.5856      0.0000      0.0000      0.0000
 22      0.0000      1.2344      0.0000      0.0000      0.0000      0.0000      0.0013      0.0000      0.0000
 23      0.0000      1.0500      0.0000      0.0000      0.0000      0.0000      0.0000      0.0000      0.0000
 24      0.0000      1.2691      0.0006      0.0000      0.0000      0.0000      0.0000      0.0017      0.0000
 25      0.0000      1.2930      0.0000      0.0000      0.0000      0.0000      0.0000      0.0000      0.0000
 26      0.0000      0.8637      0.0000      0.0000      0.0000      0.0000      0.0000      0.0000      0.0000
 27      0.0000      6.4135     12.1173     12.3628      0.0000     12.4799     13.7370     12.8234     14.8674
 28      0.0000      1.0187      0.3024      0.0000      0.0107      0.0000      0.0000      0.0000      0.0000
 29      0.0000      0.8863      0.0000      0.0000      0.0000      0.0000      0.0140      0.0000      0.0000
 30      0.0000      1.2855      0.0000      0.0000      0.0000      0.0000      0.0002      0.0000      0.0000
 31      0.0000      1.1790      0.0000      0.0000      0.0000      0.3222      0.0000      0.0000      0.0000
 32      0.0000      1.1550      0.0000      0.0000      0.0000      0.0000      0.0000      0.0000      0.0000
 33      0.0000      1.4756      0.0969      0.0000      0.0000      0.0000      0.0000      0.0000      0.0000
 34      0.0000      1.2976      0.0000      0.0000      0.0000      0.0000      0.0000      0.0000      0.0000
 35      0.0000      1.4323      0.0000      0.0000      0.0000      0.0000      0.0000      0.0000      0.0000
 36      0.0000      1.1080      0.0000      0.0000      0.0000      0.0000      0.0000      0.0000      0.0000
 37      0.0000      1.2484      0.0000      0.0000      0.0000      0.0000      0.0000      0.0000      0.0000
 38      0.0000      1.1829      0.0000      0.0000      0.0000      0.1149      0.0000      0.0022      0.0000
 39      0.0000      1.3778      0.0000      0.0000      0.0000      0.0000      0.0000      0.0000      0.0000
 40      0.0000      1.1417      0.0018      0.0000      0.0000      0.0000      0.0000      0.0000      0.0000
 41      0.0000      0.9130      0.0000      0.0000      0.0000      0.0000      0.0000      0.0000      0.0000
 42      4.9977      1.8473      0.0000      0.0000      0.0000      0.9919      0.0000      0.0000      0.0000
 43      0.0000     14.6383     36.9785     40.2471     37.2383     34.8932     37.9452     35.6369     34.2263
 44      0.0000      1.0255      0.1684      0.0000      0.0000      0.0000      0.0275      0.1264      0.6319
 45      0.0000      1.0246      0.0000      0.0078      0.0000      0.0000      0.0000      0.0015      0.0000
 46      0.0000      0.7938      0.0000      0.0000      0.0000      0.0000      0.0000      0.0000      0.0000
 47     41.3029      1.5959      0.0000      0.0000      0.0000      0.7168      0.0000      0.0000      0.0000
 48      0.0000      1.1006      0.0000      0.0000      0.0000      0.0000      0.0000      0.0000      0.0000
 49      0.0000      1.0647      0.0000      0.0000      0.0000      0.0000      0.0000      0.0000      0.0008
 50      0.0000      1.1520      0.0000      0.0000      0.0000      0.0000      0.0000      0.0000      0.0000
 51      0.0000      1.1250      0.0000      0.0000      0.0000      0.0000      0.0000      0.0000      0.0000
 52      0.0000      1.2614      0.0000      0.0000      0.0000      0.0000      0.0000      0.0000      0.0000
 53      0.0000      1.2536      0.0000      0.0000      0.0000      0.3020      0.0000      0.0000      0.0000
 54      0.0000      0.7401      0.4805      0.0000      0.0000      0.0000      0.0000      0.0000      0.0000
 55      0.0000      1.2019      0.0000      0.0000      0.0000      0.0000      0.0000      0.0000      0.0012
 56      0.0000      1.2039      0.5112      0.0000      0.0000      0.0995      0.0000      0.0000      0.0000
 57      0.0000      1.0386      0.0000      0.0000      0.0000      0.0000      0.0000      0.0000      0.0000
 58      0.0000      0.9497      0.0000      0.0000      0.0000      0.1207      0.0000      0.0024      0.0009
 59      0.0000     25.6464     62.7827     66.5893     82.6287     64.0958     67.2501     70.5877     69.2378
 60     46.5575      1.2666      0.0469      0.0477      0.0001      0.7305      0.1134      0.0881      0.2885
 61      0.0000      2.1715      0.0000      0.0000      0.0030      0.0000      0.0000      0.0000      0.0054
 62      0.0000      1.4716      0.0000      0.0000      0.0000      0.4143      0.0135      0.0000      0.0000
 63      6.5080      1.0983      0.0000      0.0000      0.0000      0.5985      0.0000      0.0000      0.0000
 64      0.0000      0.9813      0.0000      0.0000      0.0000      0.0000      0.0000      0.0000      0.0000
 65      0.0000      1.0854      0.0000      0.0000      0.0000      0.0000      0.0000      0.0000      0.0000
 66      0.0000      1.2189      0.0000      0.0000      0.0000      0.0932      0.0038      0.0000      0.0000

# j      m_j: min, <> & last-chain-values for 1 ...  7 chains
  1  0.0000E+00  1.0432E-02  0.0000E+00  0.0000E+00  6.4524E-06  1.3186E-04  0.0000E+00  0.0000E+00  0.0000E+00
  2  0.0000E+00  3.1790E-03  1.0785E-02  0.0000E+00  0.0000E+00  0.0000E+00  0.0000E+00  0.0000E+00  0.0000E+00
  3  0.0000E+00  6.2463E-03  0.0000E+00  0.0000E+00  0.0000E+00  0.0000E+00  0.0000E+00  0.0000E+00  0.0000E+00
  4  0.0000E+00  4.6986E-03  0.0000E+00  0.0000E+00  0.0000E+00  1.3998E-05  0.0000E+00  0.0000E+00  2.4496E-04
  5  0.0000E+00  1.1797E-02  0.0000E+00  1.1236E-04  0.0000E+00  0.0000E+00  0.0000E+00  0.0000E+00  0.0000E+00
  6  0.0000E+00  1.7286E-02  2.5009E-02  0.0000E+00  0.0000E+00  5.2888E-03  0.0000E+00  0.0000E+00  0.0000E+00
  7  0.0000E+00  1.8914E-02  0.0000E+00  0.0000E+00  0.0000E+00  1.5868E-01  0.0000E+00  0.0000E+00  0.0000E+00
  8  0.0000E+00  3.0171E-02  0.0000E+00  0.0000E+00  0.0000E+00  0.0000E+00  0.0000E+00  0.0000E+00  0.0000E+00
  9  0.0000E+00  3.5846E-02  1.7399E-01  0.0000E+00  0.0000E+00  0.0000E+00  5.6953E-04  0.0000E+00  0.0000E+00
 10  0.0000E+00  4.6636E-02  1.6839E-04  0.0000E+00  0.0000E+00  5.1220E-02  0.0000E+00  0.0000E+00  0.0000E+00
 11  0.0000E+00  7.7681E-02  2.3945E-01  0.0000E+00  6.7441E-05  0.0000E+00  7.2035E-04  0.0000E+00  0.0000E+00
 12  0.0000E+00  1.2774E-01  5.0785E-02  0.0000E+00  0.0000E+00  0.0000E+00  1.0527E-03  0.0000E+00  0.0000E+00
 13  0.0000E+00  3.9181E-01  4.6164E+00  0.0000E+00  0.0000E+00  0.0000E+00  0.0000E+00  0.0000E+00  6.6075E-04
 14  0.0000E+00  8.8816E-01  0.0000E+00  0.0000E+00  0.0000E+00  2.8456E+00  0.0000E+00  0.0000E+00  0.0000E+00
 15  0.0000E+00  2.1386E+00  0.0000E+00  0.0000E+00  0.0000E+00  1.1292E+00  0.0000E+00  0.0000E+00  0.0000E+00
 16  0.0000E+00  3.7168E+00  1.0085E+00  0.0000E+00  0.0000E+00  0.0000E+00  0.0000E+00  0.0000E+00  0.0000E+00
 17  0.0000E+00  5.3180E+00  0.0000E+00  0.0000E+00  0.0000E+00  0.0000E+00  0.0000E+00  0.0000E+00  0.0000E+00
 18  0.0000E+00  1.0328E-02  0.0000E+00  0.0000E+00  0.0000E+00  0.0000E+00  0.0000E+00  0.0000E+00  0.0000E+00
 19  0.0000E+00  4.7968E-03  3.0628E-02  0.0000E+00  0.0000E+00  0.0000E+00  0.0000E+00  0.0000E+00  0.0000E+00
 20  0.0000E+00  4.7100E-03  2.4179E-02  0.0000E+00  0.0000E+00  0.0000E+00  0.0000E+00  0.0000E+00  0.0000E+00
 21  0.0000E+00  5.9044E-03  0.0000E+00  0.0000E+00  0.0000E+00  1.9207E-02  0.0000E+00  0.0000E+00  0.0000E+00
 22  0.0000E+00  1.1822E-02  0.0000E+00  0.0000E+00  0.0000E+00  0.0000E+00  9.7251E-05  0.0000E+00  0.0000E+00
 23  0.0000E+00  1.3580E-02  0.0000E+00  0.0000E+00  0.0000E+00  0.0000E+00  0.0000E+00  0.0000E+00  0.0000E+00
 24  0.0000E+00  2.4418E-02  7.9776E-05  0.0000E+00  0.0000E+00  0.0000E+00  0.0000E+00  2.5155E-04  0.0000E+00
 25  0.0000E+00  3.4305E-02  0.0000E+00  0.0000E+00  0.0000E+00  0.0000E+00  0.0000E+00  0.0000E+00  0.0000E+00
 26  0.0000E+00  3.8303E-02  0.0000E+00  0.0000E+00  0.0000E+00  0.0000E+00  0.0000E+00  0.0000E+00  0.0000E+00
 27  0.0000E+00  5.6929E-01  7.9142E+00  8.4752E+00  0.0000E+00  6.4158E+00  9.3714E+00  8.7303E+00  1.0108E+01
 28  0.0000E+00  2.6242E-01  5.7321E-01  0.0000E+00  2.0569E-02  0.0000E+00  0.0000E+00  0.0000E+00  0.0000E+00
 29  0.0000E+00  3.9782E-01  0.0000E+00  0.0000E+00  0.0000E+00  0.0000E+00  4.8133E-02  0.0000E+00  0.0000E+00
 30  0.0000E+00  1.2055E+00  0.0000E+00  0.0000E+00  0.0000E+00  0.0000E+00  1.3858E-03  0.0000E+00  0.0000E+00
 31  0.0000E+00  1.9450E+00  0.0000E+00  0.0000E+00  0.0000E+00  3.0787E+00  0.0000E+00  0.0000E+00  0.0000E+00
 32  0.0000E+00  2.5637E+00  0.0000E+00  0.0000E+00  0.0000E+00  0.0000E+00  0.0000E+00  0.0000E+00  0.0000E+00
 33  0.0000E+00  7.2504E+00  3.5034E+00  0.0000E+00  0.0000E+00  0.0000E+00  0.0000E+00  0.0000E+00  0.0000E+00
 34  0.0000E+00  8.6343E+00  0.0000E+00  0.0000E+00  0.0000E+00  0.0000E+00  0.0000E+00  0.0000E+00  0.0000E+00
 35  0.0000E+00  1.2229E-02  0.0000E+00  0.0000E+00  0.0000E+00  0.0000E+00  0.0000E+00  0.0000E+00  0.0000E+00
 36  0.0000E+00  3.8273E-03  0.0000E+00  0.0000E+00  0.0000E+00  0.0000E+00  0.0000E+00  0.0000E+00  0.0000E+00
 37  0.0000E+00  4.6646E-03  0.0000E+00  0.0000E+00  0.0000E+00  0.0000E+00  0.0000E+00  0.0000E+00  0.0000E+00
 38  0.0000E+00  1.1974E-02  0.0000E+00  0.0000E+00  0.0000E+00  6.7349E-03  0.0000E+00  1.6905E-04  0.0000E+00
 39  0.0000E+00  2.0080E-02  0.0000E+00  0.0000E+00  0.0000E+00  0.0000E+00  0.0000E+00  0.0000E+00  0.0000E+00
 40  0.0000E+00  2.6895E-02  3.1521E-04  0.0000E+00  0.0000E+00  0.0000E+00  0.0000E+00  0.0000E+00  0.0000E+00
 41  0.0000E+00  3.3448E-02  0.0000E+00  0.0000E+00  0.0000E+00  0.0000E+00  0.0000E+00  0.0000E+00  0.0000E+00
 42  4.5715E-01  1.2425E-01  0.0000E+00  0.0000E+00  0.0000E+00  3.8640E-01  0.0000E+00  0.0000E+00  0.0000E+00
 43  0.0000E+00  1.4375E+00  2.6719E+01  3.0524E+01  2.7196E+01  1.9845E+01  2.8638E+01  2.6841E+01  2.5742E+01
 44  0.0000E+00  1.7340E-01  2.0957E-01  0.0000E+00  0.0000E+00  0.0000E+00  3.5735E-02  1.6397E-01  8.1831E-01
 45  0.0000E+00  3.4373E-01  0.0000E+00  2.0143E-02  0.0000E+00  0.0000E+00  0.0000E+00  3.7875E-03  0.0000E+00
 46  0.0000E+00  4.8950E-01  0.0000E+00  0.0000E+00  0.0000E+00  0.0000E+00  0.0000E+00  0.0000E+00  0.0000E+00
 47  7.0187E+01  1.9941E+00  0.0000E+00  0.0000E+00  0.0000E+00  5.1875E+00  0.0000E+00  0.0000E+00  0.0000E+00
 48  0.0000E+00  2.4253E+00  0.0000E+00  0.0000E+00  0.0000E+00  0.0000E+00  0.0000E+00  0.0000E+00  0.0000E+00
 49  0.0000E+00  5.3324E+00  0.0000E+00  0.0000E+00  0.0000E+00  0.0000E+00  0.0000E+00  0.0000E+00  2.9152E-02
 50  0.0000E+00  1.0686E+01  0.0000E+00  0.0000E+00  0.0000E+00  0.0000E+00  0.0000E+00  0.0000E+00  0.0000E+00
 51  0.0000E+00  5.7205E-03  0.0000E+00  0.0000E+00  0.0000E+00  0.0000E+00  0.0000E+00  0.0000E+00  0.0000E+00
 52  0.0000E+00  3.2870E-03  0.0000E+00  0.0000E+00  0.0000E+00  0.0000E+00  0.0000E+00  0.0000E+00  0.0000E+00
 53  0.0000E+00  4.9206E-03  0.0000E+00  0.0000E+00  0.0000E+00  6.8661E-03  0.0000E+00  0.0000E+00  0.0000E+00
 54  0.0000E+00  5.9525E-03  2.8437E-02  0.0000E+00  0.0000E+00  0.0000E+00  0.0000E+00  0.0000E+00  0.0000E+00
 55  0.0000E+00  1.4883E-02  0.0000E+00  0.0000E+00  0.0000E+00  0.0000E+00  0.0000E+00  0.0000E+00  1.1492E-04
 56  0.0000E+00  2.9507E-02  9.2189E-02  0.0000E+00  0.0000E+00  1.4128E-02  0.0000E+00  0.0000E+00  0.0000E+00
 57  0.0000E+00  3.3787E-02  0.0000E+00  0.0000E+00  0.0000E+00  0.0000E+00  0.0000E+00  0.0000E+00  0.0000E+00
 58  0.0000E+00  5.2260E-02  0.0000E+00  0.0000E+00  0.0000E+00  3.8460E-02  0.0000E+00  9.9439E-04  3.8368E-04
 59  0.0000E+00  3.0370E+00  5.4704E+01  6.0900E+01  7.2769E+01  4.3959E+01  6.1204E+01  6.4111E+01  6.2796E+01
 60  1.3926E+01  2.7859E-01  7.5824E-02  8.0968E-02  1.4029E-04  9.3055E-01  1.9174E-01  1.4870E-01  4.8594E-01
 61  0.0000E+00  1.0436E+00  0.0000E+00  0.0000E+00  1.0770E-02  0.0000E+00  0.0000E+00  0.0000E+00  1.9880E-02
 62  0.0000E+00  1.2895E+00  0.0000E+00  0.0000E+00  0.0000E+00  2.1028E+00  9.1115E-02  0.0000E+00  0.0000E+00
 63  1.5430E+01  1.9148E+00  0.0000E+00  0.0000E+00  0.0000E+00  6.0433E+00  0.0000E+00  0.0000E+00  0.0000E+00
 64  0.0000E+00  4.7320E+00  0.0000E+00  0.0000E+00  0.0000E+00  0.0000E+00  0.0000E+00  0.0000E+00  0.0000E+00
 65  0.0000E+00  1.1063E+01  0.0000E+00  0.0000E+00  0.0000E+00  0.0000E+00  0.0000E+00  0.0000E+00  0.0000E+00
 66  0.0000E+00  1.7551E+01  0.0000E+00  0.0000E+00  3.6881E-03  7.7758E+00  4.1598E-01  0.0000E+00  0.0000E+00

# AV, chi2 & Mass for <> & i_chain = 1 ...  7 solutions
AV      -0.8584     -0.0087     -0.0959     -0.0952     -0.1066     -0.1023     -0.0936     -0.0992     -0.1030
chi2 2.5691E-05  5.3012E-05  4.1225E-05  4.1232E-05  4.1250E-05  4.0710E-05  4.1061E-05  4.1112E-05  4.1125E-05
Mass 2.7846E-14  1.1855E-13  1.4332E-14  1.3667E-14  1.3976E-14  1.8052E-14  1.3763E-14  1.3688E-14  1.3637E-14
-107.27                                  [v0_min (km/s) before EX0s...]
 198.89                                  [vd_min (km/s) before EX0s...]


## Synthetic spectrum (Best Model) ##l_obs f_obs f_syn wei
 3478    [Nl_obs]
 3741.00    0.78590   0.54022    0.000
 3742.00    0.83975   0.52374    0.000
 3743.00    0.84084   0.49967    0.000
 3744.00    0.70725   0.47184    0.000
 3745.00    0.49520   0.44436    0.052
 3746.00    0.44889   0.42186    0.050
 3747.00    0.48674   0.40931    0.048
 3748.00    0.25725   0.41081    0.048
 3749.00   -0.08980   0.42783    0.000
 3750.00   -0.01092   0.45801    0.000
 3751.00    0.22876   0.49529    0.044
 3752.00    0.33920   0.53173    0.043
 3753.00    0.40823   0.56002    0.043
 3754.00    0.59870   0.57596    0.043
 3755.00    0.82171   0.57974    0.044
 3756.00    0.92976   0.57541    0.043
 3757.00    1.01259   0.56872    0.043
 3758.00    0.65590   0.56430    0.042
 3759.00    0.22248   0.56380    0.040
 3760.00    0.04354   0.56588    0.048
 3761.00   -0.10159   0.56752    0.000
 3762.00   -0.02054   0.56575    0.000
 3763.00    0.08177   0.55873    0.040
 3764.00    0.03498   0.54634    0.039
 3765.00   -0.02041   0.53019    0.000
 3766.00   -0.01560   0.51330    0.000
 3767.00   -0.00837   0.49950    0.000
 3768.00    0.11941   0.49246    0.039
 3769.00    0.23980   0.49460    0.039
 3770.00    0.18080   0.50634    0.039
 3771.00    0.13383   0.52602    0.039
 3772.00    0.24443   0.55076    0.039
 3773.00    0.37796   0.57776    0.040
 3774.00    0.71277   0.60517    0.042
 3775.00    0.98095   0.63211    0.044
 3776.00    0.81715   0.65812    0.045
 3777.00    0.68730   0.68245    0.045
 3778.00    0.72925   0.70384    0.044
 3779.00    0.72703   0.72062    0.043
 3780.00    0.54402   0.73110    0.042
 3781.00    0.38659   0.73383    0.042
 3782.00    0.31597   0.72805    0.042
 3783.00    0.26879   0.71413    0.043
 3784.00    0.28866   0.69396    0.042
 3785.00    0.30267   0.67078    0.042
 3786.00    0.30234   0.64804    0.042
 3787.00    0.34457   0.62811    0.042
 3788.00    0.47650   0.61121    0.047
 3789.00    0.67044   0.59554    0.049
 3790.00    0.97797   0.57830    0.045
 3791.00    1.04260   0.55727    0.043
 3792.00    0.71842   0.53201    0.040
 3793.00    0.52565   0.50437    0.039
 3794.00    0.51750   0.47829    0.040
 3795.00    0.55223   0.45882    0.040
 3796.00    0.63999   0.45087    0.039
 3797.00    0.51580   0.45755    0.038
 3798.00    0.16071   0.47892    0.037
 3799.00    0.02623   0.51171    0.037
 3800.00    0.10375   0.55022    0.038
 3801.00    0.29818   0.58823    0.040
 3802.00    0.59167   0.62105    0.043
 3803.00    0.82437   0.64676    0.046
 3804.00    1.01172   0.66628    0.049
 3805.00    1.00014   0.68211    0.047
 3806.00    0.85815   0.69637    0.043
 3807.00    0.61081   0.70921    0.041
 3808.00    0.30300   0.71856    0.039
 3809.00    0.18821   0.72156    0.039
 3810.00    0.16989   0.71665    0.038
 3811.00    0.05137   0.70509    0.039
 3812.00   -0.11047   0.69064    0.000
 3813.00    0.15298   0.67769    0.040
 3814.00    0.57416   0.66902    0.041
 3815.00    0.82324   0.66463    0.042
 3816.00    1.01821   0.66231    0.043
 3817.00    0.63484   0.65946    0.042
 3818.00    0.09976   0.65445    0.040
 3819.00    0.26890   0.64689    0.040
 3820.00    0.58892   0.63674    0.040
 3821.00    0.97751   0.62380    0.045
 3822.00    1.37775   0.60788    0.053
 3823.00    0.72135   0.58947    0.049
 3824.00   -0.07064   0.56994    0.000
 3825.00   -0.07248   0.55070    0.000
 3826.00   -0.00338   0.53224    0.000
 3827.00    0.26459   0.51372    0.049
 3828.00    0.54324   0.49354    0.055
 3829.00    0.72548   0.47067    0.052
 3830.00    0.90201   0.44563    0.050
 3831.00    0.75998   0.42086    0.046
 3832.00    0.63281   0.39998    0.042
 3833.00    0.83562   0.38651    0.043
 3834.00    1.03287   0.38271    0.043
 3835.00    1.16093   0.38918    0.045
 3836.00    1.24568   0.40519    0.047
 3837.00    0.96439   0.42934    0.051
 3838.00    0.69282   0.45994    0.054
 3839.00    0.48237   0.49495    0.044
 3840.00    0.34368   0.53188    0.038
 3841.00    0.55903   0.56797    0.039
 3842.00    0.74719   0.60078    0.040
 3843.00    0.82651   0.62876    0.041
 3844.00    0.78722   0.65146    0.042
 3845.00    0.35362   0.66932    0.040
 3846.00   -0.01499   0.68328    0.000
 3847.00   -0.20113   0.69449    0.000
 3848.00   -0.30568   0.70397    0.000
 3849.00   -0.21430   0.71222    0.000
 3850.00   -0.13903   0.71895    0.000
 3851.00   -0.09720   0.72324    0.000
 3852.00   -0.02401   0.72424    0.000
 3853.00    0.10573   0.72184    0.000
 3854.00    0.30203   0.71699    0.000
 3855.00    0.60329   0.71151    0.000
 3856.00    0.71116   0.70758    0.000
 3857.00    0.55130   0.70722    0.000
 3858.00    0.43081   0.71166    0.000
 3859.00    0.35831   0.72072    0.000
 3860.00    0.35300   0.73271    0.000
 3861.00    0.41987   0.74498    0.000
 3862.00    0.47932   0.75501    0.000
 3863.00    0.53174   0.76135    0.000
 3864.00    0.61559   0.76367    0.000
 3865.00    0.72570   0.76222    0.000
 3866.00    0.74783   0.75718    0.000
 3867.00    0.70528   0.74861    0.000
 3868.00    0.73347   0.73704    0.000
 3869.00    0.80735   0.72403    0.000
 3870.00    0.69081   0.71197    0.000
 3871.00    0.46666   0.70293    0.000
 3872.00    0.58408   0.69736    0.000
 3873.00    0.86953   0.69369    0.000
 3874.00    0.81698   0.68930    0.000
 3875.00    0.62072   0.68217    0.000
 3876.00    0.46185   0.67193    0.000
 3877.00    0.31661   0.65952    0.000
 3878.00    0.43998   0.64593    0.000
 3879.00    0.64616   0.63118    0.000
 3880.00    0.65252   0.61417    0.000
 3881.00    0.60758   0.59351    0.041
 3882.00    0.68224   0.56855    0.040
 3883.00    0.78191   0.54012    0.038
 3884.00    0.61133   0.51088    0.038
 3885.00    0.39618   0.48500    0.038
 3886.00    0.31908   0.46719    0.037
 3887.00    0.25909   0.46122    0.036
 3888.00    0.52997   0.46848    0.037
 3889.00    0.82916   0.48743    0.038
 3890.00    0.72543   0.51419    0.040
 3891.00    0.60161   0.54401    0.041
 3892.00    0.55762   0.57295    0.040
 3893.00    0.51848   0.59879    0.040
 3894.00    0.70767   0.62101    0.040
 3895.00    0.88110   0.64010    0.041
 3896.00    0.73226   0.65688    0.040
 3897.00    0.60416   0.67190    0.039
 3898.00    0.72146   0.68525    0.038
 3899.00    0.81335   0.69650    0.037
 3900.00    0.69827   0.70511    0.037
 3901.00    0.60143   0.71104    0.037
 3902.00    0.61601   0.71538    0.037
 3903.00    0.63384   0.72033    0.036
 3904.00    0.66730   0.72837    0.034
 3905.00    0.68923   0.74105    0.033
 3906.00    0.66600   0.75803    0.033
 3907.00    0.65108   0.77702    0.034
 3908.00    0.66326   0.79471    0.035
 3909.00    0.63079   0.80804    0.036
 3910.00    0.47523   0.81520    0.036
 3911.00    0.33796   0.81600    0.037
 3912.00    0.24394   0.81150    0.037
 3913.00    0.20538   0.80336    0.037
 3914.00    0.28004   0.79321    0.037
 3915.00    0.41783   0.78237    0.038
 3916.00    0.66774   0.77187    0.040
 3917.00    0.80651   0.76259    0.041
 3918.00    0.77260   0.75522    0.040
 3919.00    0.66419   0.74991    0.039
 3920.00    0.45412   0.74582    0.038
 3921.00    0.44147   0.74089    0.038
 3922.00    0.66597   0.73215    0.039
 3923.00    0.68515   0.71657    0.040
 3924.00    0.48687   0.69197    0.039
 3925.00    0.31930   0.65763    0.038
 3926.00    0.18041   0.61450    0.038
 3927.00    0.22812   0.56497    0.038
 3928.00    0.42950   0.51265    0.038
 3929.00    0.48048   0.46222    0.038
 3930.00    0.42241   0.41925    0.038
 3931.00    0.28538   0.38946    0.038
 3932.00    0.09810   0.37754    0.038
 3933.00   -0.04426   0.38567    0.000
 3934.00   -0.16163   0.41258    0.000
 3935.00    0.06690   0.45360    0.038
 3936.00    0.46287   0.50192    0.039
 3937.00    0.78136   0.55045    0.040
 3938.00    1.06745   0.59361    0.041
 3939.00    0.93748   0.62846    0.041
 3940.00    0.65869   0.65488    0.040
 3941.00    0.66829   0.67482    0.040
 3942.00    0.76507   0.69096    0.040
 3943.00    0.80728   0.70536    0.040
 3944.00    0.83579   0.71873    0.040
 3945.00    0.89736   0.73069    0.040
 3946.00    0.96568   0.74052    0.041
 3947.00    0.84620   0.74786    0.041
 3948.00    0.69666   0.75290    0.041
 3949.00    0.59696   0.75607    0.041
 3950.00    0.50321   0.75760    0.041
 3951.00    0.31854   0.75732    0.041
 3952.00    0.12647   0.75481    0.040
 3953.00    0.46482   0.74969    0.041
 3954.00    0.82754   0.74168    0.041
 3955.00    0.96612   0.73046    0.042
 3956.00    1.09971   0.71539    0.043
 3957.00    1.12154   0.69538    0.043
 3958.00    1.13746   0.66929    0.044
 3959.00    1.04128   0.63646    0.043
 3960.00    0.95036   0.59710    0.000
 3961.00    0.91864   0.55229    0.000
 3962.00    0.85983   0.50358    0.000
 3963.00    0.58814   0.45304    0.000
 3964.00    0.37567   0.40358    0.000
 3965.00    0.51457   0.35933    0.000
 3966.00    0.63025   0.32528    0.000
 3967.00    0.63696   0.30621    0.000
 3968.00    0.65799   0.30516    0.000
 3969.00    0.73389   0.32238    0.000
 3970.00    0.76006   0.35528    0.000
 3971.00    0.62732   0.39944    0.000
 3972.00    0.56164   0.44990    0.000
 3973.00    0.67761   0.50234    0.000
 3974.00    0.82532   0.55352    0.000
 3975.00    1.04673   0.60123    0.000
 3976.00    1.11856   0.64384    0.000
 3977.00    0.88996   0.68012    0.000
 3978.00    0.71345   0.70939    0.000
 3979.00    0.62805   0.73185    0.000
 3980.00    0.63826   0.74873    0.000
 3981.00    0.79484   0.76208    0.040
 3982.00    0.90001   0.77404    0.041
 3983.00    0.93603   0.78615    0.041
 3984.00    0.88648   0.79891    0.041
 3985.00    0.73558   0.81201    0.041
 3986.00    0.68010   0.82472    0.040
 3987.00    0.72428   0.83643    0.040
 3988.00    0.70468   0.84672    0.040
 3989.00    0.62636   0.85525    0.039
 3990.00    0.60136   0.86150    0.039
 3991.00    0.61964   0.86489    0.039
 3992.00    0.64002   0.86524    0.039
 3993.00    0.66189   0.86329    0.039
 3994.00    0.77579   0.86086    0.039
 3995.00    0.94740   0.86031    0.040
 3996.00    0.99403   0.86343    0.040
 3997.00    0.97217   0.87036    0.040
 3998.00    0.88337   0.87929    0.040
 3999.00    0.76268   0.88717    0.040
 4000.00    0.59191   0.89117    0.039
 4001.00    0.40056   0.89015    0.039
 4002.00    0.44186   0.88536    0.039
 4003.00    0.56487   0.87992    0.040
 4004.00    0.98235   0.87742    0.041
 4005.00    1.48707   0.88015    0.043
 4006.00    1.12896   0.88820    0.042
 4007.00    0.55888   0.89966    0.041
 4008.00    0.45846   0.91173    0.040
 4009.00    0.45142   0.92210    0.040
 4010.00    0.84477   0.92977    0.040
 4011.00    1.30034   0.93497    0.042
 4012.00    1.19122   0.93861    0.042
 4013.00    1.01717   0.94163    0.042
 4014.00    0.96295   0.94470    0.041
 4015.00    0.91800   0.94807    0.041
 4016.00    0.92944   0.95145    0.041
 4017.00    0.94325   0.95414    0.042
 4018.00    0.83085   0.95525    0.041
 4019.00    0.72044   0.95421    0.041
 4020.00    0.74828   0.95123    0.041
 4021.00    0.79144   0.94739    0.040
 4022.00    1.10492   0.94405    0.040
 4023.00    1.38506   0.94193    0.040
 4024.00    1.30648   0.94025    0.040
 4025.00    1.20144   0.93688    0.040
 4026.00    0.89551   0.92943    0.040
 4027.00    0.63471   0.91678    0.040
 4028.00    0.63421   0.90020    0.039
 4029.00    0.65843   0.88329    0.039
 4030.00    0.79589   0.87077    0.040
 4031.00    0.91182   0.86659    0.040
 4032.00    0.94694   0.87238    0.039
 4033.00    1.00651   0.88691    0.039
 4034.00    1.14274   0.90659    0.039
 4035.00    1.18987   0.92672    0.039
 4036.00    1.00000   0.94291    0.038
 4037.00    0.87688   0.95212    0.038
 4038.00    0.90620   0.95295    0.038
 4039.00    0.98454   0.94561    0.039
 4040.00    1.15978   0.93162    0.040
 4041.00    1.17320   0.91372    0.040
 4042.00    0.90784   0.89567    0.039
 4043.00    0.78334   0.88169    0.038
 4044.00    0.87131   0.87522    0.039
 4045.00    0.97081   0.87759    0.039
 4046.00    1.08557   0.88726    0.040
 4047.00    1.10208   0.90024    0.041
 4048.00    1.00387   0.91166    0.040
 4049.00    1.00007   0.91783    0.040
 4050.00    1.09346   0.91736    0.040
 4051.00    1.14866   0.91123    0.040
 4052.00    1.16918   0.90189    0.041
 4053.00    1.14512   0.89216    0.041
 4054.00    1.08538   0.88437    0.040
 4055.00    1.14802   0.87964    0.040
 4056.00    1.29682   0.87762    0.040
 4057.00    1.14205   0.87678    0.041
 4058.00    0.79976   0.87514    0.041
 4059.00    0.80948   0.87131    0.041
 4060.00    1.00915   0.86528    0.040
 4061.00    0.95924   0.85858    0.040
 4062.00    0.79235   0.85353    0.041
 4063.00    0.75546   0.85214    0.041
 4064.00    0.77108   0.85496    0.040
 4065.00    0.50290   0.86077    0.040
 4066.00    0.13686   0.86722    0.040
 4067.00    0.10376   0.87195    0.040
 4068.00    0.16734   0.87353    0.040
 4069.00    0.61807   0.87152    0.041
 4070.00    1.16179   0.86614    0.042
 4071.00    1.10195   0.85784    0.042
 4072.00    0.92516   0.84728    0.041
 4073.00    1.10910   0.83556    0.041
 4074.00    1.34741   0.82463    0.042
 4075.00    1.23452   0.81724    0.042
 4076.00    1.08279   0.81590    0.041
 4077.00    1.05679   0.82143    0.041
 4078.00    1.03999   0.83220    0.040
 4079.00    0.84541   0.84478    0.040
 4080.00    0.64402   0.85561    0.040
 4081.00    0.63163   0.86258    0.040
 4082.00    0.62334   0.86578    0.040
 4083.00    0.73022   0.86696    0.040
 4084.00    0.84173   0.86801    0.040
 4085.00    1.02950   0.86976    0.040
 4086.00    1.19007   0.87154    0.039
 4087.00    1.07063   0.87156    0.039
 4088.00    0.91929   0.86796    0.039
 4089.00    0.53381   0.85946    0.038
 4090.00    0.23255   0.84560    0.037
 4091.00    0.40376   0.82658    0.038
 4092.00    0.60747   0.80280    0.000
 4093.00    0.95660   0.77469    0.000
 4094.00    1.17665   0.74282    0.000
 4095.00    0.92261   0.70805    0.000
 4096.00    0.71815   0.67194    0.000
 4097.00    0.66616   0.63711    0.000
 4098.00    0.69736   0.60719    0.000
 4099.00    0.94601   0.58627    0.000
 4100.00    1.13911   0.57778    0.000
 4101.00    1.20744   0.58323    0.000
 4102.00    1.28039   0.60142    0.000
 4103.00    1.36234   0.62860    0.000
 4104.00    1.38291   0.65973    0.000
 4105.00    1.29935   0.69010    0.000
 4106.00    1.18645   0.71674    0.000
 4107.00    1.02995   0.73884    0.000
 4108.00    0.97251   0.75742    0.000
 4109.00    1.04452   0.77431    0.000
 4110.00    1.14112   0.79091    0.000
 4111.00    1.26604   0.80745    0.000
 4112.00    1.20125   0.82306    0.000
 4113.00    0.94389   0.83615    0.038
 4114.00    0.76293   0.84530    0.037
 4115.00    0.65040   0.84994    0.037
 4116.00    0.66154   0.85077    0.037
 4117.00    0.77027   0.84938    0.038
 4118.00    0.77560   0.84766    0.055
 4119.00    0.70919   0.84707    0.199
 4120.00    0.84174   0.84812   -1.000
 4121.00    1.09536   0.85033   -1.000
 4122.00    1.11392   0.85252   -1.000
 4123.00    1.00761   0.85342   -1.000
 4124.00    0.98710   0.85196   -1.000
 4125.00    1.00617   0.84773   -1.000
 4126.00    0.94580   0.84120    0.105
 4127.00    0.85388   0.83361    0.044
 4128.00    0.66435   0.82663    0.038
 4129.00    0.44177   0.82208    0.038
 4130.00    0.48290   0.82160    0.038
 4131.00    0.59905   0.82630    0.038
 4132.00    0.80230   0.83636    0.038
 4133.00    1.02599   0.85073    0.039
 4134.00    0.87031   0.86718    0.038
 4135.00    0.64302   0.88275    0.038
 4136.00    0.32682   0.89438    0.038
 4137.00   -0.00237   0.89978    0.000
 4138.00    0.45498   0.89806    0.039
 4139.00    0.99590   0.89015    0.040
 4140.00    1.21083   0.87870    0.040
 4141.00    1.40322   0.86726    0.041
 4142.00    1.32144   0.85902    0.040
 4143.00    1.23021   0.85555    0.040
 4144.00    1.04937   0.85651    0.040
 4145.00    0.87163   0.85999    0.040
 4146.00    0.80250   0.86351    0.039
 4147.00    0.73553   0.86511    0.039
 4148.00    0.70211   0.86400    0.038
 4149.00    0.66278   0.86038    0.038
 4150.00    0.56508   0.85522    0.038
 4151.00    0.48566   0.84999    0.038
 4152.00    0.53609   0.84598    0.038
 4153.00    0.60375   0.84421    0.039
 4154.00    0.76548   0.84542    0.039
 4155.00    0.93963   0.84993    0.039
 4156.00    1.16807   0.85740    0.038
 4157.00    1.23644   0.86693    0.038
 4158.00    0.72905   0.87727    0.037
 4159.00    0.44148   0.88704    0.036
 4160.00    0.81725   0.89493    0.037
 4161.00    1.04049   0.90015    0.037
 4162.00    0.87200   0.90239    0.037
 4163.00    0.80219   0.90167    0.037
 4164.00    0.95038   0.89814    0.037
 4165.00    1.10031   0.89189    0.038
 4166.00    1.25359   0.88286    0.038
 4167.00    1.24221   0.87109    0.038
 4168.00    0.95564   0.85709    0.036
 4169.00    0.81403   0.84197    0.035
 4170.00    0.88479   0.82731    0.035
 4171.00    0.89895   0.81501    0.035
 4172.00    0.84021   0.80664    0.035
 4173.00    0.69301   0.80288    0.036
 4174.00    0.44543   0.80344    0.035
 4175.00    0.45228   0.80728    0.035
 4176.00    0.71379   0.81308    0.036
 4177.00    0.90803   0.81978    0.036
 4178.00    1.04289   0.82668    0.036
 4179.00    1.05758   0.83343    0.035
 4180.00    0.97880   0.83963    0.034
 4181.00    0.90835   0.84482    0.034
 4182.00    0.84361   0.84887    0.035
 4183.00    0.90953   0.85180    0.035
 4184.00    1.05376   0.85387    0.035
 4185.00    1.07411   0.85587    0.035
 4186.00    1.02966   0.85888    0.035
 4187.00    1.05928   0.86354    0.035
 4188.00    1.12248   0.86948    0.036
 4189.00    1.28901   0.87549    0.036
 4190.00    1.49586   0.87989    0.036
 4191.00    1.32075   0.88091    0.036
 4192.00    1.01878   0.87709    0.035
 4193.00    0.89440   0.86826    0.035
 4194.00    0.81953   0.85592    0.036
 4195.00    0.85684   0.84226    0.035
 4196.00    0.91988   0.82969    0.035
 4197.00    0.90544   0.82019    0.035
 4198.00    0.87675   0.81493    0.034
 4199.00    0.98487   0.81426    0.035
 4200.00    1.11233   0.81780    0.036
 4201.00    1.03684   0.82468    0.035
 4202.00    0.94066   0.83403    0.034
 4203.00    0.90872   0.84483    0.034
 4204.00    0.88096   0.85594    0.034
 4205.00    0.73037   0.86660    0.034
 4206.00    0.57649   0.87615    0.034
 4207.00    0.73421   0.88366    0.034
 4208.00    0.89298   0.88832    0.035
 4209.00    1.08276   0.88973    0.035
 4210.00    1.25550   0.88816    0.036
 4211.00    1.18007   0.88478    0.036
 4212.00    1.10672   0.88105    0.036
 4213.00    1.05314   0.87866    0.036
 4214.00    0.98765   0.87914    0.036
 4215.00    0.84031   0.88289    0.035
 4216.00    0.75175   0.88867    0.035
 4217.00    0.97562   0.89399    0.035
 4218.00    1.06988   0.89558    0.035
 4219.00    0.61055   0.89029    0.035
 4220.00    0.28444   0.87627    0.035
 4221.00    0.42769   0.85454    0.035
 4222.00    0.50055   0.82951    0.035
 4223.00    0.36500   0.80692    0.035
 4224.00    0.34417   0.79198    0.035
 4225.00    0.61285   0.78800    0.035
 4226.00    0.79244   0.79510    0.035
 4227.00    0.77845   0.81015    0.035
 4228.00    0.87468   0.82837    0.035
 4229.00    1.17878   0.84457    0.035
 4230.00    1.18644   0.85507    0.035
 4231.00    0.70603   0.85886    0.034
 4232.00    0.45554   0.85702    0.033
 4233.00    0.53694   0.85231    0.033
 4234.00    0.57338   0.84823    0.033
 4235.00    0.55273   0.84713    0.033
 4236.00    0.65492   0.84987    0.033
 4237.00    0.89453   0.85628    0.033
 4238.00    1.01180   0.86541    0.033
 4239.00    1.00836   0.87578    0.033
 4240.00    0.95184   0.88560    0.033
 4241.00    0.84915   0.89280    0.033
 4242.00    0.88412   0.89598    0.033
 4243.00    1.02462   0.89458    0.034
 4244.00    1.09559   0.88852    0.034
 4245.00    1.11969   0.87890    0.035
 4246.00    1.04924   0.86824    0.035
 4247.00    0.92296   0.85870    0.035
 4248.00    0.94148   0.85131    0.036
 4249.00    1.03454   0.84689    0.036
 4250.00    1.21143   0.84605    0.037
 4251.00    1.42573   0.84825    0.037
 4252.00    1.32703   0.85176    0.036
 4253.00    1.10833   0.85471    0.035
 4254.00    1.03349   0.85598    0.034
 4255.00    1.00555   0.85511    0.034
 4256.00    0.74744   0.85283    0.034
 4257.00    0.42651   0.85131    0.033
 4258.00    0.59728   0.85272    0.033
 4259.00    0.87823   0.85827    0.034
 4260.00    0.99075   0.86796    0.034
 4261.00    1.07315   0.88038    0.034
 4262.00    0.80008   0.89282    0.034
 4263.00    0.47837   0.90177    0.034
 4264.00    0.60847   0.90402    0.034
 4265.00    0.78271   0.89745    0.034
 4266.00    0.79987   0.88216    0.034
 4267.00    0.80743   0.86117    0.033
 4268.00    0.76768   0.83871    0.033
 4269.00    0.72614   0.81857    0.033
 4270.00    0.58325   0.80424    0.033
 4271.00    0.44187   0.79850    0.033
 4272.00    0.34003   0.80181    0.033
 4273.00    0.26938   0.81236    0.033
 4274.00    0.62731   0.82705    0.033
 4275.00    0.96156   0.84257    0.033
 4276.00    1.08071   0.85577    0.034
 4277.00    1.17394   0.86438    0.034
 4278.00    1.09458   0.86811    0.034
 4279.00    1.02831   0.86761    0.034
 4280.00    1.02986   0.86344    0.034
 4281.00    1.05586   0.85680    0.033
 4282.00    1.18387   0.84861   -2.000
 4283.00    1.19609   0.83877   -2.000
 4284.00    0.80861   0.82696   -2.000
 4285.00    0.49144   0.81395   -2.000
 4286.00    0.37868   0.80188   -2.000
 4287.00    0.42026   0.79279   -2.000
 4288.00    0.84464   0.78758   -2.000
 4289.00    1.16755   0.78633   -2.000
 4290.00    1.27354   0.78825   -2.000
 4291.00    1.27466   0.79126   -2.000
 4292.00    1.08104   0.79261   -2.000
 4293.00    0.91012   0.78969   -2.000
 4294.00    0.77600   0.78057   -2.000
 4295.00    0.74142   0.76553   -2.000
 4296.00    0.84844   0.74699   -2.000
 4297.00    0.91652   0.72794   -2.000
 4298.00    0.93585   0.71133    0.033
 4299.00    0.96753   0.69913    0.033
 4300.00    1.01281   0.69156    0.033
 4301.00    1.02662   0.68784    0.033
 4302.00    1.00979   0.68652    0.033
 4303.00    0.89265   0.68614    0.033
 4304.00    0.68941   0.68626    0.033
 4305.00    0.57419   0.68744    0.033
 4306.00    0.52546   0.69106    0.032
 4307.00    0.58514   0.69812    0.032
 4308.00    0.71679   0.70896    0.032
 4309.00    0.84890   0.72379    0.032
 4310.00    0.98127   0.74285    0.033
 4311.00    0.93250   0.76592    0.032
 4312.00    0.79193   0.79113    0.032
 4313.00    0.68703   0.81589    0.032
 4314.00    0.59777   0.83804    0.032
 4315.00    0.56363   0.85554    0.032
 4316.00    0.55027   0.86675    0.032
 4317.00    0.80348   0.87064    0.032
 4318.00    1.14192   0.86607    0.033
 4319.00    1.08844   0.85253    0.033
 4320.00    0.93021   0.83175    0.033
 4321.00    0.81219   0.80839    0.033
 4322.00    0.70297   0.78801    0.033
 4323.00    0.75278   0.77414    0.033
 4324.00    0.83026   0.76789    0.033
 4325.00    0.86667   0.76851    0.033
 4326.00    0.89766   0.77449    0.033
 4327.00    1.07527   0.78368    0.033
 4328.00    1.26659   0.79280    0.033
 4329.00    1.16110   0.79857    0.033
 4330.00    1.03864   0.79825    0.000
 4331.00    0.92162   0.78945    0.000
 4332.00    0.80610   0.77115    0.000
 4333.00    0.84818   0.74448    0.000
 4334.00    0.88303   0.71126    0.000
 4335.00    0.74403   0.67373    0.000
 4336.00    0.63035   0.63689    0.000
 4337.00    0.84616   0.60698    0.000
 4338.00    1.03315   0.58804    0.000
 4339.00    0.96840   0.58242    0.000
 4340.00    0.91309   0.59128    0.000
 4341.00    0.91875   0.61266    0.000
 4342.00    0.94234   0.64203    0.000
 4343.00    1.05640   0.67514    0.000
 4344.00    1.12962   0.70772    0.000
 4345.00    1.03613   0.73490    0.000
 4346.00    0.86269   0.75343    0.000
 4347.00    0.41881   0.76407    0.000
 4348.00    0.16315   0.76980    0.000
 4349.00    0.44460   0.77326    0.000
 4350.00    0.71813   0.77682    0.000
 4351.00    0.97235   0.78283    0.034
 4352.00    1.09210   0.79200    0.041
 4353.00    0.92900   0.80351    0.105
 4354.00    0.81199   0.81644   -1.000
 4355.00    0.77925   0.83013   -1.000
 4356.00    0.78882   0.84341   -1.000
 4357.00    0.86598   0.85534   -1.000
 4358.00    0.96573   0.86620   -1.000
 4359.00    1.09715   0.87683   -1.000
 4360.00    1.07320   0.88718    0.148
 4361.00    0.85757   0.89601    0.046
 4362.00    0.76589   0.90169    0.033
 4363.00    0.80901   0.90310    0.033
 4364.00    0.79457   0.90030    0.033
 4365.00    0.72491   0.89436    0.034
 4366.00    0.64855   0.88692    0.034
 4367.00    0.56652   0.87922    0.033
 4368.00    0.56813   0.87134    0.033
 4369.00    0.63206   0.86307    0.033
 4370.00    0.69988   0.85526    0.033
 4371.00    0.77025   0.84957    0.033
 4372.00    0.88922   0.84705    0.034
 4373.00    1.03603   0.84760    0.034
 4374.00    0.94543   0.85014    0.034
 4375.00    0.73640   0.85305    0.032
 4376.00    0.64266   0.85452    0.032
 4377.00    0.59868   0.85208    0.033
 4378.00    0.69267   0.84277    0.033
 4379.00    0.83771   0.82604    0.033
 4380.00    0.86151   0.80550    0.033
 4381.00    0.84730   0.78663    0.032
 4382.00    0.77904   0.77343    0.032
 4383.00    0.69665   0.76764    0.032
 4384.00    0.76525   0.76926    0.033
 4385.00    0.86610   0.77706    0.034
 4386.00    0.76680   0.78927    0.033
 4387.00    0.63366   0.80360    0.033
 4388.00    0.65936   0.81689    0.032
 4389.00    0.70536   0.82655    0.032
 4390.00    0.92830   0.83272    0.033
 4391.00    1.16703   0.83788    0.033
 4392.00    1.10511   0.84387    0.033
 4393.00    1.02718   0.85024    0.032
 4394.00    1.03082   0.85529    0.032
 4395.00    1.03335   0.85755    0.032
 4396.00    0.81552   0.85697    0.032
 4397.00    0.61319   0.85509    0.032
 4398.00    0.75162   0.85213    0.032
 4399.00    0.88683   0.84616    0.032
 4400.00    0.98231   0.83712    0.032
 4401.00    1.04598   0.82844    0.033
 4402.00    0.84204   0.82275    0.033
 4403.00    0.70615   0.82015    0.032
 4404.00    0.99680   0.82068    0.032
 4405.00    1.22397   0.82480    0.033
 4406.00    1.13888   0.83257    0.033
 4407.00    1.00477   0.84346    0.033
 4408.00    0.67501   0.85526    0.032
 4409.00    0.43155   0.86390    0.031
 4410.00    0.47427   0.86689    0.031
 4411.00    0.56092   0.86552    0.031
 4412.00    0.77066   0.86211    0.031
 4413.00    0.93751   0.85811    0.032
 4414.00    1.00156   0.85562    0.032
 4415.00    1.07874   0.85641    0.032
 4416.00    1.18308   0.85993    0.033
 4417.00    1.13940   0.86479    0.032
 4418.00    0.82924   0.87001    0.031
 4419.00    0.66120   0.87456    0.031
 4420.00    0.71689   0.87762    0.031
 4421.00    0.81194   0.87874    0.031
 4422.00    0.96136   0.87807    0.031
 4423.00    1.00093   0.87662    0.031
 4424.00    0.90689   0.87553    0.031
 4425.00    0.90490   0.87456    0.031
 4426.00    1.00163   0.87276    0.031
 4427.00    1.04100   0.87014    0.031
 4428.00    1.02611   0.86669    0.031
 4429.00    0.90892   0.86185    0.030
 4430.00    0.70644   0.85604    0.031
 4431.00    0.69910   0.85092    0.031
 4432.00    0.83504   0.84887    0.031
 4433.00    0.87377   0.85140    0.031
 4434.00    0.84982   0.85740    0.031
 4435.00    0.89701   0.86431    0.032
 4436.00    0.98433   0.86987    0.032
 4437.00    0.96468   0.87265    0.032
 4438.00    0.89251   0.87214    0.033
 4439.00    0.86092   0.86905    0.032
 4440.00    0.84655   0.86549    0.032
 4441.00    0.81688   0.86375    0.031
 4442.00    0.78165   0.86435    0.031
 4443.00    0.79250   0.86735    0.031
 4444.00    0.81753   0.87307    0.031
 4445.00    0.86462   0.87981    0.031
 4446.00    0.91737   0.88489    0.031
 4447.00    0.88090   0.88695    0.031
 4448.00    0.82582   0.88489    0.031
 4449.00    0.86501   0.87799    0.031
 4450.00    0.91968   0.86700    0.031
 4451.00    0.95522   0.85367    0.031
 4452.00    0.98839   0.84039    0.030
 4453.00    0.96121   0.82870    0.030
 4454.00    0.92889   0.81845    0.029
 4455.00    0.79108   0.80988    0.029
 4456.00    0.64807   0.80381    0.028
 4457.00    0.62381   0.80061    0.029
 4458.00    0.60332   0.80109    0.029
 4459.00    0.70048   0.80529    0.029
 4460.00    0.78548   0.81113    0.029
 4461.00    0.62425   0.81735    0.000
 4462.00    0.49247   0.82386    0.000
 4463.00    0.70673   0.82977    0.000
 4464.00    0.89777   0.83442    0.000
 4465.00    0.90052   0.83799    0.000
 4466.00    0.89558   0.84119    0.000
 4467.00    0.84382   0.84539    0.000
 4468.00    0.78631   0.85199    0.000
 4469.00    0.70116   0.86128    0.000
 4470.00    0.68438   0.87217    0.000
 4471.00    0.93458   0.88318    0.000
 4472.00    1.14226   0.89358    0.000
 4473.00    1.21165   0.90210    0.000
 4474.00    1.24139   0.90611    0.000
 4475.00    1.16206   0.90359    0.000
 4476.00    1.11671   0.89474    0.000
 4477.00    1.15147   0.88231    0.000
 4478.00    1.10971   0.87091    0.000
 4479.00    0.91209   0.86397    0.000
 4480.00    0.75788   0.86174    0.000
 4481.00    0.68065   0.86358    0.000
 4482.00    0.64714   0.86890    0.029
 4483.00    0.68145   0.87554    0.029
 4484.00    0.69626   0.88055    0.029
 4485.00    0.68452   0.88205    0.029
 4486.00    0.73428   0.88012    0.029
 4487.00    0.85776   0.87636    0.029
 4488.00    0.92096   0.87237    0.029
 4489.00    0.92044   0.86826    0.029
 4490.00    0.89261   0.86419    0.029
 4491.00    0.83931   0.86212    0.029
 4492.00    0.80637   0.86327    0.028
 4493.00    0.79019   0.86708    0.028
 4494.00    0.86898   0.87260    0.029
 4495.00    1.01649   0.87875    0.030
 4496.00    0.99519   0.88489    0.029
 4497.00    0.86667   0.89153    0.029
 4498.00    0.78823   0.90012    0.028
 4499.00    0.73761   0.91080    0.028
 4500.00    0.84612   0.92137    0.028
 4501.00    1.03150   0.93004    0.028
 4502.00    1.06326   0.93637    0.028
 4503.00    1.03093   0.94042    0.028
 4504.00    0.96665   0.94279    0.029
 4505.00    0.89097   0.94368    0.029
 4506.00    0.84359   0.94252    0.029
 4507.00    0.80474   0.93912    0.029
 4508.00    0.84320   0.93390    0.029
 4509.00    0.90103   0.92756    0.029
 4510.00    0.89916   0.92066    0.028
 4511.00    0.88516   0.91389    0.028
 4512.00    0.72713   0.90783    0.028
 4513.00    0.54613   0.90205    0.027
 4514.00    0.58686   0.89687    0.028
 4515.00    0.65394   0.89361    0.028
 4516.00    0.70051   0.89217    0.028
 4517.00    0.74542   0.89136    0.028
 4518.00    0.79064   0.88909    0.028
 4519.00    0.83588   0.88432    0.028
 4520.00    0.95217   0.87784    0.029
 4521.00    1.06537   0.86933    0.029
 4522.00    0.97630   0.85826    0.028
 4523.00    0.88256   0.84546    0.028
 4524.00    0.70092   0.83209    0.028
 4525.00    0.53751   0.82030    0.028
 4526.00    0.57836   0.81183    0.028
 4527.00    0.63872   0.80651    0.028
 4528.00    0.85177   0.80441    0.028
 4529.00    1.02354   0.80462    0.029
 4530.00    0.95119   0.80627    0.029
 4531.00    0.86064   0.81046    0.029
 4532.00    0.68484   0.81850    0.028
 4533.00    0.58549   0.82991    0.028
 4534.00    0.77836   0.84201    0.028
 4535.00    0.92898   0.85215    0.028
 4536.00    0.94491   0.86011    0.028
 4537.00    0.92539   0.86674    0.028
 4538.00    0.81007   0.87227    0.028
 4539.00    0.73370   0.87552    0.028
 4540.00    0.74760   0.87457    0.027
 4541.00    0.76665   0.87047    0.027
 4542.00    0.79600   0.86595    0.028
 4543.00    0.77958   0.86176    0.028
 4544.00    0.68323   0.85669    0.028
 4545.00    0.64438   0.84946    0.028
 4546.00    0.69336   0.84178    0.028
 4547.00    0.73835   0.83662    0.028
 4548.00    0.77796   0.83364    0.028
 4549.00    0.87094   0.83105    0.028
 4550.00    1.02701   0.82868    0.000
 4551.00    1.13898   0.82801    0.000
 4552.00    1.20499   0.83134    0.000
 4553.00    1.08827   0.83846    0.000
 4554.00    0.80353   0.84664    0.000
 4555.00    0.65380   0.85500    0.000
 4556.00    0.61348   0.86371    0.000
 4557.00    0.66741   0.87225    0.000
 4558.00    0.78857   0.87919    0.000
 4559.00    0.85067   0.88219    0.000
 4560.00    0.87582   0.88070    0.000
 4561.00    0.84940   0.87739    0.000
 4562.00    0.79478   0.87516    0.000
 4563.00    0.84803   0.87515    0.000
 4564.00    0.95257   0.87666    0.000
 4565.00    0.96256   0.87856    0.000
 4566.00    0.93377   0.88070    0.000
 4567.00    0.97449   0.88226    0.000
 4568.00    1.03957   0.88317    0.000
 4569.00    0.95168   0.88458    0.000
 4570.00    0.81859   0.88561    0.000
 4571.00    0.74621   0.88512    0.000
 4572.00    0.68871   0.88366    0.000
 4573.00    0.72546   0.88178    0.000
 4574.00    0.78089   0.87950    0.000
 4575.00    0.79695   0.87522    0.000
 4576.00    0.80692   0.86740    0.000
 4577.00    0.79339   0.85785    0.000
 4578.00    0.77718   0.84913    0.000
 4579.00    0.74026   0.84163    0.000
 4580.00    0.70175   0.83554    0.000
 4581.00    0.74078   0.83206    0.000
 4582.00    0.78304   0.83204    0.000
 4583.00    0.83996   0.83530    0.000
 4584.00    0.89191   0.84063    0.000
 4585.00    0.72490   0.84642    0.000
 4586.00    0.56967   0.85142    0.000
 4587.00    0.62049   0.85446    0.000
 4588.00    0.67180   0.85500    0.000
 4589.00    0.72846   0.85406    0.000
 4590.00    0.78486   0.85231    0.000
 4591.00    0.83937   0.84958    0.000
 4592.00    0.89367   0.84644    0.000
 4593.00    0.94683   0.84417    0.000
 4594.00    0.98729   0.84355    0.000
 4595.00    0.96976   0.84432    0.000
 4596.00    0.94702   0.84504    0.000
 4597.00    0.90482   0.84536    0.000
 4598.00    0.85093   0.84656    0.000
 4599.00    0.76050   0.84874    0.000
 4600.00    0.72459   0.85119    0.000
 4601.00    0.83341   0.85385    0.000
 4602.00    0.89602   0.85737    0.000
 4603.00    0.85335   0.86314    0.000
 4604.00    0.81167   0.87093    0.000
 4605.00    0.77195   0.87898    0.000
 4606.00    0.76573   0.88568    0.000
 4607.00    0.81714   0.89017    0.000
 4608.00    0.88351   0.89283    0.000
 4609.00    0.97240   0.89381    0.000
 4610.00    1.02141   0.89314    0.000
 4611.00    1.01766   0.89132    0.000
 4612.00    0.99118   0.88860    0.000
 4613.00    0.93822   0.88591    0.000
 4614.00    0.89477   0.88412    0.000
 4615.00    0.86109   0.88260    0.000
 4616.00    0.84709   0.88166    0.000
 4617.00    0.85092   0.88208    0.000
 4618.00    0.97466   0.88322    0.000
 4619.00    1.19420   0.88453    0.000
 4620.00    1.16431   0.88560    0.000
 4621.00    0.95909   0.88604    0.000
 4622.00    0.79874   0.88614    0.000
 4623.00    0.66606   0.88587    0.000
 4624.00    0.67947   0.88457    0.000
 4625.00    0.77157   0.88203    0.000
 4626.00    0.75262   0.87912    0.000
 4627.00    0.68173   0.87722    0.000
 4628.00    0.68684   0.87601    0.000
 4629.00    0.72260   0.87353    0.000
 4630.00    0.73809   0.86935    0.000
 4631.00    0.74662   0.86505    0.000
 4632.00    0.72988   0.86162    0.000
 4633.00    0.70583   0.85792    0.000
 4634.00    0.72939   0.85315    0.000
 4635.00    0.76434   0.84877    0.000
 4636.00    0.67587   0.84609    0.000
 4637.00    0.56356   0.84487    0.000
 4638.00    0.58820   0.84427    0.000
 4639.00    0.63339   0.84290    0.000
 4640.00    0.75100   0.84012    0.000
 4641.00    0.87658   0.83606    0.000
 4642.00    0.90776   0.83051    0.000
 4643.00    0.93206   0.82410    0.000
 4644.00    0.85482   0.81842    0.000
 4645.00    0.77373   0.81518    0.000
 4646.00    0.69346   0.81531    0.000
 4647.00    0.61688   0.81818    0.000
 4648.00    0.67660   0.82270    0.000
 4649.00    0.74294   0.82840    0.000
 4650.00    0.91737   0.83394    0.000
 4651.00    1.07053   0.83782    0.000
 4652.00    1.00592   0.84038    0.000
 4653.00    0.93179   0.84281    0.000
 4654.00    0.78806   0.84639    0.000
 4655.00    0.67524   0.85139    0.000
 4656.00    0.73523   0.85635    0.000
 4657.00    0.78412   0.85966    0.000
 4658.00    0.78350   0.85993    0.000
 4659.00    0.74783   0.85647    0.000
 4660.00    0.58373   0.84951    0.000
 4661.00    0.49095   0.83931    0.000
 4662.00    0.61697   0.82585    0.000
 4663.00    0.75849   0.81021    0.000
 4664.00    0.94046   0.79620    0.000
 4665.00    1.02235   0.78786    0.000
 4666.00    0.87994   0.78583    0.000
 4667.00    0.78013   0.78832    0.000
 4668.00    0.76306   0.79392    0.000
 4669.00    0.78399   0.80210    0.000
 4670.00    0.86930   0.81201    0.000
 4671.00    0.91455   0.82194    0.000
 4672.00    0.90037   0.83024    0.000
 4673.00    0.82901   0.83580    0.000
 4674.00    0.68306   0.83764    0.000
 4675.00    0.63303   0.83643    0.000
 4676.00    0.69323   0.83413    0.000
 4677.00    0.70128   0.83169    0.000
 4678.00    0.65650   0.82932    0.000
 4679.00    0.70076   0.82770    0.000
 4680.00    0.82459   0.82770    0.000
 4681.00    0.88228   0.82910    0.000
 4682.00    0.88788   0.83101    0.000
 4683.00    0.79679   0.83284    0.000
 4684.00    0.63871   0.83412    0.000
 4685.00    0.63446   0.83460    0.000
 4686.00    0.72364   0.83426    0.000
 4687.00    0.79757   0.83321    0.000
 4688.00    0.86341   0.83210    0.000
 4689.00    0.85930   0.83170    0.000
 4690.00    0.82301   0.83215    0.000
 4691.00    0.72597   0.83302    0.000
 4692.00    0.60486   0.83376    0.000
 4693.00    0.65901   0.83338    0.000
 4694.00    0.77235   0.83064    0.000
 4695.00    0.84379   0.82537    0.000
 4696.00    0.90335   0.81929    0.000
 4697.00    0.97090   0.81348    0.000
 4698.00    1.04033   0.80715    0.000
 4699.00    0.90210   0.80035    0.000
 4700.00    0.72481   0.79521    0.000
 4701.00    0.76343   0.79355    0.000
 4702.00    0.83345   0.79399    0.000
 4703.00    0.84357   0.79418    0.000
 4704.00    0.84736   0.79406    0.000
 4705.00    0.86688   0.79498    0.000
 4706.00    0.88748   0.79736    0.000
 4707.00    0.82101   0.80073    0.000
 4708.00    0.75157   0.80447    0.000
 4709.00    0.77935   0.80781    0.000
 4710.00    0.80520   0.81078    0.000
 4711.00    0.76354   0.81421    0.000
 4712.00    0.72291   0.81944    0.000
 4713.00    0.69801   0.82628    0.000
 4714.00    0.67747   0.83290    0.000
 4715.00    0.69965   0.83917    0.000
 4716.00    0.72428   0.84618    0.000
 4717.00    0.76618   0.85340    0.000
 4718.00    0.80013   0.85874    0.000
 4719.00    0.79085   0.86099    0.000
 4720.00    0.77154   0.86107    0.000
 4721.00    0.70852   0.85976    0.000
 4722.00    0.70279   0.85584    0.000
 4723.00    0.90261   0.84820    0.000
 4724.00    1.05676   0.83773    0.000
 4725.00    1.07346   0.82718    0.000
 4726.00    1.06231   0.81835    0.000
 4727.00    0.97980   0.81097    0.000
 4728.00    0.88380   0.80533    0.000
 4729.00    0.75803   0.80303    0.000
 4730.00    0.71800   0.80456    0.000
 4731.00    0.84186   0.80843    0.000
 4732.00    0.88110   0.81279    0.000
 4733.00    0.77917   0.81631    0.000
 4734.00    0.69202   0.82003    0.000
 4735.00    0.62645   0.82490    0.000
 4736.00    0.66291   0.82894    0.000
 4737.00    0.83052   0.83088    0.000
 4738.00    0.84747   0.83247    0.000
 4739.00    0.69376   0.83552    0.000
 4740.00    0.71835   0.83894    0.000
 4741.00    0.92106   0.84079    0.000
 4742.00    0.94545   0.84189    0.000
 4743.00    0.81271   0.84401    0.000
 4744.00    0.77204   0.84615    0.000
 4745.00    0.80286   0.84670    0.000
 4746.00    0.74977   0.84620    0.000
 4747.00    0.63942   0.84529    0.000
 4748.00    0.70731   0.84314    0.000
 4749.00    0.88183   0.83917    0.000
 4750.00    0.90927   0.83450    0.000
 4751.00    0.85994   0.83012    0.000
 4752.00    0.78162   0.82623    0.000
 4753.00    0.69019   0.82286    0.000
 4754.00    0.75446   0.82047    0.000
 4755.00    0.87937   0.81913    0.000
 4756.00    0.94787   0.81806    0.000
 4757.00    0.99769   0.81610    0.000
 4758.00    0.89482   0.81194    0.000
 4759.00    0.74951   0.80606    0.000
 4760.00    0.70069   0.80015    0.000
 4761.00    0.67395   0.79464    0.026
 4762.00    0.77282   0.78950    0.026
 4763.00    0.89471   0.78615    0.026
 4764.00    0.84465   0.78639    0.026
 4765.00    0.77038   0.79010    0.026
 4766.00    0.82521   0.79595    0.026
 4767.00    0.89312   0.80241    0.026
 4768.00    0.89368   0.80833    0.026
 4769.00    0.88987   0.81438    0.026
 4770.00    0.90412   0.82123    0.026
 4771.00    0.91867   0.82784    0.026
 4772.00    0.81136   0.83245    0.026
 4773.00    0.71277   0.83543    0.025
 4774.00    0.86671   0.83858    0.026
 4775.00    1.00821   0.84082    0.026
 4776.00    0.96989   0.84023    0.026
 4777.00    0.93542   0.83766    0.025
 4778.00    0.93727   0.83438    0.025
 4779.00    0.93595   0.82978    0.025
 4780.00    0.91302   0.82371    0.025
 4781.00    0.88267   0.81834    0.025
 4782.00    0.81308   0.81409    0.025
 4783.00    0.75562   0.80947    0.025
 4784.00    0.74977   0.80602    0.024
 4785.00    0.73183   0.80522    0.024
 4786.00    0.67140   0.80600    0.024
 4787.00    0.66801   0.80817    0.024
 4788.00    0.83317   0.81229    0.025
 4789.00    0.95232   0.81811    0.025
 4790.00    0.95563   0.82482    0.025
 4791.00    0.91384   0.83134    0.025
 4792.00    0.77425   0.83630    0.025
 4793.00    0.71292   0.83876    0.025
 4794.00    0.79890   0.83898    0.024
 4795.00    0.83783   0.83727    0.024
 4796.00    0.79945   0.83395    0.024
 4797.00    0.77422   0.83020    0.024
 4798.00    0.76795   0.82756    0.024
 4799.00    0.77385   0.82605    0.024
 4800.00    0.79517   0.82435    0.024
 4801.00    0.85467   0.82184    0.024
 4802.00    0.95681   0.81930    0.025
 4803.00    0.97077   0.81761    0.025
 4804.00    0.89789   0.81552    0.024
 4805.00    0.87123   0.81282    0.024
 4806.00    0.88473   0.81128    0.025
 4807.00    0.84112   0.81155    0.025
 4808.00    0.75382   0.81278    0.024
 4809.00    0.77523   0.81460    0.024
 4810.00    0.86977   0.81736    0.024
 4811.00    0.83672   0.82103    0.024
 4812.00    0.72849   0.82489    0.024
 4813.00    0.76164   0.82857    0.024
 4814.00    0.86745   0.83179    0.024
 4815.00    0.87759   0.83388    0.024
 4816.00    0.84513   0.83437    0.024
 4817.00    0.76447   0.83288    0.024
 4818.00    0.66538   0.82956    0.024
 4819.00    0.75788   0.82418    0.024
 4820.00    0.91267   0.81649    0.024
 4821.00    0.98962   0.80924    0.024
 4822.00    1.04538   0.80494    0.025
 4823.00    0.98972   0.80220    0.024
 4824.00    0.90916   0.79915    0.024
 4825.00    0.80667   0.79644    0.024
 4826.00    0.70027   0.79570    0.024
 4827.00    0.76203   0.79618    0.024
 4828.00    0.84672   0.79519    0.024
 4829.00    0.80733   0.79287    0.024
 4830.00    0.75589   0.79179    0.024
 4831.00    0.75261   0.79188    0.024
 4832.00    0.75224   0.79093    0.024
 4833.00    0.89188   0.78872    0.024
 4834.00    1.03378   0.78699    0.023
 4835.00    0.91506   0.78494    0.023
 4836.00    0.79962   0.78102    0.023
 4837.00    0.77002   0.77666    0.023
 4838.00    0.74700   0.77385    0.023
 4839.00    0.81393   0.77158    0.024
 4840.00    0.86956   0.76838    0.024
 4841.00    0.82301   0.76584    0.024
 4842.00    0.77836   0.76502    0.024
 4843.00    0.74635   0.76393    0.023
 4844.00    0.72583   0.76046    0.023
 4845.00    0.76463   0.75513    0.023
 4846.00    0.79361   0.74998    0.023
 4847.00    0.78176   0.74479    0.024
 4848.00    0.78373   0.73706    0.000
 4849.00    0.83333   0.72674    0.000
 4850.00    0.85401   0.71545    0.000
 4851.00    0.79081   0.70194    0.000
 4852.00    0.74988   0.68463    0.000
 4853.00    0.76404   0.66529    0.000
 4854.00    0.80361   0.64575    0.000
 4855.00    0.89737   0.62529    0.000
 4856.00    1.01527   0.60371    0.000
 4857.00    1.17788   0.58296    0.000
 4858.00    1.31823   0.56684    0.000
 4859.00    1.42254   0.55939    0.000
 4860.00    1.46228   0.56043    0.000
 4861.00    1.41033   0.56691    0.000
 4862.00    1.30128   0.57877    0.000
 4863.00    1.12088   0.59598    0.000
 4864.00    0.94410   0.61492    0.000
 4865.00    0.77128   0.63190    0.000
 4866.00    0.72054   0.64615    0.000
 4867.00    0.78836   0.65674    0.000
 4868.00    0.80974   0.66314    0.000
 4869.00    0.79135   0.66878    0.000
 4870.00    0.76933   0.67646    0.000
 4871.00    0.74459   0.68474    0.000
 4872.00    0.76796   0.69269    0.000
 4873.00    0.82320   0.70202    0.000
 4874.00    0.85700   0.71297    0.000
 4875.00    0.87835   0.72365    0.024
 4876.00    0.86440   0.73329    0.024
 4877.00    0.83259   0.74050    0.024
 4878.00    0.79918   0.74374    0.024
 4879.00    0.76507   0.74448    0.024
 4880.00    0.75567   0.74440    0.024
 4881.00    0.75555   0.74218    0.025
 4882.00    0.76940   0.73706    0.024
 4883.00    0.78771   0.73138    0.024
 4884.00    0.76174   0.72743    0.024
 4885.00    0.72398   0.72544    0.024
 4886.00    0.74502   0.72475    0.024
 4887.00    0.77888   0.72512    0.024
 4888.00    0.83858   0.72794    0.024
 4889.00    0.90275   0.73580    0.024
 4890.00    0.81809   0.74774    0.024
 4891.00    0.71382   0.76026    0.024
 4892.00    0.74912   0.77196    0.025
 4893.00    0.79738   0.78300    0.025
 4894.00    0.77048   0.79268    0.025
 4895.00    0.73932   0.79878    0.025
 4896.00    0.76681   0.79991    0.025
 4897.00    0.79510   0.79787    0.025
 4898.00    0.76396   0.79599    0.025
 4899.00    0.73282   0.79422    0.025
 4900.00    0.70183   0.79104    0.025
 4901.00    0.67439   0.78814    0.024
 4902.00    0.69295   0.78763    0.024
 4903.00    0.70702   0.78766    0.024
 4904.00    0.68206   0.78556    0.024
 4905.00    0.66498   0.78202    0.024
 4906.00    0.69868   0.77831    0.024
 4907.00    0.73681   0.77434    0.024
 4908.00    0.79728   0.77095    0.025
 4909.00    0.83285   0.76931    0.025
 4910.00    0.76706   0.76860    0.025
 4911.00    0.71995   0.76756    0.024
 4912.00    0.73584   0.76609    0.024
 4913.00    0.75983   0.76329    0.024
 4914.00    0.80684   0.75727    0.024
 4915.00    0.81479   0.74775    0.024
 4916.00    0.72772   0.73630    0.024
 4917.00    0.67021   0.72539    0.024
 4918.00    0.67478   0.71779    0.024
 4919.00    0.70338   0.71507    0.024
 4920.00    0.77583   0.71591    0.024
 4921.00    0.81963   0.71983    0.023
 4922.00    0.81773   0.72873    0.023
 4923.00    0.80498   0.74186    0.023
 4924.00    0.77706   0.75487    0.023
 4925.00    0.73196   0.76556    0.023
 4926.00    0.66569   0.77449    0.023
 4927.00    0.60874   0.78110    0.023
 4928.00    0.56191   0.78434    0.023
 4929.00    0.59213   0.78353    0.023
 4930.00    0.69614   0.77821    0.023
 4931.00    0.74277   0.77043    0.023
 4932.00    0.74098   0.76375    0.023
 4933.00    0.72479   0.75827    0.023
 4934.00    0.69791   0.75217    0.023
 4935.00    0.75535   0.74691    0.023
 4936.00    0.86788   0.74605    0.023
 4937.00    0.86294   0.75015    0.023
 4938.00    0.79086   0.75633    0.023
 4939.00    0.77189   0.76258    0.023
 4940.00    0.77937   0.77012    0.000
 4941.00    0.79471   0.77908    0.000
 4942.00    0.81344   0.78644    0.000
 4943.00    0.76797   0.79101    0.000
 4944.00    0.69879   0.79486    0.000
 4945.00    0.76032   0.79819    0.000
 4946.00    0.86275   0.79932    0.000
 4947.00    0.85392   0.79888    0.000
 4948.00    0.81607   0.79824    0.000
 4949.00    0.78006   0.79576    0.000
 4950.00    0.74445   0.78964    0.000
 4951.00    0.71758   0.78199    0.000
 4952.00    0.69218   0.77529    0.000
 4953.00    0.69911   0.76791    0.000
 4954.00    0.71016   0.75855    0.000
 4955.00    0.77713   0.75213    0.000
 4956.00    0.84907   0.75279    0.000
 4957.00    0.85036   0.75651    0.000
 4958.00    0.84793   0.75878    0.000
 4959.00    0.80336   0.76163    0.000
 4960.00    0.75901   0.76684    0.000
 4961.00    0.79467   0.77045    0.000
 4962.00    0.82891   0.76946    0.000
 4963.00    0.83242   0.76637    0.000
 4964.00    0.82559   0.76419    0.000
 4965.00    0.69194   0.76262    0.000
 4966.00    0.57363   0.76121    0.000
 4967.00    0.58374   0.76125    0.000
 4968.00    0.59674   0.76350    0.000
 4969.00    0.62774   0.76709    0.000
 4970.00    0.66064   0.77055    0.000
 4971.00    0.70281   0.77301    0.000
 4972.00    0.73498   0.77387    0.000
 4973.00    0.72732   0.77260    0.000
 4974.00    0.71863   0.76851    0.000
 4975.00    0.70653   0.76098    0.000
 4976.00    0.69956   0.75086    0.000
 4977.00    0.70694   0.74012    0.000
 4978.00    0.71939   0.72913    0.000
 4979.00    0.74401   0.71775    0.000
 4980.00    0.75817   0.70865    0.000
 4981.00    0.75073   0.70451    0.000
 4982.00    0.77132   0.70441    0.000
 4983.00    0.84228   0.70690    0.000
 4984.00    0.85939   0.71252    0.000
 4985.00    0.79190   0.72045    0.000
 4986.00    0.77668   0.72798    0.000
 4987.00    0.83355   0.73372    0.000
 4988.00    0.82450   0.73828    0.000
 4989.00    0.73540   0.74210    0.000
 4990.00    0.67274   0.74425    0.000
 4991.00    0.63837   0.74457    0.000
 4992.00    0.66216   0.74450    0.000
 4993.00    0.74087   0.74417    0.000
 4994.00    0.76742   0.74212    0.000
 4995.00    0.75056   0.73811    0.000
 4996.00    0.77353   0.73285    0.000
 4997.00    0.82570   0.72646    0.000
 4998.00    0.84255   0.71919    0.000
 4999.00    0.83668   0.71174    0.000
 5000.00    0.81668   0.70526    0.000
 5001.00    0.78874   0.70051    0.000
 5002.00    0.84480   0.69678    0.000
 5003.00    0.94202   0.69380    0.000
 5004.00    1.00811   0.69326    0.000
 5005.00    1.06102   0.69515    0.000
 5006.00    1.02145   0.69643    0.000
 5007.00    0.94834   0.69573    0.000
 5008.00    0.85083   0.69450    0.000
 5009.00    0.74582   0.69271    0.000
 5010.00    0.76250   0.68888    0.000
 5011.00    0.81025   0.68347    0.000
 5012.00    0.72705   0.67908    0.000
 5013.00    0.61664   0.67687    0.000
 5014.00    0.59468   0.67527    0.000
 5015.00    0.58719   0.67382    0.000
 5016.00    0.61902   0.67501    0.000
 5017.00    0.65566   0.67938    0.000
 5018.00    0.66982   0.68385    0.000
 5019.00    0.68208   0.68737    0.000
 5020.00    0.66330   0.69206    0.000
 5021.00    0.64300   0.69815    0.000
 5022.00    0.65396   0.70367    0.000
 5023.00    0.66604   0.70794    0.000
 5024.00    0.71778   0.71144    0.000
 5025.00    0.76516   0.71523    0.000
 5026.00    0.72513   0.72020    0.000
 5027.00    0.68557   0.72510    0.000
 5028.00    0.65148   0.72816    0.000
 5029.00    0.63251   0.73033    0.022
 5030.00    0.73557   0.73259    0.022
 5031.00    0.81668   0.73264    0.022
 5032.00    0.76470   0.72812    0.022
 5033.00    0.72932   0.72048    0.022
 5034.00    0.77333   0.71250    0.022
 5035.00    0.80741   0.70432    0.022
 5036.00    0.80284   0.69554    0.022
 5037.00    0.79019   0.68788    0.022
 5038.00    0.75134   0.68362    0.022
 5039.00    0.73395   0.68447    0.022
 5040.00    0.77548   0.68996    0.022
 5041.00    0.77296   0.69692    0.022
 5042.00    0.66683   0.70392    0.022
 5043.00    0.62833   0.71188    0.022
 5044.00    0.72732   0.71854    0.022
 5045.00    0.79494   0.72047    0.022
 5046.00    0.80706   0.71928    0.022
 5047.00    0.81088   0.71833    0.022
 5048.00    0.80186   0.71746    0.022
 5049.00    0.76438   0.71626    0.021
 5050.00    0.68821   0.71715    0.021
 5051.00    0.63662   0.72139    0.021
 5052.00    0.61445   0.72699    0.021
 5053.00    0.62944   0.73240    0.021
 5054.00    0.68363   0.73817    0.021
 5055.00    0.70306   0.74422    0.021
 5056.00    0.69014   0.74880    0.021
 5057.00    0.67163   0.75081    0.021
 5058.00    0.64852   0.75072    0.021
 5059.00    0.66032   0.74918    0.021
 5060.00    0.69732   0.74577    0.021
 5061.00    0.68483   0.73947    0.022
 5062.00    0.64096   0.73165    0.022
 5063.00    0.64467   0.72552    0.022
 5064.00    0.67477   0.72102    0.022
 5065.00    0.66815   0.71572    0.022
 5066.00    0.64382   0.71134    0.022
 5067.00    0.62245   0.71074    0.022
 5068.00    0.60230   0.71098    0.022
 5069.00    0.65827   0.70891    0.022
 5070.00    0.74133   0.70723    0.023
 5071.00    0.75413   0.70745    0.023
 5072.00    0.74578   0.70558    0.022
 5073.00    0.65701   0.70050    0.022
 5074.00    0.54815   0.69618    0.022
 5075.00    0.58233   0.69278    0.022
 5076.00    0.64550   0.68686    0.023
 5077.00    0.70147   0.68012    0.023
 5078.00    0.75630   0.67732    0.022
 5079.00    0.74114   0.67784    0.022
 5080.00    0.71770   0.67849    0.022
 5081.00    0.67602   0.68073    0.022
 5082.00    0.63287   0.68690    0.022
 5083.00    0.62364   0.69459    0.022
 5084.00    0.61594   0.70074    0.022
 5085.00    0.65930   0.70635    0.022
 5086.00    0.70191   0.71279    0.022
 5087.00    0.67708   0.71830    0.022
 5088.00    0.65948   0.72145    0.021
 5089.00    0.77616   0.72333    0.021
 5090.00    0.87243   0.72442    0.022
 5091.00    0.74129   0.72317    0.022
 5092.00    0.63072   0.71896    0.022
 5093.00    0.68038   0.71318    0.022
 5094.00    0.73148   0.70711    0.022
 5095.00    0.79108   0.70080    0.022
 5096.00    0.81957   0.69471    0.022
 5097.00    0.70286   0.69076    0.022
 5098.00    0.61132   0.68997    0.022
 5099.00    0.61569   0.69082    0.021
 5100.00    0.62086   0.69167    0.021
 5101.00    0.62857   0.69272    0.021
 5102.00    0.62200   0.69405    0.021
 5103.00    0.57689   0.69432    0.021
 5104.00    0.56358   0.69270    0.021
 5105.00    0.62377   0.69107    0.021
 5106.00    0.66416   0.69092    0.021
 5107.00    0.66494   0.69133    0.021
 5108.00    0.63149   0.69260    0.021
 5109.00    0.53840   0.69618    0.021
 5110.00    0.51942   0.70114    0.021
 5111.00    0.61349   0.70606    0.021
 5112.00    0.66989   0.71111    0.021
 5113.00    0.67582   0.71553    0.021
 5114.00    0.69341   0.71833    0.021
 5115.00    0.72477   0.71931    0.021
 5116.00    0.77822   0.71783    0.021
 5117.00    0.85465   0.71349    0.021
 5118.00    0.85210   0.70726    0.021
 5119.00    0.77706   0.69998    0.021
 5120.00    0.71151   0.69165    0.021
 5121.00    0.65363   0.68301    0.021
 5122.00    0.62592   0.67591    0.021
 5123.00    0.61968   0.67098    0.021
 5124.00    0.58980   0.66766    0.021
 5125.00    0.54515   0.66625    0.021
 5126.00    0.57804   0.66682    0.021
 5127.00    0.65325   0.66872    0.021
 5128.00    0.67946   0.67185    0.021
 5129.00    0.68241   0.67576    0.021
 5130.00    0.68607   0.67875    0.021
 5131.00    0.69002   0.68077    0.021
 5132.00    0.70240   0.68259    0.021
 5133.00    0.71774   0.68282    0.021
 5134.00    0.70095   0.68099    0.021
 5135.00    0.67468   0.67838    0.021
 5136.00    0.64834   0.67486    0.021
 5137.00    0.62197   0.67116    0.021
 5138.00    0.69319   0.66918    0.021
 5139.00    0.78369   0.66702    0.021
 5140.00    0.78111   0.66383    0.021
 5141.00    0.76417   0.66307    0.021
 5142.00    0.71397   0.66395    0.021
 5143.00    0.65997   0.66299    0.021
 5144.00    0.66776   0.66161    0.021
 5145.00    0.68026   0.66183    0.021
 5146.00    0.66461   0.66236    0.021
 5147.00    0.64781   0.66214    0.021
 5148.00    0.65525   0.66178    0.021
 5149.00    0.66275   0.66254    0.021
 5150.00    0.66481   0.66462    0.021
 5151.00    0.66894   0.66709    0.021
 5152.00    0.70914   0.67010    0.021
 5153.00    0.74657   0.67446    0.022
 5154.00    0.75470   0.67956    0.022
 5155.00    0.75487   0.68367    0.022
 5156.00    0.69513   0.68572    0.022
 5157.00    0.64815   0.68591    0.022
 5158.00    0.67421   0.68357    0.022
 5159.00    0.68843   0.67667    0.022
 5160.00    0.64875   0.66544    0.022
 5161.00    0.63828   0.65178    0.021
 5162.00    0.73679   0.63589    0.022
 5163.00    0.80391   0.61846    0.022
 5164.00    0.77308   0.60204    0.022
 5165.00    0.72346   0.58723    0.022
 5166.00    0.62403   0.57493    0.022
 5167.00    0.56031   0.56852    0.021
 5168.00    0.57780   0.56804    0.021
 5169.00    0.58187   0.57001    0.021
 5170.00    0.55951   0.57515    0.021
 5171.00    0.57236   0.58665    0.021
 5172.00    0.64563   0.60111    0.021
 5173.00    0.69340   0.61302    0.021
 5174.00    0.70285   0.62337    0.021
 5175.00    0.71980   0.63354    0.021
 5176.00    0.74664   0.63884    0.021
 5177.00    0.71324   0.63643    0.021
 5178.00    0.60975   0.63097    0.021
 5179.00    0.57442   0.62575    0.020
 5180.00    0.60900   0.61870    0.020
 5181.00    0.60107   0.61139    0.020
 5182.00    0.55468   0.60930    0.020
 5183.00    0.52923   0.61300    0.020
 5184.00    0.52047   0.61855    0.020
 5185.00    0.57609   0.62405    0.020
 5186.00    0.67689   0.63049    0.020
 5187.00    0.65942   0.63791    0.020
 5188.00    0.56917   0.64270    0.020
 5189.00    0.53843   0.64240    0.020
 5190.00    0.53967   0.64208    0.000
 5191.00    0.63747   0.64468    0.000
 5192.00    0.78035   0.64600    0.000
 5193.00    0.76763   0.64637    0.000
 5194.00    0.69232   0.64999    0.000
 5195.00    0.66761   0.65489    0.000
 5196.00    0.66025   0.65788    0.000
 5197.00    0.63856   0.66027    0.000
 5198.00    0.61272   0.66125    0.000
 5199.00    0.58893   0.65875    0.000
 5200.00    0.56563   0.65456    0.000
 5201.00    0.52771   0.64951    0.000
 5202.00    0.48697   0.64183    0.000
 5203.00    0.54073   0.63413    0.000
 5204.00    0.60861   0.63030    0.000
 5205.00    0.58478   0.62852    0.000
 5206.00    0.55091   0.62799    0.000
 5207.00    0.66040   0.63183    0.000
 5208.00    0.78025   0.63897    0.000
 5209.00    0.70339   0.64551    0.000
 5210.00    0.61919   0.65224    0.000
 5211.00    0.63775   0.65955    0.021
 5212.00    0.65715   0.66520    0.020
 5213.00    0.68958   0.66901    0.021
 5214.00    0.71835   0.67240    0.021
 5215.00    0.68778   0.67568    0.021
 5216.00    0.65383   0.67801    0.021
 5217.00    0.58541   0.67899    0.021
 5218.00    0.53695   0.67847    0.021
 5219.00    0.63373   0.67614    0.021
 5220.00    0.71035   0.67084    0.021
 5221.00    0.67470   0.66292    0.021
 5222.00    0.64565   0.65532    0.021
 5223.00    0.64594   0.64835    0.021
 5224.00    0.63876   0.64150    0.021
 5225.00    0.60425   0.63822    0.021
 5226.00    0.59307   0.63955    0.022
 5227.00    0.65325   0.64179    0.022
 5228.00    0.67749   0.64494    0.022
 5229.00    0.60821   0.65069    0.021
 5230.00    0.55471   0.65599    0.021
 5231.00    0.53650   0.65983    0.021
 5232.00    0.54744   0.66461    0.021
 5233.00    0.61487   0.66974    0.021
 5234.00    0.65900   0.67472    0.021
 5235.00    0.66376   0.68036    0.021
 5236.00    0.63647   0.68567    0.021
 5237.00    0.56171   0.68989    0.021
 5238.00    0.54487   0.69354    0.021
 5239.00    0.60343   0.69622    0.021
 5240.00    0.60712   0.69619    0.021
 5241.00    0.54788   0.69416    0.020
 5242.00    0.52950   0.69239    0.020
 5243.00    0.55245   0.68939    0.020
 5244.00    0.61529   0.68337    0.020
 5245.00    0.71373   0.67771    0.020
 5246.00    0.76896   0.67457    0.020
 5247.00    0.79024   0.67111    0.020
 5248.00    0.78381   0.66713    0.020
 5249.00    0.75822   0.66619    0.020
 5250.00    0.71167   0.66813    0.020
 5251.00    0.65241   0.67014    0.020
 5252.00    0.58298   0.67217    0.020
 5253.00    0.50818   0.67521    0.020
 5254.00    0.49508   0.67841    0.020
 5255.00    0.51032   0.67927    0.020
 5256.00    0.53299   0.67666    0.020
 5257.00    0.55860   0.67155    0.020
 5258.00    0.61437   0.66359    0.020
 5259.00    0.68030   0.65186    0.020
 5260.00    0.69506   0.63758    0.020
 5261.00    0.69535   0.62392    0.020
 5262.00    0.64800   0.61171    0.020
 5263.00    0.58954   0.59959    0.020
 5264.00    0.56776   0.59036    0.020
 5265.00    0.55285   0.58745    0.020
 5266.00    0.53449   0.58685    0.021
 5267.00    0.51563   0.58615    0.021
 5268.00    0.58090   0.59067    0.021
 5269.00    0.65501   0.59967    0.021
 5270.00    0.67209   0.60731    0.021
 5271.00    0.68528   0.61568    0.021
 5272.00    0.63932   0.62701    0.021
 5273.00    0.59138   0.63689    0.021
 5274.00    0.47071   0.64486    0.021
 5275.00    0.36078   0.65305    0.021
 5276.00    0.59788   0.65927    0.021
 5277.00    0.81358   0.66271    0.021
 5278.00    0.70355   0.66528    0.021
 5279.00    0.61130   0.66777    0.021
 5280.00    0.69245   0.67021    0.021
 5281.00    0.75794   0.67265    0.022
 5282.00    0.71318   0.67648    0.021
 5283.00    0.67847   0.68303    0.021
 5284.00    0.69823   0.69027    0.021
 5285.00    0.71949   0.69632    0.021
 5286.00    0.74727   0.70197    0.020
 5287.00    0.75581   0.70661    0.020
 5288.00    0.69551   0.70856    0.021
 5289.00    0.66850   0.70764    0.021
 5290.00    0.74144   0.70439    0.021
 5291.00    0.79773   0.69893    0.021
 5292.00    0.81147   0.69195    0.021
 5293.00    0.80146   0.68478    0.021
 5294.00    0.73919   0.67768    0.020
 5295.00    0.68760   0.67110    0.020
 5296.00    0.65636   0.66716    0.021
 5297.00    0.63635   0.66696    0.020
 5298.00    0.63502   0.66863    0.020
 5299.00    0.68532   0.67162    0.020
 5300.00    0.81097   0.67728    0.020
 5301.00    0.83751   0.68419    0.020
 5302.00    0.73683   0.69033    0.020
 5303.00    0.71340   0.69589    0.020
 5304.00    0.77732   0.70074    0.020
 5305.00    0.80767   0.70429    0.020
 5306.00    0.80455   0.70675    0.020
 5307.00    0.74974   0.70790    0.020
 5308.00    0.64947   0.70751    0.020
 5309.00    0.58662   0.70630    0.020
 5310.00    0.55277   0.70399    0.019
 5311.00    0.55191   0.70036    0.019
 5312.00    0.57353   0.69694    0.019
 5313.00    0.57675   0.69352    0.019
 5314.00    0.56898   0.68922    0.019
 5315.00    0.60415   0.68580    0.019
 5316.00    0.66171   0.68365    0.019
 5317.00    0.65981   0.68044    0.019
 5318.00    0.63106   0.67592    0.019
 5319.00    0.63157   0.67118    0.019
 5320.00    0.64345   0.66587    0.019
 5321.00    0.63594   0.65838    0.019
 5322.00    0.62201   0.64889    0.019
 5323.00    0.67315   0.64096    0.019
 5324.00    0.74233   0.63539    0.020
 5325.00    0.73855   0.62976    0.019
 5326.00    0.71814   0.62628    0.019
 5327.00    0.73389   0.62873    0.019
 5328.00    0.75625   0.63449    0.019
 5329.00    0.73701   0.64040    0.019
 5330.00    0.71193   0.64765    0.020
 5331.00    0.74115   0.65571    0.020
 5332.00    0.77584   0.66248    0.020
 5333.00    0.77469   0.66665    0.020
 5334.00    0.77124   0.66783    0.020
 5335.00    0.74759   0.66768    0.020
 5336.00    0.72318   0.66735    0.020
 5337.00    0.63392   0.66557    0.020
 5338.00    0.54780   0.66305    0.020
 5339.00    0.55157   0.66260    0.020
 5340.00    0.55986   0.66336    0.020
 5341.00    0.63307   0.66365    0.020
 5342.00    0.69758   0.66477    0.020
 5343.00    0.68061   0.66627    0.020
 5344.00    0.66729   0.66744    0.020
 5345.00    0.67892   0.66973    0.020
 5346.00    0.67959   0.67211    0.020
 5347.00    0.62244   0.67444    0.019
 5348.00    0.58245   0.67903    0.019
 5349.00    0.61534   0.68506    0.019
 5350.00    0.64759   0.69051    0.019
 5351.00    0.67766   0.69605    0.019
 5352.00    0.68464   0.70228    0.019
 5353.00    0.62358   0.70725    0.019
 5354.00    0.60775   0.70994    0.019
 5355.00    0.70553   0.71123    0.019
 5356.00    0.76094   0.71069    0.019
 5357.00    0.72466   0.70792    0.019
 5358.00    0.71372   0.70362    0.019
 5359.00    0.75036   0.69766    0.019
 5360.00    0.74518   0.69068    0.019
 5361.00    0.67142   0.68382    0.019
 5362.00    0.60078   0.67650    0.019
 5363.00    0.53463   0.66907    0.019
 5364.00    0.51867   0.66281    0.018
 5365.00    0.56621   0.65692    0.019
 5366.00    0.62296   0.65212    0.019
 5367.00    0.68999   0.64966    0.019
 5368.00    0.70590   0.64849   -2.000
 5369.00    0.67155   0.64942   -2.000
 5370.00    0.65627   0.65377   -2.000
 5371.00    0.65753   0.65944   -2.000
 5372.00    0.68078   0.66504   -2.000
 5373.00    0.72084   0.67151   -2.000
 5374.00    0.74182   0.67703   -2.000
 5375.00    0.75001   0.68010   -2.000
 5376.00    0.72767   0.68231   -2.000
 5377.00    0.68739   0.68304   -2.000
 5378.00    0.64370   0.68179   -2.000
 5379.00    0.59827   0.68088   -2.000
 5380.00    0.61319   0.68008   -2.000
 5381.00    0.65491   0.67818   -2.000
 5382.00    0.67636   0.67702   -2.000
 5383.00    0.69007   0.67637    0.019
 5384.00    0.70846   0.67412    0.019
 5385.00    0.72836   0.67146    0.019
 5386.00    0.69432   0.66890    0.019
 5387.00    0.64561   0.66481    0.019
 5388.00    0.65328   0.65987    0.019
 5389.00    0.67350   0.65560    0.019
 5390.00    0.69636   0.65129    0.019
 5391.00    0.71970   0.64631    0.019
 5392.00    0.65395   0.64232    0.019
 5393.00    0.57613   0.64021    0.019
 5394.00    0.61456   0.63759    0.019
 5395.00    0.66422   0.63473    0.019
 5396.00    0.68593   0.63460    0.019
 5397.00    0.70596   0.63457    0.019
 5398.00    0.75713   0.63205    0.019
 5399.00    0.80816   0.63005    0.019
 5400.00    0.70055   0.62858    0.019
 5401.00    0.59664   0.62507    0.019
 5402.00    0.58788   0.62122    0.019
 5403.00    0.58070   0.61890    0.019
 5404.00    0.59484   0.61749    0.019
 5405.00    0.61091   0.61778    0.019
 5406.00    0.64437   0.62034    0.019
 5407.00    0.67097   0.62396    0.019
 5408.00    0.65226   0.62887    0.018
 5409.00    0.63508   0.63548    0.018
 5410.00    0.62577   0.64220    0.018
 5411.00    0.61449   0.64824    0.018
 5412.00    0.59507   0.65385    0.018
 5413.00    0.58644   0.65882    0.018
 5414.00    0.61488   0.66282    0.018
 5415.00    0.64580   0.66499    0.018
 5416.00    0.68392   0.66576    0.018
 5417.00    0.71057   0.66610    0.018
 5418.00    0.70893   0.66497    0.018
 5419.00    0.70466   0.66293    0.018
 5420.00    0.69478   0.66171    0.018
 5421.00    0.67614   0.65977    0.018
 5422.00    0.64130   0.65716    0.018
 5423.00    0.62752   0.65558    0.018
 5424.00    0.64777   0.65342    0.018
 5425.00    0.66262   0.65080    0.018
 5426.00    0.66981   0.64837    0.018
 5427.00    0.66246   0.64436    0.018
 5428.00    0.63698   0.64126    0.018
 5429.00    0.63685   0.64021    0.018
 5430.00    0.66460   0.63819    0.018
 5431.00    0.67928   0.63754    0.018
 5432.00    0.68130   0.64029    0.018
 5433.00    0.67761   0.64409    0.018
 5434.00    0.66903   0.64875    0.018
 5435.00    0.69520   0.65488    0.018
 5436.00    0.74753   0.66131    0.018
 5437.00    0.74331   0.66661    0.018
 5438.00    0.70169   0.67013    0.018
 5439.00    0.66732   0.67160    0.018
 5440.00    0.63715   0.67066    0.018
 5441.00    0.61164   0.66743    0.018
 5442.00    0.58848   0.66307    0.018
 5443.00    0.60910   0.65875    0.018
 5444.00    0.64884   0.65438    0.018
 5445.00    0.66390   0.65122    0.018
 5446.00    0.66971   0.65042    0.018
 5447.00    0.67727   0.64999    0.018
 5448.00    0.68539   0.64961    0.018
 5449.00    0.67604   0.64980    0.018
 5450.00    0.66205   0.64910    0.018
 5451.00    0.65061   0.64809    0.018
 5452.00    0.63973   0.64729    0.018
 5453.00    0.62538   0.64579    0.018
 5454.00    0.61043   0.64535    0.018
 5455.00    0.57039   0.64651    0.018
 5456.00    0.52707   0.64721    0.018
 5457.00    0.58378   0.64744    0.018
 5458.00    0.64973   0.64798    0.018
 5459.00    0.66565   0.64863    0.018
 5460.00    0.67875   0.64830    0.017
 5461.00    0.73297   0.64707    0.018
 5462.00    0.78755   0.64749    0.018
 5463.00    0.78374   0.64848    0.017
 5464.00    0.77797   0.64785    0.017
 5465.00    0.72630   0.64781    0.017
 5466.00    0.67600   0.64860    0.017
 5467.00    0.64334   0.64724    0.017
 5468.00    0.61817   0.64405    0.017
 5469.00    0.65785   0.64148    0.017
 5470.00    0.69257   0.63812    0.017
 5471.00    0.69540   0.63225    0.017
 5472.00    0.69267   0.62762    0.017
 5473.00    0.66200   0.62515    0.017
 5474.00    0.63644   0.62144    0.017
 5475.00    0.63160   0.61892    0.017
 5476.00    0.62236   0.62020    0.017
 5477.00    0.59835   0.62212    0.017
 5478.00    0.59205   0.62369   -2.000
 5479.00    0.63609   0.62688   -2.000
 5480.00    0.67917   0.63139   -2.000
 5481.00    0.71996   0.63481   -2.000
 5482.00    0.73066   0.63715   -2.000
 5483.00    0.67833   0.64023   -2.000
 5484.00    0.65322   0.64244   -2.000
 5485.00    0.67769   0.64259   -2.000
 5486.00    0.67661   0.64346   -2.000
 5487.00    0.63487   0.64465   -2.000
 5488.00    0.68509   0.64398   -2.000
 5489.00    0.86377   0.64391   -2.000
 5490.00    0.92401   0.64503   -2.000
 5491.00    0.83862   0.64455   -2.000
 5492.00    0.71497   0.64373   -2.000
 5493.00    0.54985   0.64433   -2.000
 5494.00    0.53081   0.64415   -2.000
 5495.00    0.65140   0.64246   -2.000
 5496.00    0.70090   0.64158   -2.000
 5497.00    0.69047   0.64114   -2.000
 5498.00    0.66816   0.63902   -2.000
 5499.00    0.63704   0.63667   -2.000
 5500.00    0.66456   0.63516   -2.000
 5501.00    0.73030   0.63301   -2.000
 5502.00    0.73796   0.63113    0.018
 5503.00    0.71247   0.63002    0.018
 5504.00    0.70784   0.62821    0.018
 5505.00    0.71355   0.62725    0.017
 5506.00    0.70403   0.62729    0.017
 5507.00    0.68795   0.62605    0.017
 5508.00    0.67762   0.62538    0.017
 5509.00    0.66941   0.62604    0.017
 5510.00    0.66776   0.62624    0.017
 5511.00    0.66816   0.62725    0.017
 5512.00    0.66148   0.62980    0.017
 5513.00    0.65295   0.63289    0.016
 5514.00    0.66827   0.63635    0.017
 5515.00    0.68865   0.64006    0.017
 5516.00    0.66707   0.64380    0.017
 5517.00    0.63844   0.64656    0.017
 5518.00    0.60059   0.64789    0.017
 5519.00    0.56156   0.64822    0.017
 5520.00    0.56400   0.64708    0.017
 5521.00    0.57010   0.64475    0.017
 5522.00    0.65699   0.64164    0.017
 5523.00    0.74810   0.63772    0.017
 5524.00    0.72112   0.63450    0.017
 5525.00    0.69160   0.63205    0.017
 5526.00    0.63646   0.62952    0.017
 5527.00    0.58700   0.62870    0.017
 5528.00    0.65996   0.62962    0.017
 5529.00    0.72489   0.63000    0.017
 5530.00    0.69178   0.63070    0.017
 5531.00    0.65898   0.63283    0.017
 5532.00    0.62877   0.63438    0.017
 5533.00    0.59958   0.63517    0.017
 5534.00    0.57670   0.63728    0.017
 5535.00    0.56907   0.63941    0.017
 5536.00    0.63594   0.64061    0.017
 5537.00    0.67772   0.64229    0.017
 5538.00    0.61984   0.64377    0.017
 5539.00    0.58195   0.64465    0.017
 5540.00    0.60997   0.64532    0.017
 5541.00    0.63817   0.64542    0.020
 5542.00    0.66686   0.64605    0.048
 5543.00    0.68624   0.64724   -1.000
 5544.00    0.68336   0.64780   -1.000
 5545.00    0.68672   0.64897   -1.000
 5546.00    0.70293   0.65081   -1.000
 5547.00    0.69985   0.65162    0.094
 5548.00    0.66217   0.65187    0.025
 5549.00    0.63958   0.65195    0.017
 5550.00    0.64065   0.65122    0.017
 5551.00    0.63730   0.64987    0.016
 5552.00    0.62786   0.64809    0.017
 5553.00    0.62930   0.64638    0.017
 5554.00    0.64394   0.64490    0.017
 5555.00    0.65180   0.64291    0.017
 5556.00    0.65243   0.64104    0.017
 5557.00    0.63349   0.63941    0.016
 5558.00    0.59614   0.63710    0.016
 5559.00    0.58370   0.63498    0.016
 5560.00    0.59199   0.63274    0.016
 5561.00    0.61499   0.62988    0.016
 5562.00    0.64877   0.62806    0.016
 5563.00    0.63650   0.62650    0.016
 5564.00    0.59467   0.62409    0.016
 5565.00    0.60098   0.62315    0.016
 5566.00    0.63433   0.62352    0.016
 5567.00    0.64135   0.62236    0.016
 5568.00    0.63548   0.62203    0.016
 5569.00    0.62943   0.62426    0.016
 5570.00    0.62331   0.62467    0.017
 5571.00    0.62727   0.62464    0.017
 5572.00    0.63489   0.62774    0.017
 5573.00    0.60766   0.62940    0.017
 5574.00    0.56978   0.62943    0.017
 5575.00    0.57268   0.63167    0.017
 5576.00    0.58598   0.63261    0.017
 5577.00    0.60441   0.63131    0.017
 5578.00    0.62391   0.63076    0.017
 5579.00    0.62321   0.62866    0.017
 5580.00    0.61921   0.62442    0.017
 5581.00    0.61285   0.62011    0.017
 5582.00    0.60620   0.61488    0.017
 5583.00    0.63602   0.60902    0.017
 5584.00    0.66890   0.60366    0.017
 5585.00    0.64002   0.59920    0.017
 5586.00    0.60816   0.59623    0.017
 5587.00    0.62224   0.59472    0.017
 5588.00    0.63671   0.59507    0.017
 5589.00    0.63408   0.59664    0.017
 5590.00    0.63014   0.59882    0.017
 5591.00    0.60024   0.60217    0.017
 5592.00    0.57837   0.60462    0.017
 5593.00    0.64963   0.60601    0.017
 5594.00    0.70958   0.60818    0.017
 5595.00    0.67871   0.60880    0.017
 5596.00    0.65236   0.60778    0.017
 5597.00    0.65338   0.60813    0.017
 5598.00    0.66078   0.60885    0.017
 5599.00    0.69860   0.60956    0.017
 5600.00    0.71159   0.61206    0.017
 5601.00    0.62815   0.61597    0.017
 5602.00    0.55455   0.62078    0.017
 5603.00    0.51279   0.62602    0.017
 5604.00    0.49387   0.63098    0.016
 5605.00    0.53745   0.63539    0.016
 5606.00    0.58445   0.63827    0.016
 5607.00    0.63946   0.63913    0.016
 5608.00    0.67993   0.63866    0.016
 5609.00    0.69091   0.63634    0.016
 5610.00    0.68407   0.63188    0.016
 5611.00    0.64575   0.62755    0.016
 5612.00    0.61251   0.62336    0.016
 5613.00    0.58713   0.61814    0.016
 5614.00    0.57214   0.61472    0.016
 5615.00    0.57128   0.61337    0.016
 5616.00    0.57401   0.61155    0.016
 5617.00    0.58102   0.61085    0.016
 5618.00    0.59425   0.61153    0.016
 5619.00    0.61404   0.61116    0.016
 5620.00    0.61683   0.61097    0.016
 5621.00    0.60381   0.61181    0.016
 5622.00    0.60102   0.61182    0.016
 5623.00    0.60659   0.61240    0.016
 5624.00    0.61962   0.61488    0.016
 5625.00    0.63800   0.61701    0.016
 5626.00    0.61532   0.61908    0.016
 5627.00    0.56665   0.62227    0.016
 5628.00    0.54710   0.62444    0.016
 5629.00    0.54367   0.62508    0.016
 5630.00    0.55757   0.62542    0.016
 5631.00    0.57980   0.62465    0.016
 5632.00    0.60913   0.62235    0.016
 5633.00    0.64141   0.61990    0.016
 5634.00    0.64624   0.61764    0.016
 5635.00    0.64131   0.61494    0.016
 5636.00    0.63477   0.61258    0.016
 5637.00    0.62775   0.61159    0.016
 5638.00    0.63262   0.61094    0.016
 5639.00    0.64047   0.61037    0.016
 5640.00    0.63389   0.61123    0.016
 5641.00    0.62439   0.61254    0.016
 5642.00    0.58124   0.61350    0.016
 5643.00    0.53275   0.61515    0.015
 5644.00    0.55769   0.61671    0.016
 5645.00    0.59127   0.61772    0.016
 5646.00    0.60605   0.61862    0.016
 5647.00    0.61932   0.61877    0.016
 5648.00    0.58282   0.61840    0.016
 5649.00    0.54410   0.61728    0.016
 5650.00    0.55550   0.61486    0.016
 5651.00    0.56753   0.61247    0.016
 5652.00    0.58260   0.60933    0.016
 5653.00    0.59831   0.60460    0.016
 5654.00    0.62597   0.60122    0.016
 5655.00    0.65092   0.59868    0.016
 5656.00    0.64585   0.59499    0.016
 5657.00    0.64177   0.59332    0.016
 5658.00    0.64543   0.59405    0.016
 5659.00    0.64643   0.59428    0.016
 5660.00    0.63178   0.59539    0.016
 5661.00    0.61431   0.59833    0.016
 5662.00    0.58371   0.60094    0.016
 5663.00    0.55481   0.60328    0.016
 5664.00    0.53235   0.60618    0.016
 5665.00    0.52075   0.60889    0.016
 5666.00    0.54363   0.61138    0.016
 5667.00    0.57198   0.61414    0.016
 5668.00    0.61501   0.61698    0.016
 5669.00    0.63984   0.61963    0.016
 5670.00    0.62266   0.62208    0.016
 5671.00    0.62147   0.62441    0.016
 5672.00    0.65222   0.62611    0.016
 5673.00    0.66314   0.62662    0.016
 5674.00    0.63956   0.62648    0.016
 5675.00    0.62281   0.62582    0.016
 5676.00    0.61644   0.62386    0.016
 5677.00    0.60554   0.62097    0.016
 5678.00    0.58858   0.61828    0.016
 5679.00    0.58218   0.61536    0.016
 5680.00    0.58820   0.61188    0.016
 5681.00    0.59743   0.60921    0.016
 5682.00    0.61000   0.60748    0.016
 5683.00    0.61968   0.60595    0.016
 5684.00    0.62672   0.60541    0.016
 5685.00    0.61954   0.60611    0.015
 5686.00    0.60087   0.60725    0.015
 5687.00    0.58654   0.60915    0.015
 5688.00    0.57531   0.61167    0.016
 5689.00    0.58377   0.61377    0.016
 5690.00    0.60450   0.61571    0.016
 5691.00    0.61452   0.61739    0.016
 5692.00    0.61870   0.61775    0.016
 5693.00    0.60220   0.61700    0.016
 5694.00    0.57591   0.61589    0.016
 5695.00    0.55653   0.61384    0.016
 5696.00    0.53999   0.61058    0.016
 5697.00    0.56884   0.60755    0.016
 5698.00    0.61354   0.60464    0.016
 5699.00    0.65242   0.60103    0.017
 5700.00    0.68959   0.59772    0.017
 5701.00    0.65158   0.59468    0.016
 5702.00    0.59526   0.59161    0.016
 5703.00    0.58249   0.58847    0.016
 5704.00    0.57830   0.58526    0.016
 5705.00    0.57790   0.58337    0.016
 5706.00    0.57809   0.58196    0.016
 5707.00    0.58631   0.58074    0.016
 5708.00    0.59544   0.58233    0.016
 5709.00    0.60588   0.58494    0.016
 5710.00    0.61642   0.58752    0.016
 5711.00    0.62487   0.59272    0.016
 5712.00    0.63322   0.59812    0.016
 5713.00    0.65747   0.60247    0.016
 5714.00    0.68100   0.60808    0.016
 5715.00    0.67010   0.61301    0.016
 5716.00    0.66016   0.61642    0.016
 5717.00    0.66683   0.62023    0.016
 5718.00    0.67005   0.62312    0.016
 5719.00    0.63675   0.62462    0.015
 5720.00    0.60698   0.62612    0.015
 5721.00    0.60356   0.62677    0.015
 5722.00    0.60349   0.62617    0.015
 5723.00    0.62260   0.62559    0.015
 5724.00    0.63547   0.62474    0.016
 5725.00    0.62005   0.62316    0.015
 5726.00    0.60119   0.62191    0.015
 5727.00    0.56949   0.62125    0.015
 5728.00    0.54844   0.62059    0.015
 5729.00    0.56051   0.62011    0.015
 5730.00    0.57523   0.62041    0.015
 5731.00    0.59695   0.62105    0.016
 5732.00    0.62445   0.62129    0.016
 5733.00    0.66507   0.62174    0.016
 5734.00    0.70234   0.62231    0.016
 5735.00    0.73301   0.62231    0.016
 5736.00    0.72888   0.62223    0.016
 5737.00    0.66514   0.62202    0.016
 5738.00    0.62144   0.62151    0.016
 5739.00    0.60779   0.62114    0.016
 5740.00    0.60290   0.62065    0.000
 5741.00    0.60955   0.61996    0.000
 5742.00    0.62155   0.61931    0.000
 5743.00    0.63975   0.61837    0.000
 5744.00    0.65388   0.61722    0.000
 5745.00    0.66384   0.61587    0.000
 5746.00    0.67406   0.61404    0.000
 5747.00    0.68450   0.61237    0.000
 5748.00    0.69571   0.61072    0.000
 5749.00    0.70751   0.60879    0.000
 5750.00    0.67415   0.60762    0.000
 5751.00    0.60915   0.60704    0.000
 5752.00    0.59101   0.60645    0.000
 5753.00    0.60165   0.60664    0.000
 5754.00    0.59768   0.60711    0.000
 5755.00    0.58588   0.60713    0.000
 5756.00    0.57759   0.60749    0.000
 5757.00    0.57093   0.60772    0.000
 5758.00    0.58682   0.60740    0.000
 5759.00    0.61177   0.60779    0.000
 5760.00    0.63697   0.60847    0.000
 5761.00    0.66226   0.60920    0.000
 5762.00    0.66224   0.61114    0.000
 5763.00    0.65493   0.61323    0.000
 5764.00    0.65471   0.61469    0.000
 5765.00    0.65618   0.61661    0.000
 5766.00    0.66470   0.61794    0.000
 5767.00    0.67458   0.61789    0.000
 5768.00    0.67785   0.61775    0.000
 5769.00    0.68014   0.61711    0.000
 5770.00    0.68477   0.61544    0.000
 5771.00    0.68965   0.61401    0.000
 5772.00    0.65737   0.61221    0.000
 5773.00    0.62243   0.60948    0.000
 5774.00    0.61190   0.60691    0.000
 5775.00    0.60227   0.60368    0.000
 5776.00    0.61434   0.59947    0.000
 5777.00    0.62667   0.59548    0.000
 5778.00    0.64560   0.59144    0.000
 5779.00    0.66320   0.58735    0.000
 5780.00    0.65949   0.58431    0.000
 5781.00    0.65738   0.58264    0.000
 5782.00    0.67158   0.58196    0.000
 5783.00    0.68806   0.58224    0.000
 5784.00    0.72097   0.58431    0.000
 5785.00    0.74518   0.58717    0.000
 5786.00    0.72105   0.58955    0.000
 5787.00    0.69603   0.59291    0.000
 5788.00    0.66715   0.59634    0.000
 5789.00    0.63452   0.59860    0.000
 5790.00    0.58820   0.60134    0.000
 5791.00    0.54757   0.60375   -2.000
 5792.00    0.52426   0.60517   -2.000
 5793.00    0.52402   0.60700   -2.000
 5794.00    0.58365   0.60879   -2.000
 5795.00    0.63433   0.60991   -2.000
 5796.00    0.66504   0.61095   -2.000
 5797.00    0.67901   0.61224   -2.000
 5798.00    0.66061   0.61294   -2.000
 5799.00    0.65329   0.61280   -2.000
 5800.00    0.66464   0.61295   -2.000
 5801.00    0.66210   0.61274   -2.000
 5802.00    0.63905   0.61163   -2.000
 5803.00    0.63041   0.61097   -2.000
 5804.00    0.64049   0.61049   -2.000
 5805.00    0.64532   0.60984   -2.000
 5806.00    0.64415   0.60971   -2.000
 5807.00    0.62999   0.60975   -2.000
 5808.00    0.60273   0.60979   -2.000
 5809.00    0.58891   0.60992   -2.000
 5810.00    0.58705   0.60982   -2.000
 5811.00    0.60319   0.60969    0.000
 5812.00    0.63346   0.60981    0.000
 5813.00    0.66633   0.61006    0.000
 5814.00    0.70099   0.61045    0.000
 5815.00    0.70752   0.61139    0.000
 5816.00    0.69704   0.61279    0.000
 5817.00    0.68906   0.61397    0.000
 5818.00    0.68239   0.61528    0.000
 5819.00    0.68097   0.61675    0.000
 5820.00    0.68196   0.61770    0.000
 5821.00    0.68246   0.61824    0.000
 5822.00    0.68278   0.61868    0.000
 5823.00    0.67986   0.61894    0.000
 5824.00    0.67585   0.61883    0.000
 5825.00    0.67804   0.61863    0.000
 5826.00    0.68197   0.61840    0.000
 5827.00    0.67514   0.61789    0.000
 5828.00    0.66580   0.61729    0.000
 5829.00    0.66180   0.61651    0.000
 5830.00    0.65880   0.61568    0.000
 5831.00    0.66068   0.61505    0.000
 5832.00    0.66326   0.61433    0.000
 5833.00    0.67272   0.61373    0.000
 5834.00    0.68289   0.61376    0.000
 5835.00    0.67632   0.61392    0.000
 5836.00    0.66862   0.61394    0.000
 5837.00    0.66339   0.61444    0.000
 5838.00    0.65823   0.61497    0.000
 5839.00    0.64524   0.61485    0.000
 5840.00    0.63289   0.61447    0.000
 5841.00    0.64117   0.61388    0.000
 5842.00    0.64885   0.61256    0.000
 5843.00    0.64742   0.61069    0.000
 5844.00    0.64489   0.60863    0.000
 5845.00    0.63160   0.60608    0.000
 5846.00    0.62146   0.60324    0.000
 5847.00    0.63339   0.60037    0.000
 5848.00    0.64742   0.59718    0.000
 5849.00    0.67278   0.59396    0.000
 5850.00    0.69008   0.59084    0.000
 5851.00    0.67248   0.58767    0.000
 5852.00    0.65174   0.58486    0.000
 5853.00    0.61980   0.58272    0.000
 5854.00    0.59437   0.58110    0.000
 5855.00    0.58845   0.58001    0.000
 5856.00    0.58240   0.58017    0.000
 5857.00    0.57603   0.58117    0.000
 5858.00    0.57670   0.58226    0.000
 5859.00    0.59282   0.58412    0.000
 5860.00    0.60833   0.58632    0.000
 5861.00    0.62268   0.58835    0.000
 5862.00    0.62340   0.59057    0.000
 5863.00    0.60148   0.59255    0.000
 5864.00    0.58799   0.59416    0.000
 5865.00    0.58678   0.59583    0.000
 5866.00    0.58546   0.59749    0.000
 5867.00    0.58401   0.59861    0.000
 5868.00    0.58454   0.59936    0.000
 5869.00    0.58729   0.60005    0.000
 5870.00    0.60465   0.60019    0.000
 5871.00    0.63655   0.59967    0.000
 5872.00    0.66247   0.59887    0.000
 5873.00    0.68314   0.59759    0.000
 5874.00    0.68023   0.59572    0.000
 5875.00    0.65908   0.59366    0.000
 5876.00    0.64453   0.59129    0.000
 5877.00    0.63448   0.58852    0.000
 5878.00    0.59674   0.58522    0.000
 5879.00    0.54248   0.58127    0.000
 5880.00    0.53062   0.57669    0.000
 5881.00    0.54080   0.57086    0.000
 5882.00    0.56052   0.56337    0.000
 5883.00    0.58455   0.55501    0.000
 5884.00    0.61919   0.54565    0.000
 5885.00    0.65795   0.53493    0.000
 5886.00    0.64323   0.52506    0.000
 5887.00    0.61088   0.51619    0.000
 5888.00    0.57740   0.50781    0.000
 5889.00    0.54361   0.50314    0.000
 5890.00    0.56191   0.50068    0.000
 5891.00    0.59205   0.49901    0.000
 5892.00    0.59383   0.50193    0.000
 5893.00    0.59044   0.50671    0.000
 5894.00    0.58263   0.51144    0.000
 5895.00    0.57420   0.51966    0.000
 5896.00    0.56790   0.52843    0.000
 5897.00    0.56182   0.53607    0.000
 5898.00    0.57911   0.54546    0.000
 5899.00    0.59788   0.55439    0.000
 5900.00    0.60899   0.56109    0.000
 5901.00    0.61976   0.56717    0.015
 5902.00    0.58666   0.57225    0.015
 5903.00    0.55479   0.57567    0.015
 5904.00    0.55750   0.57818    0.015
 5905.00    0.56041   0.58005    0.015
 5906.00    0.56619   0.58098    0.015
 5907.00    0.57256   0.58118    0.015
 5908.00    0.58439   0.58102    0.015
 5909.00    0.59538   0.58043    0.015
 5910.00    0.60073   0.57964    0.015
 5911.00    0.60453   0.57865    0.015
 5912.00    0.60019   0.57774    0.015
 5913.00    0.59224   0.57763    0.015
 5914.00    0.56902   0.57762    0.015
 5915.00    0.54294   0.57789    0.015
 5916.00    0.50679   0.57901    0.015
 5917.00    0.47691   0.58000    0.015
 5918.00    0.46542   0.58117    0.015
 5919.00    0.46696   0.58236    0.015
 5920.00    0.50114   0.58284    0.015
 5921.00    0.53200   0.58339    0.015
 5922.00    0.55573   0.58360    0.014
 5923.00    0.56943   0.58304    0.014
 5924.00    0.56434   0.58260    0.014
 5925.00    0.55592   0.58188    0.014
 5926.00    0.54207   0.58097    0.014
 5927.00    0.53658   0.58031    0.014
 5928.00    0.54308   0.57953    0.014
 5929.00    0.55519   0.57931    0.014
 5930.00    0.57440   0.57936    0.014
 5931.00    0.58392   0.57932    0.014
 5932.00    0.58266   0.57982    0.014
 5933.00    0.56985   0.58040    0.014
 5934.00    0.54568   0.58098    0.014
 5935.00    0.54245   0.58138    0.014
 5936.00    0.55734   0.58144    0.014
 5937.00    0.56906   0.58184    0.014
 5938.00    0.57836   0.58187    0.015
 5939.00    0.57519   0.58138    0.015
 5940.00    0.56366   0.58130    0.015
 5941.00    0.55398   0.58100    0.015
 5942.00    0.54538   0.58023    0.015
 5943.00    0.54557   0.57974    0.015
 5944.00    0.55026   0.57918    0.015
 5945.00    0.54208   0.57829    0.015
 5946.00    0.52818   0.57735    0.015
 5947.00    0.52230   0.57645    0.015
 5948.00    0.51948   0.57575    0.014
 5949.00    0.53227   0.57513    0.014
 5950.00    0.55011   0.57446    0.015
 5951.00    0.54113   0.57424    0.015
 5952.00    0.52490   0.57466    0.015
 5953.00    0.52949   0.57503    0.014
 5954.00    0.53870   0.57542    0.014
 5955.00    0.53626   0.57649    0.014
 5956.00    0.53175   0.57785    0.014
 5957.00    0.53786   0.57915    0.014
 5958.00    0.54539   0.58046    0.014
 5959.00    0.55994   0.58182    0.014
 5960.00    0.57516   0.58320    0.014
 5961.00    0.56947   0.58422    0.014
 5962.00    0.56253   0.58512    0.014
 5963.00    0.52654   0.58593    0.014
 5964.00    0.49000   0.58638    0.014
 5965.00    0.48371   0.58699    0.014
 5966.00    0.47844   0.58734    0.014
 5967.00    0.49923   0.58726    0.014
 5968.00    0.52058   0.58715    0.014
 5969.00    0.54946   0.58651    0.014
 5970.00    0.57525   0.58537    0.014
 5971.00    0.57339   0.58390    0.015
 5972.00    0.57114   0.58214    0.015
 5973.00    0.56630   0.58022    0.015
 5974.00    0.56562   0.57817    0.015
 5975.00    0.58628   0.57647    0.015
 5976.00    0.60186   0.57486    0.015
 5977.00    0.59639   0.57314    0.015
 5978.00    0.59244   0.57203    0.014
 5979.00    0.59371   0.57094    0.015
 5980.00    0.58929   0.56977    0.015
 5981.00    0.56844   0.56908    0.014
 5982.00    0.55364   0.56842    0.014
 5983.00    0.55379   0.56829    0.014
 5984.00    0.55306   0.56862    0.014
 5985.00    0.55049   0.56890    0.014
 5986.00    0.54917   0.56993    0.014
 5987.00    0.55014   0.57121    0.014
 5988.00    0.55879   0.57220    0.014
 5989.00    0.57983   0.57305    0.014
 5990.00    0.59546   0.57358    0.014
 5991.00    0.60343   0.57407    0.014
 5992.00    0.60518   0.57396    0.014
 5993.00    0.59921   0.57332    0.014
 5994.00    0.59938   0.57290    0.014
 5995.00    0.60629   0.57195    0.014
 5996.00    0.61367   0.57078    0.014
 5997.00    0.62148   0.56998    0.014
 5998.00    0.62346   0.56877    0.014
 5999.00    0.62045   0.56770    0.014
 6000.00    0.60873   0.56679    0.014
 6001.00    0.59045   0.56542    0.014
 6002.00    0.58289   0.56467    0.014
 6003.00    0.58241   0.56383    0.014
 6004.00    0.57058   0.56262    0.014
 6005.00    0.55218   0.56220    0.014
 6006.00    0.54401   0.56158    0.014
 6007.00    0.54099   0.56123    0.014
 6008.00    0.53886   0.56138    0.014
 6009.00    0.53712   0.56076    0.014
 6010.00    0.53752   0.56044    0.014
 6011.00    0.53873   0.56041    0.014
 6012.00    0.53824   0.55973    0.015
 6013.00    0.53720   0.55903    0.015
 6014.00    0.54489   0.55818    0.015
 6015.00    0.55488   0.55742    0.014
 6016.00    0.55572   0.55727    0.014
 6017.00    0.55458   0.55680    0.014
 6018.00    0.57119   0.55671    0.014
 6019.00    0.59087   0.55751    0.014
 6020.00    0.59174   0.55829    0.014
 6021.00    0.59015   0.55965    0.014
 6022.00    0.58245   0.56141    0.014
 6023.00    0.57419   0.56344    0.014
 6024.00    0.57231   0.56581    0.014
 6025.00    0.57079   0.56786    0.014
 6026.00    0.56211   0.57022    0.014
 6027.00    0.55366   0.57249    0.014
 6028.00    0.58390   0.57417    0.014
 6029.00    0.61266   0.57583    0.014
 6030.00    0.60709   0.57726    0.014
 6031.00    0.59929   0.57828    0.014
 6032.00    0.56295   0.57884    0.014
 6033.00    0.52891   0.57916    0.015
 6034.00    0.51469   0.57935    0.014
 6035.00    0.50466   0.57909    0.014
 6036.00    0.52148   0.57888    0.014
 6037.00    0.54213   0.57867    0.014
 6038.00    0.58197   0.57831    0.014
 6039.00    0.61233   0.57836    0.014
 6040.00    0.60428   0.57839    0.014
 6041.00    0.59886   0.57856    0.014
 6042.00    0.60224   0.57898    0.014
 6043.00    0.60976   0.57920    0.014
 6044.00    0.62902   0.57945    0.014
 6045.00    0.63935   0.57952    0.014
 6046.00    0.62803   0.57908    0.014
 6047.00    0.61274   0.57840    0.014
 6048.00    0.58914   0.57753    0.014
 6049.00    0.57752   0.57619    0.014
 6050.00    0.58769   0.57476    0.014
 6051.00    0.59973   0.57339    0.014
 6052.00    0.61473   0.57212    0.014
 6053.00    0.61406   0.57105    0.014
 6054.00    0.59152   0.57005    0.014
 6055.00    0.58306   0.56942    0.014
 6056.00    0.59189   0.56900    0.014
 6057.00    0.59974   0.56854    0.014
 6058.00    0.60653   0.56789    0.014
 6059.00    0.61125   0.56746    0.014
 6060.00    0.61399   0.56739    0.014
 6061.00    0.62845   0.56710    0.014
 6062.00    0.65279   0.56730    0.014
 6063.00    0.66171   0.56792    0.014
 6064.00    0.65920   0.56898    0.014
 6065.00    0.63208   0.57083    0.014
 6066.00    0.58896   0.57243    0.014
 6067.00    0.57027   0.57412    0.014
 6068.00    0.56551   0.57597    0.014
 6069.00    0.57621   0.57699    0.014
 6070.00    0.59459   0.57736    0.014
 6071.00    0.59948   0.57691    0.014
 6072.00    0.59860   0.57574    0.014
 6073.00    0.58702   0.57430    0.014
 6074.00    0.57152   0.57204    0.014
 6075.00    0.56260   0.56944    0.014
 6076.00    0.55574   0.56704    0.014
 6077.00    0.56669   0.56459    0.014
 6078.00    0.58226   0.56249    0.014
 6079.00    0.58159   0.56062    0.014
 6080.00    0.57748   0.55905    0.014
 6081.00    0.56902   0.55828    0.014
 6082.00    0.55984   0.55763    0.014
 6083.00    0.56351   0.55683    0.014
 6084.00    0.56881   0.55664    0.014
 6085.00    0.57448   0.55663    0.014
 6086.00    0.58019   0.55640    0.014
 6087.00    0.59841   0.55645    0.014
 6088.00    0.61729   0.55666    0.014
 6089.00    0.61762   0.55694    0.014
 6090.00    0.61733   0.55731    0.014
 6091.00    0.59651   0.55760    0.014
 6092.00    0.57628   0.55796    0.014
 6093.00    0.56869   0.55827    0.014
 6094.00    0.56065   0.55800    0.014
 6095.00    0.54708   0.55698    0.014
 6096.00    0.53427   0.55584    0.014
 6097.00    0.52784   0.55474    0.014
 6098.00    0.52365   0.55296    0.014
 6099.00    0.53339   0.55133    0.014
 6100.00    0.54172   0.55032    0.014
 6101.00    0.54314   0.54970    0.014
 6102.00    0.54469   0.55036    0.014
 6103.00    0.54674   0.55108    0.014
 6104.00    0.54819   0.55186    0.014
 6105.00    0.54773   0.55396    0.014
 6106.00    0.54519   0.55589    0.014
 6107.00    0.53686   0.55738    0.014
 6108.00    0.53507   0.55866    0.014
 6109.00    0.54884   0.55916    0.014
 6110.00    0.56085   0.55966    0.014
 6111.00    0.56923   0.55993    0.014
 6112.00    0.57208   0.55901    0.014
 6113.00    0.56503   0.55781    0.014
 6114.00    0.56731   0.55632    0.014
 6115.00    0.58420   0.55420    0.013
 6116.00    0.59261   0.55227    0.013
 6117.00    0.58937   0.55011    0.014
 6118.00    0.57679   0.54781    0.014
 6119.00    0.55290   0.54650    0.014
 6120.00    0.54169   0.54548    0.014
 6121.00    0.54402   0.54490    0.014
 6122.00    0.55497   0.54522    0.014
 6123.00    0.57403   0.54546    0.014
 6124.00    0.58064   0.54614    0.014
 6125.00    0.57692   0.54715    0.014
 6126.00    0.56518   0.54757    0.014
 6127.00    0.54758   0.54752    0.014
 6128.00    0.53099   0.54687    0.014
 6129.00    0.51506   0.54535    0.014
 6130.00    0.50786   0.54307    0.014
 6131.00    0.50555   0.54068    0.014
 6132.00    0.50487   0.53797    0.014
 6133.00    0.50498   0.53498    0.014
 6134.00    0.51772   0.53275    0.014
 6135.00    0.53579   0.53144    0.014
 6136.00    0.56254   0.53155    0.014
 6137.00    0.59242   0.53249    0.014
 6138.00    0.59366   0.53377    0.014
 6139.00    0.58615   0.53630    0.014
 6140.00    0.58522   0.53927    0.014
 6141.00    0.58595   0.54197    0.014
 6142.00    0.58729   0.54394    0.014
 6143.00    0.58876   0.54512    0.014
 6144.00    0.57892   0.54631    0.014
 6145.00    0.56726   0.54695    0.014
 6146.00    0.56263   0.54684    0.014
 6147.00    0.55887   0.54640    0.014
 6148.00    0.56038   0.54564    0.014
 6149.00    0.56233   0.54489    0.014
 6150.00    0.56005   0.54372    0.014
 6151.00    0.55757   0.54214    0.014
 6152.00    0.56130   0.54035    0.014
 6153.00    0.56448   0.53784    0.014
 6154.00    0.53096   0.53470    0.014
 6155.00    0.49882   0.53108    0.014
 6156.00    0.49372   0.52704    0.014
 6157.00    0.49069   0.52295    0.014
 6158.00    0.51161   0.51906    0.014
 6159.00    0.52860   0.51557    0.014
 6160.00    0.51423   0.51320    0.014
 6161.00    0.50358   0.51187    0.014
 6162.00    0.51526   0.51089    0.014
 6163.00    0.52904   0.51102    0.014
 6164.00    0.55285   0.51217    0.014
 6165.00    0.57307   0.51353    0.013
 6166.00    0.57941   0.51516    0.013
 6167.00    0.58406   0.51689    0.013
 6168.00    0.58326   0.51894    0.013
 6169.00    0.57715   0.52125    0.014
 6170.00    0.55651   0.52330    0.013
 6171.00    0.53200   0.52538    0.013
 6172.00    0.49840   0.52788    0.014
 6173.00    0.47770   0.53025    0.014
 6174.00    0.48311   0.53230    0.014
 6175.00    0.49150   0.53416    0.014
 6176.00    0.50511   0.53570    0.014
 6177.00    0.50790   0.53709    0.014
 6178.00    0.49398   0.53798    0.014
 6179.00    0.48744   0.53833    0.014
 6180.00    0.49089   0.53827    0.014
 6181.00    0.50986   0.53747    0.014
 6182.00    0.54735   0.53605    0.014
 6183.00    0.56908   0.53434    0.014
 6184.00    0.57425   0.53203    0.014
 6185.00    0.56850   0.52978    0.014
 6186.00    0.55263   0.52802    0.014
 6187.00    0.54435   0.52599    0.014
 6188.00    0.54228   0.52485    0.014
 6189.00    0.53934   0.52474    0.014
 6190.00    0.53578   0.52512    0.014
 6191.00    0.52849   0.52639    0.014
 6192.00    0.51886   0.52749    0.013
 6193.00    0.51936   0.52890    0.013
 6194.00    0.52546   0.53096    0.014
 6195.00    0.54256   0.53235    0.014
 6196.00    0.56495   0.53346   -2.000
 6197.00    0.63526   0.53452   -2.000
 6198.00    0.72545   0.53552   -2.000
 6199.00    0.77960   0.53670   -2.000
 6200.00    0.82098   0.53748   -2.000
 6201.00    0.77552   0.53801   -2.000
 6202.00    0.70407   0.53865   -2.000
 6203.00    0.56696   0.53889   -2.000
 6204.00    0.41354   0.53851   -2.000
 6205.00    0.39203   0.53748   -2.000
 6206.00    0.39707   0.53563   -2.000
 6207.00    0.47466   0.53331   -2.000
 6208.00    0.56370   0.53063    0.015
 6209.00    0.59283   0.52730    0.014
 6210.00    0.61496   0.52399    0.014
 6211.00    0.59664   0.52081    0.014
 6212.00    0.57512   0.51788    0.014
 6213.00    0.56632   0.51589    0.014
 6214.00    0.55808   0.51431    0.014
 6215.00    0.57205   0.51317    0.014
 6216.00    0.58592   0.51284    0.013
 6217.00    0.58336   0.51288    0.013
 6218.00    0.57907   0.51349    0.013
 6219.00    0.54333   0.51435    0.013
 6220.00    0.50965   0.51471    0.013
 6221.00    0.49859   0.51508    0.013
 6222.00    0.48882   0.51526    0.013
 6223.00    0.48900   0.51501    0.013
 6224.00    0.49051   0.51458    0.013
 6225.00    0.49977   0.51364    0.013
 6226.00    0.50809   0.51241    0.013
 6227.00    0.51205   0.51152    0.014
 6228.00    0.51378   0.51097    0.014
 6229.00    0.50701   0.51066    0.014
 6230.00    0.49982   0.51100    0.014
 6231.00    0.49127   0.51124    0.014
 6232.00    0.48667   0.51167    0.014
 6233.00    0.49265   0.51211    0.013
 6234.00    0.50343   0.51193    0.013
 6235.00    0.52526   0.51156    0.014
 6236.00    0.53865   0.51046    0.014
 6237.00    0.53525   0.50921    0.013
 6238.00    0.52606   0.50783    0.013
 6239.00    0.50683   0.50610    0.013
 6240.00    0.49707   0.50502    0.013
 6241.00    0.50167   0.50413    0.013
 6242.00    0.51553   0.50362    0.013
 6243.00    0.54174   0.50367    0.013
 6244.00    0.56399   0.50365    0.013
 6245.00    0.58157   0.50377    0.013
 6246.00    0.57486   0.50393    0.013
 6247.00    0.54298   0.50351    0.013
 6248.00    0.52531   0.50256    0.013
 6249.00    0.52064   0.50143    0.013
 6250.00    0.52224   0.49991    0.013
 6251.00    0.52891   0.49856    0.013
 6252.00    0.52650   0.49721    0.013
 6253.00    0.51764   0.49616    0.013
 6254.00    0.50842   0.49582    0.013
 6255.00    0.49898   0.49622    0.013
 6256.00    0.49569   0.49773    0.013
 6257.00    0.49574   0.49946    0.013
 6258.00    0.51267   0.50181    0.014
 6259.00    0.53758   0.50445    0.014
 6260.00    0.58810   0.50695    0.015
 6261.00    0.64905   0.50942    0.016
 6262.00    0.64796   0.51143    0.017
 6263.00    0.62527   0.51326    0.018
 6264.00    0.58320   0.51475    0.017
 6265.00    0.53545   0.51579    0.017
 6266.00    0.49192   0.51652    0.016
 6267.00    0.44943   0.51720    0.015
 6268.00    0.45791   0.51795    0.014
 6269.00    0.47640   0.51856    0.014
 6270.00    0.48642   0.51886    0.013
 6271.00    0.49515   0.51901    0.013
 6272.00    0.49346   0.51912    0.013
 6273.00    0.49059   0.51899    0.013
 6274.00    0.47957   0.51880    0.013
 6275.00    0.46794   0.51848    0.013
 6276.00    0.45224   0.51792    0.013
 6277.00    0.43637   0.51782    0.013
 6278.00    0.46099   0.51789    0.013
 6279.00    0.48546   0.51827    0.013
 6280.00    0.49149   0.51918    0.000
 6281.00    0.49656   0.51984    0.000
 6282.00    0.48530   0.52090    0.000
 6283.00    0.47633   0.52203    0.000
 6284.00    0.49142   0.52283    0.000
 6285.00    0.50452   0.52360    0.000
 6286.00    0.50282   0.52357    0.000
 6287.00    0.49929   0.52306    0.000
 6288.00    0.48535   0.52233    0.000
 6289.00    0.47152   0.52102    0.000
 6290.00    0.45819   0.51967    0.000
 6291.00    0.44722   0.51796    0.000
 6292.00    0.44496   0.51582    0.000
 6293.00    0.44467   0.51387    0.000
 6294.00    0.45046   0.51201    0.000
 6295.00    0.46455   0.51060    0.000
 6296.00    0.50052   0.50945    0.000
 6297.00    0.53450   0.50837    0.000
 6298.00    0.56396   0.50783    0.000
 6299.00    0.57614   0.50803    0.000
 6300.00    0.55439   0.50884    0.000
 6301.00    0.52854   0.50980    0.000
 6302.00    0.49567   0.51090    0.000
 6303.00    0.47510   0.51217    0.000
 6304.00    0.47297   0.51344    0.000
 6305.00    0.47490   0.51436    0.000
 6306.00    0.48220   0.51450    0.000
 6307.00    0.48090   0.51417    0.000
 6308.00    0.46964   0.51334    0.000
 6309.00    0.46881   0.51209    0.000
 6310.00    0.47867   0.51039    0.000
 6311.00    0.49999   0.50829    0.000
 6312.00    0.53165   0.50659    0.000
 6313.00    0.54975   0.50508    0.000
 6314.00    0.55707   0.50382    0.000
 6315.00    0.55502   0.50342    0.000
 6316.00    0.54640   0.50357    0.000
 6317.00    0.52921   0.50455    0.000
 6318.00    0.50676   0.50594    0.000
 6319.00    0.51541   0.50755    0.000
 6320.00    0.54072   0.50977    0.000
 6321.00    0.55508   0.51186    0.013
 6322.00    0.56436   0.51386    0.013
 6323.00    0.54404   0.51538    0.013
 6324.00    0.51187   0.51656    0.013
 6325.00    0.49990   0.51748    0.013
 6326.00    0.49483   0.51741    0.013
 6327.00    0.50465   0.51705    0.013
 6328.00    0.51874   0.51627    0.013
 6329.00    0.51769   0.51519    0.013
 6330.00    0.51304   0.51382    0.013
 6331.00    0.49457   0.51187    0.013
 6332.00    0.47345   0.51007    0.013
 6333.00    0.47536   0.50869    0.013
 6334.00    0.48069   0.50761    0.013
 6335.00    0.48748   0.50657    0.013
 6336.00    0.49443   0.50601    0.013
 6337.00    0.51154   0.50567    0.013
 6338.00    0.52937   0.50556    0.013
 6339.00    0.53880   0.50569    0.013
 6340.00    0.54793   0.50565    0.014
 6341.00    0.51518   0.50612    0.013
 6342.00    0.48285   0.50664    0.013
 6343.00    0.47082   0.50707    0.013
 6344.00    0.45981   0.50783    0.013
 6345.00    0.46490   0.50848    0.013
 6346.00    0.46886   0.50914    0.013
 6347.00    0.46136   0.50974    0.013
 6348.00    0.45518   0.50984    0.013
 6349.00    0.45852   0.50948    0.013
 6350.00    0.46298   0.50848    0.013
 6351.00    0.47361   0.50688    0.013
 6352.00    0.48110   0.50508    0.013
 6353.00    0.47468   0.50283    0.013
 6354.00    0.46926   0.50014    0.013
 6355.00    0.46749   0.49752    0.013
 6356.00    0.47268   0.49521    0.013
 6357.00    0.49906   0.49339    0.013
 6358.00    0.52458   0.49209    0.013
 6359.00    0.54786   0.49149    0.013
 6360.00    0.55169   0.49175    0.013
 6361.00    0.51220   0.49279    0.013
 6362.00    0.48769   0.49446    0.013
 6363.00    0.49212   0.49661    0.013
 6364.00    0.50716   0.49921    0.014
 6365.00    0.54006   0.50185    0.014
 6366.00    0.55846   0.50434    0.014
 6367.00    0.55546   0.50670    0.014
 6368.00    0.53747   0.50897    0.014
 6369.00    0.50002   0.51093    0.013
 6370.00    0.47389   0.51237    0.013
 6371.00    0.46069   0.51335    0.013
 6372.00    0.46677   0.51401    0.013
 6373.00    0.49229   0.51446    0.013
 6374.00    0.51582   0.51444    0.013
 6375.00    0.53760   0.51413    0.013
 6376.00    0.53840   0.51376    0.013
 6377.00    0.52276   0.51327    0.013
 6378.00    0.50590   0.51302    0.013
 6379.00    0.48819   0.51272    0.013
 6380.00    0.48469   0.51244    0.013
 6381.00    0.48975   0.51238    0.013
 6382.00    0.48290   0.51243    0.013
 6383.00    0.46976   0.51249    0.013
 6384.00    0.44788   0.51221    0.013
 6385.00    0.42199   0.51179    0.013
 6386.00    0.42075   0.51120    0.013
 6387.00    0.42920   0.51038    0.013
 6388.00    0.44569   0.50925    0.013
 6389.00    0.46489   0.50765    0.013
 6390.00    0.47728   0.50636    0.013
 6391.00    0.48777   0.50543    0.013
 6392.00    0.49502   0.50472    0.013
 6393.00    0.50151   0.50417    0.013
 6394.00    0.49679   0.50361    0.013
 6395.00    0.48997   0.50324    0.013
 6396.00    0.46774   0.50288    0.013
 6397.00    0.44329   0.50344    0.013
 6398.00    0.43928   0.50424    0.013
 6399.00    0.43739   0.50465    0.013
 6400.00    0.43876   0.50513    0.013
 6401.00    0.44034   0.50522    0.013
 6402.00    0.44221   0.50538    0.013
 6403.00    0.44409   0.50537    0.013
 6404.00    0.44924   0.50486    0.013
 6405.00    0.45453   0.50467    0.013
 6406.00    0.46407   0.50421    0.013
 6407.00    0.47363   0.50326    0.013
 6408.00    0.48338   0.50261    0.013
 6409.00    0.49336   0.50222    0.013
 6410.00    0.50556   0.50195    0.013
 6411.00    0.51484   0.50174    0.013
 6412.00    0.50372   0.50156    0.013
 6413.00    0.49503   0.50143    0.013
 6414.00    0.49942   0.50153    0.013
 6415.00    0.50015   0.50150    0.013
 6416.00    0.48502   0.50150    0.013
 6417.00    0.46992   0.50188    0.013
 6418.00    0.45490   0.50267    0.013
 6419.00    0.44624   0.50394    0.013
 6420.00    0.45662   0.50491    0.013
 6421.00    0.46591   0.50573    0.013
 6422.00    0.47242   0.50659    0.013
 6423.00    0.47413   0.50737    0.012
 6424.00    0.46534   0.50784    0.013
 6425.00    0.46281   0.50766    0.013
 6426.00    0.47216   0.50690    0.013
 6427.00    0.48366   0.50587    0.013
 6428.00    0.49871   0.50521    0.013
 6429.00    0.50697   0.50462    0.013
 6430.00    0.50537   0.50409    0.013
 6431.00    0.49951   0.50381    0.013
 6432.00    0.48820   0.50360    0.013
 6433.00    0.48086   0.50382    0.013
 6434.00    0.47798   0.50399    0.013
 6435.00    0.46895   0.50428    0.013
 6436.00    0.45381   0.50531    0.013
 6437.00    0.45309   0.50639    0.013
 6438.00    0.46502   0.50726    0.013
 6439.00    0.48743   0.50788    0.013
 6440.00    0.51794   0.50818    0.013
 6441.00    0.52520   0.50838    0.013
 6442.00    0.51667   0.50818    0.013
 6443.00    0.50305   0.50730    0.013
 6444.00    0.48641   0.50581    0.013
 6445.00    0.47895   0.50358    0.013
 6446.00    0.47627   0.50124    0.013
 6447.00    0.47592   0.49974    0.013
 6448.00    0.47662   0.49856    0.013
 6449.00    0.47065   0.49768    0.013
 6450.00    0.46210   0.49711    0.013
 6451.00    0.44959   0.49668    0.013
 6452.00    0.43577   0.49690    0.013
 6453.00    0.42647   0.49767    0.013
 6454.00    0.41842   0.49859    0.012
 6455.00    0.42093   0.49938    0.013
 6456.00    0.42584   0.49970    0.013
 6457.00    0.43680   0.49978    0.013
 6458.00    0.44886   0.49957    0.013
 6459.00    0.45640   0.49950    0.013
 6460.00    0.46330   0.50002    0.013
 6461.00    0.46232   0.50035    0.013
 6462.00    0.46056   0.50070    0.013
 6463.00    0.44715   0.50095    0.013
 6464.00    0.43300   0.50137    0.013
 6465.00    0.44215   0.50187    0.013
 6466.00    0.45195   0.50233    0.013
 6467.00    0.45876   0.50267    0.013
 6468.00    0.46504   0.50282    0.012
 6469.00    0.45644   0.50310    0.012
 6470.00    0.44995   0.50296    0.012
 6471.00    0.47332   0.50272    0.013
 6472.00    0.49507   0.50244    0.013
 6473.00    0.50175   0.50215    0.013
 6474.00    0.50106   0.50178    0.013
 6475.00    0.45049   0.50110    0.013
 6476.00    0.40670   0.50034    0.012
 6477.00    0.39856   0.49934    0.012
 6478.00    0.39880   0.49825    0.013
 6479.00    0.43443   0.49737    0.013
 6480.00    0.46183   0.49666    0.013
 6481.00    0.46056   0.49594    0.013
 6482.00    0.46296   0.49502    0.013
 6483.00    0.47614   0.49379    0.013
 6484.00    0.49260   0.49226    0.013
 6485.00    0.51727   0.49014    0.013
 6486.00    0.52671   0.48728    0.013
 6487.00    0.50334   0.48376    0.013
 6488.00    0.48046   0.47955    0.013
 6489.00    0.45849   0.47499    0.013
 6490.00    0.44038   0.47007    0.013
 6491.00    0.42858   0.46581    0.013
 6492.00    0.42652   0.46274    0.012
 6493.00    0.43842   0.46073    0.012
 6494.00    0.45176   0.46040    0.012
 6495.00    0.46689   0.46102    0.012
 6496.00    0.47187   0.46318    0.012
 6497.00    0.46555   0.46656    0.012
 6498.00    0.46422   0.47043    0.013
 6499.00    0.46779   0.47492    0.013
 6500.00    0.46629   0.47908    0.013
 6501.00    0.46040   0.48302    0.013
 6502.00    0.45712   0.48642    0.013
 6503.00    0.45582   0.48911    0.013
 6504.00    0.47286   0.49115    0.013
 6505.00    0.50216   0.49251    0.013
 6506.00    0.51222   0.49339    0.013
 6507.00    0.51100   0.49378    0.013
 6508.00    0.50252   0.49363    0.013
 6509.00    0.49033   0.49314    0.013
 6510.00    0.49456   0.49239    0.013
 6511.00    0.50607   0.49145    0.013
 6512.00    0.50366   0.49043    0.013
 6513.00    0.49595   0.48959    0.013
 6514.00    0.47329   0.48896    0.013
 6515.00    0.44580   0.48848    0.013
 6516.00    0.43505   0.48846    0.012
 6517.00    0.42882   0.48858    0.012
 6518.00    0.42408   0.48893    0.012
 6519.00    0.41967   0.48933    0.012
 6520.00    0.44048   0.48967    0.012
 6521.00    0.46575   0.49006    0.013
 6522.00    0.48650   0.49006    0.013
 6523.00    0.50664   0.48991    0.013
 6524.00    0.48703   0.48971    0.012
 6525.00    0.46361   0.48937    0.012
 6526.00    0.45313   0.48896    0.013
 6527.00    0.44340   0.48842    0.013
 6528.00    0.43724   0.48791    0.000
 6529.00    0.43124   0.48761    0.000
 6530.00    0.43560   0.48744    0.000
 6531.00    0.44028   0.48743    0.000
 6532.00    0.45308   0.48741    0.000
 6533.00    0.46660   0.48725    0.000
 6534.00    0.48987   0.48705    0.000
 6535.00    0.51117   0.48671    0.000
 6536.00    0.51502   0.48619    0.000
 6537.00    0.51358   0.48525    0.000
 6538.00    0.47751   0.48390    0.000
 6539.00    0.44757   0.48217    0.000
 6540.00    0.44891   0.48011    0.000
 6541.00    0.45452   0.47790    0.000
 6542.00    0.47770   0.47538    0.000
 6543.00    0.50471   0.47298    0.000
 6544.00    0.54480   0.47058    0.000
 6545.00    0.58090   0.46806    0.000
 6546.00    0.60551   0.46547    0.000
 6547.00    0.61988   0.46252    0.000
 6548.00    0.60908   0.45938    0.000
 6549.00    0.58222   0.45576    0.000
 6550.00    0.52130   0.45147    0.000
 6551.00    0.47816   0.44641    0.000
 6552.00    0.46778   0.44053    0.000
 6553.00    0.47524   0.43413    0.000
 6554.00    0.51143   0.42700    0.000
 6555.00    0.60952   0.41936    0.000
 6556.00    0.79503   0.41145    0.000
 6557.00    1.05961   0.40393    0.000
 6558.00    1.42244   0.39748    0.000
 6559.00    1.71482   0.39271    0.000
 6560.00    1.93006   0.39101    0.000
 6561.00    1.95784   0.39158    0.000
 6562.00    1.80452   0.39405    0.000
 6563.00    1.55429   0.39836    0.000
 6564.00    1.22151   0.40405    0.000
 6565.00    0.94911   0.41107    0.000
 6566.00    0.72202   0.41837    0.000
 6567.00    0.58280   0.42553    0.000
 6568.00    0.50151   0.43200    0.000
 6569.00    0.44945   0.43737    0.000
 6570.00    0.41427   0.44208    0.000
 6571.00    0.39166   0.44621    0.000
 6572.00    0.37537   0.45004    0.000
 6573.00    0.37078   0.45346    0.000
 6574.00    0.37128   0.45647    0.000
 6575.00    0.41018   0.45916    0.000
 6576.00    0.46342   0.46152    0.000
 6577.00    0.57197   0.46369    0.000
 6578.00    0.69803   0.46560    0.000
 6579.00    0.81312   0.46724    0.000
 6580.00    0.92531   0.46843    0.000
 6581.00    0.96108   0.46931    0.000
 6582.00    0.98034   0.46981    0.000
 6583.00    0.89367   0.47011    0.000
 6584.00    0.78883   0.47023    0.000
 6585.00    0.64869   0.46992    0.000
 6586.00    0.50396   0.46932    0.000
 6587.00    0.45341   0.46831    0.000
 6588.00    0.41146   0.46729    0.000
 6589.00    0.42341   0.46632    0.000
 6590.00    0.43832   0.46568    0.000
 6591.00    0.45621   0.46550    0.000
 6592.00    0.47396   0.46551    0.000
 6593.00    0.47323   0.46589    0.000
 6594.00    0.47149   0.46658    0.000
 6595.00    0.44640   0.46769    0.000
 6596.00    0.42305   0.46898    0.000
 6597.00    0.42190   0.47020    0.000
 6598.00    0.42047   0.47117    0.000
 6599.00    0.41666   0.47172    0.000
 6600.00    0.41331   0.47192    0.000
 6601.00    0.41284   0.47178    0.000
 6602.00    0.41548   0.47148    0.000
 6603.00    0.43361   0.47095    0.000
 6604.00    0.45001   0.47054    0.000
 6605.00    0.45942   0.47022    0.000
 6606.00    0.46594   0.47021    0.000
 6607.00    0.46284   0.47062    0.000
 6608.00    0.45859   0.47120    0.000
 6609.00    0.45115   0.47215    0.012
 6610.00    0.44843   0.47316    0.012
 6611.00    0.45716   0.47440    0.012
 6612.00    0.45544   0.47557    0.012
 6613.00    0.43192   0.47657    0.012
 6614.00    0.41846   0.47738    0.012
 6615.00    0.42325   0.47789    0.012
 6616.00    0.43187   0.47810    0.012
 6617.00    0.44655   0.47797    0.013
 6618.00    0.45330   0.47752    0.013
 6619.00    0.44903   0.47677    0.013
 6620.00    0.44206   0.47590    0.013
 6621.00    0.43180   0.47481    0.013
 6622.00    0.41262   0.47379    0.013
 6623.00    0.38381   0.47264    0.013
 6624.00    0.37564   0.47143    0.013
 6625.00    0.38713   0.47025    0.013
 6626.00    0.40570   0.46900    0.013
 6627.00    0.43021   0.46790    0.013
 6628.00    0.44085   0.46682    0.013
 6629.00    0.44123   0.46601    0.012
 6630.00    0.44436   0.46540    0.012
 6631.00    0.44927   0.46507    0.012
 6632.00    0.43617   0.46501    0.012
 6633.00    0.41283   0.46509    0.012
 6634.00    0.40367   0.46533    0.012
 6635.00    0.40154   0.46571    0.012
 6636.00    0.40605   0.46614    0.012
 6637.00    0.41340   0.46646    0.012
 6638.00    0.42247   0.46678    0.012
 6639.00    0.43217   0.46698    0.012
 6640.00    0.42023   0.46709    0.013
 6641.00    0.40158   0.46721    0.013
 6642.00    0.39590   0.46735    0.013
 6643.00    0.39357   0.46754    0.013
 6644.00    0.39774   0.46773    0.013
 6645.00    0.40328   0.46804    0.013
 6646.00    0.41325   0.46831    0.013
 6647.00    0.42395   0.46858    0.013
 6648.00    0.41845   0.46879    0.013
 6649.00    0.41091   0.46893    0.013
 6650.00    0.40689   0.46887    0.012
 6651.00    0.40318   0.46867    0.012
 6652.00    0.40364   0.46836    0.012
 6653.00    0.40431   0.46779    0.012
 6654.00    0.39667   0.46707    0.012
 6655.00    0.38908   0.46611    0.012
 6656.00    0.39504   0.46506    0.012
 6657.00    0.40165   0.46377    0.012
 6658.00    0.42178   0.46258    0.012
 6659.00    0.43994   0.46149    0.012
 6660.00    0.43436   0.46053    0.013
 6661.00    0.42794   0.45993    0.013
 6662.00    0.41451   0.45955    0.013
 6663.00    0.40261   0.45960    0.013
 6664.00    0.40011   0.45989    0.013
 6665.00    0.39747   0.46048    0.013
 6666.00    0.39418   0.46118    0.013
 6667.00    0.39447   0.46185    0.013
 6668.00    0.40895   0.46241    0.013
 6669.00    0.41628   0.46268    0.013
 6670.00    0.40019   0.46262    0.013
 6671.00    0.38902   0.46216    0.013
 6672.00    0.39155   0.46137    0.012
 6673.00    0.40014   0.46060    0.012
 6674.00    0.42313   0.45984    0.012
 6675.00    0.43523   0.45923    0.012
 6676.00    0.42501   0.45897    0.012
 6677.00    0.42420   0.45895    0.012
 6678.00    0.44021   0.45933    0.012
 6679.00    0.44779   0.45994    0.012
 6680.00    0.44219   0.46084    0.012
 6681.00    0.44184   0.46184    0.012
 6682.00    0.44870   0.46282    0.012
 6683.00    0.44573   0.46379    0.012
 6684.00    0.43091   0.46440    0.012
 6685.00    0.41557   0.46482    0.012
 6686.00    0.39969   0.46495    0.013
 6687.00    0.39123   0.46481    0.013
 6688.00    0.38972   0.46446    0.013
 6689.00    0.40276   0.46382    0.013
 6690.00    0.42784   0.46302    0.013
 6691.00    0.44431   0.46215    0.013
 6692.00    0.45450   0.46131    0.013
 6693.00    0.44595   0.46052    0.013
 6694.00    0.42541   0.45990    0.012
 6695.00    0.41515   0.45936    0.012
 6696.00    0.41064   0.45896    0.000
 6697.00    0.42107   0.45863    0.000
 6698.00    0.43877   0.45836    0.000
 6699.00    0.44784   0.45821    0.000
 6700.00    0.45328   0.45808    0.000
 6701.00    0.44216   0.45801    0.000
 6702.00    0.42508   0.45777    0.000
 6703.00    0.42166   0.45750    0.000
 6704.00    0.42241   0.45699    0.000
 6705.00    0.42944   0.45639    0.000
 6706.00    0.43807   0.45565    0.000
 6707.00    0.43618   0.45468    0.000
 6708.00    0.43212   0.45366    0.000
 6709.00    0.45080   0.45243    0.000
 6710.00    0.47316   0.45119    0.000
 6711.00    0.54101   0.44987    0.000
 6712.00    0.61438   0.44879    0.000
 6713.00    0.65704   0.44810    0.000
 6714.00    0.69716   0.44764    0.000
 6715.00    0.68332   0.44761    0.000
 6716.00    0.66692   0.44784    0.000
 6717.00    0.61067   0.44848    0.000
 6718.00    0.55392   0.44933    0.000
 6719.00    0.50080   0.45028    0.000
 6720.00    0.44891   0.45128    0.000
 6721.00    0.42101   0.45228    0.000
 6722.00    0.39560   0.45327    0.000
 6723.00    0.39861   0.45405    0.000
 6724.00    0.40982   0.45471    0.000
 6725.00    0.48633   0.45520    0.000
 6726.00    0.55979   0.45557    0.000
 6727.00    0.61490   0.45577    0.000
 6728.00    0.65591   0.45583    0.000
 6729.00    0.63014   0.45577    0.000
 6730.00    0.59993   0.45558    0.000
 6731.00    0.55255   0.45523    0.000
 6732.00    0.50777   0.45465    0.000
 6733.00    0.47137   0.45397    0.000
 6734.00    0.44188   0.45323    0.000
 6735.00    0.43124   0.45246    0.000
 6736.00    0.42058   0.45161    0.000
 6737.00    0.40988   0.45074    0.000
 6738.00    0.39642   0.44999    0.000
 6739.00    0.37740   0.44928    0.000
 6740.00    0.37424   0.44855    0.000
 6741.00    0.39895   0.44791    0.000
 6742.00    0.42062   0.44728    0.000
 6743.00    0.43761   0.44680    0.000
 6744.00    0.44080   0.44630    0.000
 6745.00    0.42534   0.44601    0.000
 6746.00    0.41829   0.44583    0.000
 6747.00    0.42123   0.44570    0.000
 6748.00    0.42445   0.44601    0.000
 6749.00    0.42796   0.44636    0.000
 6750.00    0.42858   0.44702    0.000
 6751.00    0.42652   0.44784    0.000
 6752.00    0.44200   0.44885    0.000
 6753.00    0.47179   0.44998    0.014
 6754.00    0.47948   0.45104    0.014
 6755.00    0.47130   0.45211    0.015
 6756.00    0.44938   0.45284    0.015
 6757.00    0.41881   0.45348    0.015
 6758.00    0.39761   0.45380    0.014
 6759.00    0.38157   0.45376    0.014
 6760.00    0.42163   0.45344    0.014
 6761.00    0.48857   0.45281    0.015
 6762.00    0.50898   0.45209    0.015
 6763.00    0.51013   0.45135    0.015
 6764.00    0.48865   0.45063    0.015
 6765.00    0.45916   0.44997    0.015
 6766.00    0.44151   0.44961    0.015
 6767.00    0.42740   0.44956    0.015
 6768.00    0.45302   0.44979    0.015
 6769.00    0.48848   0.45024    0.015
 6770.00    0.49454   0.45090    0.014
 6771.00    0.49469   0.45163    0.014
 6772.00    0.45811   0.45237    0.014
 6773.00    0.41575   0.45302    0.014
 6774.00    0.39291   0.45332    0.013
 6775.00    0.37234   0.45338    0.013
 6776.00    0.35636   0.45304    0.013
 6777.00    0.34074   0.45239    0.013
 6778.00    0.41204   0.45142    0.013
 6779.00    0.48713   0.45037    0.014
 6780.00    0.49057   0.44929    0.014
 6781.00    0.49233   0.44826    0.014
 6782.00    0.45026   0.44751    0.013
 6783.00    0.41039   0.44686    0.013
 6784.00    0.41035   0.44649    0.013
 6785.00    0.41189   0.44630    0.013
 6786.00    0.43069   0.44630    0.013
 6787.00    0.44960   0.44635    0.014
 6788.00    0.46939   0.44646    0.014
 6789.00    0.48797   0.44662    0.014
 6790.00    0.49954   0.44666    0.014
 6791.00    0.50251   0.44675    0.014
 6792.00    0.46566   0.44675    0.014
 6793.00    0.43437   0.44676    0.014
 6794.00    0.42406   0.44682    0.014
 6795.00    0.41743   0.44691    0.014
 6796.00    0.42241   0.44702    0.014
 6797.00    0.42702   0.44712    0.014
 6798.00    0.43064   0.44722    0.013
 6799.00    0.43770   0.44731    0.013
 6800.00    0.45264   0.44733    0.013
 6801.00    0.45455   0.44723    0.013
 6802.00    0.43052   0.44713    0.013
 6803.00    0.40132   0.44692    0.013
 6804.00    0.36318   0.44668    0.013
 6805.00    0.33525   0.44645    0.013
 6806.00    0.32280   0.44621    0.013
 6807.00    0.32849   0.44599    0.013
 6808.00    0.35837   0.44581    0.013
 6809.00    0.39934   0.44569    0.013
 6810.00    0.45334   0.44565    0.013
 6811.00    0.48275   0.44574    0.014
 6812.00    0.48670   0.44583    0.014
 6813.00    0.47520   0.44597    0.014
 6814.00    0.44958   0.44617    0.014
 6815.00    0.43453   0.44647    0.014
 6816.00    0.42797   0.44678    0.014
 6817.00    0.44810   0.44707    0.014
 6818.00    0.48713   0.44732    0.014
 6819.00    0.50255   0.44753    0.013
 6820.00    0.50330   0.44768    0.013
 6821.00    0.48730   0.44764    0.013
 6822.00    0.46221   0.44750    0.013
 6823.00    0.44057   0.44730    0.013
 6824.00    0.42056   0.44710    0.013
 6825.00    0.39151   0.44686    0.013
 6826.00    0.35877   0.44655    0.013
 6827.00    0.36747   0.44620    0.013
 6828.00    0.39057   0.44582    0.013
 6829.00    0.41458   0.44537    0.013
 6830.00    0.43886   0.44479    0.013
 6831.00    0.44324   0.44399    0.013
 6832.00    0.44278   0.44307    0.013
 6833.00    0.43862   0.44195    0.013
 6834.00    0.43372   0.44069    0.013
 6835.00    0.43731   0.43934    0.014
 6836.00    0.44219   0.43807    0.014
 6837.00    0.48072   0.43705    0.014
 6838.00    0.52303   0.43630    0.014
 6839.00    0.49577   0.43594    0.014
 6840.00    0.46331   0.43589    0.015
 6841.00    0.40878   0.43623    0.014
 6842.00    0.35337   0.43684    0.013
 6843.00    0.35646   0.43759    0.013
 6844.00    0.36157   0.43840    0.013
 6845.00    0.43130   0.43909    0.013
 6846.00    0.49462   0.43959    0.013
 6847.00    0.44966   0.43980    0.013
 6848.00    0.40842   0.43967    0.013
 6849.00    0.40623   0.43921    0.013
 6850.00    0.40431   0.43853    0.013
 6851.00    0.40446   0.43778    0.013
 6852.00    0.40916   0.43689    0.013
 6853.00    0.43971   0.43608    0.013
 6854.00    0.46231   0.43535    0.014
 6855.00    0.44902   0.43480    0.013
 6856.00    0.43653   0.43446    0.013
 6857.00    0.42700   0.43431    0.013
 6858.00    0.41317   0.43430    0.014
 6859.00    0.38601   0.43438    0.013
 6860.00    0.37463   0.43457    0.013
 6861.00    0.40481   0.43468    0.013
 6862.00    0.42372   0.43479    0.013
 6863.00    0.41716   0.43483    0.013
 6864.00    0.41133   0.43474    0.013
 6865.00    0.40691   0.43465    0.013
 6866.00    0.40632   0.43455    0.013
 6867.00    0.41225   0.43448    0.013
 6868.00    0.42344   0.43441    0.013
 6869.00    0.44247   0.43440    0.013
 6870.00    0.44603   0.43451    0.013
 6871.00    0.42926   0.43466    0.013
 6872.00    0.42004   0.43497    0.013
 6873.00    0.41955   0.43520    0.013
 6874.00    0.42096   0.43544    0.013
 6875.00    0.42430   0.43555    0.013
 6876.00    0.41732   0.43570    0.013
 6877.00    0.40104   0.43584    0.013
 6878.00    0.38673   0.43595    0.013
 6879.00    0.37398   0.43617    0.013
 6880.00    0.37258   0.43642    0.013
 6881.00    0.37911   0.43690    0.013
 6882.00    0.39567   0.43740    0.013
 6883.00    0.41838   0.43813    0.013
 6884.00    0.42081   0.43886    0.013
 6885.00    0.41239   0.43966    0.013
 6886.00    0.40746   0.44045    0.013
 6887.00    0.40413   0.44114    0.013
 6888.00    0.38239   0.44173    0.013
 6889.00    0.35329   0.44207    0.012
 6890.00    0.34421   0.44234    0.012
 6891.00    0.34196   0.44243    0.013
 6892.00    0.35146   0.44241    0.013
 6893.00    0.36433   0.44233    0.013
 6894.00    0.41540   0.44224    0.013
 6895.00    0.47551   0.44217    0.013
 6896.00    0.48118   0.44212    0.013
 6897.00    0.47648   0.44215    0.013
 6898.00    0.48960   0.44219    0.013
 6899.00    0.50535   0.44231    0.013
 6900.00    0.48374   0.44244    0.013
 6901.00    0.45810   0.44258    0.013
 6902.00    0.45109   0.44263    0.013
 6903.00    0.44540   0.44258    0.013
 6904.00    0.43069   0.44245    0.013
 6905.00    0.41564   0.44215    0.013
 6906.00    0.39885   0.44169    0.013
 6907.00    0.38203   0.44109    0.013
 6908.00    0.36440   0.44043    0.013
 6909.00    0.34921   0.43965    0.013
 6910.00    0.37282   0.43898    0.013
 6911.00    0.39530   0.43831    0.013
 6912.00    0.40645   0.43780    0.013
 6913.00    0.41543   0.43742    0.013
 6914.00    0.40879   0.43718    0.013
 6915.00    0.40312   0.43707    0.013
 6916.00    0.40279   0.43697    0.013
 6917.00    0.40700   0.43692    0.013
 6918.00    0.43116   0.43683    0.013
 6919.00    0.45077   0.43681    0.014
 6920.00    0.45391   0.43662    0.013
 6921.00    0.45271   0.43645    0.013
 6922.00    0.43835   0.43625    0.013
 6923.00    0.43587   0.43604    0.013
 6924.00    0.46410   0.43593    0.013
 6925.00    0.47329   0.43577    0.013
 6926.00    0.44019   0.43581    0.013
 6927.00    0.41105   0.43585    0.013
 6928.00    0.38953   0.43600    0.013
 6929.00    0.37942   0.43617    0.013
 6930.00    0.38849   0.43640    0.013
 6931.00    0.40977   0.43664    0.013
 6932.00    0.44902   0.43682    0.013
 6933.00    0.46200   0.43699    0.013
 6934.00    0.44098   0.43703    0.013
 6935.00    0.43651   0.43698    0.014
 6936.00    0.45091   0.43677    0.014
 6937.00    0.44723   0.43641    0.014
 6938.00    0.42538   0.43602    0.014
 6939.00    0.41709   0.43549    0.014
 6940.00    0.42084   0.43490    0.014
 6941.00    0.40340   0.43428    0.014
 6942.00    0.36940   0.43372    0.013
 6943.00    0.37399   0.43316    0.013
 6944.00    0.40512   0.43273    0.013
 6945.00    0.43231   0.43239    0.013
 6946.00    0.45712   0.43214    0.013
 6947.00    0.42952   0.43201    0.013
 6948.00    0.37434   0.43197    0.013
 6949.00    0.35650   0.43208    0.013
 6950.00    0.35570   0.43225    0.013
 6951.00    0.36499   0.43256    0.013
 6952.00    0.37823   0.43289    0.013
 6953.00    0.40325   0.43339    0.013
 6954.00    0.43221   0.43389    0.013
 6955.00    0.43287   0.43448    0.013
 6956.00    0.42557   0.43509    0.013
 6957.00    0.39868   0.43566    0.014
 6958.00    0.36726   0.43618    0.014
 6959.00    0.37787   0.43664    0.014
 6960.00    0.39629   0.43703    0.014
 6961.00    0.41591   0.43726    0.014
 6962.00    0.43570   0.43742    0.014
 6963.00    0.44594   0.43739    0.013
 6964.00    0.45518   0.43727    0.013
 6965.00    0.42275   0.43697    0.013
 6966.00    0.38753   0.43644    0.013
 6967.00    0.38918   0.43567    0.013
 6968.00    0.39202   0.43462    0.013
 6969.00    0.38244   0.43332    0.013
 6970.00    0.37328   0.43181    0.013
 6971.00    0.37692   0.43021    0.013
 6972.00    0.37924   0.42864    0.013
 6973.00    0.36206   0.42721    0.014
 6974.00    0.34526   0.42603    0.014
 6975.00    0.33206   0.42527    0.014
 6976.00    0.32334   0.42500    0.014
 6977.00    0.34586   0.42523    0.014
 6978.00    0.36297   0.42589    0.014
 6979.00    0.35102   0.42694    0.014
 6980.00    0.34800   0.42820    0.014
 6981.00    0.38343   0.42956    0.014
 6982.00    0.41100   0.43087    0.014
 6983.00    0.41065   0.43211    0.014
 6984.00    0.41339   0.43310    0.014
 6985.00    0.42535   0.43384    0.014
 6986.00    0.43190   0.43433    0.014
 6987.00    0.42469   0.43459    0.013
 6988.00    0.41002   0.43466    0.013
 6989.00    0.37902   0.43457    0.014
 6990.00    0.36247   0.43432    0.014
 6991.00    0.37329   0.43392    0.014
 6992.00    0.37802   0.43339    0.014
 6993.00    0.37263   0.43275    0.014
 6994.00    0.37422   0.43202    0.014
 6995.00    0.38595   0.43120    0.014
 6996.00    0.40526   0.43031    0.014
 6997.00    0.43426   0.42946    0.014
 6998.00    0.44405   0.42864    0.014
 6999.00    0.43223   0.42795    0.014
 7000.00    0.42002   0.42737    0.014
 7001.00    0.40743   0.42693    0.014
 7002.00    0.38559   0.42661    0.014
 7003.00    0.35568   0.42638    0.014
 7004.00    0.34083   0.42627    0.014
 7005.00    0.33759   0.42613    0.013
 7006.00    0.36199   0.42596    0.013
 7007.00    0.40510   0.42567    0.014
 7008.00    0.41531   0.42533    0.014
 7009.00    0.40598   0.42488    0.014
 7010.00    0.39006   0.42442    0.014
 7011.00    0.37074   0.42393    0.014
 7012.00    0.37499   0.42349    0.014
 7013.00    0.38982   0.42310    0.014
 7014.00    0.37861   0.42284    0.014
 7015.00    0.35734   0.42271    0.014
 7016.00    0.36219   0.42274    0.014
 7017.00    0.37560   0.42285    0.014
 7018.00    0.35323   0.42303    0.014
 7019.00    0.32101   0.42324    0.014
 7020.00    0.32224   0.42347    0.014
 7021.00    0.33102   0.42379    0.014
 7022.00    0.37559   0.42410    0.014
 7023.00    0.42663   0.42449    0.014
 7024.00    0.43279   0.42487    0.014
 7025.00    0.43273   0.42531    0.014
 7026.00    0.42447   0.42576    0.014
 7027.00    0.41540   0.42622    0.014
 7028.00    0.42120   0.42663    0.014
 7029.00    0.42792   0.42703    0.014
 7030.00    0.38949   0.42744    0.014
 7031.00    0.34997   0.42782    0.014
 7032.00    0.35996   0.42827    0.014
 7033.00    0.37046   0.42876    0.014
 7034.00    0.39492   0.42941    0.015
 7035.00    0.41605   0.43014    0.015
 7036.00    0.39044   0.43107    0.015
 7037.00    0.36654   0.43209    0.015
 7038.00    0.35840   0.43318    0.015
 7039.00    0.35675   0.43427    0.014
 7040.00    0.39884   0.43522    0.014
 7041.00    0.42564   0.43599    0.014
 7042.00    0.37244   0.43645    0.014
 7043.00    0.33958   0.43660    0.014
 7044.00    0.39233   0.43634    0.014
 7045.00    0.43440   0.43571    0.014
 7046.00    0.43934   0.43468    0.014
 7047.00    0.44020   0.43327    0.014
 7048.00    0.42910   0.43159    0.014
 7049.00    0.41915   0.42969    0.015
 7050.00    0.41207   0.42772   -2.000
 7051.00    0.40139   0.42574   -2.000
 7052.00    0.38297   0.42390   -2.000
 7053.00    0.37045   0.42218   -2.000
 7054.00    0.36892   0.42068   -2.000
 7055.00    0.37544   0.41939   -2.000
 7056.00    0.39509   0.41828   -2.000
 7057.00    0.40517   0.41738   -2.000
 7058.00    0.40159   0.41658   -2.000
 7059.00    0.40903   0.41595   -2.000
 7060.00    0.43033   0.41540   -2.000
 7061.00    0.45636   0.41495   -2.000
 7062.00    0.48762   0.41455   -2.000
 7063.00    0.49118   0.41427   -2.000
 7064.00    0.46764   0.41414   -2.000
 7065.00    0.45615   0.41416   -2.000
 7066.00    0.45506   0.41439   -2.000
 7067.00    0.46732   0.41477   -2.000
 7068.00    0.48973   0.41532   -2.000
 7069.00    0.48480   0.41593   -2.000
 7070.00    0.46161   0.41659   -2.000
 7071.00    0.44600   0.41716   -2.000
 7072.00    0.43481   0.41760   -2.000
 7073.00    0.46833   0.41782   -2.000
 7074.00    0.52464   0.41773   -2.000
 7075.00    0.48436   0.41732   -2.000
 7076.00    0.40142   0.41651   -2.000
 7077.00    0.40168   0.41533   -2.000
 7078.00    0.43349   0.41379   -2.000
 7079.00    0.40751   0.41199   -2.000
 7080.00    0.36293   0.40996   -2.000
 7081.00    0.38919   0.40785   -2.000
 7082.00    0.43453   0.40573   -2.000
 7083.00    0.39713   0.40371   -2.000
 7084.00    0.34145   0.40188   -2.000
 7085.00    0.39058   0.40028   -2.000
 7086.00    0.45813   0.39898   -2.000
 7087.00    0.43489   0.39800   -2.000
 7088.00    0.39950   0.39730   -2.000
 7089.00    0.35229   0.39697   -2.000
 7090.00    0.30396   0.39684   -2.000
 7091.00    0.36052   0.39707   -2.000
 7092.00    0.42324   0.39740   -2.000
 7093.00    0.43020   0.39798   -2.000
 7094.00    0.43579   0.39860   -2.000
 7095.00    0.44076   0.39933   -2.000
 7096.00    0.44467   0.40006   -2.000
 7097.00    0.42230   0.40073   -2.000
 7098.00    0.40058   0.40135   -2.000
 7099.00    0.38754   0.40175   -2.000
 7100.00    0.37772   0.40211   -2.000
 7101.00    0.39651   0.40216   -2.000
 7102.00    0.41635   0.40218   -2.000
 7103.00    0.44302   0.40193   -2.000
 7104.00    0.45910   0.40167   -2.000
 7105.00    0.42126   0.40124   -2.000
 7106.00    0.39504   0.40085   -2.000
 7107.00    0.41662   0.40043   -2.000
 7108.00    0.42122   0.40010   -2.000
 7109.00    0.36790   0.39986   -2.000
 7110.00    0.35061   0.39969   -2.000
 7111.00    0.43686   0.39963   -2.000
 7112.00    0.48157   0.39958   -2.000
 7113.00    0.42436   0.39961   -2.000
 7114.00    0.39919   0.39959   -2.000
 7115.00    0.44183   0.39956   -2.000
 7116.00    0.44408   0.39942   -2.000
 7117.00    0.37206   0.39922   -2.000
 7118.00    0.36005   0.39891   -2.000
 7119.00    0.44445   0.39849   -2.000
 7120.00    0.49640   0.39802   -2.000
 7121.00    0.50262   0.39744   -2.000
 7122.00    0.52065   0.39687   -2.000
 7123.00    0.55334   0.39625   -2.000
 7124.00    0.53757   0.39573   -2.000
 7125.00    0.46883   0.39528   -2.000
 7126.00    0.43251   0.39500   -2.000
 7127.00    0.42745   0.39489   -2.000
 7128.00    0.42181   0.39500   -2.000
 7129.00    0.41568   0.39536   -2.000
 7130.00    0.39724   0.39588   -2.000
 7131.00    0.36957   0.39655   -2.000
 7132.00    0.34610   0.39730   -2.000
 7133.00    0.32539   0.39807   -2.000
 7134.00    0.30208   0.39876   -2.000
 7135.00    0.27729   0.39932   -2.000
 7136.00    0.31295   0.39971   -2.000
 7137.00    0.37895   0.39991   -2.000
 7138.00    0.39719   0.39992   -2.000
 7139.00    0.39470   0.39974   -2.000
 7140.00    0.40326   0.39941   -2.000
 7141.00    0.41593   0.39897   -2.000
 7142.00    0.40466   0.39852   -2.000
 7143.00    0.38583   0.39809   -2.000
 7144.00    0.37326   0.39777   -2.000
 7145.00    0.36234   0.39762   -2.000
 7146.00    0.37105   0.39767   -2.000
 7147.00    0.38400   0.39793   -2.000
 7148.00    0.35269   0.39836   -2.000
 7149.00    0.31381   0.39894   -2.000
 7150.00    0.32938   0.39957   -2.000
 7151.00    0.35200   0.40019   -2.000
 7152.00    0.40270   0.40071   -2.000
 7153.00    0.45596   0.40107   -2.000
 7154.00    0.46828   0.40122   -2.000
 7155.00    0.47837   0.40115   -2.000
 7156.00    0.46994   0.40088   -2.000
 7157.00    0.46118   0.40042   -2.000
 7158.00    0.45874   0.39990   -2.000
 7159.00    0.45732   0.39934   -2.000
 7160.00    0.47928   0.39890   -2.000
 7161.00    0.50346   0.39862   -2.000
 7162.00    0.55562   0.39862   -2.000
 7163.00    0.59204   0.39886   -2.000
 7164.00    0.49413   0.39935   -2.000
 7165.00    0.41394   0.40005   -2.000
 7166.00    0.44603   0.40086   -2.000
 7167.00    0.46438   0.40168   -2.000
 7168.00    0.41449   0.40240   -2.000
 7169.00    0.39252   0.40294   -2.000
 7170.00    0.48291   0.40322   -2.000
 7171.00    0.51678   0.40322   -2.000
 7172.00    0.36188   0.40295   -2.000
 7173.00    0.25692   0.40241   -2.000
 7174.00    0.29286   0.40166   -2.000
 7175.00    0.34276   0.40077   -2.000
 7176.00    0.42634   0.39980   -2.000
 7177.00    0.48650   0.39881   -2.000
 7178.00    0.49790   0.39783   -2.000
 7179.00    0.50154   0.39690   -2.000
 7180.00    0.49113   0.39601   -2.000
 7181.00    0.45673   0.39520   -2.000
 7182.00    0.38434   0.39444   -2.000
 7183.00    0.34583   0.39380   -2.000
 7184.00    0.35439   0.39323   -2.000
 7185.00    0.36617   0.39281   -2.000
 7186.00    0.38189   0.39252   -2.000
 7187.00    0.40570   0.39243   -2.000
 7188.00    0.43822   0.39251   -2.000
 7189.00    0.43621   0.39276   -2.000
 7190.00    0.40137   0.39317   -2.000
 7191.00    0.38318   0.39368   -2.000
 7192.00    0.37893   0.39426   -2.000
 7193.00    0.35582   0.39484   -2.000
 7194.00    0.31880   0.39542   -2.000
 7195.00    0.35602   0.39590   -2.000
 7196.00    0.44137   0.39629   -2.000
 7197.00    0.43818   0.39651   -2.000
 7198.00    0.38475   0.39658   -2.000
 7199.00    0.43595   0.39649   -2.000
 7200.00    0.53882   0.39626   -2.000
 7201.00    0.49996   0.39594   -2.000
 7202.00    0.40057   0.39555   -2.000
 7203.00    0.36968   0.39520   -2.000
 7204.00    0.36386   0.39488   -2.000
 7205.00    0.33527   0.39472   -2.000
 7206.00    0.29964   0.39467   -2.000
 7207.00    0.27808   0.39482   -2.000
 7208.00    0.26015   0.39508   -2.000
 7209.00    0.32330   0.39548   -2.000
 7210.00    0.40350   0.39596   -2.000
 7211.00    0.42574   0.39646   -2.000
 7212.00    0.43835   0.39698   -2.000
 7213.00    0.40769   0.39744   -2.000
 7214.00    0.37163   0.39790   -2.000
 7215.00    0.35341   0.39830   -2.000
 7216.00    0.33674   0.39871   -2.000
 7217.00    0.35696   0.39909   -2.000
 7218.00    0.37906   0.39949   -2.000
