###################################################################
## OUTPUT of StarlightChains_v04.for    [Cid@UFSC - 01/Apr/2007] ##
###################################################################

## Some input info
KUG0210-078._36_47.txt                   [arq_obs]
Base.CB07.vall.4m                        [arq_base]
Masks.EmLines.NEW.gm                     [arq_masks]
StCv04.C11.config                        [arq_config]
   66                                    [N_base]
    0                                    [N_YAV_components = # of components with extra extinction!]
    0                                    [i_FitPowerLaw (1/0 = Yes/No)]
-9.99                                    [alpha_PowerLaw]
CCM                                      [red_law_option]
 1.458241                                [q_norm = A(l_norm)/A(V)]

## (Re)Sampling Parameters
 3741.00                                 [l_ini (A)]
 7218.00                                 [l_fin (A)]
    1.00                                 [dl    (A)]     (OBS: dl_cushion =    50.00 A)

## Normalization info
 4020.00                                 [l_norm (A) - for base]
 4010.00                                 [llow_norm (A) - window for f_obs]
 4060.00                                 [lupp_norm (A) - window for f_obs]
9.512079E-18                             [fobs_norm (in input units)]

## S/N
 3691.00                                 [llow_SN (A) - window for S/N]
 7268.00                                 [lupp_SN (A) - window for S/N]
   4.180                                 [S/N in S/N window]
   4.526                                 [S/N in norm. window]
   0.011                                 [S/N_err in S/N window]
   0.012                                 [S/N_err in norm. window]
  1.0000                                 [fscale_chi2]

## etc...
    -2007611                             [idum_orig]
  2428                                   [NOl_eff]
  2407                                   [Nl_eff]
    21    NSIGMA                         [Ntot_cliped & clip_method]
  1520820                                [Nglobal_steps]
   7                                     [N_chains]
  39                                     [NEX0s_base = N_base in EX0s-fits]
 0   0   1       21   2.0   1.815E+03    [Clip-Bug, RC-Crash & Burn-In warning-flags, n_censored_weights, wei_nsig_threshold & wei_limit]
    27     27.195     26.586      0.608  [idt_all, wdt_TotTime, wdt_UsrTime & wdt_SysTime (sec)]

## Synthesis Results - Best model ##

 1.58790E-05                             [chi2/Nl_eff]
    35.37075                             [adev (%)]

   121.89115                             [sum-of-x (%)]
 7.97027E-18                             [Flux_tot (units of input spectrum!)]
 4.18064E-13                             [Mini_tot (???)]
 2.10827E-13                             [Mcor_tot (???)]

  57.17                                  [v0_min  (km/s)]
   0.13                                  [vd_min  (km/s)]
-0.2791                                  [AV_min  (mag)]
 0.0000                                  [YAV_min (mag)]

# j     x_j(%)      Mini_j(%)     Mcor_j(%)     age_j(yr)     Z_j      (L/M)_j    YAV?  Mstars   component_j        a/Fe...       SSP_chi2r SSP_adev(%)   SSP_AV   SSP_x(%)
  1      0.0000     0.0000E+00    0.0000E+00    1.000000E+06  0.00400  1.094E-02    0   1.0000   age020_m42            0.0000     2.0684E-05    42.3228   3.1618   102.4445
  2      0.0000     0.0000E+00    0.0000E+00    3.160000E+06  0.00400  4.007E-02    0   0.9999   age045_m42            0.0000     2.0115E-05    42.2461   2.4295   111.1415
  3      0.4632     2.8537E-04    5.3691E-04    5.010000E+06  0.00400  2.539E-02    0   0.9488   age055_m42            0.0000     2.0333E-05    42.3332   2.7553   107.5765
  4      1.5105     9.0175E-04    1.6487E-03    6.610000E+06  0.00400  2.620E-02    0   0.9220   age061_m42            0.0000     1.9998E-05    42.0946   2.3578   111.2874
  5      0.0000     0.0000E+00    0.0000E+00    1.000000E+07  0.00400  1.322E-02    0   0.8862   age070_m42            0.0000     2.1220E-05    44.7511   2.1345   112.7748
  6      0.0000     0.0000E+00    0.0000E+00    1.445000E+07  0.00400  7.883E-03    0   0.8571   age078_m42            0.0000     2.1424E-05    44.8243   2.4597   109.6770
  7      0.0000     0.0000E+00    0.0000E+00    2.512000E+07  0.00400  5.251E-03    0   0.8174   age090_m42            0.0000     2.1615E-05    45.4831   2.0171   113.5127
  8      0.0000     0.0000E+00    0.0000E+00    4.000000E+07  0.00400  3.649E-03    0   0.7851   age104_m42            0.0000     2.1229E-05    44.9602   1.7791   114.8260
  9      0.0000     0.0000E+00    0.0000E+00    5.500000E+07  0.00400  3.098E-03    0   0.7629   age110_m42            0.0000     2.0430E-05    43.2924   1.9010   115.3719
 10      0.0000     0.0000E+00    0.0000E+00    1.015200E+08  0.00400  2.228E-03    0   0.7207   age116_m42            0.0000     2.0007E-05    42.2175   1.9010   115.9940
 11      0.0000     0.0000E+00    0.0000E+00    2.861200E+08  0.00400  1.093E-03    0   0.6648   age125_m42            0.0000     2.0548E-05    43.2134   1.3511   119.5664
 12     20.3750     4.8307E-01    6.0971E-01    5.088000E+08  0.00400  6.597E-04    0   0.6365   age130_m42            0.0000     1.9729E-05    41.3598   1.3031   121.2403
 13      0.0000     0.0000E+00    0.0000E+00    1.434000E+09  0.00400  2.132E-04    0   0.5798   age139_m42            0.0000     1.7925E-05    39.1721   0.2946   123.4806
 14      0.0000     0.0000E+00    0.0000E+00    4.250000E+09  0.00400  5.895E-05    0   0.5377   age158_m42            0.0000     1.7505E-05    38.1149  -0.1746   118.3165
 15      4.0974     1.8258E+00    1.8871E+00    7.500000E+09  0.00400  3.510E-05    0   0.5212   age171_m42            0.0000     1.7074E-05    36.7402  -0.3911   117.5055
 16      0.0000     0.0000E+00    0.0000E+00    1.300000E+10  0.00400  2.005E-05    0   0.5034   age193_m42            0.0000     1.6891E-05    35.7250  -0.5786   116.9223
 17      0.0000     0.0000E+00    0.0000E+00    1.800000E+10  0.00400  1.525E-05    0   0.4967   age213_m42            0.0000     1.7085E-05    36.1532  -0.5925   116.3534
 18      0.4607     5.8207E-04    1.1542E-03    1.000000E+06  0.00800  1.238E-02    0   1.0000   age020_m52            0.0000     2.0685E-05    42.3584   3.1581   102.6568
 19      0.0000     0.0000E+00    0.0000E+00    3.160000E+06  0.00800  3.074E-02    0   0.9966   age045_m52            0.0000     2.0638E-05    42.4262   3.0806   103.7047
 20      0.0000     0.0000E+00    0.0000E+00    5.010000E+06  0.00800  2.668E-02    0   0.9443   age055_m52            0.0000     2.0327E-05    42.4350   2.8403   106.3381
 21      0.0000     0.0000E+00    0.0000E+00    6.610000E+06  0.00800  2.136E-02    0   0.9177   age061_m52            0.0000     2.0571E-05    44.3872   1.6247   113.8077
 22      0.0000     0.0000E+00    0.0000E+00    1.000000E+07  0.00800  1.215E-02    0   0.8827   age070_m52            0.0000     2.1839E-05    45.8328   2.3304   112.1981
 23      0.0000     0.0000E+00    0.0000E+00    1.445000E+07  0.00800  8.717E-03    0   0.8552   age078_m52            0.0000     2.1388E-05    44.8960   2.4250   111.3461
 24      0.0000     0.0000E+00    0.0000E+00    2.512000E+07  0.00800  5.592E-03    0   0.8162   age090_m52            0.0000     2.1645E-05    45.5756   2.0820   114.8997
 25      0.3805     1.5277E-03    2.3754E-03    4.000000E+07  0.00800  3.896E-03    0   0.7841   age104_m52            0.0000     2.1177E-05    44.7981   1.9787   116.2306
 26      0.0000     0.0000E+00    0.0000E+00    1.015200E+08  0.00800  2.148E-03    0   0.7226   age116_m52            0.0000     2.0354E-05    43.2788   1.8869   116.6436
 27     10.7861     1.6998E-01    2.2526E-01    2.861200E+08  0.00800  9.925E-04    0   0.6683   age125_m52            0.0000     1.9382E-05    41.0079   1.3652   122.2419
 28      0.0000     0.0000E+00    0.0000E+00    9.047900E+08  0.00800  3.141E-04    0   0.6138   age135_m52            0.0000     1.8491E-05    38.9474   0.5166   128.2008
 29      0.0000     0.0000E+00    0.0000E+00    1.434000E+09  0.00800  1.719E-04    0   0.5853   age139_m52            0.0000     1.6968E-05    37.1046  -0.0952   124.4874
 30      6.7870     1.3485E+00    1.4975E+00    2.500000E+09  0.00800  7.872E-05    0   0.5600   age150_m52            0.0000     1.6236E-05    34.8712  -0.4157   121.3409
 31      0.0000     0.0000E+00    0.0000E+00    4.250000E+09  0.00800  4.336E-05    0   0.5426   age158_m52            0.0000     1.6644E-05    35.4817  -0.4188   120.1169
 32     14.9730     7.4134E+00    7.8192E+00    6.250000E+09  0.00800  3.159E-05    0   0.5319   age166_m52            0.0000     1.6368E-05    33.9959  -0.6575   120.5651
 33      0.0000     0.0000E+00    0.0000E+00    1.300000E+10  0.00800  1.361E-05    0   0.5073   age193_m52            0.0000     1.6881E-05    33.2570  -1.0000   113.1529
 34      0.0000     0.0000E+00    0.0000E+00    1.800000E+10  0.00800  9.886E-06    0   0.4990   age213_m52            0.0000     1.7701E-05    32.5021  -1.0000   106.8298
 35      2.0335     2.0599E-03    4.0848E-03    1.000000E+06  0.02000  1.544E-02    0   1.0000   age020_m62            0.0000     2.0725E-05    42.4104   3.1545   102.8467
 36      0.0000     0.0000E+00    0.0000E+00    3.160000E+06  0.02000  3.762E-02    0   0.9858   age045_m62            0.0000     2.0853E-05    42.5773   3.0948   103.8202
 37      0.0000     0.0000E+00    0.0000E+00    5.010000E+06  0.02000  3.296E-02    0   0.9342   age055_m62            0.0000     1.9898E-05    41.6923   2.7036   109.2696
 38      0.0000     0.0000E+00    0.0000E+00    8.710000E+06  0.02000  1.154E-02    0   0.8861   age067_m62            0.0000     2.6550E-05    52.5193   1.8942   114.4478
 39      0.0000     0.0000E+00    0.0000E+00    1.445000E+07  0.02000  7.663E-03    0   0.8472   age078_m62            0.0000     2.2719E-05    47.4121   2.0043   114.4500
 40      0.0000     0.0000E+00    0.0000E+00    2.512000E+07  0.02000  4.532E-03    0   0.8099   age090_m62            0.0000     2.2807E-05    47.4708   2.0007   114.1145
 41     10.8442     6.2060E-02    9.3467E-02    5.500000E+07  0.02000  2.733E-03    0   0.7595   age110_m62            0.0000     2.0660E-05    44.0687   1.9541   114.9309
 42      0.0000     0.0000E+00    0.0000E+00    1.609000E+08  0.02000  1.369E-03    0   0.6985   age120_m62            0.0000     1.9527E-05    41.4947   1.7444   119.3362
 43      0.0000     0.0000E+00    0.0000E+00    2.861200E+08  0.02000  9.013E-04    0   0.6714   age125_m62            0.0000     1.9207E-05    40.2338   1.4662   123.8080
 44      0.0146     4.5416E-04    5.8079E-04    5.088000E+08  0.02000  5.028E-04    0   0.6449   age130_m62            0.0000     1.8418E-05    38.1030   1.0355   128.2712
 45      0.0000     0.0000E+00    0.0000E+00    9.047900E+08  0.02000  2.428E-04    0   0.6179   age135_m62            0.0000     1.7463E-05    37.0257   0.4215   127.0434
 46     11.1088     1.3757E+00    1.6117E+00    1.434000E+09  0.02000  1.263E-04    0   0.5908   age139_m62            0.0000     1.6902E-05    36.0605  -0.0430   124.6486
 47     11.0449     2.8864E+00    3.2470E+00    2.500000E+09  0.02000  5.985E-05    0   0.5673   age150_m62            0.0000     1.6194E-05    33.6925  -0.4633   123.0533
 48      0.0000     0.0000E+00    0.0000E+00    4.250000E+09  0.02000  3.271E-05    0   0.5468   age158_m62            0.0000     1.5799E-05    31.4022  -0.8278   122.7357
 49      0.0000     0.0000E+00    0.0000E+00    1.000000E+10  0.02000  1.360E-05    0   0.5167   age181_m62            0.0000     1.6735E-05    29.9906  -1.0000   112.2556
 50      7.0628     1.5506E+01    1.5414E+01    1.800000E+10  0.02000  7.124E-06    0   0.5013   age213_m62            0.0000     1.9210E-05    29.9142  -1.0000   101.3175
 51      0.0000     0.0000E+00    0.0000E+00    1.000000E+06  0.05000  2.592E-02    0   0.9998   age020_m72            0.0000     2.0937E-05    42.7506   3.1504   102.7412
 52      0.0000     0.0000E+00    0.0000E+00    3.160000E+06  0.05000  4.845E-02    0   0.9577   age045_m72            0.0000     2.0348E-05    41.9416   2.9677   105.5701
 53      0.0000     0.0000E+00    0.0000E+00    5.010000E+06  0.05000  3.072E-02    0   0.9147   age055_m72            0.0000     2.2323E-05    46.0831   2.5616   110.0242
 54      0.0000     0.0000E+00    0.0000E+00    6.610000E+06  0.05000  1.455E-02    0   0.8877   age061_m72            0.0000     2.9534E-05    54.8562   1.9668   115.6183
 55      0.0000     0.0000E+00    0.0000E+00    1.000000E+07  0.05000  9.074E-03    0   0.8524   age070_m72            0.0000     2.2840E-05    46.2682   2.7406   109.9489
 56      0.0000     0.0000E+00    0.0000E+00    2.512000E+07  0.05000  4.250E-03    0   0.7902   age090_m72            0.0000     2.2021E-05    45.5946   2.4369   112.4261
 57      0.0000     0.0000E+00    0.0000E+00    4.000000E+07  0.05000  3.087E-03    0   0.7618   age104_m72            0.0000     2.1732E-05    45.2209   2.2062   114.4180
 58      0.0000     0.0000E+00    0.0000E+00    1.015200E+08  0.05000  1.700E-03    0   0.7096   age116_m72            0.0000     2.0565E-05    43.2948   1.9157   118.7589
 59      0.0000     0.0000E+00    0.0000E+00    2.861200E+08  0.05000  7.384E-04    0   0.6633   age125_m72            0.0000     1.9308E-05    39.9589   1.3223   126.3454
 60      0.0000     0.0000E+00    0.0000E+00    5.088000E+08  0.05000  3.819E-04    0   0.6372   age130_m72            0.0000     1.7923E-05    37.5540   0.7737   128.7416
 61      0.0000     0.0000E+00    0.0000E+00    9.047900E+08  0.05000  1.676E-04    0   0.6110   age135_m72            0.0000     1.7540E-05    36.0474   0.0352   126.5152
 62      0.0000     0.0000E+00    0.0000E+00    1.434000E+09  0.05000  8.837E-05    0   0.5874   age139_m72            0.0000     1.6646E-05    34.0474  -0.4637   125.2999
 63      0.0000     0.0000E+00    0.0000E+00    2.500000E+09  0.05000  4.233E-05    0   0.5598   age150_m72            0.0000     1.5764E-05    30.6343  -0.8529   124.2104
 64      0.0000     0.0000E+00    0.0000E+00    6.250000E+09  0.05000  1.435E-05    0   0.5249   age166_m72            0.0000     1.7420E-05    29.7265  -1.0000   106.7605
 65      0.0000     0.0000E+00    0.0000E+00    1.300000E+10  0.05000  6.513E-06    0   0.5036   age193_m72            0.0000     2.1689E-05    30.2156  -1.0000    95.0096
 66     19.9488     6.8923E+01    6.7584E+01    1.800000E+10  0.05000  4.527E-06    0   0.4945   age213_m72            0.0000     2.4882E-05    30.7684  -1.0000    88.1568


## Synthesis Results - Average & Chains ##

# j      x_j: min, <> & last-chain-values for 1 ...  7 chains
  1      0.0000     13.6343      3.5936      1.8880      8.4256      1.3004      2.3387      8.8130      2.5006
  2      0.0000      0.9371      0.4853      0.5030      3.4549      1.5879      0.0000      2.4374      0.0000
  3      0.4632      1.0126      0.0000      1.1822      0.0000      0.0000      1.6079      3.5503      1.4273
  4      1.5105      1.1936      2.0793      0.0000      0.1385      3.1748      3.4434      0.0000      4.4605
  5      0.0000      0.9442      0.5652      0.9539      0.2845      0.0000      1.6878      0.9430      1.0923
  6      0.0000      0.9999      2.6259      2.9754      0.0570      0.4011      0.0000      0.0000      0.9668
  7      0.0000      0.8936      1.0715      1.1365      2.3722      0.4187      3.1557      0.0000      0.9662
  8      0.0000      1.1694      5.3081      1.4873      0.3757      2.6523      2.7641      1.8159      5.4510
  9      0.0000      1.2492      4.4507      1.2779      0.8058      0.0000      0.9645      0.9214      0.0000
 10      0.0000      0.9461      6.0615      2.2253      0.8749      0.0000      3.0631      0.4261      0.0000
 11      0.0000      1.3616      0.2298      3.8249      1.2434      0.2052      0.0000      0.0000      0.8771
 12     20.3750      1.6612      0.0000      0.0000      0.2486      2.2147      2.3101      0.0000      7.1650
 13      0.0000      0.9615      0.0000      3.0535      2.3441      2.9359      5.5783      0.1269      0.0000
 14      0.0000      1.1171      1.3845      1.3858      2.8884      1.3191      2.0733      4.1658      3.2015
 15      4.0974      0.9521      0.5139      0.0000      0.4390      0.0000      0.0000      0.6778      1.6222
 16      0.0000      3.9489      0.9410      7.8302      3.4956      0.3529      0.8409      3.9752      3.1786
 17      0.0000      2.2784      2.0386      2.2966      0.0000      1.3507      0.2698      2.6060      2.5145
 18      0.4607     10.3459      2.0594      4.7702      3.5199      5.7248      8.9585      7.7775      6.6036
 19      0.0000      1.1014      0.5533      3.3965      1.9628      3.2692      0.0000      0.0760      2.2018
 20      0.0000      0.6834      2.6743      0.0000      0.0000      1.4401      3.2655      0.0000      0.0000
 21      0.0000      1.7303      0.0000      1.0555      3.2454      1.1073      0.9237      0.3281      1.7959
 22      0.0000      0.9415      0.5569      0.3627      5.5374      3.1924      0.7775      0.0000      0.0000
 23      0.0000      1.2047      3.1573      1.9212      1.8275      0.0380      1.6918      0.7850      3.9612
 24      0.0000      0.9139      0.0000      0.3864      0.0000      1.5751      0.2977      3.4049      0.2126
 25      0.3805      0.8618      2.1606      0.0000      0.4094      0.0000      3.0496      0.0000      3.1533
 26      0.0000      1.0011      0.0579      0.0000      0.8260      0.0000      0.9308      1.4894      0.0000
 27     10.7861      1.3926      0.0000      4.1895      3.1109      5.8644      0.0000      2.0046      1.7364
 28      0.0000      1.2191      1.5958      2.0498      1.3248      0.4163      7.3200      5.8847      1.7066
 29      0.0000      1.2618      5.5594      0.7726      2.5659     10.7622      2.8146      2.8992      0.0000
 30      6.7870      1.0884      6.7812      2.0601      0.4855      1.1812      0.0000      0.2478      2.7678
 31      0.0000      1.4803      3.2575      3.7538      0.0000      0.3971      0.0000      0.3088      1.3476
 32     14.9730      1.4072      1.9916      2.2149      5.5738      7.5434      1.5415      0.0000      0.9019
 33      0.0000      1.3652      0.5567      0.6101      0.0000      0.0000      0.8174      4.1310      4.8791
 34      0.0000      5.0832      5.4970      5.0124      0.3743      5.8920      3.4429      3.5445      0.0000
 35      2.0335      8.0290      6.9452      3.3520      8.2374      1.5591      0.0000      5.1025      0.9056
 36      0.0000      1.0564      1.7791      0.0000      0.2479      3.7302      0.2904      0.0000      0.0279
 37      0.0000      0.9820      0.0000      3.1664      4.1956      0.0000      1.6102      0.0105      0.4695
 38      0.0000      1.2601      0.0000      0.7422      4.5325      0.0000      3.2230      4.5119      0.0000
 39      0.0000      1.2022      0.0000      8.6929      1.1646      2.0927      3.8619      1.5731      0.0000
 40      0.0000      1.1110      0.5576      0.0000      0.0000      2.7004      0.2249      0.0000      0.0000
 41     10.8442      0.8668      1.1495      1.2848      1.0755      0.0000      0.0000      0.0000      1.7718
 42      0.0000      1.1382      1.0661      0.0000      0.4574      0.0000      1.9794      2.2907      0.0000
 43      0.0000      0.7277      2.6952      0.9175      0.4270      0.9659      1.4345      0.4396      0.0000
 44      0.0146      1.1199      0.3957      0.6152      3.2167      0.0000      2.2764      5.9454      4.2266
 45      0.0000      1.1772      0.0000      0.7224      0.7803      1.8584      0.0000      0.9774      7.2064
 46     11.1088      1.0587      1.0833      0.9691      2.0583      1.5681      0.7408      0.0000      0.5436
 47     11.0449      1.0028      0.4949      0.8704      3.6209      1.3970      2.1521      0.3738      8.2226
 48      0.0000      1.0258      4.6474      2.9753      2.0872      2.7507      1.2522      0.0000      0.0000
 49      0.0000      2.6679      2.4474      0.0000      4.0063      3.5666      2.5710      5.5663      6.3173
 50      7.0628      2.5475      0.7144      5.2023      0.5292      0.0000      1.2719      3.3907      4.3747
 51      0.0000      2.4620      3.7000      0.0000      0.0000      4.8101      0.7024      2.5791      2.3263
 52      0.0000      0.7949      4.0284      0.0000      0.9522      1.0573      1.3604      0.0000      0.7224
 53      0.0000      1.0611      0.6711      0.2011      0.3593      0.8344      1.3678      0.0462      0.0000
 54      0.0000      1.1787      0.0000      1.3988      3.5600      1.1097      1.2370      0.4237      0.2999
 55      0.0000      1.4549      2.5868      1.9340      0.0000      3.8179      0.4303      2.2621      1.4149
 56      0.0000      0.8525      0.8961      0.7737      2.3726      1.4161      1.0647      0.2431      0.4012
 57      0.0000      1.3280      0.0000      0.5512      1.3293      0.0000      2.1281      1.4693      2.2816
 58      0.0000      1.2080      1.1456      1.2322      0.9641      0.5290      0.0000      0.0000      0.2068
 59      0.0000      1.5491      2.6250      2.8997      0.4511      4.7380      1.8703      0.0000      1.4863
 60      0.0000      1.1135      3.0159      0.9719      1.0416      0.1721      2.2870      5.6035      0.2405
 61      0.0000      0.9100      0.0000      3.8445      1.6031      0.0000      0.0000      0.6457      0.0000
 62      0.0000      0.8076      0.0000      0.1645      0.0000      0.9009      0.7289      0.0000      0.0000
 63      0.0000      1.3758      5.2173      0.0900      2.7442      0.0000     11.7888      5.5958      4.5594
 64      0.0000      1.2594      1.7280      0.7488      2.3318      6.2284      0.0000      1.4434      0.0000
 65      0.0000      2.2679      3.1107      1.4841      5.8337      3.2014      2.9683      2.2734      0.0000
 66     19.9488      4.3654      2.7098      3.9841      3.1594      2.5849      3.6488      1.0473      4.6142

# j      m_j: min, <> & last-chain-values for 1 ...  7 chains
  1  0.0000E+00  7.6890E-02  2.2325E-02  1.0067E-02  5.2591E-02  7.7478E-03  1.5740E-02  5.3943E-02  1.3574E-02
  2  0.0000E+00  1.4427E-03  8.2305E-04  7.3215E-04  5.8871E-03  2.5827E-03  0.0000E+00  4.0728E-03  0.0000E+00
  3  5.3691E-04  2.3345E-03  0.0000E+00  2.5770E-03  0.0000E+00  0.0000E+00  4.4240E-03  8.8839E-03  3.1675E-03
  4  1.6487E-03  2.5914E-03  4.9732E-03  0.0000E+00  3.3273E-04  7.2820E-03  8.9218E-03  0.0000E+00  9.3216E-03
  5  0.0000E+00  3.9051E-03  2.5753E-03  3.7300E-03  1.3024E-03  0.0000E+00  8.3302E-03  4.2329E-03  4.3484E-03
  6  0.0000E+00  6.7071E-03  1.9405E-02  1.8871E-02  4.2332E-04  2.8427E-03  0.0000E+00  0.0000E+00  6.2423E-03
  7  0.0000E+00  8.5817E-03  1.1337E-02  1.0320E-02  2.5216E-02  4.2484E-03  3.6168E-02  0.0000E+00  8.9316E-03
  8  0.0000E+00  1.5523E-02  7.7620E-02  1.8667E-02  5.5203E-03  3.7195E-02  4.3786E-02  2.6162E-02  6.9648E-02
  9  0.0000E+00  1.8980E-02  7.4491E-02  1.8358E-02  1.3549E-02  0.0000E+00  1.7487E-02  1.5194E-02  0.0000E+00
 10  0.0000E+00  1.8881E-02  1.3326E-01  4.1991E-02  1.9325E-02  0.0000E+00  7.2951E-02  9.2303E-03  0.0000E+00
 11  0.0000E+00  5.1095E-02  9.5008E-03  1.3571E-01  5.1643E-02  8.1361E-03  0.0000E+00  0.0000E+00  3.1680E-02
 12  6.0971E-01  9.8886E-02  0.0000E+00  0.0000E+00  1.6379E-02  1.3928E-01  1.6410E-01  0.0000E+00  4.1053E-01
 13  0.0000E+00  1.6132E-01  0.0000E+00  4.8440E-01  4.3532E-01  5.2040E-01  1.1169E+00  2.3118E-02  0.0000E+00
 14  0.0000E+00  6.2861E-01  8.5828E-01  7.3736E-01  1.7991E+00  7.8424E-01  1.3924E+00  2.5444E+00  1.7342E+00
 15  1.8871E+00  8.7226E-01  5.1865E-01  0.0000E+00  4.4511E-01  0.0000E+00  0.0000E+00  6.7395E-01  1.4305E+00
 16  0.0000E+00  6.1168E+00  1.6057E+00  1.1468E+01  5.9931E+00  5.7759E-01  1.5545E+00  6.6833E+00  4.7393E+00
 17  0.0000E+00  4.5783E+00  4.5127E+00  4.3635E+00  0.0000E+00  2.8675E+00  6.4695E-01  5.6837E+00  4.8635E+00
 18  1.1542E-03  5.1558E-02  1.1306E-02  2.2477E-02  1.9415E-02  3.0141E-02  5.3278E-02  4.2067E-02  3.1677E-02
 19  0.0000E+00  2.2031E-03  1.2192E-03  6.4234E-03  4.3453E-03  6.9082E-03  0.0000E+00  1.6489E-04  4.2391E-03
 20  0.0000E+00  1.4924E-03  6.4332E-03  0.0000E+00  0.0000E+00  3.3222E-03  8.5096E-03  0.0000E+00  0.0000E+00
 21  0.0000E+00  4.5865E-03  0.0000E+00  2.6453E-03  9.5213E-03  3.1008E-03  2.9218E-03  9.4386E-04  4.5821E-03
 22  0.0000E+00  4.2198E-03  2.7499E-03  1.5369E-03  2.7471E-02  1.5117E-02  4.1589E-03  0.0000E+00  0.0000E+00
 23  0.0000E+00  7.2918E-03  2.1053E-02  1.0995E-02  1.2243E-02  2.4294E-04  1.2220E-02  5.1568E-03  2.3078E-02
 24  0.0000E+00  8.2297E-03  0.0000E+00  3.2903E-03  0.0000E+00  1.4984E-02  3.1991E-03  3.3278E-02  1.8432E-03
 25  2.3754E-03  1.0701E-02  2.9555E-02  0.0000E+00  5.6268E-03  0.0000E+00  4.5189E-02  0.0000E+00  3.7687E-02
 26  0.0000E+00  2.0777E-02  1.3232E-03  0.0000E+00  1.8974E-02  0.0000E+00  2.3054E-02  3.3551E-02  0.0000E+00
 27  2.2526E-01  5.7853E-02  0.0000E+00  1.6456E-01  1.4304E-01  2.5738E-01  0.0000E+00  9.0386E-02  6.9434E-02
 28  0.0000E+00  1.4698E-01  2.1195E-01  2.3366E-01  1.7679E-01  5.3031E-02  1.0532E+00  7.7003E-01  1.9805E-01
 29  0.0000E+00  2.6506E-01  1.2865E+00  1.5345E-01  5.9659E-01  2.3884E+00  7.0558E-01  6.6101E-01  0.0000E+00
 30  1.4975E+00  4.7768E-01  3.2787E+00  8.5490E-01  2.3583E-01  5.4767E-01  0.0000E+00  1.1806E-01  1.1693E+00
 31  0.0000E+00  1.1429E+00  2.7705E+00  2.7402E+00  0.0000E+00  3.2392E-01  0.0000E+00  2.5878E-01  1.0014E+00
 32  7.8192E+00  1.4618E+00  2.2792E+00  2.1755E+00  6.4086E+00  8.2786E+00  1.9110E+00  0.0000E+00  9.0177E-01
 33  0.0000E+00  3.1395E+00  1.4103E+00  1.3266E+00  0.0000E+00  0.0000E+00  2.2431E+00  1.0311E+01  1.0800E+01
 34  0.0000E+00  1.5830E+01  1.8858E+01  1.4759E+01  1.2903E+00  1.9385E+01  1.2795E+01  1.1980E+01  0.0000E+00
 35  4.0848E-03  3.2083E-02  3.0572E-02  1.2664E-02  3.6431E-02  6.5817E-03  0.0000E+00  2.2129E-02  3.4831E-03
 36  0.0000E+00  1.7078E-03  3.1685E-03  0.0000E+00  4.4367E-04  6.3711E-03  5.6024E-04  0.0000E+00  4.3421E-05
 37  0.0000E+00  1.7171E-03  0.0000E+00  5.2353E-03  8.1203E-03  0.0000E+00  3.3601E-03  1.9848E-05  7.9021E-04
 38  0.0000E+00  5.9693E-03  0.0000E+00  3.3243E-03  2.3765E-02  0.0000E+00  1.8221E-02  2.3199E-02  0.0000E+00
 39  0.0000E+00  8.1998E-03  0.0000E+00  5.6063E-02  8.7922E-03  1.5080E-02  3.1436E-02  1.1646E-02  0.0000E+00
 40  0.0000E+00  1.2249E-02  6.7732E-03  0.0000E+00  0.0000E+00  3.1455E-02  2.9595E-03  0.0000E+00  0.0000E+00
 41  9.3467E-02  1.4861E-02  2.1711E-02  2.0828E-02  2.0410E-02  0.0000E+00  0.0000E+00  0.0000E+00  2.9241E-02
 42  0.0000E+00  3.5828E-02  3.6969E-02  0.0000E+00  1.5935E-02  0.0000E+00  7.4360E-02  7.8265E-02  0.0000E+00
 43  0.0000E+00  3.3442E-02  1.3646E-01  3.9868E-02  2.1718E-02  4.6898E-02  7.8679E-02  2.1928E-02  0.0000E+00
 44  5.8079E-04  8.8623E-02  3.4497E-02  4.6031E-02  2.8174E-01  0.0000E+00  2.1497E-01  5.1063E-01  3.2193E-01
 45  0.0000E+00  1.8482E-01  0.0000E+00  1.0725E-01  1.3559E-01  3.0827E-01  0.0000E+00  1.6656E-01  1.0891E+00
 46  1.6117E+00  3.0553E-01  3.4441E-01  2.6443E-01  6.5747E-01  4.7809E-01  2.5513E-01  0.0000E+00  1.5099E-01
 47  3.2470E+00  5.8643E-01  3.1883E-01  4.8126E-01  2.3437E+00  8.6308E-01  1.5019E+00  2.3726E-01  4.6285E+00
 48  0.0000E+00  1.0580E+00  5.2802E+00  2.9014E+00  2.3825E+00  2.9971E+00  1.5412E+00  0.0000E+00  0.0000E+00
 49  0.0000E+00  6.2534E+00  6.3196E+00  0.0000E+00  1.0394E+01  8.8320E+00  7.1917E+00  1.4161E+01  1.4253E+01
 50  1.5414E+01  1.1060E+01  3.4166E+00  2.1354E+01  2.5430E+00  0.0000E+00  6.5895E+00  1.5977E+01  1.8281E+01
 51  0.0000E+00  5.8589E-03  9.6999E-03  0.0000E+00  0.0000E+00  1.2093E-02  1.9948E-03  6.6615E-03  5.3287E-03
 52  0.0000E+00  9.6936E-04  5.4120E-03  0.0000E+00  1.2852E-03  1.3622E-03  1.9799E-03  0.0000E+00  8.4799E-04
 53  0.0000E+00  1.9493E-03  1.3580E-03  3.4926E-04  7.3063E-04  1.6193E-03  2.9985E-03  9.2125E-05  0.0000E+00
 54  0.0000E+00  4.4366E-03  0.0000E+00  4.9783E-03  1.4831E-02  4.4130E-03  5.5567E-03  1.7309E-03  1.0866E-03
 55  0.0000E+00  8.4319E-03  1.6516E-02  1.0598E-02  0.0000E+00  2.3376E-02  2.9762E-03  1.4229E-02  7.8933E-03
 56  0.0000E+00  9.7788E-03  1.1324E-02  8.3918E-03  3.0123E-02  1.7161E-02  1.4576E-02  3.0261E-03  4.4295E-03
 57  0.0000E+00  2.0219E-02  0.0000E+00  7.9341E-03  2.2400E-02  0.0000E+00  3.8666E-02  2.4279E-02  3.3436E-02
 58  0.0000E+00  3.1110E-02  3.2501E-02  3.0002E-02  2.7480E-02  1.4392E-02  0.0000E+00  0.0000E+00  5.1256E-03
 59  0.0000E+00  8.5852E-02  1.6026E-01  1.5195E-01  2.7671E-02  2.7741E-01  1.2370E-01  0.0000E+00  7.9289E-02
 60  0.0000E+00  1.1462E-01  3.4201E-01  9.4590E-02  1.1867E-01  1.8716E-02  2.8095E-01  6.2605E-01  2.3826E-02
 61  0.0000E+00  2.0468E-01  0.0000E+00  8.1759E-01  3.9909E-01  0.0000E+00  0.0000E+00  1.5763E-01  0.0000E+00
 62  0.0000E+00  3.3121E-01  0.0000E+00  6.3789E-02  0.0000E+00  3.9033E-01  3.5672E-01  0.0000E+00  0.0000E+00
 63  0.0000E+00  1.1225E+00  4.6894E+00  6.9420E-02  2.4781E+00  0.0000E+00  1.1479E+01  4.9553E+00  3.5807E+00
 64  0.0000E+00  2.8421E+00  4.2958E+00  1.5977E+00  5.8243E+00  1.4849E+01  0.0000E+00  3.5354E+00  0.0000E+00
 65  0.0000E+00  1.0819E+01  1.6347E+01  6.6939E+00  3.0802E+01  1.6134E+01  1.6899E+01  1.1771E+01  0.0000E+00
 66  6.7584E+01  2.9419E+01  2.0118E+01  2.5387E+01  2.3566E+01  1.8404E+01  2.9346E+01  7.6605E+00  2.9932E+01

# AV, chi2 & Mass for <> & i_chain = 1 ...  7 solutions
AV      -0.2791      0.5088      0.4032      0.5014      0.5258      0.3868      0.5149      0.5264      0.3354
chi2 1.5879E-05  2.6291E-04  1.8598E-05  1.8592E-05  1.8944E-05  1.8277E-05  1.8361E-05  1.8684E-05  1.7800E-05
Mass 2.1083E-13  3.0537E-13  2.4052E-13  3.1976E-13  2.8226E-13  2.4534E-13  2.5797E-13  2.8806E-13  2.5131E-13
  57.17                                  [v0_min (km/s) before EX0s...]
   0.13                                  [vd_min (km/s) before EX0s...]


## Synthetic spectrum (Best Model) ##l_obs f_obs f_syn wei
 3478    [Nl_obs]
 3741.00    0.03006   0.77328    0.000
 3742.00   -0.09336   0.77715    0.000
 3743.00   -0.10526   0.73219    0.000
 3744.00    0.05143   0.67914    0.000
 3745.00    0.30634   0.64153    0.025
 3746.00    0.50176   0.60129    0.025
 3747.00    0.66699   0.56462    0.025
 3748.00    0.66948   0.52786    0.027
 3749.00    0.60041   0.46050    0.031
 3750.00    0.71179   0.41673    0.029
 3751.00    0.89129   0.46132    0.025
 3752.00    0.87031   0.56086    0.024
 3753.00    0.78508   0.64553    0.023
 3754.00    0.92963   0.71250    0.023
 3755.00    1.13577   0.78416    0.024
 3756.00    1.32656   0.82558    0.024
 3757.00    1.51397   0.79684    0.024
 3758.00    1.31721   0.71600    0.025
 3759.00    1.05338   0.66157    0.026
 3760.00    0.63332   0.68077    0.030
 3761.00    0.19250   0.72967    0.035
 3762.00    0.23588   0.75982    0.028
 3763.00    0.32476   0.76535    0.023
 3764.00    0.83878   0.74903    0.023
 3765.00    1.37732   0.73699    0.024
 3766.00    0.97681   0.72755    0.023
 3767.00    0.55898   0.68136    0.023
 3768.00    0.74349   0.63684    0.024
 3769.00    0.91370   0.63104    0.025
 3770.00    0.73673   0.61952    0.023
 3771.00    0.56519   0.59519    0.022
 3772.00    0.46497   0.61900    0.021
 3773.00    0.38747   0.68908    0.021
 3774.00    0.50938   0.74653    0.021
 3775.00    0.59176   0.77052    0.021
 3776.00    0.41782   0.78490    0.021
 3777.00    0.26946   0.81093    0.021
 3778.00    0.25062   0.84222    0.020
 3779.00    0.24982   0.86829    0.020
 3780.00    0.32291   0.90432    0.021
 3781.00    0.39440   0.93777    0.021
 3782.00    0.46047   0.94602    0.021
 3783.00    0.58010   0.94833    0.022
 3784.00    0.85287   0.96461    0.022
 3785.00    0.94723   0.96707    0.022
 3786.00    0.60569   0.91270    0.022
 3787.00    0.23624   0.83442    0.023
 3788.00   -0.19202   0.79157    0.000
 3789.00   -0.32935   0.77335    0.000
 3790.00    0.06621   0.76022    0.022
 3791.00    0.31829   0.76294    0.021
 3792.00    0.34067   0.77607    0.021
 3793.00    0.45433   0.75831    0.021
 3794.00    0.69617   0.69898    0.022
 3795.00    0.75130   0.63323    0.022
 3796.00    0.57563   0.59064    0.021
 3797.00    0.41230   0.55427    0.021
 3798.00    0.26243   0.50348    0.021
 3799.00    0.12407   0.48056    0.021
 3800.00   -0.00323   0.52989    0.000
 3801.00   -0.02202   0.62483    0.000
 3802.00    0.05114   0.70675    0.022
 3803.00    0.56218   0.76913    0.023
 3804.00    1.39998   0.82558    0.026
 3805.00    1.52642   0.85415    0.025
 3806.00    1.18654   0.84864    0.022
 3807.00    0.81659   0.82768    0.021
 3808.00    0.42940   0.82792    0.020
 3809.00    0.34603   0.86739    0.020
 3810.00    0.41452   0.91876    0.020
 3811.00    0.32520   0.94831    0.020
 3812.00    0.16765   0.93956    0.021
 3813.00    0.34144   0.89302    0.020
 3814.00    0.63811   0.83551    0.020
 3815.00    0.75071   0.79893    0.020
 3816.00    0.80545   0.78748    0.020
 3817.00    0.62348   0.80419    0.021
 3818.00    0.37941   0.83661    0.023
 3819.00    0.45811   0.82924    0.021
 3820.00    0.60597   0.76802    0.020
 3821.00    0.47346   0.72550    0.020
 3822.00    0.29337   0.75265    0.019
 3823.00    0.23693   0.79777    0.019
 3824.00    0.19635   0.78962    0.019
 3825.00    0.26292   0.73191    0.019
 3826.00    0.33910   0.68499    0.019
 3827.00    0.37684   0.66976    0.020
 3828.00    0.41251   0.66195    0.020
 3829.00    0.46908   0.65096    0.021
 3830.00    0.52455   0.64319    0.022
 3831.00    0.45162   0.63133    0.021
 3832.00    0.39179   0.58650    0.021
 3833.00    0.62309   0.51446    0.021
 3834.00    0.81201   0.45887    0.022
 3835.00    0.47406   0.43111    0.021
 3836.00    0.17425   0.43485    0.021
 3837.00    0.19680   0.46667    0.022
 3838.00    0.26462   0.49449    0.022
 3839.00    0.61714   0.51654    0.022
 3840.00    0.85306   0.54810    0.022
 3841.00    0.51362   0.58732    0.021
 3842.00    0.28746   0.64951    0.021
 3843.00    0.51474   0.72774    0.021
 3844.00    0.71670   0.78519    0.022
 3845.00    0.83443   0.81156    0.024
 3846.00    0.93249   0.82034    0.025
 3847.00    0.97534   0.83497    0.000
 3848.00    1.02388   0.85906    0.000
 3849.00    1.08610   0.86423    0.000
 3850.00    1.13675   0.84150    0.000
 3851.00    1.16344   0.83740    0.000
 3852.00    1.15886   0.87066    0.000
 3853.00    1.09788   0.89564    0.000
 3854.00    0.88844   0.89115    0.000
 3855.00    0.44485   0.87086    0.000
 3856.00    0.28756   0.84911    0.000
 3857.00    0.52663   0.83681    0.000
 3858.00    0.72874   0.83541    0.000
 3859.00    0.88580   0.81461    0.000
 3860.00    1.01630   0.78078    0.000
 3861.00    1.11828   0.78674    0.000
 3862.00    1.16926   0.84313    0.000
 3863.00    1.17191   0.89860    0.000
 3864.00    1.03185   0.91999    0.000
 3865.00    0.77257   0.91303    0.000
 3866.00    0.76968   0.89438    0.000
 3867.00    0.95536   0.88515    0.000
 3868.00    0.97055   0.88838    0.000
 3869.00    0.87561   0.88879    0.000
 3870.00    0.82694   0.87405    0.000
 3871.00    0.80441   0.83996    0.000
 3872.00    1.03748   0.80050    0.000
 3873.00    1.39627   0.78190    0.000
 3874.00    1.19132   0.80514    0.000
 3875.00    0.74666   0.85554    0.000
 3876.00    0.48919   0.88661    0.000
 3877.00    0.29990   0.86634    0.000
 3878.00    0.26638   0.80440    0.000
 3879.00    0.28088   0.75384    0.000
 3880.00    0.45863   0.76141    0.000
 3881.00    0.67828   0.78247    0.021
 3882.00    0.87731   0.75805    0.021
 3883.00    1.07202   0.72058    0.021
 3884.00    0.80333   0.72189    0.020
 3885.00    0.45822   0.71997    0.020
 3886.00    0.56118   0.65324    0.020
 3887.00    0.71963   0.56675    0.021
 3888.00    0.62450   0.51921    0.021
 3889.00    0.50766   0.49990    0.020
 3890.00    0.52397   0.51527    0.020
 3891.00    0.54692   0.58852    0.020
 3892.00    0.36001   0.68248    0.020
 3893.00    0.17123   0.74859    0.020
 3894.00    0.08359   0.77519    0.020
 3895.00    0.00848   0.77931    0.020
 3896.00    0.18956   0.78363    0.019
 3897.00    0.35858   0.81525    0.019
 3898.00    0.38496   0.85476    0.019
 3899.00    0.42150   0.85650    0.018
 3900.00    0.54070   0.84802    0.018
 3901.00    0.65284   0.87269    0.018
 3902.00    0.72180   0.90917    0.018
 3903.00    0.79033   0.91016    0.018
 3904.00    0.85680   0.89593    0.017
 3905.00    0.90780   0.88982    0.016
 3906.00    0.89823   0.86873    0.016
 3907.00    0.89535   0.86755    0.017
 3908.00    0.91423   0.91807    0.017
 3909.00    0.91004   0.97646    0.017
 3910.00    0.84222   1.00573    0.018
 3911.00    0.81972   1.01658    0.018
 3912.00    0.90427   1.02911    0.018
 3913.00    0.93710   1.03231    0.018
 3914.00    0.86439   1.01668    0.019
 3915.00    0.79271   1.00574    0.019
 3916.00    0.72287   1.00206    0.019
 3917.00    0.81151   0.98456    0.020
 3918.00    1.14643   0.96887    0.020
 3919.00    1.34458   0.95035    0.021
 3920.00    1.35609   0.91449    0.021
 3921.00    1.30642   0.87686    0.021
 3922.00    1.18326   0.86769    0.021
 3923.00    0.92714   0.88559    0.021
 3924.00    0.53022   0.90327    0.021
 3925.00    0.52117   0.90972    0.020
 3926.00    0.87444   0.88764    0.021
 3927.00    1.16048   0.84211    0.021
 3928.00    1.39114   0.79311    0.021
 3929.00    1.29564   0.73911    0.021
 3930.00    0.96369   0.68393    0.021
 3931.00    0.67033   0.63668    0.021
 3932.00    0.40154   0.58742    0.020
 3933.00    0.57660   0.53263    0.021
 3934.00    0.99868   0.49651    0.022
 3935.00    1.04253   0.50323    0.022
 3936.00    0.90329   0.55027    0.021
 3937.00    1.08552   0.62024    0.021
 3938.00    1.40216   0.68900    0.021
 3939.00    1.30331   0.75015    0.021
 3940.00    1.05583   0.80080    0.021
 3941.00    0.88884   0.83458    0.020
 3942.00    0.74618   0.84694    0.020
 3943.00    0.60172   0.84226    0.020
 3944.00    0.45681   0.82825    0.020
 3945.00    0.76482   0.83701    0.020
 3946.00    1.16518   0.89170    0.020
 3947.00    1.43415   0.94147    0.020
 3948.00    1.68208   0.94157    0.021
 3949.00    1.36269   0.93029    0.021
 3950.00    0.97557   0.94963    0.020
 3951.00    0.94487   0.98227    0.020
 3952.00    0.94319   0.98484    0.021
 3953.00    1.07858   0.95839    0.020
 3954.00    1.22027   0.95792    0.020
 3955.00    1.08430   0.98855    0.020
 3956.00    0.94963   0.97623    0.020
 3957.00    1.06779   0.92304    0.020
 3958.00    1.18486   0.89985    0.020
 3959.00    1.28128   0.91370    0.020
 3960.00    1.35601   0.91124    0.000
 3961.00    1.18619   0.84737    0.000
 3962.00    1.02037   0.74604    0.000
 3963.00    0.88595   0.68198    0.000
 3964.00    0.82181   0.65752    0.000
 3965.00    1.17472   0.62049    0.000
 3966.00    1.40994   0.55201    0.000
 3967.00    1.09257   0.46180    0.000
 3968.00    0.77659   0.37477    0.000
 3969.00    0.46590   0.31774    0.000
 3970.00    0.32300   0.30476    0.000
 3971.00    0.71640   0.34016    0.000
 3972.00    1.02181   0.41356    0.000
 3973.00    1.08893   0.49611    0.000
 3974.00    1.09694   0.57269    0.000
 3975.00    0.96767   0.64961    0.000
 3976.00    1.03897   0.72406    0.000
 3977.00    1.51310   0.78132    0.000
 3978.00    1.65644   0.83392    0.000
 3979.00    1.22117   0.89399    0.000
 3980.00    0.97065   0.94948    0.000
 3981.00    1.00301   0.98287    0.021
 3982.00    1.09967   0.98056    0.021
 3983.00    1.28284   0.96657    0.021
 3984.00    1.48467   0.97221    0.022
 3985.00    1.70861   0.99495    0.021
 3986.00    1.86216   1.01986    0.021
 3987.00    1.94223   1.03615    0.021
 3988.00    1.66452   1.05905    0.021
 3989.00    1.05729   1.08584    0.020
 3990.00    1.06707   1.07931    0.020
 3991.00    1.57779   1.06662    0.020
 3992.00    1.71745   1.08776    0.020
 3993.00    1.59200   1.11764    0.020
 3994.00    1.27199   1.12720    0.020
 3995.00    0.83001   1.11235    0.020
 3996.00    0.92873   1.08881    0.020
 3997.00    1.32377   1.06108    0.020
 3998.00    1.19068   1.03921    0.019
 3999.00    0.80603   1.05736    0.019
 4000.00    0.75178   1.11727    0.019
 4001.00    0.83334   1.16120    0.019
 4002.00    1.00584   1.16781    0.019
 4003.00    1.21027   1.17433    0.019
 4004.00    1.15232   1.16883    0.019
 4005.00    1.01663   1.10367    0.019
 4006.00    1.22539   1.02241    0.020
 4007.00    1.51876   1.02055    0.020
 4008.00    1.40404   1.08544    0.020
 4009.00    1.20819   1.13651    0.019
 4010.00    0.96548   1.15067    0.019
 4011.00    0.71549   1.15537    0.019
 4012.00    0.85315   1.16323    0.019
 4013.00    1.03539   1.16740    0.019
 4014.00    1.02514   1.17114    0.019
 4015.00    1.00000   1.17949    0.019
 4016.00    1.16112   1.19536    0.020
 4017.00    1.33009   1.19121    0.020
 4018.00    1.33917   1.16636    0.020
 4019.00    1.34160   1.17387    0.020
 4020.00    1.11643   1.20924    0.020
 4021.00    0.90770   1.21241    0.019
 4022.00    0.98884   1.18767    0.019
 4023.00    1.07773   1.17538    0.019
 4024.00    1.25000   1.16412    0.019
 4025.00    1.37470   1.13491    0.020
 4026.00    1.13817   1.12776    0.020
 4027.00    0.94436   1.16354    0.020
 4028.00    0.99687   1.20751    0.020
 4029.00    1.02952   1.22415    0.020
 4030.00    0.97108   1.17997    0.020
 4031.00    0.97021   1.08560    0.020
 4032.00    1.18528   1.02099    0.020
 4033.00    1.28716   1.00912    0.019
 4034.00    1.03421   1.01442    0.019
 4035.00    0.82607   1.03995    0.019
 4036.00    0.73711   1.09598    0.019
 4037.00    0.84218   1.17292    0.019
 4038.00    1.39029   1.23905    0.020
 4039.00    1.58526   1.25588    0.020
 4040.00    1.08211   1.22789    0.020
 4041.00    0.79585   1.19098    0.020
 4042.00    0.88326   1.18209    0.020
 4043.00    0.84406   1.19534    0.020
 4044.00    0.61387   1.15915    0.020
 4045.00    0.56587   1.04436    0.020
 4046.00    0.75937   0.93823    0.020
 4047.00    0.89579   0.94624    0.020
 4048.00    0.96557   1.05702    0.020
 4049.00    1.10510   1.15323    0.020
 4050.00    1.31642   1.19101    0.020
 4051.00    1.31286   1.20944    0.020
 4052.00    1.11415   1.21077    0.020
 4053.00    1.09482   1.18600    0.020
 4054.00    1.21904   1.15402    0.020
 4055.00    1.16072   1.12429    0.020
 4056.00    0.97387   1.10848    0.019
 4057.00    0.85320   1.10412    0.019
 4058.00    0.77340   1.08287    0.019
 4059.00    0.61888   1.07129    0.019
 4060.00    0.42402   1.10952    0.019
 4061.00    0.53461   1.16124    0.019
 4062.00    0.78835   1.15510    0.019
 4063.00    0.93414   1.07079    0.019
 4064.00    1.03632   0.97864    0.019
 4065.00    1.00328   0.97974    0.019
 4066.00    0.92361   1.05426    0.019
 4067.00    0.80756   1.08850    0.018
 4068.00    0.68095   1.08909    0.018
 4069.00    0.48611   1.13236    0.018
 4070.00    0.27488   1.17873    0.019
 4071.00    0.65488   1.13860    0.019
 4072.00    1.14945   1.04961    0.019
 4073.00    1.28144   1.03781    0.019
 4074.00    1.35880   1.11161    0.019
 4075.00    1.48235   1.14981    0.019
 4076.00    1.61100   1.10433    0.019
 4077.00    1.32224   1.02135    0.018
 4078.00    1.00290   0.96907    0.018
 4079.00    0.96580   0.99315    0.018
 4080.00    0.93949   1.07024    0.018
 4081.00    1.03390   1.15109    0.019
 4082.00    1.13204   1.19718    0.019
 4083.00    1.34586   1.18035    0.019
 4084.00    1.55472   1.13029    0.019
 4085.00    1.68207   1.09833    0.019
 4086.00    1.78068   1.09806    0.019
 4087.00    1.58363   1.12909    0.019
 4088.00    1.40656   1.18014    0.019
 4089.00    1.37618   1.21553    0.019
 4090.00    1.33950   1.20894    0.018
 4091.00    1.26744   1.17522    0.019
 4092.00    1.14883   1.13891    0.000
 4093.00    0.82190   1.10977    0.000
 4094.00    0.60988   1.10284    0.000
 4095.00    0.81988   1.08715    0.000
 4096.00    0.96972   1.02107    0.000
 4097.00    0.93458   0.95086    0.000
 4098.00    0.82183   0.91861    0.000
 4099.00    0.50623   0.89817    0.000
 4100.00    0.34595   0.85278    0.000
 4101.00    0.53449   0.76424    0.000
 4102.00    0.78624   0.67715    0.000
 4103.00    1.16103   0.68080    0.000
 4104.00    1.44231   0.76742    0.000
 4105.00    1.56492   0.85646    0.000
 4106.00    1.50194   0.92899    0.000
 4107.00    1.16307   0.98781    0.000
 4108.00    1.10485   1.01571    0.000
 4109.00    1.41333   1.02139    0.000
 4110.00    1.60980   1.01756    0.000
 4111.00    1.67736   1.01267    0.000
 4112.00    1.53846   1.02144    0.000
 4113.00    1.18998   1.05053    0.019
 4114.00    1.04149   1.08963    0.019
 4115.00    1.07205   1.11832    0.019
 4116.00    0.85082   1.13652    0.018
 4117.00    0.43092   1.15017    0.018
 4118.00    0.60055   1.13660    0.026
 4119.00    1.17928   1.09241    0.094
 4120.00    1.30769   1.06769   -1.000
 4121.00    1.16206   1.08702   -1.000
 4122.00    1.08069   1.10475   -1.000
 4123.00    1.03347   1.10159   -1.000
 4124.00    1.07468   1.10637   -1.000
 4125.00    1.15667   1.13745   -1.000
 4126.00    1.44695   1.16305    0.052
 4127.00    1.81992   1.14889    0.022
 4128.00    1.65169   1.11315    0.018
 4129.00    1.30029   1.09115    0.018
 4130.00    1.09993   1.09077    0.018
 4131.00    0.94255   1.08086    0.018
 4132.00    0.95988   1.04626    0.018
 4133.00    1.01823   1.01040    0.018
 4134.00    0.72590   1.01075    0.018
 4135.00    0.36739   1.04565    0.017
 4136.00    0.60005   1.10598    0.018
 4137.00    0.91904   1.15642    0.018
 4138.00    1.19774   1.16450    0.018
 4139.00    1.47216   1.17134    0.018
 4140.00    1.25562   1.18640    0.018
 4141.00    1.00511   1.18345    0.018
 4142.00    1.06129   1.14314    0.018
 4143.00    1.12804   1.04809    0.018
 4144.00    1.09640   0.95752    0.018
 4145.00    1.07074   0.96761    0.018
 4146.00    1.24917   1.05571    0.018
 4147.00    1.41283   1.12011    0.018
 4148.00    1.34814   1.13555    0.018
 4149.00    1.29659   1.12609    0.018
 4150.00    1.37460   1.10142    0.018
 4151.00    1.42847   1.08495    0.018
 4152.00    1.31100   1.08893    0.018
 4153.00    1.18071   1.08856    0.018
 4154.00    0.98037   1.07622    0.018
 4155.00    0.87336   1.06150    0.018
 4156.00    1.17424   1.05796    0.018
 4157.00    1.39275   1.06020    0.018
 4158.00    1.31493   1.07514    0.018
 4159.00    1.25384   1.11429    0.018
 4160.00    1.24318   1.14821    0.017
 4161.00    1.26974   1.15618    0.017
 4162.00    1.39187   1.15781    0.018
 4163.00    1.57037   1.17774    0.018
 4164.00    1.87335   1.18877    0.018
 4165.00    1.89179   1.16918    0.018
 4166.00    1.36516   1.14506    0.018
 4167.00    1.01300   1.12128    0.018
 4168.00    0.95246   1.09562    0.018
 4169.00    0.94238   1.10214    0.018
 4170.00    1.00621   1.13644    0.018
 4171.00    1.04310   1.13963    0.018
 4172.00    1.04527   1.08430    0.017
 4173.00    1.00055   1.00722    0.017
 4174.00    0.90259   0.98097    0.018
 4175.00    0.91076   1.01394    0.018
 4176.00    1.02516   1.05404    0.018
 4177.00    1.11721   1.06802    0.018
 4178.00    1.18953   1.05338    0.018
 4179.00    1.23184   1.04818    0.018
 4180.00    1.25081   1.07844    0.018
 4181.00    1.13739   1.10319    0.018
 4182.00    0.93345   1.08941    0.018
 4183.00    0.99657   1.07223    0.018
 4184.00    1.21978   1.08898    0.018
 4185.00    1.24349   1.12653    0.018
 4186.00    1.16286   1.15032    0.018
 4187.00    1.04946   1.11655    0.018
 4188.00    0.92118   1.05559    0.017
 4189.00    1.10204   1.05879    0.018
 4190.00    1.40353   1.10993    0.018
 4191.00    1.40977   1.12959    0.018
 4192.00    1.31796   1.11876    0.018
 4193.00    0.96190   1.13864    0.018
 4194.00    0.53221   1.17830    0.017
 4195.00    0.52547   1.16643    0.017
 4196.00    0.61576   1.10608    0.017
 4197.00    0.89486   1.05663    0.017
 4198.00    1.20865   1.03028    0.017
 4199.00    1.27518   1.00917    0.017
 4200.00    1.30674   1.01774    0.017
 4201.00    1.24026   1.04312    0.017
 4202.00    1.16378   1.03414    0.017
 4203.00    0.95923   1.02449    0.017
 4204.00    0.74633   1.05529    0.017
 4205.00    0.76087   1.08805    0.017
 4206.00    0.78220   1.10892    0.017
 4207.00    0.68204   1.13801    0.017
 4208.00    0.59275   1.16463    0.017
 4209.00    0.82278   1.17512    0.017
 4210.00    1.04831   1.15960    0.017
 4211.00    1.20837   1.14030    0.017
 4212.00    1.32722   1.15401    0.017
 4213.00    1.05634   1.17490    0.017
 4214.00    0.84326   1.15799    0.017
 4215.00    1.02754   1.09944    0.017
 4216.00    1.18892   1.03540    0.017
 4217.00    1.22860   1.04561    0.017
 4218.00    1.23891   1.13285    0.017
 4219.00    1.12376   1.20184    0.017
 4220.00    1.02203   1.22464    0.017
 4221.00    0.96758   1.23162    0.017
 4222.00    0.91328   1.22601    0.017
 4223.00    0.85944   1.18204    0.017
 4224.00    0.84883   1.11024    0.017
 4225.00    0.94730   1.02312    0.016
 4226.00    1.08169   0.91422    0.016
 4227.00    1.29411   0.81618    0.016
 4228.00    1.40935   0.82344    0.016
 4229.00    1.34130   0.95747    0.016
 4230.00    1.26788   1.09509    0.016
 4231.00    1.18562   1.16639    0.016
 4232.00    1.05990   1.19085    0.016
 4233.00    0.87143   1.15649    0.016
 4234.00    0.87125   1.09991    0.016
 4235.00    1.11013   1.09040    0.016
 4236.00    1.20756   1.08885    0.016
 4237.00    1.14672   1.06731    0.016
 4238.00    1.06951   1.07821    0.016
 4239.00    0.97616   1.10088    0.016
 4240.00    0.97445   1.10766    0.016
 4241.00    1.05251   1.13195    0.016
 4242.00    1.09812   1.17045    0.016
 4243.00    1.11886   1.18350    0.016
 4244.00    1.19109   1.19706    0.016
 4245.00    1.29802   1.24133    0.016
 4246.00    1.25429   1.25341    0.017
 4247.00    1.12162   1.20037    0.017
 4248.00    1.29187   1.13588    0.017
 4249.00    1.61810   1.10201    0.017
 4250.00    1.58211   1.07360    0.017
 4251.00    1.38451   1.03996    0.017
 4252.00    1.37708   1.05942    0.017
 4253.00    1.44255   1.11559    0.017
 4254.00    1.51311   1.11287    0.017
 4255.00    1.58532   1.06066    0.017
 4256.00    1.16289   1.05984    0.017
 4257.00    0.60545   1.13266    0.017
 4258.00    0.54744   1.18792    0.017
 4259.00    0.60135   1.15093    0.016
 4260.00    0.89692   1.06753    0.017
 4261.00    1.23571   1.01096    0.017
 4262.00    0.96180   1.02815    0.017
 4263.00    0.60406   1.12041    0.017
 4264.00    0.74935   1.20978    0.017
 4265.00    0.94378   1.24544    0.017
 4266.00    0.97144   1.25498    0.017
 4267.00    0.98890   1.24805    0.017
 4268.00    0.87570   1.20382    0.017
 4269.00    0.75940   1.15237    0.017
 4270.00    0.72667   1.11077    0.017
 4271.00    0.69295   1.03840    0.017
 4272.00    0.63325   0.94602    0.017
 4273.00    0.60595   0.92412    0.017
 4274.00    1.02415   0.97017    0.017
 4275.00    1.36099   0.98993    0.017
 4276.00    0.95870   1.01293    0.017
 4277.00    0.65433   1.09490    0.017
 4278.00    1.00221   1.18031    0.017
 4279.00    1.26932   1.21321    0.017
 4280.00    1.11826   1.18177    0.017
 4281.00    0.99459   1.12384    0.017
 4282.00    0.98521   1.10498   -2.000
 4283.00    0.95898   1.11627   -2.000
 4284.00    0.87456   1.13306   -2.000
 4285.00    0.75687   1.13772   -2.000
 4286.00    0.54246   1.10723   -2.000
 4287.00    0.56142   1.08566   -2.000
 4288.00    1.15921   1.08782   -2.000
 4289.00    1.56905   1.05561   -2.000
 4290.00    1.57709   0.97515   -2.000
 4291.00    1.53765   0.93305   -2.000
 4292.00    1.41005   0.98455   -2.000
 4293.00    1.13104   1.07263   -2.000
 4294.00    0.60647   1.11282   -2.000
 4295.00    0.40175   1.08877   -2.000
 4296.00    0.65208   1.07241   -2.000
 4297.00    0.92285   1.07109   -2.000
 4298.00    1.21919   1.03849    0.017
 4299.00    1.34821   0.96821    0.017
 4300.00    1.29264   0.88077    0.017
 4301.00    1.24675   0.84731    0.017
 4302.00    1.21028   0.88027    0.017
 4303.00    1.10347   0.90281    0.017
 4304.00    0.93632   0.91395    0.016
 4305.00    0.66809   0.93830    0.016
 4306.00    0.32348   0.93675    0.016
 4307.00    0.37014   0.90462    0.016
 4308.00    0.67664   0.85529    0.017
 4309.00    0.88199   0.81552    0.016
 4310.00    1.02852   0.83320    0.016
 4311.00    0.96322   0.89148    0.016
 4312.00    0.79056   0.94940    0.016
 4313.00    0.79414   0.99437    0.016
 4314.00    0.87506   1.02601    0.016
 4315.00    0.83966   1.05649    0.016
 4316.00    0.76044   1.13667    0.016
 4317.00    0.79869   1.25868    0.016
 4318.00    0.87448   1.32209    0.016
 4319.00    0.83052   1.30785    0.016
 4320.00    0.75455   1.27358    0.016
 4321.00    0.72526   1.23782    0.016
 4322.00    0.70619   1.20370    0.016
 4323.00    0.66210   1.17254    0.016
 4324.00    0.61365   1.09208    0.016
 4325.00    0.76759   0.96987    0.016
 4326.00    0.94830   0.87699    0.016
 4327.00    1.17211   0.89131    0.016
 4328.00    1.39996   1.02688    0.016
 4329.00    1.34945   1.16794    0.016
 4330.00    1.28301   1.21196    0.000
 4331.00    1.16265   1.17797    0.000
 4332.00    1.04318   1.15315    0.000
 4333.00    1.17168   1.16321    0.000
 4334.00    1.28954   1.17117    0.000
 4335.00    1.15221   1.17574    0.000
 4336.00    1.02860   1.17401    0.000
 4337.00    1.08361   1.10520    0.000
 4338.00    1.12250   0.95792    0.000
 4339.00    1.02048   0.83242    0.000
 4340.00    0.94929   0.75716    0.000
 4341.00    1.07731   0.70847    0.000
 4342.00    1.18970   0.75534    0.000
 4343.00    1.22329   0.88494    0.000
 4344.00    1.21525   0.97030    0.000
 4345.00    1.03727   1.00862    0.000
 4346.00    0.90422   1.06649    0.000
 4347.00    0.92320   1.10759    0.000
 4348.00    0.99793   1.12171    0.000
 4349.00    1.23172   1.16872    0.000
 4350.00    1.36084   1.21925    0.000
 4351.00    1.23478   1.17065    0.017
 4352.00    1.15637   1.03817    0.020
 4353.00    1.17818   0.97529    0.051
 4354.00    1.16216   1.03971   -1.000
 4355.00    1.07700   1.12053   -1.000
 4356.00    1.00323   1.15908   -1.000
 4357.00    0.94768   1.20025   -1.000
 4358.00    1.00277   1.22864   -1.000
 4359.00    1.21299   1.19712   -1.000
 4360.00    1.34249   1.15333    0.071
 4361.00    1.37242   1.17658    0.022
 4362.00    1.30565   1.24005    0.016
 4363.00    1.13372   1.26942    0.016
 4364.00    1.15286   1.26863    0.016
 4365.00    1.35530   1.29487    0.016
 4366.00    1.29146   1.32489    0.016
 4367.00    1.00239   1.29022    0.016
 4368.00    0.85997   1.21396    0.017
 4369.00    0.82679   1.17627    0.017
 4370.00    0.81250   1.19112    0.016
 4371.00    0.81059   1.20784    0.016
 4372.00    0.92341   1.21686    0.016
 4373.00    1.10196   1.21473    0.017
 4374.00    1.13956   1.16975    0.016
 4375.00    1.10685   1.09455    0.016
 4376.00    1.06427   1.06163    0.016
 4377.00    1.01743   1.11588    0.016
 4378.00    0.98049   1.20964    0.016
 4379.00    0.94721   1.25898    0.016
 4380.00    0.97684   1.24641    0.016
 4381.00    1.02619   1.21163    0.016
 4382.00    0.98677   1.16487    0.016
 4383.00    0.92412   1.05457    0.016
 4384.00    0.70553   0.89753    0.016
 4385.00    0.45363   0.83727    0.016
 4386.00    0.48821   0.93411    0.016
 4387.00    0.57125   1.07491    0.016
 4388.00    0.96242   1.13651    0.016
 4389.00    1.39296   1.13193    0.016
 4390.00    1.24563   1.11906    0.016
 4391.00    1.04673   1.11110    0.016
 4392.00    1.06987   1.12728    0.016
 4393.00    1.10484   1.16711    0.016
 4394.00    1.33289   1.18062    0.016
 4395.00    1.55920   1.15086    0.017
 4396.00    1.33652   1.14038    0.017
 4397.00    1.12530   1.20289    0.017
 4398.00    1.16602   1.27800    0.016
 4399.00    1.18803   1.27992    0.016
 4400.00    0.97889   1.21820    0.016
 4401.00    0.81491   1.14898    0.017
 4402.00    1.03087   1.14763    0.017
 4403.00    1.21570   1.20133    0.017
 4404.00    1.20539   1.17088    0.017
 4405.00    1.19741   1.04416    0.017
 4406.00    1.20089   0.99278    0.017
 4407.00    1.20275   1.06046    0.017
 4408.00    1.19816   1.10691    0.016
 4409.00    1.18100   1.10292    0.016
 4410.00    1.12217   1.14645    0.016
 4411.00    1.14955   1.23390    0.016
 4412.00    1.41850   1.29101    0.017
 4413.00    1.51411   1.31245    0.017
 4414.00    1.19426   1.28768    0.017
 4415.00    0.93867   1.18478    0.017
 4416.00    0.81609   1.08735    0.017
 4417.00    0.76556   1.09951    0.017
 4418.00    0.84474   1.16907    0.016
 4419.00    0.93641   1.23549    0.016
 4420.00    1.04774   1.29552    0.016
 4421.00    1.13017   1.31186    0.016
 4422.00    1.17268   1.26275    0.017
 4423.00    1.12375   1.19322    0.016
 4424.00    0.96362   1.17878    0.016
 4425.00    0.89993   1.21370    0.016
 4426.00    0.93966   1.22786    0.016
 4427.00    0.96325   1.21560    0.017
 4428.00    0.97160   1.21548    0.017
 4429.00    1.09321   1.23890    0.017
 4430.00    1.30928   1.23724    0.017
 4431.00    1.44415   1.19603    0.017
 4432.00    1.51940   1.20006    0.017
 4433.00    1.45388   1.23765    0.017
 4434.00    1.29761   1.21365    0.017
 4435.00    1.13836   1.13525    0.017
 4436.00    0.97743   1.08492    0.017
 4437.00    1.13630   1.12282    0.017
 4438.00    1.45215   1.22072    0.017
 4439.00    1.38806   1.30320    0.017
 4440.00    1.16273   1.33510    0.017
 4441.00    1.07826   1.29983    0.017
 4442.00    1.04497   1.21653    0.017
 4443.00    1.19082   1.14496    0.017
 4444.00    1.39175   1.13074    0.017
 4445.00    1.39067   1.18847    0.017
 4446.00    1.33787   1.27830    0.017
 4447.00    1.32673   1.31584    0.017
 4448.00    1.32427   1.29518    0.017
 4449.00    1.10786   1.29352    0.017
 4450.00    0.85630   1.29751    0.017
 4451.00    0.93206   1.27021    0.017
 4452.00    1.04817   1.26436    0.017
 4453.00    1.03768   1.27311    0.016
 4454.00    1.01642   1.23472    0.016
 4455.00    1.19059   1.15224    0.016
 4456.00    1.37440   1.09244    0.016
 4457.00    1.26360   1.10766    0.016
 4458.00    1.15153   1.14376    0.016
 4459.00    1.25398   1.14251    0.016
 4460.00    1.33893   1.12674    0.016
 4461.00    1.06942   1.11822    0.000
 4462.00    0.85283   1.09620    0.000
 4463.00    1.25826   1.10202    0.000
 4464.00    1.59858   1.17801    0.000
 4465.00    1.41078   1.23686    0.000
 4466.00    1.22461   1.23241    0.000
 4467.00    1.04836   1.21997    0.000
 4468.00    0.94840   1.21870    0.000
 4469.00    1.21443   1.20361    0.000
 4470.00    1.42938   1.17607    0.000
 4471.00    1.44481   1.17693    0.000
 4472.00    1.39875   1.21113    0.000
 4473.00    1.15276   1.25889    0.000
 4474.00    0.98921   1.30781    0.000
 4475.00    1.05253   1.32966    0.000
 4476.00    1.08497   1.32039    0.000
 4477.00    1.04467   1.33062    0.000
 4478.00    1.01712   1.36967    0.000
 4479.00    1.01554   1.37262    0.000
 4480.00    1.01747   1.30409    0.000
 4481.00    1.02562   1.20127    0.000
 4482.00    1.05734   1.13383    0.016
 4483.00    1.12563   1.14669    0.016
 4484.00    1.12884   1.22946    0.016
 4485.00    1.04343   1.31601    0.016
 4486.00    1.09976   1.36375    0.016
 4487.00    1.32604   1.37642    0.017
 4488.00    1.39578   1.34774    0.017
 4489.00    1.30001   1.27750    0.016
 4490.00    1.21081   1.21134    0.016
 4491.00    1.12772   1.20095    0.016
 4492.00    1.21215   1.25022    0.016
 4493.00    1.43431   1.30151    0.016
 4494.00    1.31983   1.29024    0.016
 4495.00    0.96176   1.22280    0.016
 4496.00    0.86303   1.18187    0.016
 4497.00    0.92906   1.19890    0.016
 4498.00    1.01395   1.24914    0.016
 4499.00    1.10933   1.30744    0.016
 4500.00    1.26364   1.34005    0.016
 4501.00    1.44643   1.32423    0.016
 4502.00    1.48770   1.28256    0.016
 4503.00    1.46994   1.29917    0.016
 4504.00    1.43271   1.38212    0.016
 4505.00    1.38855   1.43563    0.016
 4506.00    1.31315   1.42786    0.016
 4507.00    1.22833   1.39304    0.016
 4508.00    1.15291   1.35951    0.016
 4509.00    1.07985   1.34845    0.015
 4510.00    1.13787   1.36369    0.016
 4511.00    1.22253   1.38775    0.016
 4512.00    1.18401   1.38582    0.016
 4513.00    1.12582   1.34651    0.016
 4514.00    1.18113   1.30454    0.016
 4515.00    1.24992   1.28200    0.016
 4516.00    1.24911   1.28701    0.016
 4517.00    1.24267   1.30665    0.016
 4518.00    1.39629   1.29905    0.016
 4519.00    1.55719   1.28204    0.016
 4520.00    1.47482   1.30577    0.016
 4521.00    1.38594   1.34848    0.016
 4522.00    1.11724   1.36551    0.016
 4523.00    0.86456   1.32676    0.016
 4524.00    0.91258   1.27891    0.016
 4525.00    0.96401   1.26970    0.016
 4526.00    1.05365   1.24684    0.016
 4527.00    1.14650   1.19481    0.016
 4528.00    1.26436   1.14521    0.016
 4529.00    1.33965   1.11430    0.016
 4530.00    1.16328   1.11668    0.016
 4531.00    0.99906   1.14675    0.016
 4532.00    0.89168   1.18163    0.015
 4533.00    0.84732   1.21514    0.015
 4534.00    1.04378   1.20116    0.015
 4535.00    1.24772   1.14548    0.016
 4536.00    1.47555   1.12440    0.016
 4537.00    1.57899   1.19326    0.016
 4538.00    1.34632   1.31183    0.016
 4539.00    1.14551   1.35975    0.016
 4540.00    1.01852   1.32385    0.016
 4541.00    0.97853   1.27031    0.015
 4542.00    1.11294   1.24919    0.016
 4543.00    1.17361   1.27992    0.016
 4544.00    1.10554   1.31012    0.016
 4545.00    1.01822   1.28518    0.016
 4546.00    0.90146   1.24830    0.016
 4547.00    0.97586   1.25471    0.016
 4548.00    1.30687   1.27019    0.016
 4549.00    1.37213   1.24803    0.016
 4550.00    1.12323   1.20216    0.000
 4551.00    1.02080   1.21040    0.000
 4552.00    1.07103   1.26147    0.000
 4553.00    1.12485   1.26396    0.000
 4554.00    1.18195   1.23169    0.000
 4555.00    1.14255   1.20405    0.000
 4556.00    1.02494   1.19870    0.000
 4557.00    0.96109   1.24331    0.000
 4558.00    0.93559   1.31541    0.000
 4559.00    0.95616   1.35456    0.000
 4560.00    1.00557   1.35848    0.000
 4561.00    1.02379   1.35417    0.000
 4562.00    1.02496   1.35775    0.000
 4563.00    1.08013   1.35214    0.000
 4564.00    1.16097   1.30071    0.000
 4565.00    1.16750   1.23763    0.000
 4566.00    1.14355   1.22262    0.000
 4567.00    1.13094   1.26796    0.000
 4568.00    1.12231   1.34083    0.000
 4569.00    1.11780   1.37850    0.000
 4570.00    1.11452   1.36867    0.000
 4571.00    1.07549   1.32773    0.000
 4572.00    1.02770   1.26177    0.000
 4573.00    1.01280   1.25441    0.000
 4574.00    1.00443   1.32694    0.000
 4575.00    1.03244   1.36343    0.000
 4576.00    1.06607   1.34537    0.000
 4577.00    1.23254   1.33898    0.000
 4578.00    1.41420   1.33920    0.000
 4579.00    1.26389   1.31279    0.000
 4580.00    1.08807   1.25789    0.000
 4581.00    1.08725   1.21108    0.000
 4582.00    1.09371   1.21178    0.000
 4583.00    1.04720   1.24905    0.000
 4584.00    1.00177   1.26537    0.000
 4585.00    1.02194   1.25149    0.000
 4586.00    1.04700   1.23891    0.000
 4587.00    1.15756   1.24069    0.000
 4588.00    1.25134   1.27678    0.000
 4589.00    1.16563   1.32839    0.000
 4590.00    1.08490   1.35499    0.000
 4591.00    1.04177   1.33960    0.000
 4592.00    1.00163   1.29306    0.000
 4593.00    0.97859   1.25620    0.000
 4594.00    0.98628   1.25264    0.000
 4595.00    1.13435   1.25483    0.000
 4596.00    1.23506   1.24447    0.000
 4597.00    1.15864   1.24500    0.000
 4598.00    1.08564   1.25659    0.000
 4599.00    1.02337   1.27059    0.000
 4600.00    1.03022   1.28216    0.000
 4601.00    1.22055   1.26206    0.000
 4602.00    1.37830   1.24828    0.000
 4603.00    1.46182   1.26652    0.000
 4604.00    1.44625   1.27726    0.000
 4605.00    1.23518   1.27245    0.000
 4606.00    1.05075   1.25984    0.000
 4607.00    0.91212   1.26998    0.000
 4608.00    0.85260   1.31673    0.000
 4609.00    0.91219   1.37853    0.000
 4610.00    0.97694   1.41474    0.000
 4611.00    1.04852   1.39790    0.000
 4612.00    1.04873   1.35530    0.000
 4613.00    0.96576   1.32752    0.000
 4614.00    0.99236   1.31569    0.000
 4615.00    1.13155   1.33041    0.000
 4616.00    1.15616   1.35751    0.000
 4617.00    1.07689   1.35785    0.000
 4618.00    1.03679   1.36228    0.000
 4619.00    1.02798   1.35778    0.000
 4620.00    1.05464   1.32622    0.000
 4621.00    1.10623   1.33092    0.000
 4622.00    1.02520   1.36694    0.000
 4623.00    0.86240   1.36848    0.000
 4624.00    0.89185   1.35927    0.000
 4625.00    1.02485   1.36198    0.000
 4626.00    1.00426   1.34719    0.000
 4627.00    0.91183   1.33279    0.000
 4628.00    0.86178   1.34302    0.000
 4629.00    0.82882   1.34347    0.000
 4630.00    0.81393   1.31938    0.000
 4631.00    0.80525   1.32546    0.000
 4632.00    0.92333   1.36419    0.000
 4633.00    1.07812   1.36075    0.000
 4634.00    1.20024   1.31401    0.000
 4635.00    1.31454   1.29035    0.000
 4636.00    1.30620   1.29803    0.000
 4637.00    1.27416   1.29878    0.000
 4638.00    1.13357   1.27424    0.000
 4639.00    0.97667   1.25002    0.000
 4640.00    0.83601   1.23898    0.000
 4641.00    0.69713   1.23963    0.000
 4642.00    0.88690   1.27780    0.000
 4643.00    1.10057   1.31372    0.000
 4644.00    1.00257   1.30161    0.000
 4645.00    0.89279   1.27274    0.000
 4646.00    0.82738   1.23609    0.000
 4647.00    0.76516   1.17727    0.000
 4648.00    0.81313   1.14790    0.000
 4649.00    0.86080   1.17229    0.000
 4650.00    0.90352   1.22010    0.000
 4651.00    0.95712   1.26629    0.000
 4652.00    1.12196   1.29509    0.000
 4653.00    1.27225   1.31079    0.000
 4654.00    1.31614   1.31035    0.000
 4655.00    1.29911   1.27105    0.000
 4656.00    0.94153   1.23015    0.000
 4657.00    0.69049   1.22654    0.000
 4658.00    0.91475   1.26215    0.000
 4659.00    1.13004   1.33261    0.000
 4660.00    1.31247   1.39465    0.000
 4661.00    1.38227   1.40809    0.000
 4662.00    1.10655   1.37168    0.000
 4663.00    0.91706   1.31622    0.000
 4664.00    0.95242   1.27322    0.000
 4665.00    1.02326   1.26374    0.000
 4666.00    1.17363   1.25546    0.000
 4667.00    1.26492   1.18809    0.000
 4668.00    1.24147   1.10200    0.000
 4669.00    1.21386   1.09406    0.000
 4670.00    1.17922   1.16410    0.000
 4671.00    1.17627   1.24157    0.000
 4672.00    1.22033   1.29083    0.000
 4673.00    1.17897   1.29567    0.000
 4674.00    1.02618   1.27371    0.000
 4675.00    1.02873   1.26425    0.000
 4676.00    1.20975   1.28531    0.000
 4677.00    1.33402   1.32376    0.000
 4678.00    1.40080   1.32893    0.000
 4679.00    1.32419   1.28879    0.000
 4680.00    1.11944   1.24788    0.000
 4681.00    1.03408   1.22540    0.000
 4682.00    1.04277   1.21498    0.000
 4683.00    0.99388   1.22897    0.000
 4684.00    0.90510   1.26866    0.000
 4685.00    0.98436   1.29403    0.000
 4686.00    1.16568   1.29348    0.000
 4687.00    1.17994   1.28655    0.000
 4688.00    1.10561   1.27062    0.000
 4689.00    1.10606   1.26053    0.000
 4690.00    1.14090   1.26922    0.000
 4691.00    1.16360   1.26805    0.000
 4692.00    1.18149   1.25269    0.000
 4693.00    0.94838   1.25538    0.000
 4694.00    0.63051   1.27201    0.000
 4695.00    0.77621   1.29199    0.000
 4696.00    1.05346   1.32204    0.000
 4697.00    1.04096   1.33964    0.000
 4698.00    0.96062   1.30983    0.000
 4699.00    1.02714   1.24378    0.000
 4700.00    1.12129   1.20888    0.000
 4701.00    1.00197   1.22278    0.000
 4702.00    0.85160   1.22723    0.000
 4703.00    0.81625   1.20405    0.000
 4704.00    0.79306   1.19028    0.000
 4705.00    1.02908   1.22210    0.000
 4706.00    1.28290   1.26120    0.000
 4707.00    1.23336   1.25604    0.000
 4708.00    1.17349   1.22039    0.000
 4709.00    0.92809   1.19834    0.000
 4710.00    0.69361   1.19935    0.000
 4711.00    0.82359   1.23246    0.000
 4712.00    0.95272   1.28691    0.000
 4713.00    1.06895   1.30159    0.000
 4714.00    1.17992   1.26845    0.000
 4715.00    1.23944   1.22409    0.000
 4716.00    1.28628   1.22393    0.000
 4717.00    1.24345   1.27983    0.000
 4718.00    1.21701   1.32601    0.000
 4719.00    1.27978   1.34002    0.000
 4720.00    1.29868   1.35810    0.000
 4721.00    1.12641   1.37416    0.000
 4722.00    1.00959   1.36297    0.000
 4723.00    1.09166   1.33553    0.000
 4724.00    1.15168   1.33101    0.000
 4725.00    1.14533   1.35922    0.000
 4726.00    1.13924   1.37926    0.000
 4727.00    1.13382   1.34615    0.000
 4728.00    1.17955   1.25983    0.000
 4729.00    1.33802   1.19015    0.000
 4730.00    1.43386   1.18247    0.000
 4731.00    1.40995   1.20188    0.000
 4732.00    1.32401   1.22310    0.000
 4733.00    1.13461   1.25464    0.000
 4734.00    1.11457   1.27882    0.000
 4735.00    1.34217   1.29210    0.000
 4736.00    1.38051   1.30161    0.000
 4737.00    1.17553   1.27264    0.000
 4738.00    1.09296   1.25289    0.000
 4739.00    1.14905   1.29876    0.000
 4740.00    1.10017   1.33370    0.000
 4741.00    0.94643   1.31267    0.000
 4742.00    1.09660   1.28868    0.000
 4743.00    1.51455   1.29873    0.000
 4744.00    1.64212   1.32455    0.000
 4745.00    1.54426   1.32460    0.000
 4746.00    1.39953   1.31168    0.000
 4747.00    1.22280   1.32993    0.000
 4748.00    1.29599   1.35292    0.000
 4749.00    1.51869   1.34815    0.000
 4750.00    1.45107   1.34262    0.000
 4751.00    1.23190   1.34878    0.000
 4752.00    1.11373   1.34196    0.000
 4753.00    1.04127   1.31462    0.000
 4754.00    1.08658   1.29136    0.000
 4755.00    1.17775   1.27615    0.000
 4756.00    1.17609   1.27287    0.000
 4757.00    1.14368   1.27432    0.000
 4758.00    1.22012   1.27931    0.000
 4759.00    1.32683   1.29208    0.000
 4760.00    1.27945   1.30942    0.000
 4761.00    1.19683   1.31862    0.014
 4762.00    1.26885   1.28898    0.015
 4763.00    1.36920   1.23763    0.015
 4764.00    1.28427   1.21623    0.015
 4765.00    1.17325   1.20831    0.014
 4766.00    1.07613   1.18541    0.014
 4767.00    0.98043   1.17513    0.014
 4768.00    1.00701   1.20270    0.015
 4769.00    1.04150   1.24847    0.015
 4770.00    1.13192   1.29381    0.015
 4771.00    1.22387   1.31264    0.015
 4772.00    1.23129   1.28284    0.015
 4773.00    1.23880   1.25465    0.015
 4774.00    1.24883   1.27416    0.015
 4775.00    1.25011   1.32145    0.015
 4776.00    1.12491   1.34150    0.014
 4777.00    1.01553   1.33065    0.014
 4778.00    1.05493   1.33556    0.014
 4779.00    1.10269   1.34148    0.014
 4780.00    1.20772   1.32360    0.014
 4781.00    1.27559   1.30942    0.014
 4782.00    1.14660   1.30584    0.014
 4783.00    1.02973   1.28312    0.014
 4784.00    0.96446   1.24751    0.014
 4785.00    0.92112   1.25090    0.014
 4786.00    0.95483   1.26941    0.014
 4787.00    0.99457   1.24708    0.014
 4788.00    1.05214   1.23890    0.014
 4789.00    1.10040   1.25847    0.014
 4790.00    1.12523   1.25314    0.014
 4791.00    1.14180   1.25001    0.014
 4792.00    1.14047   1.26907    0.014
 4793.00    1.14373   1.29156    0.014
 4794.00    1.15564   1.32945    0.014
 4795.00    1.13877   1.37551    0.014
 4796.00    1.07461   1.39304    0.014
 4797.00    1.04864   1.37254    0.014
 4798.00    1.07770   1.33587    0.014
 4799.00    1.10675   1.29449    0.014
 4800.00    1.13577   1.26018    0.014
 4801.00    1.12954   1.25861    0.014
 4802.00    1.08394   1.29932    0.014
 4803.00    0.96954   1.34864    0.014
 4804.00    0.78737   1.36117    0.014
 4805.00    0.75405   1.33059    0.014
 4806.00    0.85002   1.28897    0.014
 4807.00    0.93633   1.27659    0.014
 4808.00    1.01524   1.26810    0.014
 4809.00    1.03884   1.25510    0.014
 4810.00    1.02523   1.26869    0.014
 4811.00    1.03858   1.29551    0.014
 4812.00    1.06779   1.30403    0.014
 4813.00    1.10570   1.29997    0.014
 4814.00    1.14806   1.29856    0.014
 4815.00    1.18332   1.30262    0.014
 4816.00    1.21542   1.31145    0.014
 4817.00    1.24527   1.32715    0.015
 4818.00    1.27426   1.34491    0.015
 4819.00    1.24424   1.35642    0.015
 4820.00    1.19503   1.36466    0.015
 4821.00    1.12969   1.36084    0.015
 4822.00    1.05997   1.34643    0.015
 4823.00    0.86926   1.30998    0.015
 4824.00    0.65152   1.24298    0.015
 4825.00    0.84733   1.21949    0.015
 4826.00    1.11684   1.26844    0.015
 4827.00    1.19282   1.31204    0.015
 4828.00    1.24243   1.31010    0.014
 4829.00    1.17928   1.28567    0.014
 4830.00    1.10518   1.27544    0.015
 4831.00    1.15036   1.28501    0.015
 4832.00    1.20277   1.26755    0.015
 4833.00    1.03292   1.23487    0.015
 4834.00    0.85780   1.25104    0.014
 4835.00    0.79343   1.29226    0.015
 4836.00    0.74157   1.30537    0.015
 4837.00    1.01653   1.29713    0.015
 4838.00    1.26497   1.29454    0.015
 4839.00    1.15148   1.28076    0.015
 4840.00    1.04022   1.24250    0.014
 4841.00    0.94920   1.21874    0.014
 4842.00    0.87439   1.23348    0.014
 4843.00    0.90705   1.24446    0.015
 4844.00    0.94302   1.22853    0.015
 4845.00    0.99600   1.23891    0.015
 4846.00    1.05321   1.28231    0.015
 4847.00    1.12800   1.30038    0.015
 4848.00    1.13655   1.27123    0.000
 4849.00    0.91702   1.21908    0.000
 4850.00    0.75356   1.20193    0.000
 4851.00    0.75272   1.23402    0.000
 4852.00    0.78029   1.24852    0.000
 4853.00    0.87821   1.23446    0.000
 4854.00    0.95060   1.22034    0.000
 4855.00    0.96854   1.17058    0.000
 4856.00    1.05027   1.09360    0.000
 4857.00    1.25022   1.07770    0.000
 4858.00    1.34392   1.11569    0.000
 4859.00    1.26564   1.10743    0.000
 4860.00    1.24226   1.02271    0.000
 4861.00    1.29684   0.89147    0.000
 4862.00    1.28359   0.79235    0.000
 4863.00    1.18560   0.83312    0.000
 4864.00    1.09945   0.95946    0.000
 4865.00    1.02633   1.03393    0.000
 4866.00    0.93366   1.07709    0.000
 4867.00    0.82201   1.12474    0.000
 4868.00    0.95724   1.15068    0.000
 4869.00    1.30393   1.15856    0.000
 4870.00    1.22583   1.16804    0.000
 4871.00    0.82730   1.13376    0.000
 4872.00    0.71309   1.05547    0.000
 4873.00    0.78734   1.04342    0.000
 4874.00    0.92044   1.11675    0.000
 4875.00    1.08771   1.17402    0.015
 4876.00    1.11288   1.18221    0.015
 4877.00    1.06617   1.19360    0.015
 4878.00    1.05285   1.21720    0.015
 4879.00    1.05416   1.23714    0.015
 4880.00    1.11512   1.27949    0.015
 4881.00    1.19850   1.28999    0.015
 4882.00    1.16017   1.23863    0.015
 4883.00    1.08301   1.21412    0.015
 4884.00    1.05671   1.23896    0.015
 4885.00    1.04397   1.23573    0.015
 4886.00    1.09591   1.18784    0.015
 4887.00    1.16196   1.15651    0.015
 4888.00    0.94584   1.17119    0.014
 4889.00    0.68080   1.19727    0.014
 4890.00    0.80513   1.19309    0.014
 4891.00    0.98074   1.14150    0.015
 4892.00    1.10296   1.08977    0.015
 4893.00    1.22023   1.14345    0.015
 4894.00    1.26278   1.25656    0.015
 4895.00    1.30109   1.33227    0.014
 4896.00    1.16947   1.37153    0.014
 4897.00    1.03567   1.37857    0.014
 4898.00    1.08797   1.36887    0.014
 4899.00    1.13449   1.35601    0.015
 4900.00    1.04406   1.31674    0.014
 4901.00    0.95708   1.27971    0.014
 4902.00    0.91471   1.28957    0.014
 4903.00    0.89038   1.29365    0.014
 4904.00    1.02293   1.26311    0.015
 4905.00    1.15578   1.26028    0.015
 4906.00    1.29059   1.30965    0.014
 4907.00    1.38787   1.35497    0.014
 4908.00    1.29644   1.34601    0.014
 4909.00    1.21164   1.29637    0.014
 4910.00    1.15388   1.23891    0.014
 4911.00    1.12219   1.19807    0.014
 4912.00    1.17850   1.20409    0.014
 4913.00    1.21933   1.24741    0.014
 4914.00    1.21610   1.28108    0.014
 4915.00    1.20423   1.30305    0.014
 4916.00    1.17134   1.33270    0.014
 4917.00    1.10550   1.33977    0.014
 4918.00    0.97051   1.29181    0.014
 4919.00    0.87475   1.18996    0.014
 4920.00    0.85056   1.08501    0.014
 4921.00    0.91746   1.03822    0.014
 4922.00    1.12961   1.07637    0.014
 4923.00    1.22720   1.16407    0.014
 4924.00    1.16446   1.20933    0.014
 4925.00    1.07974   1.19693    0.014
 4926.00    0.96796   1.20275    0.014
 4927.00    0.95348   1.25927    0.014
 4928.00    1.04464   1.30418    0.014
 4929.00    1.10763   1.32532    0.014
 4930.00    1.14363   1.35296    0.014
 4931.00    1.15420   1.36226    0.014
 4932.00    1.14328   1.35443    0.014
 4933.00    1.08165   1.32254    0.014
 4934.00    0.98232   1.24609    0.014
 4935.00    1.05508   1.20897    0.014
 4936.00    1.24022   1.25585    0.014
 4937.00    1.26605   1.28176    0.014
 4938.00    1.20080   1.22726    0.014
 4939.00    1.12669   1.14838    0.014
 4940.00    1.04817   1.12818    0.000
 4941.00    0.97706   1.19856    0.000
 4942.00    0.90915   1.28641    0.000
 4943.00    0.96986   1.31927    0.000
 4944.00    1.07805   1.33650    0.000
 4945.00    1.08732   1.34956    0.000
 4946.00    1.06564   1.32470    0.000
 4947.00    1.00139   1.30052    0.000
 4948.00    0.92603   1.31934    0.000
 4949.00    0.86506   1.34590    0.000
 4950.00    0.80715   1.35201    0.000
 4951.00    0.87929   1.35666    0.000
 4952.00    0.97334   1.36823    0.000
 4953.00    1.09121   1.35434    0.000
 4954.00    1.21211   1.32198    0.000
 4955.00    1.08745   1.30667    0.000
 4956.00    0.94100   1.29288    0.000
 4957.00    1.11101   1.22293    0.000
 4958.00    1.29771   1.09386    0.000
 4959.00    1.32437   1.06821    0.000
 4960.00    1.34573   1.19440    0.000
 4961.00    1.19202   1.30048    0.000
 4962.00    1.04253   1.31458    0.000
 4963.00    0.98493   1.30158    0.000
 4964.00    0.92940   1.30706    0.000
 4965.00    0.89926   1.29348    0.000
 4966.00    0.89660   1.23778    0.000
 4967.00    1.12394   1.20170    0.000
 4968.00    1.29160   1.20736    0.000
 4969.00    1.08665   1.21561    0.000
 4970.00    0.93111   1.22840    0.000
 4971.00    1.01786   1.24379    0.000
 4972.00    1.05914   1.26376    0.000
 4973.00    0.91946   1.28986    0.000
 4974.00    0.85931   1.30448    0.000
 4975.00    1.06227   1.31697    0.000
 4976.00    1.20834   1.31594    0.000
 4977.00    1.19538   1.29913    0.000
 4978.00    1.15929   1.27686    0.000
 4979.00    1.06788   1.23742    0.000
 4980.00    1.08039   1.21288    0.000
 4981.00    1.30759   1.21216    0.000
 4982.00    1.38067   1.17868    0.000
 4983.00    1.17684   1.10281    0.000
 4984.00    1.01991   1.06165    0.000
 4985.00    0.93666   1.08917    0.000
 4986.00    0.84516   1.13456    0.000
 4987.00    0.74232   1.18227    0.000
 4988.00    0.87672   1.24142    0.000
 4989.00    1.29919   1.26824    0.000
 4990.00    1.43245   1.25411    0.000
 4991.00    1.25617   1.22814    0.000
 4992.00    1.10573   1.21133    0.000
 4993.00    0.97969   1.23068    0.000
 4994.00    0.92329   1.24043    0.000
 4995.00    0.92486   1.22696    0.000
 4996.00    0.97101   1.24445    0.000
 4997.00    1.04981   1.26422    0.000
 4998.00    1.09271   1.26101    0.000
 4999.00    1.11251   1.24416    0.000
 5000.00    1.16163   1.19813    0.000
 5001.00    1.22727   1.15546    0.000
 5002.00    1.26957   1.14799    0.000
 5003.00    1.30044   1.15713    0.000
 5004.00    1.35813   1.17073    0.000
 5005.00    1.42717   1.16538    0.000
 5006.00    1.38020   1.11684    0.000
 5007.00    1.29115   1.07103    0.000
 5008.00    1.32479   1.10160    0.000
 5009.00    1.39606   1.18440    0.000
 5010.00    1.31071   1.22879    0.000
 5011.00    1.18538   1.21966    0.000
 5012.00    1.12434   1.18556    0.000
 5013.00    1.07665   1.12717    0.000
 5014.00    0.97879   1.07521    0.000
 5015.00    0.87271   1.05656    0.000
 5016.00    0.93553   1.08601    0.000
 5017.00    1.01907   1.13228    0.000
 5018.00    1.06648   1.13282    0.000
 5019.00    1.11084   1.11148    0.000
 5020.00    1.04303   1.12774    0.000
 5021.00    0.96974   1.16071    0.000
 5022.00    1.00755   1.15903    0.000
 5023.00    1.04571   1.13232    0.000
 5024.00    1.00071   1.14453    0.000
 5025.00    0.95555   1.18940    0.000
 5026.00    0.90734   1.20990    0.000
 5027.00    0.86189   1.20157    0.000
 5028.00    0.84857   1.16268    0.000
 5029.00    0.83583   1.15034    0.014
 5030.00    0.82774   1.19566    0.014
 5031.00    0.84686   1.22822    0.014
 5032.00    1.03096   1.24083    0.014
 5033.00    1.18406   1.27070    0.014
 5034.00    1.18892   1.30222    0.014
 5035.00    1.16533   1.28868    0.014
 5036.00    1.03097   1.21376    0.014
 5037.00    0.90584   1.14977    0.014
 5038.00    0.81065   1.16518    0.014
 5039.00    0.78952   1.17959    0.014
 5040.00    0.97168   1.12880    0.014
 5041.00    1.11052   1.04374    0.014
 5042.00    1.14750   0.98619    0.014
 5043.00    1.15443   1.04266    0.014
 5044.00    1.10030   1.16401    0.014
 5045.00    1.02381   1.23836    0.014
 5046.00    0.90773   1.28289    0.014
 5047.00    0.83977   1.31223    0.014
 5048.00    0.84627   1.28616    0.014
 5049.00    0.89301   1.20848    0.014
 5050.00    0.99446   1.14825    0.014
 5051.00    0.97842   1.14206    0.014
 5052.00    0.82178   1.15119    0.014
 5053.00    0.79094   1.15981    0.014
 5054.00    0.89288   1.19425    0.014
 5055.00    0.99662   1.23745    0.014
 5056.00    1.10205   1.25870    0.014
 5057.00    1.06959   1.25819    0.014
 5058.00    0.92398   1.25914    0.014
 5059.00    0.93839   1.27182    0.014
 5060.00    1.06840   1.27555    0.014
 5061.00    1.18014   1.28161    0.014
 5062.00    1.28030   1.30341    0.014
 5063.00    1.15752   1.31198    0.014
 5064.00    0.91116   1.27716    0.014
 5065.00    0.98882   1.19408    0.014
 5066.00    1.22272   1.13686    0.014
 5067.00    1.22117   1.16242    0.014
 5068.00    1.12161   1.18885    0.014
 5069.00    1.05408   1.17493    0.014
 5070.00    0.99797   1.18061    0.014
 5071.00    0.92375   1.21844    0.014
 5072.00    0.84408   1.21769    0.014
 5073.00    0.91885   1.17598    0.014
 5074.00    1.03219   1.17958    0.014
 5075.00    1.04748   1.21220    0.014
 5076.00    1.04289   1.20727    0.014
 5077.00    0.99146   1.19489    0.014
 5078.00    0.93259   1.21116    0.014
 5079.00    0.93254   1.19549    0.014
 5080.00    0.93944   1.10415    0.014
 5081.00    0.93491   1.04301    0.014
 5082.00    0.92947   1.07611    0.014
 5083.00    0.82337   1.12410    0.014
 5084.00    0.71274   1.13418    0.013
 5085.00    0.79392   1.14904    0.013
 5086.00    0.87854   1.18776    0.013
 5087.00    1.02138   1.21166    0.013
 5088.00    1.16052   1.20879    0.013
 5089.00    1.23094   1.20740    0.013
 5090.00    1.28897   1.22074    0.013
 5091.00    1.20891   1.22798    0.013
 5092.00    1.13158   1.22751    0.013
 5093.00    1.07549   1.24513    0.013
 5094.00    1.03103   1.27296    0.013
 5095.00    1.05508   1.27359    0.013
 5096.00    1.07949   1.24301    0.013
 5097.00    1.10554   1.20570    0.013
 5098.00    1.10046   1.16749    0.013
 5099.00    0.97673   1.11735    0.013
 5100.00    0.88689   1.08204    0.013
 5101.00    0.90480   1.11814    0.013
 5102.00    0.92130   1.18904    0.013
 5103.00    0.93401   1.22218    0.013
 5104.00    0.95248   1.20997    0.013
 5105.00    0.98424   1.18807    0.013
 5106.00    0.98132   1.18141    0.014
 5107.00    0.90902   1.17202    0.013
 5108.00    0.87487   1.14096    0.013
 5109.00    0.90718   1.12700    0.013
 5110.00    0.97125   1.13269    0.014
 5111.00    1.08377   1.12528    0.014
 5112.00    1.15811   1.14785    0.014
 5113.00    1.18129   1.19053    0.014
 5114.00    1.09368   1.20445    0.014
 5115.00    0.87534   1.21402    0.014
 5116.00    0.93668   1.22509    0.014
 5117.00    1.28903   1.23536    0.014
 5118.00    1.33871   1.25968    0.014
 5119.00    1.11062   1.27269    0.014
 5120.00    1.04355   1.25868    0.014
 5121.00    1.10676   1.22992    0.014
 5122.00    1.15461   1.19757    0.014
 5123.00    1.19152   1.16565    0.014
 5124.00    1.09762   1.11761    0.014
 5125.00    0.92200   1.08341    0.014
 5126.00    0.87637   1.09731    0.014
 5127.00    0.90170   1.12114    0.014
 5128.00    0.80933   1.12247    0.014
 5129.00    0.66111   1.11501    0.014
 5130.00    0.70143   1.11040    0.014
 5131.00    0.81890   1.12240    0.014
 5132.00    0.95989   1.15645    0.014
 5133.00    1.10910   1.17971    0.014
 5134.00    1.12574   1.17956    0.014
 5135.00    1.10330   1.18767    0.014
 5136.00    1.04389   1.21933    0.014
 5137.00    0.97546   1.21304    0.014
 5138.00    1.16044   1.16664    0.014
 5139.00    1.39548   1.12783    0.014
 5140.00    1.22845   1.09955    0.014
 5141.00    0.99941   1.12754    0.014
 5142.00    0.92181   1.16495    0.014
 5143.00    0.86145   1.12301    0.014
 5144.00    0.89435   1.09765    0.014
 5145.00    0.93436   1.14007    0.014
 5146.00    1.00740   1.15191    0.014
 5147.00    1.08181   1.12300    0.014
 5148.00    1.10584   1.10367    0.014
 5149.00    1.12334   1.11124    0.014
 5150.00    0.88338   1.14141    0.014
 5151.00    0.66727   1.14618    0.014
 5152.00    0.86441   1.11916    0.014
 5153.00    1.04096   1.10232    0.014
 5154.00    0.99848   1.09963    0.014
 5155.00    0.97199   1.10413    0.014
 5156.00    1.06592   1.13352    0.014
 5157.00    1.14952   1.17755    0.014
 5158.00    1.17399   1.21722    0.014
 5159.00    1.16780   1.23390    0.014
 5160.00    1.02189   1.22415    0.014
 5161.00    0.90735   1.22486    0.014
 5162.00    0.90988   1.22260    0.014
 5163.00    0.94213   1.18643    0.014
 5164.00    1.06714   1.16258    0.014
 5165.00    1.09582   1.14492    0.014
 5166.00    0.86934   1.07271    0.013
 5167.00    0.69672   0.95139    0.013
 5168.00    0.64658   0.84002    0.013
 5169.00    0.62272   0.82094    0.013
 5170.00    0.65062   0.90752    0.013
 5171.00    0.71854   0.99775    0.013
 5172.00    0.85518   0.96056    0.013
 5173.00    0.98036   0.82909    0.013
 5174.00    1.08834   0.79959    0.013
 5175.00    1.10748   0.93430    0.013
 5176.00    1.00928   1.07840    0.013
 5177.00    0.98458   1.12714    0.013
 5178.00    1.04540   1.13756    0.013
 5179.00    1.07494   1.15274    0.013
 5180.00    1.07237   1.14992    0.013
 5181.00    1.08045   1.12407    0.013
 5182.00    1.09818   1.07626    0.013
 5183.00    1.05477   0.97008    0.013
 5184.00    0.96262   0.82392    0.013
 5185.00    0.89035   0.79146    0.013
 5186.00    0.83205   0.93123    0.013
 5187.00    0.75097   1.08766    0.013
 5188.00    0.65588   1.15380    0.013
 5189.00    0.76923   1.15156    0.013
 5190.00    0.99463   1.16331    0.000
 5191.00    1.09267   1.19166    0.000
 5192.00    1.13125   1.13331    0.000
 5193.00    1.01082   1.03692    0.000
 5194.00    0.82641   1.03883    0.000
 5195.00    0.79857   1.09362    0.000
 5196.00    0.82446   1.10277    0.000
 5197.00    0.99284   1.10952    0.000
 5198.00    1.20237   1.14422    0.000
 5199.00    1.09058   1.17251    0.000
 5200.00    0.90205   1.19475    0.000
 5201.00    0.89495   1.20787    0.000
 5202.00    0.92278   1.19891    0.000
 5203.00    1.01525   1.17839    0.000
 5204.00    1.11738   1.15872    0.000
 5205.00    1.05357   1.10447    0.000
 5206.00    0.97159   1.02476    0.000
 5207.00    0.99765   0.99785    0.000
 5208.00    1.03150   1.01186    0.000
 5209.00    1.05500   0.99357    0.000
 5210.00    1.07811   0.99357    0.000
 5211.00    0.94681   1.04911    0.014
 5212.00    0.82311   1.11780    0.014
 5213.00    1.00224   1.18445    0.014
 5214.00    1.16592   1.22539    0.014
 5215.00    1.07916   1.21785    0.014
 5216.00    0.99902   1.16499    0.014
 5217.00    0.98635   1.12369    0.014
 5218.00    0.98025   1.13614    0.014
 5219.00    1.02195   1.18424    0.014
 5220.00    1.07047   1.22587    0.014
 5221.00    1.15703   1.24196    0.014
 5222.00    1.22547   1.25121    0.014
 5223.00    1.21327   1.24528    0.014
 5224.00    1.15442   1.20782    0.014
 5225.00    0.92512   1.14618    0.014
 5226.00    0.75310   1.07343    0.014
 5227.00    0.75639   0.99826    0.013
 5228.00    0.80443   0.97326    0.013
 5229.00    0.96891   1.06086    0.013
 5230.00    1.07473   1.16998    0.013
 5231.00    1.04934   1.21313    0.013
 5232.00    1.00386   1.22599    0.013
 5233.00    0.91946   1.19264    0.013
 5234.00    0.93627   1.13084    0.013
 5235.00    1.12415   1.11892    0.013
 5236.00    1.20211   1.15109    0.013
 5237.00    1.11728   1.20534    0.013
 5238.00    1.06289   1.25227    0.013
 5239.00    1.04813   1.26360    0.013
 5240.00    1.05635   1.25107    0.013
 5241.00    1.09094   1.24184    0.013
 5242.00    1.07447   1.24737    0.013
 5243.00    1.00636   1.24461    0.013
 5244.00    0.87695   1.23785    0.013
 5245.00    0.69285   1.26143    0.013
 5246.00    0.74094   1.27924    0.013
 5247.00    0.97158   1.22230    0.013
 5248.00    1.11382   1.14129    0.013
 5249.00    1.19493   1.13944    0.013
 5250.00    1.16942   1.16475    0.013
 5251.00    1.07928   1.13662    0.014
 5252.00    0.97376   1.12412    0.014
 5253.00    0.86012   1.16393    0.014
 5254.00    0.85784   1.19483    0.014
 5255.00    0.90671   1.17860    0.014
 5256.00    0.96089   1.14748    0.014
 5257.00    1.01717   1.18131    0.013
 5258.00    0.95569   1.25544    0.014
 5259.00    0.85454   1.29644    0.014
 5260.00    0.79954   1.29495    0.014
 5261.00    0.75759   1.26017    0.014
 5262.00    0.86404   1.20126    0.014
 5263.00    1.00513   1.12632    0.014
 5264.00    1.12276   1.05805    0.015
 5265.00    1.23600   1.01152    0.015
 5266.00    1.13949   0.97749    0.015
 5267.00    1.01259   0.97462    0.014
 5268.00    0.94010   1.04210    0.014
 5269.00    0.87334   1.06952    0.014
 5270.00    0.97412   0.96217    0.015
 5271.00    1.08632   0.89407    0.015
 5272.00    0.99109   0.99629    0.015
 5273.00    0.88890   1.12121    0.014
 5274.00    0.95688   1.15512    0.014
 5275.00    1.01999   1.14634    0.014
 5276.00    0.92122   1.12270    0.014
 5277.00    0.84096   1.13335    0.014
 5278.00    1.04256   1.21276    0.014
 5279.00    1.21985   1.27788    0.014
 5280.00    1.16006   1.27751    0.014
 5281.00    1.10092   1.23500    0.014
 5282.00    1.04643   1.18857    0.014
 5283.00    0.98653   1.15741    0.013
 5284.00    0.89735   1.13090    0.013
 5285.00    0.83924   1.13046    0.013
 5286.00    0.91615   1.20214    0.013
 5287.00    0.99877   1.28959    0.013
 5288.00    1.10179   1.31476    0.013
 5289.00    1.15122   1.29272    0.013
 5290.00    1.03975   1.28304    0.013
 5291.00    0.93857   1.30235    0.013
 5292.00    0.86370   1.31616    0.013
 5293.00    0.83364   1.30135    0.013
 5294.00    0.90219   1.27658    0.013
 5295.00    0.98283   1.27074    0.013
 5296.00    1.08658   1.26032    0.013
 5297.00    1.12431   1.20333    0.013
 5298.00    1.05213   1.11370    0.013
 5299.00    1.05147   1.07304    0.013
 5300.00    1.15518   1.12852    0.013
 5301.00    1.20981   1.19245    0.013
 5302.00    1.20143   1.19236    0.013
 5303.00    1.10547   1.18733    0.013
 5304.00    0.91050   1.22775    0.013
 5305.00    0.88157   1.28605    0.013
 5306.00    1.01822   1.31793    0.013
 5307.00    1.07667   1.30622    0.013
 5308.00    1.06632   1.27295    0.013
 5309.00    1.08177   1.26701    0.013
 5310.00    1.11721   1.29543    0.013
 5311.00    1.00906   1.31622    0.013
 5312.00    0.80306   1.31140    0.013
 5313.00    0.83125   1.29462    0.013
 5314.00    0.99927   1.27774    0.013
 5315.00    0.93370   1.27163    0.013
 5316.00    0.74645   1.26368    0.013
 5317.00    0.75164   1.23706    0.013
 5318.00    0.84377   1.22488    0.013
 5319.00    0.84407   1.24336    0.013
 5320.00    0.80871   1.25444    0.013
 5321.00    0.81541   1.25137    0.013
 5322.00    0.83602   1.24942    0.013
 5323.00    0.91872   1.24097    0.013
 5324.00    1.01864   1.20557    0.013
 5325.00    1.00280   1.15894    0.022
 5326.00    0.96055   1.16321    0.167
 5327.00    0.96363   1.17645   -1.000
 5328.00    0.97499   1.09349   -1.000
 5329.00    0.97941   0.96280   -1.000
 5330.00    0.98285   0.96865   -1.000
 5331.00    0.99898   1.10258   -1.000
 5332.00    1.01639   1.20489   -1.000
 5333.00    1.07206   1.21747   -1.000
 5334.00    1.13018   1.20603   -1.000
 5335.00    1.20235   1.23643   -1.000
 5336.00    1.27439   1.27380   10.522
 5337.00    1.12043   1.27211    0.026
 5338.00    0.97210   1.25459    0.013
 5339.00    0.98450   1.24738    0.013
 5340.00    1.00105   1.21153    0.013
 5341.00    1.07705   1.13661    0.013
 5342.00    1.14607   1.11632    0.013
 5343.00    1.14965   1.18035    0.013
 5344.00    1.12902   1.23644    0.013
 5345.00    0.94323   1.24716    0.012
 5346.00    0.81236   1.22454    0.012
 5347.00    0.97149   1.20397    0.012
 5348.00    1.08079   1.21201    0.012
 5349.00    0.97846   1.19946    0.012
 5350.00    0.88909   1.17053    0.012
 5351.00    0.84512   1.18841    0.012
 5352.00    0.83521   1.24556    0.012
 5353.00    0.92572   1.27904    0.012
 5354.00    1.00964   1.27932    0.012
 5355.00    1.07702   1.29488    0.012
 5356.00    1.07212   1.32571    0.012
 5357.00    0.91078   1.33555    0.012
 5358.00    0.83305   1.33317    0.012
 5359.00    0.91239   1.33163    0.012
 5360.00    0.96079   1.32970    0.012
 5361.00    0.95844   1.31908    0.012
 5362.00    0.94821   1.28757    0.012
 5363.00    0.92664   1.25414    0.013
 5364.00    0.89055   1.24618    0.013
 5365.00    0.83608   1.23897    0.013
 5366.00    0.82102   1.21718    0.013
 5367.00    0.84988   1.21259    0.012
 5368.00    1.00045   1.21739   -2.000
 5369.00    1.27069   1.21465   -2.000
 5370.00    1.32243   1.18356   -2.000
 5371.00    1.18469   1.11165   -2.000
 5372.00    1.09836   1.05725   -2.000
 5373.00    1.05131   1.09388   -2.000
 5374.00    1.07126   1.19645   -2.000
 5375.00    1.13620   1.27019   -2.000
 5376.00    1.12771   1.29781   -2.000
 5377.00    1.07603   1.28851   -2.000
 5378.00    1.07323   1.26579   -2.000
 5379.00    1.09550   1.27063   -2.000
 5380.00    1.00529   1.28222   -2.000
 5381.00    0.86510   1.26965   -2.000
 5382.00    0.91670   1.25061   -2.000
 5383.00    1.04151   1.23779    0.013
 5384.00    1.07981   1.22246    0.013
 5385.00    1.09006   1.23108    0.013
 5386.00    1.05524   1.26060    0.013
 5387.00    1.00818   1.27005    0.012
 5388.00    1.07134   1.26174    0.012
 5389.00    1.15906   1.24843    0.012
 5390.00    1.08913   1.22152    0.012
 5391.00    0.99119   1.19285    0.012
 5392.00    0.98034   1.18140    0.012
 5393.00    0.98131   1.18050    0.012
 5394.00    0.98309   1.18032    0.012
 5395.00    0.98496   1.18125    0.012
 5396.00    1.02556   1.18023    0.012
 5397.00    1.06849   1.13986    0.012
 5398.00    1.06678   1.08377    0.012
 5399.00    1.06367   1.11216    0.012
 5400.00    1.02232   1.18490    0.012
 5401.00    0.97848   1.20555    0.012
 5402.00    0.87066   1.20591    0.012
 5403.00    0.77980   1.22255    0.011
 5404.00    0.91881   1.20198    0.012
 5405.00    1.03962   1.12446    0.012
 5406.00    0.99671   1.04954    0.012
 5407.00    0.95105   1.04030    0.012
 5408.00    0.88729   1.10143    0.012
 5409.00    0.86431   1.15327    0.012
 5410.00    1.05111   1.13664    0.012
 5411.00    1.18171   1.10580    0.012
 5412.00    1.07901   1.14016    0.012
 5413.00    1.01755   1.20796    0.012
 5414.00    1.09776   1.23971    0.012
 5415.00    1.16113   1.22957    0.012
 5416.00    1.17581   1.22118    0.012
 5417.00    1.14375   1.24740    0.012
 5418.00    0.99630   1.27905    0.012
 5419.00    0.90313   1.27854    0.012
 5420.00    0.92555   1.25413    0.012
 5421.00    0.97616   1.22565    0.012
 5422.00    1.07894   1.22141    0.012
 5423.00    1.12443   1.24249    0.013
 5424.00    1.07736   1.22988    0.012
 5425.00    1.03396   1.18595    0.012
 5426.00    0.99573   1.19359    0.012
 5427.00    0.98717   1.25027    0.012
 5428.00    1.01559   1.29007    0.012
 5429.00    1.04051   1.25377    0.012
 5430.00    1.06160   1.14885    0.012
 5431.00    1.04633   1.10825    0.012
 5432.00    0.99579   1.16939    0.012
 5433.00    1.00982   1.19686    0.012
 5434.00    1.07905   1.16026    0.012
 5435.00    1.11617   1.12270    0.012
 5436.00    1.12912   1.11532    0.012
 5437.00    1.09631   1.14078    0.012
 5438.00    1.03322   1.18569    0.012
 5439.00    0.98910   1.24234    0.012
 5440.00    0.95596   1.28574    0.012
 5441.00    0.98548   1.30336    0.012
 5442.00    1.04662   1.30527    0.012
 5443.00    1.12225   1.30395    0.012
 5444.00    1.20421   1.30234    0.012
 5445.00    1.19158   1.27672    0.012
 5446.00    1.14347   1.21208    0.012
 5447.00    1.09199   1.12333    0.012
 5448.00    1.03943   1.08139    0.012
 5449.00    0.96704   1.13771    0.012
 5450.00    0.88939   1.21487    0.011
 5451.00    0.85594   1.24825    0.011
 5452.00    0.83211   1.24780    0.011
 5453.00    0.85036   1.23587    0.011
 5454.00    0.87588   1.21633    0.011
 5455.00    0.80657   1.16932    0.012
 5456.00    0.72481   1.10025    0.012
 5457.00    0.73319   1.08984    0.011
 5458.00    0.74990   1.16308    0.011
 5459.00    0.91370   1.23576    0.011
 5460.00    1.08577   1.25724    0.012
 5461.00    1.09953   1.23827    0.012
 5462.00    1.10914   1.20954    0.012
 5463.00    1.05592   1.17598    0.012
 5464.00    1.00472   1.14423    0.012
 5465.00    1.00091   1.16177    0.012
 5466.00    0.99457   1.20543    0.011
 5467.00    0.95560   1.21465    0.012
 5468.00    0.92547   1.21305    0.012
 5469.00    0.97187   1.22650    0.012
 5470.00    0.99738   1.22343    0.012
 5471.00    0.88889   1.19889    0.012
 5472.00    0.82709   1.19199    0.012
 5473.00    0.99927   1.19678    0.012
 5474.00    1.12776   1.17571    0.012
 5475.00    1.07896   1.16101    0.012
 5476.00    1.05237   1.15471    0.012
 5477.00    1.10054   1.10113    0.012
 5478.00    1.14148   1.06478   -2.000
 5479.00    1.16188   1.12251   -2.000
 5480.00    1.15795   1.19534   -2.000
 5481.00    1.09496   1.19204   -2.000
 5482.00    1.08043   1.13893   -2.000
 5483.00    1.16742   1.12524   -2.000
 5484.00    1.17136   1.16038   -2.000
 5485.00    1.02405   1.20767   -2.000
 5486.00    1.07937   1.24523   -2.000
 5487.00    1.45723   1.23756   -2.000
 5488.00    1.54681   1.18825   -2.000
 5489.00    1.23366   1.16453   -2.000
 5490.00    1.05926   1.18561   -2.000
 5491.00    1.05543   1.19947   -2.000
 5492.00    1.00054   1.20941   -2.000
 5493.00    0.89030   1.22071   -2.000
 5494.00    0.93142   1.20528   -2.000
 5495.00    1.11724   1.19328   -2.000
 5496.00    1.18696   1.21010   -2.000
 5497.00    1.15882   1.20973   -2.000
 5498.00    1.09243   1.17647   -2.000
 5499.00    0.99765   1.17886   -2.000
 5500.00    0.97305   1.22542   -2.000
 5501.00    0.99420   1.23345   -2.000
 5502.00    1.07390   1.18990    0.011
 5503.00    1.18699   1.16114    0.011
 5504.00    1.15393   1.16984    0.011
 5505.00    1.04825   1.18682    0.011
 5506.00    0.95073   1.17965    0.011
 5507.00    0.85673   1.14305    0.011
 5508.00    0.86990   1.14017    0.011
 5509.00    0.92254   1.18380    0.012
 5510.00    0.96047   1.20668    0.011
 5511.00    0.99381   1.19753    0.011
 5512.00    1.05894   1.17236    0.011
 5513.00    1.13234   1.13337    0.012
 5514.00    1.10320   1.11432    0.012
 5515.00    1.05229   1.12606    0.012
 5516.00    1.00444   1.14873    0.012
 5517.00    0.95710   1.16909    0.012
 5518.00    0.96677   1.19010    0.012
 5519.00    0.98366   1.22594    0.012
 5520.00    0.88498   1.25023    0.012
 5521.00    0.77611   1.24509    0.011
 5522.00    0.82981   1.23322    0.012
 5523.00    0.89200   1.22998    0.012
 5524.00    0.93698   1.23184    0.012
 5525.00    0.98102   1.23010    0.012
 5526.00    0.97865   1.21617    0.011
 5527.00    0.97444   1.19201    0.011
 5528.00    0.93044   1.15172    0.011
 5529.00    0.89296   1.11221    0.011
 5530.00    0.93492   1.12876    0.011
 5531.00    0.97561   1.18687    0.011
 5532.00    1.00570   1.21877    0.011
 5533.00    1.02421   1.21495    0.012
 5534.00    0.97066   1.20445    0.011
 5535.00    0.94266   1.19230    0.011
 5536.00    1.03960   1.17643    0.011
 5537.00    1.10572   1.18302    0.011
 5538.00    1.04955   1.19825    0.011
 5539.00    1.03447   1.19871    0.011
 5540.00    1.15496   1.21024    0.011
 5541.00    1.21761   1.23589    0.011
 5542.00    1.11893   1.25098    0.011
 5543.00    1.03965   1.23825    0.011
 5544.00    1.00668   1.21034    0.011
 5545.00    1.00603   1.20253    0.011
 5546.00    1.07200   1.20859    0.011
 5547.00    1.09117   1.20384    0.011
 5548.00    1.02640   1.21127    0.011
 5549.00    0.96713   1.24076    0.011
 5550.00    0.91648   1.25988    0.011
 5551.00    0.89875   1.26227    0.011
 5552.00    0.92633   1.26014    0.011
 5553.00    0.94095   1.24926    0.011
 5554.00    0.93987   1.22561    0.011
 5555.00    0.90599   1.20363    0.011
 5556.00    0.83707   1.20428    0.011
 5557.00    0.80574   1.21757    0.011
 5558.00    0.80984   1.21733    0.011
 5559.00    0.87299   1.21146    0.011
 5560.00    0.98519   1.21689    0.011
 5561.00    0.98158   1.21989    0.012
 5562.00    0.89325   1.21217    0.012
 5563.00    0.86804   1.19359    0.011
 5564.00    0.88336   1.17908    0.011
 5565.00    0.96314   1.18549    0.011
 5566.00    1.07914   1.18397    0.011
 5567.00    1.09533   1.16698    0.011
 5568.00    1.06274   1.16592    0.011
 5569.00    1.02941   1.17411    0.011
 5570.00    0.99577   1.16630    0.011
 5571.00    1.00546   1.17015    0.011
 5572.00    1.03083   1.19512    0.011
 5573.00    1.09285   1.17929    0.011
 5574.00    1.16608   1.15125    0.012
 5575.00    1.10469   1.17731    0.011
 5576.00    1.00903   1.20443    0.011
 5577.00    0.89796   1.19905    0.011
 5578.00    0.78370   1.20420    0.011
 5579.00    0.77542   1.21121    0.011
 5580.00    0.78442   1.20981    0.011
 5581.00    0.80246   1.21735    0.011
 5582.00    0.82161   1.21430    0.011
 5583.00    0.85474   1.19876    0.011
 5584.00    0.88904   1.19824    0.011
 5585.00    0.90322   1.19704    0.011
 5586.00    0.91642   1.17349    0.011
 5587.00    1.00121   1.12685    0.011
 5588.00    1.08629   1.07740    0.011
 5589.00    1.12563   1.05678    0.011
 5590.00    1.16088   1.06646    0.011
 5591.00    1.11500   1.09852    0.011
 5592.00    1.07137   1.13492    0.011
 5593.00    1.05376   1.14890    0.011
 5594.00    1.03268   1.14368    0.011
 5595.00    0.98373   1.13314    0.011
 5596.00    0.95042   1.15506    0.012
 5597.00    1.01165   1.20662    0.012
 5598.00    1.06171   1.21061    0.012
 5599.00    1.05846   1.16131    0.012
 5600.00    1.05609   1.13460    0.012
 5601.00    1.05715   1.13390    0.012
 5602.00    1.06600   1.11853    0.012
 5603.00    1.10001   1.09878    0.012
 5604.00    1.10388   1.10555    0.012
 5605.00    1.02517   1.15438    0.012
 5606.00    0.95478   1.20941    0.011
 5607.00    0.90390   1.24024    0.011
 5608.00    0.89427   1.24823    0.011
 5609.00    0.96832   1.24322    0.011
 5610.00    1.01440   1.23604    0.011
 5611.00    1.01107   1.23200    0.011
 5612.00    1.01694   1.23789    0.011
 5613.00    1.03700   1.25030    0.011
 5614.00    1.02343   1.24660    0.011
 5615.00    0.96422   1.18892    0.011
 5616.00    0.91787   1.09547    0.011
 5617.00    0.88691   1.07127    0.011
 5618.00    0.86496   1.12849    0.011
 5619.00    0.85251   1.16963    0.011
 5620.00    0.87069   1.16770    0.011
 5621.00    0.91734   1.16427    0.011
 5622.00    0.93225   1.18384    0.011
 5623.00    0.92116   1.20459    0.011
 5624.00    0.97474   1.18618    0.011
 5625.00    1.07495   1.12785    0.011
 5626.00    1.08544   1.09687    0.011
 5627.00    1.03916   1.12619    0.011
 5628.00    0.99904   1.16285    0.011
 5629.00    0.96234   1.18022    0.011
 5630.00    0.99130   1.20184    0.011
 5631.00    1.05185   1.22236    0.011
 5632.00    1.01458   1.22852    0.011
 5633.00    0.93667   1.22335    0.011
 5634.00    0.89796   1.21208    0.011
 5635.00    0.87317   1.19801    0.011
 5636.00    0.81241   1.18478    0.011
 5637.00    0.74086   1.16771    0.011
 5638.00    0.78916   1.15020    0.011
 5639.00    0.86732   1.15086    0.011
 5640.00    0.88032   1.16848    0.011
 5641.00    0.88017   1.17061    0.011
 5642.00    0.84179   1.14992    0.011
 5643.00    0.79735   1.14522    0.011
 5644.00    0.83206   1.15962    0.011
 5645.00    0.87610   1.16844    0.011
 5646.00    0.89766   1.17527    0.011
 5647.00    0.91744   1.18307    0.011
 5648.00    0.91814   1.19145    0.011
 5649.00    0.91799   1.19301    0.011
 5650.00    0.90569   1.18228    0.011
 5651.00    0.89456   1.17667    0.011
 5652.00    0.94682   1.19127    0.011
 5653.00    0.99203   1.21237    0.011
 5654.00    0.90749   1.21443    0.011
 5655.00    0.83225   1.18718    0.011
 5656.00    0.86002   1.16474    0.011
 5657.00    0.88504   1.17578    0.011
 5658.00    0.88863   1.16082    0.011
 5659.00    0.88918   1.09242    0.011
 5660.00    0.87185   1.07061    0.010
 5661.00    0.86266   1.12439    0.010
 5662.00    0.89131   1.15378    0.010
 5663.00    0.91054   1.13250    0.010
 5664.00    0.89395   1.12703    0.010
 5665.00    0.89258   1.15996    0.010
 5666.00    0.93948   1.19209    0.010
 5667.00    0.98724   1.19453    0.010
 5668.00    1.03732   1.17209    0.010
 5669.00    1.06241   1.15639    0.010
 5670.00    1.02983   1.15973    0.010
 5671.00    1.01726   1.16787    0.010
 5672.00    1.04461   1.17641    0.010
 5673.00    1.05485   1.19818    0.011
 5674.00    1.03535   1.22634    0.011
 5675.00    0.99099   1.23199    0.011
 5676.00    0.90882   1.21765    0.011
 5677.00    0.88358   1.21757    0.011
 5678.00    0.93450   1.23012    0.011
 5679.00    0.93222   1.22411    0.011
 5680.00    0.86727   1.20781    0.011
 5681.00    0.79971   1.20389    0.011
 5682.00    0.72943   1.19760    0.011
 5683.00    0.73810   1.16774    0.011
 5684.00    0.81908   1.14829    0.011
 5685.00    0.85966   1.16390    0.011
 5686.00    0.86762   1.18393    0.011
 5687.00    0.88401   1.17482    0.011
 5688.00    0.90639   1.14807    0.011
 5689.00    0.86474   1.13649    0.011
 5690.00    0.78316   1.15267    0.011
 5691.00    0.74770   1.18183    0.011
 5692.00    0.73737   1.20349    0.011
 5693.00    0.74447   1.22081    0.011
 5694.00    0.75981   1.22814    0.011
 5695.00    0.76276   1.21830    0.011
 5696.00    0.76066   1.20874    0.011
 5697.00    0.77353   1.21145    0.011
 5698.00    0.79162   1.20762    0.011
 5699.00    0.82205   1.18186    0.011
 5700.00    0.85611   1.16510    0.011
 5701.00    0.80305   1.15960    0.011
 5702.00    0.72877   1.13999    0.011
 5703.00    0.72026   1.12758    0.010
 5704.00    0.72469   1.14439    0.010
 5705.00    0.70661   1.17041    0.010
 5706.00    0.68506   1.17192    0.010
 5707.00    0.74038   1.14476    0.010
 5708.00    0.80440   1.11823    0.010
 5709.00    0.86141   1.09539    0.010
 5710.00    0.91789   1.07612    0.010
 5711.00    0.92202   1.08417    0.010
 5712.00    0.92401   1.09505    0.010
 5713.00    0.91363   1.10122    0.010
 5714.00    0.90470   1.13870    0.010
 5715.00    0.95987   1.17820    0.010
 5716.00    1.00871   1.19236    0.010
 5717.00    0.94887   1.20125    0.011
 5718.00    0.88777   1.20323    0.011
 5719.00    0.81330   1.20042    0.011
 5720.00    0.74797   1.20902    0.011
 5721.00    0.75118   1.21889    0.011
 5722.00    0.75687   1.22630    0.011
 5723.00    0.77669   1.23873    0.011
 5724.00    0.79987   1.24690    0.011
 5725.00    0.83833   1.24455    0.011
 5726.00    0.86339   1.23719    0.011
 5727.00    0.83859   1.21532    0.011
 5728.00    0.82734   1.18482    0.011
 5729.00    0.85823   1.18517    0.011
 5730.00    0.87702   1.21400    0.011
 5731.00    0.86384   1.21974    0.011
 5732.00    0.84838   1.19042    0.011
 5733.00    0.82773   1.17754    0.011
 5734.00    0.83866   1.20198    0.011
 5735.00    0.91166   1.22680    0.011
 5736.00    0.97324   1.23344    0.011
 5737.00    1.01528   1.22625    0.011
 5738.00    1.02796   1.21500    0.011
 5739.00    0.99660   1.21054    0.010
 5740.00    0.96651   1.21054    0.000
 5741.00    0.93810   1.21148    0.000
 5742.00    0.93196   1.21173    0.000
 5743.00    0.95169   1.20536    0.000
 5744.00    0.95849   1.19830    0.000
 5745.00    0.95206   1.20819    0.000
 5746.00    0.96664   1.23142    0.000
 5747.00    1.00018   1.24032    0.000
 5748.00    1.02929   1.21506    0.000
 5749.00    1.05489   1.17998    0.000
 5750.00    1.05292   1.18421    0.000
 5751.00    1.03165   1.21741    0.000
 5752.00    1.01263   1.22831    0.000
 5753.00    0.99498   1.19953    0.000
 5754.00    1.00903   1.15410    0.000
 5755.00    1.04010   1.13035    0.000
 5756.00    1.04908   1.15474    0.000
 5757.00    1.04776   1.20260    0.000
 5758.00    1.01409   1.23294    0.000
 5759.00    0.96741   1.23966    0.000
 5760.00    0.95665   1.22479    0.000
 5761.00    0.95817   1.19558    0.000
 5762.00    0.97503   1.16270    0.000
 5763.00    0.99631   1.13492    0.000
 5764.00    0.99975   1.13475    0.000
 5765.00    0.99894   1.17771    0.000
 5766.00    1.02011   1.22105    0.000
 5767.00    1.04549   1.23535    0.000
 5768.00    1.03416   1.23757    0.000
 5769.00    1.01736   1.23652    0.000
 5770.00    1.03851   1.22995    0.000
 5771.00    1.06379   1.22327    0.000
 5772.00    1.03758   1.21554    0.000
 5773.00    1.00768   1.20439    0.000
 5774.00    0.94089   1.20094    0.000
 5775.00    0.87273   1.19792    0.000
 5776.00    0.88343   1.19500    0.000
 5777.00    0.89720   1.20563    0.000
 5778.00    1.00938   1.21761    0.000
 5779.00    1.11507   1.21840    0.000
 5780.00    1.11645   1.20442    0.000
 5781.00    1.10251   1.16308    0.000
 5782.00    0.93352   1.10984    0.000
 5783.00    0.77304   1.09247    0.000
 5784.00    0.67429   1.11040    0.000
 5785.00    0.59859   1.11412    0.000
 5786.00    0.65092   1.09560    0.000
 5787.00    0.72569   1.10524    0.000
 5788.00    0.90004   1.14760    0.000
 5789.00    1.02824   1.17951    0.000
 5790.00    0.98832   1.19424    0.000
 5791.00    0.94478   1.18429   -2.000
 5792.00    0.89018   1.16287   -2.000
 5793.00    0.87035   1.16994   -2.000
 5794.00    0.94081   1.19362   -2.000
 5795.00    1.00205   1.21289   -2.000
 5796.00    1.04272   1.22867   -2.000
 5797.00    1.03879   1.22439   -2.000
 5798.00    0.94859   1.19229   -2.000
 5799.00    0.89438   1.16872   -2.000
 5800.00    0.90088   1.19214   -2.000
 5801.00    0.93751   1.23257   -2.000
 5802.00    1.01870   1.25214   -2.000
 5803.00    1.03162   1.25714   -2.000
 5804.00    0.95584   1.24408   -2.000
 5805.00    0.93894   1.21059   -2.000
 5806.00    0.98946   1.18843   -2.000
 5807.00    1.06882   1.18906   -2.000
 5808.00    1.17731   1.19910   -2.000
 5809.00    1.17816   1.20668   -2.000
 5810.00    1.08316   1.21017   -2.000
 5811.00    1.04331   1.21735    0.000
 5812.00    1.04674   1.22561    0.000
 5813.00    1.04103   1.22621    0.000
 5814.00    1.02902   1.22275    0.000
 5815.00    1.00178   1.21282    0.000
 5816.00    0.96532   1.19016    0.000
 5817.00    0.96792   1.16852    0.000
 5818.00    0.99114   1.17579    0.000
 5819.00    1.01484   1.20939    0.000
 5820.00    1.03875   1.23493    0.000
 5821.00    1.05541   1.24301    0.000
 5822.00    1.06920   1.24227    0.000
 5823.00    1.06927   1.23396    0.000
 5824.00    1.06474   1.22467    0.000
 5825.00    1.01937   1.22257    0.000
 5826.00    0.96247   1.22918    0.000
 5827.00    0.95638   1.23241    0.000
 5828.00    0.96211   1.22988    0.000
 5829.00    1.00633   1.22948    0.000
 5830.00    1.05775   1.23572    0.000
 5831.00    0.98462   1.23944    0.000
 5832.00    0.89353   1.23426    0.000
 5833.00    0.80930   1.23072    0.000
 5834.00    0.72580   1.22807    0.000
 5835.00    0.74175   1.21544    0.000
 5836.00    0.76444   1.20559    0.000
 5837.00    0.84521   1.21563    0.000
 5838.00    0.92791   1.22311    0.000
 5839.00    0.89973   1.21125    0.000
 5840.00    0.87330   1.20660    0.000
 5841.00    0.90468   1.22234    0.000
 5842.00    0.93389   1.23983    0.000
 5843.00    0.93019   1.24747    0.000
 5844.00    0.93460   1.24765    0.000
 5845.00    1.01762   1.24072    0.000
 5846.00    1.09080   1.22740    0.000
 5847.00    1.09499   1.21049    0.000
 5848.00    1.10284   1.19307    0.000
 5849.00    1.13039   1.18757    0.000
 5850.00    1.14483   1.19423    0.000
 5851.00    1.10244   1.20124    0.000
 5852.00    1.05792   1.19769    0.000
 5853.00    1.00578   1.17621    0.000
 5854.00    0.97525   1.14834    0.000
 5855.00    1.00944   1.14581    0.000
 5856.00    1.04798   1.16415    0.000
 5857.00    1.09761   1.15921    0.000
 5858.00    1.12425   1.12180    0.000
 5859.00    1.10044   1.09902    0.000
 5860.00    1.05735   1.11918    0.000
 5861.00    0.97757   1.15320    0.000
 5862.00    0.92729   1.17464    0.000
 5863.00    0.92603   1.17074    0.000
 5864.00    0.92324   1.16390    0.000
 5865.00    0.91820   1.17416    0.000
 5866.00    0.92892   1.18233    0.000
 5867.00    0.95982   1.16825    0.000
 5868.00    1.01543   1.15436    0.000
 5869.00    1.09891   1.16859    0.000
 5870.00    1.14591   1.19373    0.000
 5871.00    1.15661   1.20840    0.000
 5872.00    1.12531   1.20871    0.000
 5873.00    1.05713   1.19783    0.000
 5874.00    0.99908   1.18555    0.000
 5875.00    0.94886   1.18691    0.000
 5876.00    0.94300   1.19456    0.000
 5877.00    0.96730   1.19077    0.000
 5878.00    0.98226   1.18062    0.000
 5879.00    0.99165   1.17301    0.000
 5880.00    0.97900   1.16018    0.000
 5881.00    0.95489   1.14131    0.000
 5882.00    0.90772   1.13959    0.000
 5883.00    0.85016   1.15574    0.000
 5884.00    0.84405   1.15742    0.000
 5885.00    0.85789   1.14440    0.000
 5886.00    0.87864   1.14392    0.000
 5887.00    0.90167   1.15095    0.000
 5888.00    0.88562   1.13359    0.000
 5889.00    0.85876   1.05505    0.000
 5890.00    0.83074   0.90393    0.000
 5891.00    0.80246   0.78581    0.000
 5892.00    0.83519   0.82322    0.000
 5893.00    0.87903   0.93993    0.000
 5894.00    0.86947   1.01327    0.000
 5895.00    0.85244   1.01823    0.000
 5896.00    0.90848   0.93779    0.000
 5897.00    0.97186   0.85318    0.000
 5898.00    0.94729   0.89755    0.000
 5899.00    0.91713   1.00864    0.000
 5900.00    0.91627   1.07104    0.000
 5901.00    0.91637   1.10163    0.011
 5902.00    0.94849   1.13055    0.011
 5903.00    0.97819   1.14525    0.010
 5904.00    0.93973   1.15065    0.010
 5905.00    0.90420   1.15454    0.010
 5906.00    0.91044   1.14853    0.010
 5907.00    0.91474   1.14083    0.010
 5908.00    0.90092   1.14768    0.010
 5909.00    0.87826   1.16128    0.010
 5910.00    0.79551   1.16555    0.010
 5911.00    0.73162   1.16434    0.010
 5912.00    0.76695   1.17154    0.010
 5913.00    0.79950   1.17574    0.010
 5914.00    0.82031   1.15646    0.010
 5915.00    0.82767   1.12385    0.010
 5916.00    0.78803   1.10982    0.010
 5917.00    0.75959   1.11493    0.010
 5918.00    0.76411   1.13213    0.010
 5919.00    0.79311   1.14969    0.010
 5920.00    0.88347   1.15901    0.010
 5921.00    0.97452   1.16802    0.010
 5922.00    1.06703   1.16706    0.010
 5923.00    1.10007   1.15544    0.010
 5924.00    1.02161   1.15360    0.010
 5925.00    0.94789   1.16244    0.010
 5926.00    0.88195   1.17067    0.010
 5927.00    0.84646   1.17790    0.010
 5928.00    0.85468   1.17625    0.010
 5929.00    0.86987   1.16283    0.010
 5930.00    0.89385   1.14264    0.010
 5931.00    0.92851   1.12803    0.010
 5932.00    0.97504   1.14259    0.010
 5933.00    1.01549   1.17082    0.010
 5934.00    1.04996   1.17482    0.010
 5935.00    1.04179   1.15070    0.010
 5936.00    0.99670   1.13423    0.010
 5937.00    0.94331   1.14870    0.010
 5938.00    0.88358   1.16729    0.010
 5939.00    0.87844   1.17546    0.010
 5940.00    0.90988   1.18219    0.010
 5941.00    0.91546   1.17411    0.010
 5942.00    0.90587   1.14804    0.010
 5943.00    0.90464   1.13602    0.010
 5944.00    0.90768   1.14624    0.010
 5945.00    0.92704   1.16176    0.010
 5946.00    0.95363   1.17690    0.010
 5947.00    0.92345   1.18710    0.010
 5948.00    0.87166   1.18113    0.010
 5949.00    0.80770   1.15470    0.009
 5950.00    0.73982   1.13171    0.009
 5951.00    0.77022   1.14077    0.009
 5952.00    0.82724   1.16146    0.010
 5953.00    0.89726   1.15290    0.010
 5954.00    0.97016   1.13150    0.010
 5955.00    0.95423   1.14030    0.010
 5956.00    0.92257   1.15931    0.010
 5957.00    0.92617   1.15118    0.010
 5958.00    0.93453   1.13222    0.010
 5959.00    0.90493   1.13150    0.010
 5960.00    0.87167   1.14704    0.010
 5961.00    0.78903   1.16735    0.010
 5962.00    0.70345   1.18327    0.010
 5963.00    0.69486   1.18998    0.010
 5964.00    0.68856   1.18765    0.010
 5965.00    0.73096   1.18257    0.010
 5966.00    0.77294   1.17069    0.010
 5967.00    0.80419   1.15921    0.010
 5968.00    0.83341   1.16697    0.010
 5969.00    0.83529   1.18071    0.010
 5970.00    0.83810   1.18785    0.010
 5971.00    0.84935   1.19385    0.010
 5972.00    0.85906   1.19937    0.010
 5973.00    0.85871   1.19883    0.010
 5974.00    0.86052   1.19569    0.010
 5975.00    0.87332   1.18797    0.010
 5976.00    0.87688   1.16874    0.010
 5977.00    0.84217   1.14451    0.009
 5978.00    0.80878   1.13086    0.009
 5979.00    0.77991   1.13161    0.009
 5980.00    0.75924   1.14489    0.009
 5981.00    0.76226   1.16672    0.009
 5982.00    0.75723   1.17969    0.009
 5983.00    0.73234   1.17272    0.009
 5984.00    0.71929   1.14434    0.009
 5985.00    0.73139   1.10941    0.009
 5986.00    0.73820   1.10628    0.009
 5987.00    0.73528   1.13240    0.010
 5988.00    0.72684   1.14901    0.010
 5989.00    0.70954   1.15528    0.010
 5990.00    0.71418   1.16618    0.010
 5991.00    0.74988   1.17280    0.010
 5992.00    0.81258   1.16224    0.010
 5993.00    0.90890   1.15394    0.010
 5994.00    0.97180   1.16971    0.010
 5995.00    0.99804   1.18982    0.010
 5996.00    0.98449   1.19210    0.010
 5997.00    0.93243   1.17605    0.010
 5998.00    0.89725   1.15093    0.010
 5999.00    0.87647   1.13622    0.010
 6000.00    0.87131   1.14147    0.010
 6001.00    0.87787   1.15676    0.010
 6002.00    0.87527   1.16604    0.010
 6003.00    0.86661   1.15464    0.010
 6004.00    0.86960   1.13852    0.010
 6005.00    0.87931   1.14571    0.010
 6006.00    0.87572   1.15778    0.010
 6007.00    0.86543   1.14911    0.010
 6008.00    0.86221   1.12305    0.010
 6009.00    0.86208   1.09729    0.010
 6010.00    0.88985   1.10871    0.010
 6011.00    0.92806   1.15119    0.010
 6012.00    0.92380   1.17369    0.010
 6013.00    0.90606   1.15806    0.010
 6014.00    0.84887   1.13000    0.010
 6015.00    0.78121   1.12573    0.010
 6016.00    0.74648   1.14010    0.010
 6017.00    0.71888   1.13787    0.010
 6018.00    0.70934   1.12859    0.010
 6019.00    0.70291   1.13489    0.010
 6020.00    0.75812   1.13533    0.010
 6021.00    0.82139   1.12013    0.010
 6022.00    0.93981   1.11349    0.010
 6023.00    1.06329   1.12208    0.010
 6024.00    1.04711   1.13221    0.010
 6025.00    1.02315   1.13657    0.010
 6026.00    0.98203   1.14924    0.010
 6027.00    0.94156   1.16043    0.010
 6028.00    1.00368   1.15784    0.010
 6029.00    1.05929   1.16408    0.010
 6030.00    0.96377   1.17858    0.010
 6031.00    0.87256   1.18254    0.010
 6032.00    0.83619   1.17803    0.010
 6033.00    0.80686   1.18107    0.009
 6034.00    0.83806   1.18981    0.010
 6035.00    0.86588   1.19271    0.010
 6036.00    0.87204   1.19082    0.010
 6037.00    0.86353   1.18990    0.009
 6038.00    0.78167   1.19103    0.009
 6039.00    0.71614   1.19088    0.009
 6040.00    0.71670   1.18442    0.009
 6041.00    0.73942   1.17555    0.009
 6042.00    0.83653   1.17191    0.010
 6043.00    0.91213   1.17151    0.010
 6044.00    0.92674   1.18066    0.010
 6045.00    0.94209   1.19408    0.010
 6046.00    0.95923   1.19967    0.010
 6047.00    0.97943   1.20162    0.010
 6048.00    1.00603   1.20328    0.010
 6049.00    1.00788   1.20053    0.010
 6050.00    0.96474   1.19490    0.010
 6051.00    0.90863   1.19907    0.010
 6052.00    0.83192   1.20430    0.010
 6053.00    0.77028   1.19775    0.010
 6054.00    0.72966   1.18319    0.010
 6055.00    0.69941   1.17350    0.010
 6056.00    0.68188   1.16703    0.010
 6057.00    0.67347   1.15677    0.010
 6058.00    0.67493   1.15308    0.010
 6059.00    0.68298   1.16119    0.010
 6060.00    0.69732   1.17677    0.010
 6061.00    0.73218   1.18898    0.010
 6062.00    0.78431   1.19033    0.010
 6063.00    0.80972   1.18032    0.010
 6064.00    0.81534   1.16407    0.009
 6065.00    0.83043   1.14233    0.009
 6066.00    0.85167   1.11479    0.009
 6067.00    0.87841   1.11754    0.009
 6068.00    0.90829   1.16022    0.009
 6069.00    0.92215   1.19648    0.009
 6070.00    0.92807   1.20718    0.009
 6071.00    0.91433   1.20699    0.009
 6072.00    0.89217   1.20723    0.009
 6073.00    0.86996   1.20967    0.009
 6074.00    0.84774   1.21109    0.009
 6075.00    0.84938   1.21084    0.009
 6076.00    0.85845   1.20817    0.010
 6077.00    0.85721   1.19964    0.010
 6078.00    0.85330   1.18511    0.009
 6079.00    0.86747   1.16185    0.010
 6080.00    0.88548   1.14732    0.010
 6081.00    0.93312   1.15462    0.010
 6082.00    0.98573   1.15367    0.010
 6083.00    1.02253   1.13730    0.010
 6084.00    1.05734   1.13691    0.010
 6085.00    1.04630   1.14969    0.010
 6086.00    1.03124   1.15009    0.010
 6087.00    0.97286   1.14725    0.010
 6088.00    0.91223   1.15574    0.010
 6089.00    0.91346   1.16722    0.010
 6090.00    0.91609   1.16141    0.010
 6091.00    0.93926   1.13891    0.010
 6092.00    0.96064   1.12873    0.010
 6093.00    0.94388   1.13435    0.010
 6094.00    0.92459   1.13880    0.010
 6095.00    0.87473   1.15044    0.010
 6096.00    0.82971   1.17287    0.009
 6097.00    0.82486   1.17846    0.009
 6098.00    0.81937   1.16692    0.009
 6099.00    0.80991   1.16324    0.009
 6100.00    0.79919   1.17462    0.009
 6101.00    0.78237   1.18562    0.009
 6102.00    0.76410   1.16588    0.009
 6103.00    0.74013   1.09992    0.009
 6104.00    0.72907   1.05190    0.009
 6105.00    0.76051   1.08471    0.009
 6106.00    0.79528   1.14355    0.009
 6107.00    0.83932   1.16871    0.009
 6108.00    0.86889   1.16286    0.009
 6109.00    0.86400   1.15268    0.010
 6110.00    0.85945   1.16345    0.010
 6111.00    0.85562   1.17647    0.010
 6112.00    0.85219   1.16553    0.010
 6113.00    0.84949   1.15562    0.010
 6114.00    0.84250   1.16938    0.010
 6115.00    0.82878   1.18872    0.010
 6116.00    0.82082   1.18924    0.010
 6117.00    0.82079   1.16941    0.010
 6118.00    0.82544   1.15975    0.010
 6119.00    0.83574   1.16901    0.010
 6120.00    0.84821   1.16365    0.010
 6121.00    0.86300   1.13716    0.010
 6122.00    0.87217   1.10110    0.009
 6123.00    0.87607   1.06639    0.009
 6124.00    0.88312   1.07939    0.009
 6125.00    0.89279   1.13285    0.009
 6126.00    0.89589   1.15943    0.009
 6127.00    0.89418   1.15244    0.009
 6128.00    0.88117   1.14022    0.009
 6129.00    0.86092   1.13039    0.009
 6130.00    0.83364   1.13268    0.009
 6131.00    0.80242   1.15181    0.009
 6132.00    0.80212   1.17080    0.009
 6133.00    0.81689   1.17741    0.009
 6134.00    0.82378   1.17834    0.009
 6135.00    0.82734   1.16556    0.009
 6136.00    0.82823   1.12549    0.010
 6137.00    0.82815   1.05652    0.010
 6138.00    0.80533   0.99447    0.010
 6139.00    0.77556   1.01072    0.010
 6140.00    0.76318   1.09508    0.010
 6141.00    0.75521   1.15335    0.010
 6142.00    0.79179   1.14126    0.010
 6143.00    0.83758   1.11403    0.010
 6144.00    0.89365   1.13113    0.010
 6145.00    0.95140   1.16900    0.010
 6146.00    0.96259   1.18484    0.010
 6147.00    0.96813   1.18109    0.010
 6148.00    0.91089   1.17012    0.009
 6149.00    0.84840   1.15258    0.009
 6150.00    0.78806   1.13242    0.009
 6151.00    0.72781   1.12070    0.009
 6152.00    0.73370   1.12550    0.009
 6153.00    0.74020   1.14286    0.009
 6154.00    0.72697   1.15661    0.009
 6155.00    0.71477   1.14578    0.009
 6156.00    0.72309   1.12622    0.009
 6157.00    0.73260   1.12551    0.009
 6158.00    0.75593   1.13085    0.009
 6159.00    0.77373   1.12924    0.009
 6160.00    0.74720   1.12441    0.009
 6161.00    0.72513   1.09548    0.009
 6162.00    0.72988   1.02419    0.009
 6163.00    0.74563   0.95851    0.009
 6164.00    0.81361   0.95446    0.010
 6165.00    0.88078   1.00189    0.010
 6166.00    0.94481   1.05119    0.010
 6167.00    0.99327   1.07548    0.010
 6168.00    0.99151   1.09198    0.010
 6169.00    0.97481   1.08918    0.010
 6170.00    0.91731   1.04232    0.010
 6171.00    0.86939   1.00715    0.010
 6172.00    0.84391   1.03840    0.010
 6173.00    0.83322   1.08848    0.010
 6174.00    0.85248   1.10152    0.010
 6175.00    0.86806   1.09922    0.010
 6176.00    0.87714   1.10263    0.010
 6177.00    0.88778   1.09987    0.010
 6178.00    0.90080   1.09521    0.010
 6179.00    0.90871   1.10683    0.009
 6180.00    0.90970   1.11959    0.009
 6181.00    0.90772   1.11561    0.009
 6182.00    0.90220   1.11723    0.009
 6183.00    0.89060   1.13050    0.009
 6184.00    0.87260   1.13502    0.009
 6185.00    0.89793   1.13207    0.009
 6186.00    0.96345   1.12749    0.009
 6187.00    1.01722   1.10906    0.009
 6188.00    1.06138   1.08669    0.010
 6189.00    1.01196   1.07740    0.010
 6190.00    0.89519   1.07881    0.009
 6191.00    0.82288   1.06669    0.009
 6192.00    0.77864   1.02493    0.009
 6193.00    0.73975   1.00914    0.010
 6194.00    0.70380   1.05232    0.010
 6195.00    0.64821   1.09719    0.010
 6196.00    0.58318   1.11372   -2.000
 6197.00    0.74384   1.12187   -2.000
 6198.00    0.99805   1.13067   -2.000
 6199.00    1.18269   1.12396   -2.000
 6200.00    1.34269   1.09160   -2.000
 6201.00    1.34182   1.06360   -2.000
 6202.00    1.29281   1.07448   -2.000
 6203.00    1.09890   1.10756   -2.000
 6204.00    0.86900   1.12835   -2.000
 6205.00    0.80112   1.12930   -2.000
 6206.00    0.76586   1.12461   -2.000
 6207.00    0.82876   1.12641   -2.000
 6208.00    0.90714   1.12985    0.010
 6209.00    0.91674   1.13000    0.009
 6210.00    0.91828   1.12786    0.009
 6211.00    0.86565   1.12006    0.009
 6212.00    0.80873   1.10996    0.009
 6213.00    0.80983   1.09772    0.009
 6214.00    0.81348   1.06679    0.009
 6215.00    0.83960   1.03131    0.009
 6216.00    0.86605   1.01632    0.009
 6217.00    0.89601   1.02360    0.009
 6218.00    0.92427   1.04959    0.009
 6219.00    0.92156   1.06887    0.009
 6220.00    0.91763   1.05713    0.009
 6221.00    0.90013   1.03702    0.009
 6222.00    0.88315   1.03874    0.009
 6223.00    0.87014   1.05888    0.009
 6224.00    0.86169   1.07381    0.009
 6225.00    0.87987   1.07077    0.009
 6226.00    0.89223   1.06934    0.010
 6227.00    0.87764   1.07801    0.010
 6228.00    0.85954   1.08405    0.010
 6229.00    0.82817   1.08322    0.010
 6230.00    0.80667   1.06243    0.010
 6231.00    0.81644   1.01560    0.010
 6232.00    0.83427   0.98426    0.010
 6233.00    0.87369   0.99820    0.009
 6234.00    0.88735   1.03021    0.009
 6235.00    0.84168   1.06857    0.009
 6236.00    0.77635   1.10273    0.009
 6237.00    0.67185   1.11187    0.009
 6238.00    0.62017   1.09822    0.009
 6239.00    0.66019   1.07731    0.009
 6240.00    0.69890   1.05472    0.009
 6241.00    0.73564   1.03485    0.009
 6242.00    0.75895   1.03782    0.009
 6243.00    0.76433   1.04342    0.009
 6244.00    0.77965   1.02311    0.009
 6245.00    0.80665   1.01233    0.009
 6246.00    0.83830   1.02099    0.009
 6247.00    0.87478   1.02486    0.009
 6248.00    0.89697   1.04096    0.009
 6249.00    0.90609   1.07312    0.009
 6250.00    0.92483   1.09149    0.009
 6251.00    0.95133   1.09035    0.009
 6252.00    0.94458   1.07251    0.009
 6253.00    0.91425   1.03595    0.009
 6254.00    0.88865   1.00899    0.009
 6255.00    0.86599   1.00938    0.009
 6256.00    0.89373   1.01954    0.009
 6257.00    0.94889   1.01585    0.010
 6258.00    0.94608   0.99635    0.010
 6259.00    0.91587   0.97653    0.010
 6260.00    0.96486   0.98243    0.010
 6261.00    1.04611   1.01820    0.011
 6262.00    1.08176   1.04629    0.011
 6263.00    1.10154   1.06674    0.011
 6264.00    1.03827   1.09227    0.011
 6265.00    0.95063   1.09456    0.011
 6266.00    0.90116   1.06880    0.010
 6267.00    0.86096   1.05790    0.010
 6268.00    0.86650   1.07401    0.010
 6269.00    0.88103   1.08330    0.009
 6270.00    0.89161   1.07469    0.009
 6271.00    0.90160   1.06755    0.009
 6272.00    0.86223   1.07183    0.009
 6273.00    0.81730   1.08373    0.009
 6274.00    0.78689   1.09323    0.009
 6275.00    0.75758   1.09139    0.009
 6276.00    0.75927   1.08748    0.009
 6277.00    0.76220   1.08961    0.010
 6278.00    0.83473   1.09140    0.010
 6279.00    0.90750   1.08980    0.010
 6280.00    0.96866   1.08028    0.000
 6281.00    1.02693   1.05972    0.000
 6282.00    1.03602   1.04937    0.000
 6283.00    1.03912   1.05993    0.000
 6284.00    0.97911   1.07962    0.000
 6285.00    0.92158   1.09637    0.000
 6286.00    0.88253   1.09724    0.000
 6287.00    0.84771   1.09657    0.000
 6288.00    0.83697   1.10804    0.000
 6289.00    0.82578   1.12207    0.000
 6290.00    0.81255   1.12888    0.000
 6291.00    0.80339   1.11891    0.000
 6292.00    0.80933   1.09976    0.000
 6293.00    0.80934   1.08673    0.000
 6294.00    0.79096   1.08264    0.000
 6295.00    0.78315   1.09068    0.000
 6296.00    0.80317   1.09599    0.000
 6297.00    0.82113   1.07714    0.000
 6298.00    0.83445   1.05144    0.000
 6299.00    0.82100   1.04809    0.000
 6300.00    0.75507   1.06553    0.000
 6301.00    0.69626   1.07377    0.000
 6302.00    0.64961   1.05643    0.000
 6303.00    0.64720   1.03848    0.000
 6304.00    0.71104   1.04810    0.000
 6305.00    0.76202   1.07148    0.000
 6306.00    0.79609   1.08080    0.000
 6307.00    0.80550   1.08376    0.000
 6308.00    0.78632   1.10187    0.000
 6309.00    0.75805   1.12199    0.000
 6310.00    0.72048   1.12377    0.000
 6311.00    0.70378   1.10799    0.000
 6312.00    0.70590   1.08755    0.000
 6313.00    0.70900   1.07917    0.000
 6314.00    0.71289   1.08522    0.000
 6315.00    0.70880   1.07938    0.000
 6316.00    0.69914   1.05728    0.000
 6317.00    0.70383   1.05339    0.000
 6318.00    0.71732   1.05682    0.000
 6319.00    0.73313   1.03764    0.000
 6320.00    0.75020   1.03023    0.000
 6321.00    0.76327   1.05565    0.009
 6322.00    0.77449   1.07910    0.009
 6323.00    0.77525   1.08168    0.009
 6324.00    0.77183   1.08365    0.009
 6325.00    0.74430   1.09867    0.009
 6326.00    0.70854   1.11060    0.009
 6327.00    0.68405   1.11220    0.009
 6328.00    0.66281   1.10617    0.009
 6329.00    0.70810   1.10686    0.009
 6330.00    0.76920   1.11447    0.009
 6331.00    0.78849   1.10829    0.009
 6332.00    0.79978   1.10133    0.009
 6333.00    0.79332   1.11117    0.009
 6334.00    0.78424   1.12458    0.009
 6335.00    0.78915   1.11494    0.009
 6336.00    0.79558   1.07283    0.009
 6337.00    0.79803   1.03627    0.009
 6338.00    0.80020   1.04116    0.009
 6339.00    0.76699   1.06648    0.009
 6340.00    0.73250   1.08066    0.009
 6341.00    0.71922   1.09472    0.009
 6342.00    0.70743   1.11058    0.009
 6343.00    0.74561   1.10756    0.009
 6344.00    0.78362   1.08329    0.009
 6345.00    0.81893   1.05862    0.009
 6346.00    0.85154   1.06030    0.009
 6347.00    0.85714   1.07824    0.009
 6348.00    0.86217   1.08970    0.009
 6349.00    0.86313   1.09896    0.009
 6350.00    0.85978   1.10972    0.009
 6351.00    0.83253   1.11385    0.009
 6352.00    0.80361   1.11477    0.009
 6353.00    0.76733   1.11626    0.009
 6354.00    0.74006   1.10968    0.009
 6355.00    0.74558   1.08766    0.009
 6356.00    0.76361   1.06679    0.009
 6357.00    0.81981   1.06948    0.009
 6358.00    0.86407   1.07581    0.009
 6359.00    0.87737   1.05636    0.009
 6360.00    0.88056   1.03121    0.009
 6361.00    0.86119   1.02637    0.009
 6362.00    0.83673   1.02545    0.009
 6363.00    0.80244   1.01550    0.009
 6364.00    0.77601   1.01355    0.009
 6365.00    0.76280   1.02873    0.009
 6366.00    0.77143   1.04959    0.009
 6367.00    0.81229   1.06597    0.009
 6368.00    0.82874   1.08229    0.009
 6369.00    0.81351   1.10108    0.009
 6370.00    0.79488   1.10874    0.009
 6371.00    0.77234   1.10042    0.009
 6372.00    0.77711   1.09590    0.009
 6373.00    0.80939   1.10837    0.009
 6374.00    0.82985   1.12472    0.009
 6375.00    0.83981   1.12833    0.009
 6376.00    0.82781   1.12290    0.009
 6377.00    0.79862   1.12227    0.009
 6378.00    0.77852   1.12219    0.009
 6379.00    0.76469   1.10928    0.009
 6380.00    0.74753   1.09354    0.009
 6381.00    0.72836   1.08867    0.009
 6382.00    0.71926   1.09070    0.009
 6383.00    0.71545   1.09955    0.009
 6384.00    0.73726   1.10772    0.009
 6385.00    0.77079   1.10292    0.009
 6386.00    0.81295   1.09781    0.009
 6387.00    0.85852   1.10544    0.009
 6388.00    0.81567   1.11560    0.009
 6389.00    0.74318   1.11713    0.009
 6390.00    0.74316   1.11596    0.009
 6391.00    0.76354   1.11846    0.009
 6392.00    0.85339   1.11586    0.009
 6393.00    0.95936   1.09122    0.009
 6394.00    0.96724   1.04908    0.009
 6395.00    0.95686   1.03474    0.009
 6396.00    0.92507   1.06620    0.009
 6397.00    0.89020   1.10478    0.009
 6398.00    0.90186   1.12425    0.009
 6399.00    0.91835   1.12097    0.009
 6400.00    0.90441   1.08201    0.009
 6401.00    0.88842   1.03034    0.009
 6402.00    0.90199   1.03566    0.009
 6403.00    0.91651   1.08889    0.009
 6404.00    0.94979   1.12512    0.010
 6405.00    0.98110   1.13437    0.010
 6406.00    0.95116   1.13112    0.009
 6407.00    0.92192   1.11922    0.009
 6408.00    0.90328   1.09528    0.009
 6409.00    0.88435   1.07357    0.009
 6410.00    0.86248   1.08444    0.009
 6411.00    0.84579   1.10369    0.009
 6412.00    0.86532   1.09000    0.009
 6413.00    0.88285   1.07229    0.009
 6414.00    0.88964   1.07926    0.009
 6415.00    0.88864   1.09012    0.009
 6416.00    0.85401   1.09632    0.009
 6417.00    0.82667   1.10647    0.009
 6418.00    0.82522   1.11225    0.009
 6419.00    0.83038   1.10667    0.009
 6420.00    0.85526   1.08861    0.009
 6421.00    0.87067   1.05938    0.009
 6422.00    0.86193   1.04131    0.009
 6423.00    0.84779   1.06098    0.009
 6424.00    0.82184   1.10375    0.009
 6425.00    0.80859   1.12536    0.009
 6426.00    0.81949   1.12150    0.009
 6427.00    0.83126   1.12096    0.009
 6428.00    0.84447   1.13159    0.010
 6429.00    0.86464   1.13791    0.010
 6430.00    0.89493   1.12332    0.010
 6431.00    0.91134   1.08329    0.010
 6432.00    0.91000   1.04773    0.009
 6433.00    0.88352   1.05392    0.009
 6434.00    0.82870   1.08525    0.009
 6435.00    0.78335   1.10969    0.009
 6436.00    0.74741   1.12173    0.009
 6437.00    0.74002   1.12618    0.009
 6438.00    0.75765   1.11884    0.009
 6439.00    0.78489   1.08572    0.009
 6440.00    0.81954   1.05122    0.009
 6441.00    0.81820   1.06370    0.009
 6442.00    0.79242   1.10832    0.009
 6443.00    0.76716   1.13685    0.009
 6444.00    0.74221   1.14236    0.009
 6445.00    0.74839   1.14008    0.009
 6446.00    0.77072   1.14115    0.009
 6447.00    0.77830   1.14730    0.009
 6448.00    0.77924   1.14779    0.009
 6449.00    0.79740   1.12197    0.009
 6450.00    0.82221   1.05800    0.010
 6451.00    0.82717   1.00212    0.010
 6452.00    0.82559   1.01385    0.009
 6453.00    0.83700   1.06672    0.009
 6454.00    0.85198   1.10834    0.009
 6455.00    0.90030   1.11997    0.009
 6456.00    0.95617   1.10022    0.009
 6457.00    0.92174   1.07835    0.009
 6458.00    0.87093   1.08716    0.009
 6459.00    0.78420   1.11660    0.009
 6460.00    0.69246   1.13978    0.009
 6461.00    0.68826   1.14712    0.009
 6462.00    0.69279   1.12679    0.009
 6463.00    0.73781   1.07247    0.009
 6464.00    0.78540   1.03404    0.009
 6465.00    0.81050   1.05428    0.009
 6466.00    0.83479   1.09405    0.009
 6467.00    0.80811   1.11779    0.009
 6468.00    0.78297   1.12954    0.009
 6469.00    0.80061   1.13241    0.009
 6470.00    0.81823   1.12306    0.009
 6471.00    0.83563   1.10871    0.009
 6472.00    0.84950   1.09426    0.009
 6473.00    0.83065   1.09057    0.009
 6474.00    0.81427   1.10587    0.009
 6475.00    0.81466   1.11244    0.009
 6476.00    0.80753   1.09985    0.009
 6477.00    0.76098   1.09613    0.009
 6478.00    0.73066   1.10967    0.009
 6479.00    0.76881   1.11763    0.009
 6480.00    0.79633   1.11636    0.009
 6481.00    0.78679   1.11178    0.009
 6482.00    0.78244   1.09026    0.009
 6483.00    0.79334   1.05681    0.009
 6484.00    0.80872   1.04436    0.009
 6485.00    0.83532   1.06193    0.009
 6486.00    0.82737   1.08527    0.009
 6487.00    0.74493   1.09841    0.009
 6488.00    0.69352   1.10467    0.008
 6489.00    0.70014   1.10900    0.008
 6490.00    0.74286   1.10483    0.008
 6491.00    0.84458   1.08998    0.009
 6492.00    0.91691   1.07568    0.009
 6493.00    0.94715   1.06538    0.009
 6494.00    0.95437   1.03439    0.009
 6495.00    0.93257   0.97165    0.009
 6496.00    0.90852   0.92340    0.009
 6497.00    0.88196   0.92216    0.009
 6498.00    0.85876   0.94928    0.009
 6499.00    0.83884   0.98108    0.009
 6500.00    0.82196   0.99897    0.009
 6501.00    0.80769   1.01725    0.009
 6502.00    0.80505   1.04459    0.009
 6503.00    0.81127   1.06519    0.009
 6504.00    0.84171   1.07706    0.009
 6505.00    0.88835   1.08493    0.009
 6506.00    0.87930   1.09283    0.009
 6507.00    0.83762   1.10112    0.009
 6508.00    0.78646   1.10080    0.008
 6509.00    0.73045   1.08847    0.008
 6510.00    0.76041   1.07916    0.008
 6511.00    0.82842   1.08509    0.008
 6512.00    0.88009   1.09660    0.009
 6513.00    0.92556   1.10026    0.009
 6514.00    0.91414   1.09990    0.009
 6515.00    0.88436   1.09734    0.009
 6516.00    0.83706   1.08599    0.009
 6517.00    0.78502   1.07176    0.009
 6518.00    0.77465   1.06349    0.009
 6519.00    0.77349   1.05546    0.009
 6520.00    0.79488   1.05369    0.009
 6521.00    0.82025   1.07087    0.009
 6522.00    0.85635   1.09236    0.009
 6523.00    0.89388   1.10094    0.009
 6524.00    0.91401   1.09972    0.009
 6525.00    0.93248   1.10121    0.009
 6526.00    0.91507   1.10445    0.009
 6527.00    0.89554   1.09358    0.009
 6528.00    0.84293   1.07506    0.000
 6529.00    0.79012   1.07311    0.000
 6530.00    0.82991   1.08711    0.000
 6531.00    0.86917   1.09823    0.000
 6532.00    0.89513   1.09474    0.000
 6533.00    0.91562   1.07844    0.000
 6534.00    0.86308   1.06569    0.000
 6535.00    0.81133   1.07076    0.000
 6536.00    0.76661   1.08949    0.000
 6537.00    0.72682   1.10166    0.000
 6538.00    0.71942   1.09730    0.000
 6539.00    0.70644   1.09137    0.000
 6540.00    0.66492   1.09939    0.000
 6541.00    0.63978   1.11124    0.000
 6542.00    0.68230   1.11012    0.000
 6543.00    0.73583   1.09675    0.000
 6544.00    0.82694   1.08285    0.000
 6545.00    0.89457   1.07328    0.000
 6546.00    0.89459   1.05784    0.000
 6547.00    0.88165   1.03280    0.000
 6548.00    0.83688   1.02546    0.000
 6549.00    0.79689   1.04413    0.000
 6550.00    0.76703   1.06350    0.000
 6551.00    0.73829   1.06588    0.000
 6552.00    0.71160   1.05412    0.000
 6553.00    0.72302   1.04336    0.000
 6554.00    0.79577   1.03553    0.000
 6555.00    0.91762   1.01983    0.000
 6556.00    1.10879   0.99900    0.000
 6557.00    1.34070   0.98983    0.000
 6558.00    1.62324   0.99758    0.000
 6559.00    1.82117   1.00665    0.000
 6560.00    1.92642   1.00345    0.000
 6561.00    1.86178   0.98533    0.000
 6562.00    1.63303   0.92451    0.000
 6563.00    1.38233   0.79233    0.000
 6564.00    1.11293   0.68636    0.000
 6565.00    0.93390   0.73627    0.000
 6566.00    0.82265   0.87433    0.000
 6567.00    0.77827   0.97073    0.000
 6568.00    0.77795   1.01315    0.000
 6569.00    0.77157   1.02435    0.000
 6570.00    0.76168   1.01381    0.000
 6571.00    0.75469   1.00765    0.000
 6572.00    0.74917   1.01580    0.000
 6573.00    0.75010   1.01637    0.000
 6574.00    0.75383   1.00213    0.000
 6575.00    0.80418   0.98867    0.000
 6576.00    0.87192   0.98990    0.000
 6577.00    0.95254   1.01400    0.000
 6578.00    1.03725   1.04687    0.000
 6579.00    1.10110   1.06732    0.000
 6580.00    1.15945   1.06969    0.000
 6581.00    1.18292   1.05627    0.000
 6582.00    1.19884   1.03952    0.000
 6583.00    1.13077   1.03963    0.000
 6584.00    1.04829   1.05382    0.000
 6585.00    0.98373   1.06452    0.000
 6586.00    0.92150   1.06462    0.000
 6587.00    0.86896   1.05766    0.000
 6588.00    0.81731   1.05998    0.000
 6589.00    0.80347   1.07401    0.000
 6590.00    0.79171   1.08332    0.000
 6591.00    0.80812   1.08507    0.000
 6592.00    0.82496   1.07371    0.000
 6593.00    0.82483   1.03540    0.000
 6594.00    0.82396   0.98751    0.000
 6595.00    0.80611   0.97889    0.000
 6596.00    0.79125   1.01461    0.000
 6597.00    0.81435   1.04821    0.000
 6598.00    0.83779   1.05513    0.000
 6599.00    0.86414   1.04554    0.000
 6600.00    0.88219   1.04146    0.000
 6601.00    0.84735   1.05590    0.000
 6602.00    0.81286   1.07644    0.000
 6603.00    0.78006   1.08487    0.000
 6604.00    0.75873   1.08016    0.000
 6605.00    0.78369   1.06812    0.000
 6606.00    0.80200   1.05524    0.000
 6607.00    0.79803   1.04773    0.000
 6608.00    0.79644   1.04190    0.000
 6609.00    0.80160   1.02916    0.009
 6610.00    0.81631   1.01365    0.009
 6611.00    0.85413   1.02066    0.009
 6612.00    0.87586   1.05235    0.009
 6613.00    0.86402   1.07479    0.009
 6614.00    0.83626   1.07099    0.009
 6615.00    0.77959   1.06201    0.009
 6616.00    0.72661   1.07000    0.009
 6617.00    0.67949   1.08155    0.009
 6618.00    0.66029   1.07976    0.009
 6619.00    0.67996   1.07384    0.009
 6620.00    0.71093   1.07534    0.009
 6621.00    0.75575   1.08163    0.009
 6622.00    0.79934   1.08641    0.009
 6623.00    0.84160   1.08430    0.009
 6624.00    0.85504   1.07074    0.009
 6625.00    0.84101   1.04667    0.009
 6626.00    0.81095   1.02946    0.009
 6627.00    0.76741   1.03692    0.008
 6628.00    0.73533   1.05315    0.009
 6629.00    0.71173   1.05921    0.009
 6630.00    0.70156   1.05758    0.009
 6631.00    0.70011   1.05309    0.009
 6632.00    0.75504   1.04808    0.009
 6633.00    0.84201   1.03764    0.009
 6634.00    0.87998   1.01772    0.009
 6635.00    0.89370   1.00332    0.009
 6636.00    0.88240   1.01311    0.009
 6637.00    0.86039   1.03737    0.009
 6638.00    0.82581   1.05576    0.009
 6639.00    0.78663   1.06115    0.009
 6640.00    0.75536   1.05416    0.009
 6641.00    0.72655   1.04683    0.009
 6642.00    0.70430   1.05363    0.009
 6643.00    0.68374   1.05747    0.009
 6644.00    0.65656   1.03803    0.009
 6645.00    0.62797   1.02152    0.009
 6646.00    0.65658   1.03213    0.008
 6647.00    0.69472   1.04859    0.008
 6648.00    0.69859   1.05008    0.008
 6649.00    0.69817   1.04661    0.008
 6650.00    0.64771   1.05057    0.008
 6651.00    0.59288   1.05465    0.009
 6652.00    0.66413   1.05064    0.009
 6653.00    0.74185   1.04431    0.009
 6654.00    0.79906   1.04202    0.009
 6655.00    0.85434   1.04347    0.009
 6656.00    0.79838   1.04748    0.009
 6657.00    0.74553   1.04760    0.009
 6658.00    0.75840   1.04478    0.009
 6659.00    0.77298   1.04651    0.009
 6660.00    0.80818   1.04793    0.009
 6661.00    0.83634   1.04295    0.009
 6662.00    0.80635   1.03537    0.009
 6663.00    0.77883   1.02367    0.009
 6664.00    0.76663   1.00323    0.008
 6665.00    0.76515   0.99497    0.008
 6666.00    0.81571   1.00807    0.008
 6667.00    0.85624   1.01900    0.008
 6668.00    0.85718   1.01890    0.008
 6669.00    0.85555   1.01978    0.008
 6670.00    0.84549   1.03046    0.008
 6671.00    0.83486   1.04547    0.008
 6672.00    0.82264   1.05433    0.008
 6673.00    0.79697   1.05451    0.008
 6674.00    0.73935   1.05239    0.009
 6675.00    0.68659   1.05252    0.009
 6676.00    0.64384   1.05434    0.009
 6677.00    0.64339   1.04716    0.009
 6678.00    0.71853   1.01568    0.009
 6679.00    0.76431   0.97763    0.009
 6680.00    0.76422   0.97731    0.009
 6681.00    0.75946   1.00775    0.009
 6682.00    0.74832   1.02583    0.009
 6683.00    0.74012   1.02844    0.009
 6684.00    0.73548   1.03242    0.009
 6685.00    0.74271   1.03948    0.009
 6686.00    0.76259   1.04370    0.009
 6687.00    0.76914   1.04327    0.009
 6688.00    0.76317   1.03974    0.009
 6689.00    0.76075   1.03549    0.008
 6690.00    0.76127   1.03607    0.009
 6691.00    0.76553   1.04058    0.009
 6692.00    0.77253   1.04318    0.008
 6693.00    0.79481   1.04217    0.009
 6694.00    0.82687   1.04072    0.009
 6695.00    0.85170   1.03922    0.009
 6696.00    0.87248   1.02947    0.000
 6697.00    0.83332   1.01058    0.000
 6698.00    0.76497   1.00048    0.000
 6699.00    0.72748   1.00548    0.000
 6700.00    0.70296   1.01776    0.000
 6701.00    0.74231   1.03353    0.000
 6702.00    0.80467   1.04337    0.000
 6703.00    0.83358   1.04109    0.000
 6704.00    0.85230   1.02905    0.000
 6705.00    0.90180   1.01554    0.000
 6706.00    0.95910   1.01305    0.000
 6707.00    0.95698   1.02273    0.000
 6708.00    0.94263   1.03184    0.000
 6709.00    0.93920   1.03460    0.000
 6710.00    0.93755   1.03299    0.000
 6711.00    0.96449   1.02604    0.000
 6712.00    0.99490   1.02167    0.000
 6713.00    1.06023   1.02245    0.000
 6714.00    1.12845   1.01790    0.000
 6715.00    1.10955   1.00759    0.000
 6716.00    1.08651   0.99527    0.000
 6717.00    0.97168   0.97988    0.000
 6718.00    0.85780   0.96273    0.000
 6719.00    0.87050   0.96045    0.000
 6720.00    0.88230   0.98360    0.000
 6721.00    0.87656   1.00819    0.000
 6722.00    0.87552   1.01404    0.000
 6723.00    0.92825   1.01103    0.000
 6724.00    0.97928   1.01630    0.000
 6725.00    1.01669   1.02521    0.000
 6726.00    1.05825   1.02249    0.000
 6727.00    1.12469   1.01094    0.000
 6728.00    1.16452   1.00739    0.000
 6729.00    1.07823   1.01438    0.000
 6730.00    0.98644   1.02202    0.000
 6731.00    0.87338   1.02828    0.000
 6732.00    0.78770   1.03188    0.000
 6733.00    0.79023   1.02937    0.000
 6734.00    0.78992   1.02214    0.000
 6735.00    0.78186   1.01796    0.000
 6736.00    0.76285   1.02087    0.000
 6737.00    0.71824   1.02683    0.000
 6738.00    0.69214   1.02443    0.000
 6739.00    0.70348   1.01078    0.000
 6740.00    0.73011   0.99924    0.000
 6741.00    0.78366   1.00140    0.000
 6742.00    0.80552   1.01055    0.000
 6743.00    0.77861   1.00975    0.000
 6744.00    0.75430   1.00070    0.000
 6745.00    0.73350   1.00141    0.000
 6746.00    0.74798   1.00988    0.000
 6747.00    0.80445   1.01044    0.000
 6748.00    0.83148   1.00444    0.000
 6749.00    0.82760   0.99916    0.000
 6750.00    0.84969   0.99414    0.000
 6751.00    0.89583   0.98945    0.000
 6752.00    0.90038   0.99283    0.000
 6753.00    0.87097   0.99664    0.009
 6754.00    0.84084   0.99232    0.009
 6755.00    0.81020   0.99529    0.010
 6756.00    0.78923   1.00510    0.010
 6757.00    0.77436   1.01293    0.010
 6758.00    0.77064   1.02195    0.010
 6759.00    0.77306   1.03082    0.010
 6760.00    0.79470   1.03602    0.010
 6761.00    0.82554   1.03804    0.010
 6762.00    0.78822   1.03592    0.011
 6763.00    0.72270   1.02996    0.011
 6764.00    0.69783   1.02835    0.011
 6765.00    0.68733   1.03119    0.011
 6766.00    0.68192   1.02960    0.011
 6767.00    0.67802   1.01756    0.011
 6768.00    0.77536   1.00014    0.010
 6769.00    0.89779   0.99354    0.010
 6770.00    0.98592   1.00254    0.010
 6771.00    1.06715   1.00824    0.010
 6772.00    1.05853   1.00178    0.010
 6773.00    1.03578   1.00002    0.010
 6774.00    1.02264   1.01227    0.009
 6775.00    1.01063   1.02838    0.009
 6776.00    0.93902   1.03846    0.009
 6777.00    0.86272   1.04185    0.009
 6778.00    0.81308   1.03997    0.009
 6779.00    0.76460   1.03896    0.009
 6780.00    0.76232   1.04369    0.010
 6781.00    0.76134   1.04594    0.010
 6782.00    0.79818   1.03917    0.010
 6783.00    0.83274   1.02320    0.010
 6784.00    0.82617   1.00086    0.010
 6785.00    0.82474   0.98185    0.010
 6786.00    0.87952   0.97630    0.010
 6787.00    0.93326   0.98247    0.010
 6788.00    0.97903   0.99573    0.010
 6789.00    1.01123   1.01145    0.010
 6790.00    0.96434   1.01762    0.010
 6791.00    0.90962   1.01554    0.010
 6792.00    0.81862   1.01707    0.010
 6793.00    0.75446   1.01849    0.010
 6794.00    0.79181   1.01068    0.009
 6795.00    0.83388   1.00206    0.009
 6796.00    0.89083   1.00181    0.009
 6797.00    0.91708   1.00449    0.009
 6798.00    0.86106   1.00884    0.009
 6799.00    0.81034   1.01307    0.009
 6800.00    0.77181   1.01460    0.009
 6801.00    0.75930   1.01742    0.009
 6802.00    0.79851   1.02250    0.009
 6803.00    0.82097   1.02606    0.010
 6804.00    0.81440   1.02289    0.010
 6805.00    0.79584   1.01619    0.010
 6806.00    0.75909   1.01588    0.010
 6807.00    0.74651   1.01651    0.009
 6808.00    0.76615   1.01263    0.009
 6809.00    0.77145   1.01382    0.009
 6810.00    0.75990   1.01561    0.009
 6811.00    0.77969   1.01137    0.009
 6812.00    0.83190   1.01120    0.010
 6813.00    0.86429   1.01678    0.010
 6814.00    0.87858   1.01826    0.010
 6815.00    0.87618   1.01016    0.010
 6816.00    0.86035   0.99986    0.009
 6817.00    0.85889   1.00415    0.009
 6818.00    0.86761   1.02000    0.009
 6819.00    0.84139   1.02788    0.009
 6820.00    0.79347   1.02156    0.009
 6821.00    0.77173   1.01012    0.009
 6822.00    0.76420   1.00837    0.009
 6823.00    0.79540   1.01923    0.009
 6824.00    0.84487   1.03073    0.009
 6825.00    0.78283   1.03527    0.009
 6826.00    0.67545   1.03529    0.009
 6827.00    0.67723   1.03332    0.010
 6828.00    0.71689   1.02449    0.010
 6829.00    0.71369   1.00905    0.010
 6830.00    0.69795   1.00156    0.010
 6831.00    0.68570   1.01006    0.010
 6832.00    0.67430   1.02313    0.009
 6833.00    0.68016   1.02654    0.009
 6834.00    0.68939   1.02221    0.009
 6835.00    0.66592   1.02318    0.009
 6836.00    0.63748   1.03033    0.010
 6837.00    0.70345   1.03222    0.010
 6838.00    0.78002   1.02546    0.010
 6839.00    0.79490   1.01513    0.010
 6840.00    0.80517   1.00175    0.010
 6841.00    0.77753   0.98588    0.010
 6842.00    0.74839   0.97024    0.009
 6843.00    0.73108   0.96265    0.009
 6844.00    0.71701   0.97101    0.009
 6845.00    0.82851   0.99203    0.009
 6846.00    0.92848   1.01224    0.009
 6847.00    0.83374   1.02093    0.009
 6848.00    0.74864   1.02199    0.009
 6849.00    0.76441   1.02288    0.009
 6850.00    0.78460   1.02196    0.009
 6851.00    0.83767   1.01870    0.009
 6852.00    0.88224   1.01669    0.010
 6853.00    0.87861   1.01769    0.009
 6854.00    0.87111   1.01870    0.009
 6855.00    0.84615   1.00807    0.009
 6856.00    0.83008   0.98594    0.009
 6857.00    0.84692   0.97631    0.009
 6858.00    0.84751   0.98425    0.009
 6859.00    0.79773   0.99316    0.009
 6860.00    0.76478   0.99919    0.009
 6861.00    0.77610   0.99707    0.009
 6862.00    0.77931   0.98239    0.009
 6863.00    0.76419   0.97437    0.009
 6864.00    0.74201   0.99027    0.009
 6865.00    0.70601   1.01492    0.009
 6866.00    0.65774   1.02478    0.010
 6867.00    0.58855   1.01781    0.010
 6868.00    0.58350   1.00023    0.010
 6869.00    0.67431   0.98166    0.010
 6870.00    0.72282   0.98144    0.010
 6871.00    0.71576   0.99762    0.010
 6872.00    0.72598   1.00385    0.010
 6873.00    0.75621   0.99422    0.009
 6874.00    0.73393   0.98869    0.009
 6875.00    0.65806   0.99498    0.009
 6876.00    0.62468   1.00012    0.009
 6877.00    0.62953   1.00121    0.009
 6878.00    0.66048   1.00819    0.009
 6879.00    0.71214   1.01983    0.009
 6880.00    0.75195   1.02471    0.009
 6881.00    0.78349   1.02077    0.009
 6882.00    0.80340   1.00944    0.009
 6883.00    0.81617   0.99317    0.009
 6884.00    0.83022   0.98442    0.009
 6885.00    0.84495   0.99335    0.009
 6886.00    0.81463   1.00676    0.009
 6887.00    0.76340   1.00875    0.009
 6888.00    0.76661   1.01108    0.009
 6889.00    0.79158   1.02118    0.009
 6890.00    0.79880   1.02867    0.009
 6891.00    0.79995   1.03265    0.009
 6892.00    0.83682   1.03762    0.009
 6893.00    0.88392   1.03639    0.009
 6894.00    0.88902   1.02984    0.009
 6895.00    0.88418   1.02727    0.009
 6896.00    0.79862   1.02423    0.009
 6897.00    0.69767   1.01897    0.009
 6898.00    0.69757   1.02003    0.009
 6899.00    0.71236   1.02735    0.009
 6900.00    0.73677   1.02890    0.009
 6901.00    0.76221   1.02119    0.009
 6902.00    0.71564   1.01897    0.009
 6903.00    0.66398   1.02884    0.009
 6904.00    0.66973   1.03654    0.009
 6905.00    0.67754   1.03349    0.009
 6906.00    0.69120   1.02797    0.009
 6907.00    0.70623   1.02963    0.009
 6908.00    0.76797   1.03740    0.009
 6909.00    0.82320   1.04205    0.009
 6910.00    0.77550   1.04253    0.009
 6911.00    0.73100   1.04180    0.009
 6912.00    0.71858   1.03723    0.009
 6913.00    0.71054   1.02958    0.009
 6914.00    0.73401   1.01900    0.009
 6915.00    0.76110   1.00581    0.009
 6916.00    0.80811   1.00244    0.009
 6917.00    0.83451   1.00881    0.009
 6918.00    0.77006   1.01193    0.009
 6919.00    0.72111   1.01489    0.009
 6920.00    0.72837   1.02218    0.009
 6921.00    0.74359   1.03081    0.009
 6922.00    0.78301   1.03755    0.009
 6923.00    0.81922   1.03987    0.009
 6924.00    0.84715   1.03272    0.009
 6925.00    0.86252   1.01342    0.009
 6926.00    0.84998   0.99419    0.009
 6927.00    0.82721   0.98995    0.009
 6928.00    0.78473   1.00264    0.009
 6929.00    0.76970   1.01848    0.009
 6930.00    0.80083   1.02588    0.009
 6931.00    0.78637   1.02755    0.009
 6932.00    0.70478   1.02678    0.009
 6933.00    0.65148   1.02020    0.009
 6934.00    0.63482   1.00839    0.009
 6935.00    0.68189   1.00696    0.010
 6936.00    0.80167   1.01960    0.010
 6937.00    0.86314   1.02815    0.010
 6938.00    0.86593   1.02630    0.010
 6939.00    0.82564   1.02312    0.009
 6940.00    0.74711   1.02597    0.009
 6941.00    0.72057   1.03399    0.009
 6942.00    0.73469   1.04035    0.009
 6943.00    0.75123   1.03690    0.009
 6944.00    0.76943   1.02421    0.009
 6945.00    0.74218   1.00657    0.009
 6946.00    0.68751   0.99064    0.009
 6947.00    0.65255   0.99181    0.009
 6948.00    0.62795   1.01056    0.009
 6949.00    0.63473   1.02749    0.009
 6950.00    0.65584   1.03513    0.009
 6951.00    0.68094   1.03339    0.010
 6952.00    0.70761   1.02025    0.010
 6953.00    0.74469   1.00768    0.010
 6954.00    0.78525   1.00381    0.010
 6955.00    0.76379   1.00316    0.009
 6956.00    0.72492   1.00716    0.009
 6957.00    0.72693   1.01821    0.009
 6958.00    0.73840   1.02860    0.009
 6959.00    0.75080   1.03128    0.009
 6960.00    0.76338   1.03022    0.009
 6961.00    0.75001   1.03033    0.009
 6962.00    0.73294   1.03302    0.009
 6963.00    0.70245   1.03610    0.009
 6964.00    0.67058   1.03894    0.009
 6965.00    0.65897   1.04122    0.009
 6966.00    0.64872   1.03705    0.009
 6967.00    0.68629   1.02826    0.009
 6968.00    0.72538   1.02971    0.010
 6969.00    0.71554   1.04290    0.010
 6970.00    0.70750   1.05093    0.010
 6971.00    0.75449   1.04490    0.010
 6972.00    0.79229   1.03233    0.010
 6973.00    0.69343   1.02984    0.010
 6974.00    0.60451   1.04040    0.010
 6975.00    0.61116   1.04455    0.010
 6976.00    0.63094   1.03270    0.009
 6977.00    0.74216   1.01616    0.009
 6978.00    0.83076   0.99650    0.009
 6979.00    0.79795   0.96583    0.009
 6980.00    0.76744   0.94474    0.009
 6981.00    0.74684   0.96133    0.009
 6982.00    0.73099   0.99829    0.009
 6983.00    0.73199   1.02614    0.009
 6984.00    0.74353   1.04156    0.009
 6985.00    0.78646   1.04853    0.009
 6986.00    0.81046   1.04917    0.010
 6987.00    0.78637   1.04761    0.010
 6988.00    0.75886   1.04529    0.010
 6989.00    0.72383   1.03843    0.011
 6990.00    0.69123   1.02601    0.012
 6991.00    0.66325   1.01934    0.012
 6992.00    0.64711   1.02681    0.012
 6993.00    0.65056   1.03991    0.011
 6994.00    0.69761   1.04583    0.011
 6995.00    0.80793   1.04132    0.011
 6996.00    0.85405   1.03532    0.011
 6997.00    0.81821   1.03631    0.010
 6998.00    0.76928   1.04096    0.009
 6999.00    0.70564   1.03901    0.009
 7000.00    0.64000   1.02353    0.009
 7001.00    0.57238   1.00566    0.009
 7002.00    0.62368   1.00605    0.009
 7003.00    0.77903   1.02254    0.010
 7004.00    0.84637   1.03154    0.010
 7005.00    0.84585   1.02211    0.010
 7006.00    0.80938   1.00897    0.010
 7007.00    0.74855   1.00575    0.010
 7008.00    0.71947   1.01115    0.010
 7009.00    0.70923   1.02003    0.010
 7010.00    0.68742   1.02993    0.010
 7011.00    0.65962   1.03412    0.010
 7012.00    0.66752   1.02877    0.010
 7013.00    0.69144   1.02516    0.010
 7014.00    0.67273   1.03081    0.010
 7015.00    0.63755   1.03320    0.010
 7016.00    0.69044   1.01318    0.010
 7017.00    0.77222   0.97568    0.010
 7018.00    0.82208   0.96070    0.009
 7019.00    0.86316   0.98843    0.009
 7020.00    0.81343   1.02586    0.009
 7021.00    0.74317   1.04529    0.009
 7022.00    0.76721   1.04977    0.010
 7023.00    0.80829   1.04146    0.010
 7024.00    0.81067   1.01864    0.010
 7025.00    0.80768   0.99555    0.010
 7026.00    0.82747   0.99213    0.010
 7027.00    0.84952   1.00715    0.010
 7028.00    0.77136   1.02072    0.010
 7029.00    0.68691   1.02607    0.010
 7030.00    0.71702   1.03049    0.010
 7031.00    0.75043   1.03600    0.010
 7032.00    0.79990   1.03860    0.010
 7033.00    0.84610   1.03590    0.010
 7034.00    0.80267   1.03135    0.010
 7035.00    0.76638   1.02955    0.010
 7036.00    0.83016   1.03301    0.010
 7037.00    0.88541   1.04136    0.010
 7038.00    0.86196   1.03739    0.010
 7039.00    0.83495   1.01022    0.010
 7040.00    0.78388   0.99360    0.010
 7041.00    0.74489   1.01744    0.010
 7042.00    0.76912   1.05689    0.010
 7043.00    0.78572   1.08076    0.010
 7044.00    0.77025   1.08452    0.010
 7045.00    0.76928   1.07196    0.010
 7046.00    0.81878   1.05294    0.010
 7047.00    0.87106   1.04705    0.011
 7048.00    0.93153   1.05886    0.011
 7049.00    0.93538   1.07523    0.010
 7050.00    0.79786   1.08320   -2.000
 7051.00    0.70164   1.08013   -2.000
 7052.00    0.69426   1.06877   -2.000
 7053.00    0.71290   1.04363   -2.000
 7054.00    0.78014   1.00777   -2.000
 7055.00    0.82266   0.98019   -2.000
 7056.00    0.82489   0.97096   -2.000
 7057.00    0.84199   0.97910   -2.000
 7058.00    0.88036   0.99512   -2.000
 7059.00    0.90378   1.00269   -2.000
 7060.00    0.90840   0.99064   -2.000
 7061.00    0.89199   0.96845   -2.000
 7062.00    0.85227   0.95870   -2.000
 7063.00    0.78083   0.96540   -2.000
 7064.00    0.67836   0.97522   -2.000
 7065.00    0.68347   0.98556   -2.000
 7066.00    0.78136   0.99226   -2.000
 7067.00    0.76709   0.98462   -2.000
 7068.00    0.66761   0.96522   -2.000
 7069.00    0.65587   0.94488   -2.000
 7070.00    0.70271   0.94009   -2.000
 7071.00    0.73843   0.96022   -2.000
 7072.00    0.76764   0.98721   -2.000
 7073.00    0.82815   0.99990   -2.000
 7074.00    0.90463   1.00096   -2.000
 7075.00    0.85674   1.00040   -2.000
 7076.00    0.75394   0.99914   -2.000
 7077.00    0.71064   0.99655   -2.000
 7078.00    0.68990   0.99608   -2.000
 7079.00    0.77598   0.99969   -2.000
 7080.00    0.89646   1.00360   -2.000
 7081.00    0.95118   1.00830   -2.000
 7082.00    0.98818   1.01379   -2.000
 7083.00    0.90663   1.00919   -2.000
 7084.00    0.79892   0.98708   -2.000
 7085.00    0.79256   0.95388   -2.000
 7086.00    0.80402   0.93128   -2.000
 7087.00    0.79287   0.93424   -2.000
 7088.00    0.77869   0.94230   -2.000
 7089.00    0.86757   0.93702   -2.000
 7090.00    0.96625   0.92683   -2.000
 7091.00    0.89935   0.91868   -2.000
 7092.00    0.82273   0.91702   -2.000
 7093.00    0.77177   0.92239   -2.000
 7094.00    0.72187   0.92440   -2.000
 7095.00    0.73044   0.92420   -2.000
 7096.00    0.73846   0.92523   -2.000
 7097.00    0.73277   0.92619   -2.000
 7098.00    0.73240   0.92866   -2.000
 7099.00    0.80254   0.93423   -2.000
 7100.00    0.86058   0.94657   -2.000
 7101.00    0.81140   0.95631   -2.000
 7102.00    0.76472   0.95578   -2.000
 7103.00    0.73435   0.94663   -2.000
 7104.00    0.71563   0.93915   -2.000
 7105.00    0.75629   0.94371   -2.000
 7106.00    0.77461   0.95632   -2.000
 7107.00    0.70099   0.95971   -2.000
 7108.00    0.65086   0.95038   -2.000
 7109.00    0.68077   0.94444   -2.000
 7110.00    0.71926   0.94744   -2.000
 7111.00    0.78239   0.94471   -2.000
 7112.00    0.80321   0.93175   -2.000
 7113.00    0.72017   0.92482   -2.000
 7114.00    0.67479   0.93312   -2.000
 7115.00    0.70909   0.94611   -2.000
 7116.00    0.76404   0.95318   -2.000
 7117.00    0.85696   0.95704   -2.000
 7118.00    0.90699   0.95937   -2.000
 7119.00    0.88814   0.95808   -2.000
 7120.00    0.85097   0.95545   -2.000
 7121.00    0.78798   0.95336   -2.000
 7122.00    0.77839   0.94999   -2.000
 7123.00    0.83504   0.94241   -2.000
 7124.00    0.97229   0.94114   -2.000
 7125.00    1.19765   0.94913   -2.000
 7126.00    1.22739   0.94664   -2.000
 7127.00    1.06849   0.92979   -2.000
 7128.00    0.99167   0.91809   -2.000
 7129.00    0.98466   0.92082   -2.000
 7130.00    0.89664   0.92318   -2.000
 7131.00    0.74796   0.90996   -2.000
 7132.00    0.82364   0.89333   -2.000
 7133.00    1.04692   0.89508   -2.000
 7134.00    0.97750   0.91187   -2.000
 7135.00    0.73947   0.92986   -2.000
 7136.00    0.76837   0.93999   -2.000
 7137.00    0.93122   0.94231   -2.000
 7138.00    0.95586   0.94683   -2.000
 7139.00    0.92048   0.94802   -2.000
 7140.00    0.84236   0.93700   -2.000
 7141.00    0.74833   0.92911   -2.000
 7142.00    0.83682   0.93756   -2.000
 7143.00    0.98297   0.94739   -2.000
 7144.00    0.89866   0.94732   -2.000
 7145.00    0.75358   0.94468   -2.000
 7146.00    0.79341   0.94341   -2.000
 7147.00    0.87311   0.94253   -2.000
 7148.00    0.86574   0.93364   -2.000
 7149.00    0.84349   0.91233   -2.000
 7150.00    0.77638   0.90229   -2.000
 7151.00    0.70346   0.91380   -2.000
 7152.00    0.76920   0.92906   -2.000
 7153.00    0.84752   0.94330   -2.000
 7154.00    0.85863   0.95909   -2.000
 7155.00    0.86607   0.96482   -2.000
 7156.00    0.78559   0.95494   -2.000
 7157.00    0.70469   0.94883   -2.000
 7158.00    0.75326   0.96068   -2.000
 7159.00    0.80324   0.96958   -2.000
 7160.00    0.88525   0.96053   -2.000
 7161.00    0.97359   0.94667   -2.000
 7162.00    1.14157   0.94431   -2.000
 7163.00    1.25737   0.95341   -2.000
 7164.00    0.92804   0.95300   -2.000
 7165.00    0.62686   0.92920   -2.000
 7166.00    0.50413   0.90180   -2.000
 7167.00    0.44261   0.90241   -2.000
 7168.00    0.68501   0.92937   -2.000
 7169.00    0.88465   0.95574   -2.000
 7170.00    0.91221   0.96413   -2.000
 7171.00    0.91957   0.95926   -2.000
 7172.00    0.85942   0.95827   -2.000
 7173.00    0.81896   0.96743   -2.000
 7174.00    0.83402   0.97660   -2.000
 7175.00    0.83531   0.97654   -2.000
 7176.00    0.80337   0.96587   -2.000
 7177.00    0.81243   0.95000   -2.000
 7178.00    0.90682   0.94572   -2.000
 7179.00    0.98175   0.95916   -2.000
 7180.00    1.02143   0.96531   -2.000
 7181.00    1.01700   0.94560   -2.000
 7182.00    0.94274   0.91811   -2.000
 7183.00    0.80095   0.91485   -2.000
 7184.00    0.56533   0.94129   -2.000
 7185.00    0.42788   0.96740   -2.000
 7186.00    0.41046   0.97266   -2.000
 7187.00    0.46890   0.96011   -2.000
 7188.00    0.60912   0.93416   -2.000
 7189.00    0.72950   0.91081   -2.000
 7190.00    0.83103   0.90635   -2.000
 7191.00    0.83547   0.91839   -2.000
 7192.00    0.75853   0.93626   -2.000
 7193.00    0.68553   0.94379   -2.000
 7194.00    0.61546   0.93784   -2.000
 7195.00    0.64267   0.93591   -2.000
 7196.00    0.73295   0.94700   -2.000
 7197.00    0.76075   0.95412   -2.000
 7198.00    0.75311   0.94556   -2.000
 7199.00    0.91258   0.93906   -2.000
 7200.00    1.15459   0.94641   -2.000
 7201.00    1.11056   0.95500   -2.000
 7202.00    0.94441   0.95259   -2.000
 7203.00    0.77642   0.94401   -2.000
 7204.00    0.60778   0.94595   -2.000
 7205.00    0.59856   0.96164   -2.000
 7206.00    0.63874   0.97280   -2.000
 7207.00    0.71210   0.95870   -2.000
 7208.00    0.79403   0.92230   -2.000
 7209.00    0.74487   0.89842   -2.000
 7210.00    0.66814   0.90537   -2.000
 7211.00    0.60595   0.93034   -2.000
 7212.00    0.54618   0.95852   -2.000
 7213.00    0.74386   0.97128   -2.000
 7214.00    0.97371   0.96264   -2.000
 7215.00    0.92364   0.94847   -2.000
 7216.00    0.84933   0.94176   -2.000
 7217.00    0.76083   0.94372   -2.000
 7218.00    0.67161   0.95504   -2.000
