###################################################################
## OUTPUT of StarlightChains_v04.for    [Cid@UFSC - 01/Apr/2007] ##
###################################################################

## Some input info
KUG0210-078._7_22.txt                    [arq_obs]
Base.CB07.vall.4m                        [arq_base]
Masks.EmLines.NEW.gm                     [arq_masks]
StCv04.C11.config                        [arq_config]
   66                                    [N_base]
    0                                    [N_YAV_components = # of components with extra extinction!]
    0                                    [i_FitPowerLaw (1/0 = Yes/No)]
-9.99                                    [alpha_PowerLaw]
CCM                                      [red_law_option]
 1.458241                                [q_norm = A(l_norm)/A(V)]

## (Re)Sampling Parameters
 3741.00                                 [l_ini (A)]
 7218.00                                 [l_fin (A)]
    1.00                                 [dl    (A)]     (OBS: dl_cushion =    50.00 A)

## Normalization info
 4020.00                                 [l_norm (A) - for base]
 4010.00                                 [llow_norm (A) - window for f_obs]
 4060.00                                 [lupp_norm (A) - window for f_obs]
1.018450E-18                             [fobs_norm (in input units)]

## S/N
 3691.00                                 [llow_SN (A) - window for S/N]
 7268.00                                 [lupp_SN (A) - window for S/N]
   2.580                                 [S/N in S/N window]
   0.642                                 [S/N in norm. window]
   0.004                                 [S/N_err in S/N window]
   0.001                                 [S/N_err in norm. window]
  1.0000                                 [fscale_chi2]

## etc...
    -2007214                             [idum_orig]
  2305                                   [NOl_eff]
  2287                                   [Nl_eff]
    18    NSIGMA                         [Ntot_cliped & clip_method]
   343560                                [Nglobal_steps]
   7                                     [N_chains]
   7                                     [NEX0s_base = N_base in EX0s-fits]
 0   0   1       18   2.0   1.844E+02    [Clip-Bug, RC-Crash & Burn-In warning-flags, n_censored_weights, wei_nsig_threshold & wei_limit]
     9      9.348      8.972      0.376  [idt_all, wdt_TotTime, wdt_UsrTime & wdt_SysTime (sec)]

## Synthesis Results - Best model ##

 1.07960E-05                             [chi2/Nl_eff]
    56.39291                             [adev (%)]

   130.00000                             [sum-of-x (%)]
 4.43064E-18                             [Flux_tot (units of input spectrum!)]
 9.78714E-13                             [Mini_tot (???)]
 4.83974E-13                             [Mcor_tot (???)]

-338.74                                  [v0_min  (km/s)]
  48.92                                  [vd_min  (km/s)]
 0.8993                                  [AV_min  (mag)]
 0.0000                                  [YAV_min (mag)]

# j     x_j(%)      Mini_j(%)     Mcor_j(%)     age_j(yr)     Z_j      (L/M)_j    YAV?  Mstars   component_j        a/Fe...       SSP_chi2r SSP_adev(%)   SSP_AV   SSP_x(%)
  1      0.0000     0.0000E+00    0.0000E+00    1.000000E+06  0.00400  1.094E-02    0   1.0000   age020_m42            0.0000     4.9021E-06    83.7723   3.1273   379.5279
  2      0.0000     0.0000E+00    0.0000E+00    3.160000E+06  0.00400  4.007E-02    0   0.9999   age045_m42            0.0000     5.0380E-06    84.0397   2.4191   401.4707
  3      0.0000     0.0000E+00    0.0000E+00    5.010000E+06  0.00400  2.539E-02    0   0.9488   age055_m42            0.0000     4.9659E-06    84.0007   2.7302   393.6306
  4      0.0000     0.0000E+00    0.0000E+00    6.610000E+06  0.00400  2.620E-02    0   0.9220   age061_m42            0.0000     5.0736E-06    84.2720   2.3488   401.7079
  5      0.0000     0.0000E+00    0.0000E+00    1.000000E+07  0.00400  1.322E-02    0   0.8862   age070_m42            0.0000     5.2574E-06    86.2766   2.0828   407.1715
  6      0.0000     0.0000E+00    0.0000E+00    1.445000E+07  0.00400  7.883E-03    0   0.8571   age078_m42            0.0000     5.1692E-06    85.8341   2.3999   398.9924
  7      0.0000     0.0000E+00    0.0000E+00    2.512000E+07  0.00400  5.251E-03    0   0.8174   age090_m42            0.0000     5.3037E-06    86.6482   1.9563   408.7251
  8      0.0000     0.0000E+00    0.0000E+00    4.000000E+07  0.00400  3.649E-03    0   0.7851   age104_m42            0.0000     5.3025E-06    86.3261   1.7311   411.6342
  9      0.0000     0.0000E+00    0.0000E+00    5.500000E+07  0.00400  3.098E-03    0   0.7629   age110_m42            0.0000     5.2620E-06    85.4154   1.8810   412.2217
 10      0.0000     0.0000E+00    0.0000E+00    1.015200E+08  0.00400  2.228E-03    0   0.7207   age116_m42            0.0000     5.2653E-06    84.9520   1.9047   412.4381
 11      0.0000     0.0000E+00    0.0000E+00    2.861200E+08  0.00400  1.093E-03    0   0.6648   age125_m42            0.0000     5.4088E-06    86.0882   1.3424   421.9790
 12      0.0000     0.0000E+00    0.0000E+00    5.088000E+08  0.00400  6.597E-04    0   0.6365   age130_m42            0.0000     5.3687E-06    84.8497   1.3333   425.4259
 13      0.0000     0.0000E+00    0.0000E+00    1.434000E+09  0.00400  2.132E-04    0   0.5798   age139_m42            0.0000     5.2787E-06    83.4511   0.3681   432.4760
 14      0.0000     0.0000E+00    0.0000E+00    4.250000E+09  0.00400  5.895E-05    0   0.5377   age158_m42            0.0000     4.9400E-06    80.8827  -0.0983   420.7094
 15      0.0000     0.0000E+00    0.0000E+00    7.500000E+09  0.00400  3.510E-05    0   0.5212   age171_m42            0.0000     4.8740E-06    79.8348  -0.2890   418.2565
 16      0.0000     0.0000E+00    0.0000E+00    1.300000E+10  0.00400  2.005E-05    0   0.5034   age193_m42            0.0000     4.8214E-06    78.7466  -0.4535   415.8313
 17      0.0000     0.0000E+00    0.0000E+00    1.800000E+10  0.00400  1.525E-05    0   0.4967   age213_m42            0.0000     4.8142E-06    79.0184  -0.4812   414.6763
 18      0.0000     0.0000E+00    0.0000E+00    1.000000E+06  0.00800  1.238E-02    0   1.0000   age020_m52            0.0000     4.9084E-06    83.7778   3.1237   380.2940
 19      0.0000     0.0000E+00    0.0000E+00    3.160000E+06  0.00800  3.074E-02    0   0.9966   age045_m52            0.0000     4.8976E-06    83.6123   3.0481   383.6519
 20      0.0000     0.0000E+00    0.0000E+00    5.010000E+06  0.00800  2.668E-02    0   0.9443   age055_m52            0.0000     4.9580E-06    83.9055   2.8101   390.7339
 21      0.0000     0.0000E+00    0.0000E+00    6.610000E+06  0.00800  2.136E-02    0   0.9177   age061_m52            0.0000     5.1421E-06    85.5557   1.5809   412.2935
 22      0.0000     0.0000E+00    0.0000E+00    1.000000E+07  0.00800  1.215E-02    0   0.8827   age070_m52            0.0000     5.2933E-06    86.8641   2.2587   406.6766
 23      0.0000     0.0000E+00    0.0000E+00    1.445000E+07  0.00800  8.717E-03    0   0.8552   age078_m52            0.0000     5.2022E-06    85.9999   2.3665   404.1101
 24      0.0000     0.0000E+00    0.0000E+00    2.512000E+07  0.00800  5.592E-03    0   0.8162   age090_m52            0.0000     5.3355E-06    86.8485   2.0207   413.2470
 25      0.0000     0.0000E+00    0.0000E+00    4.000000E+07  0.00800  3.896E-03    0   0.7841   age104_m52            0.0000     5.3233E-06    86.4154   1.9312   416.4368
 26      0.0000     0.0000E+00    0.0000E+00    1.015200E+08  0.00800  2.148E-03    0   0.7226   age116_m52            0.0000     5.2858E-06    85.5000   1.8700   415.7477
 27      0.0000     0.0000E+00    0.0000E+00    2.861200E+08  0.00800  9.925E-04    0   0.6683   age125_m52            0.0000     5.4113E-06    84.8498   1.4027   428.6060
 28      0.0000     2.1126E-07    2.6222E-07    9.047900E+08  0.00800  3.141E-04    0   0.6138   age135_m52            0.0000     5.2417E-06    81.9716   0.6005   446.3739
 29      0.0000     0.0000E+00    0.0000E+00    1.434000E+09  0.00800  1.719E-04    0   0.5853   age139_m52            0.0000     5.1103E-06    81.6986   0.0084   439.0572
 30      0.0000     0.0000E+00    0.0000E+00    2.500000E+09  0.00800  7.872E-05    0   0.5600   age150_m52            0.0000     4.8923E-06    79.2442  -0.2720   430.0751
 31      0.0000     0.0000E+00    0.0000E+00    4.250000E+09  0.00800  4.336E-05    0   0.5426   age158_m52            0.0000     4.8441E-06    78.8680  -0.2887   426.5214
 32      0.0000     0.0000E+00    0.0000E+00    6.250000E+09  0.00800  3.159E-05    0   0.5319   age166_m52            0.0000     4.8038E-06    77.6692  -0.4944   426.8954
 33      0.0000     0.0000E+00    0.0000E+00    1.300000E+10  0.00800  1.361E-05    0   0.5073   age193_m52            0.0000     4.7846E-06    75.9902  -0.9605   423.4522
 34      0.0000     0.0000E+00    0.0000E+00    1.800000E+10  0.00800  9.886E-06    0   0.4990   age213_m52            0.0000     4.7680E-06    74.4430  -1.0000   413.0901
 35      0.0000     0.0000E+00    0.0000E+00    1.000000E+06  0.02000  1.544E-02    0   1.0000   age020_m62            0.0000     4.9088E-06    83.7749   3.1190   381.3347
 36      0.0000     0.0000E+00    0.0000E+00    3.160000E+06  0.02000  3.762E-02    0   0.9858   age045_m62            0.0000     4.8895E-06    83.4481   3.0557   385.0318
 37      0.0000     0.0000E+00    0.0000E+00    5.010000E+06  0.02000  3.296E-02    0   0.9342   age055_m62            0.0000     5.0038E-06    83.7967   2.6940   397.7912
 38      0.0000     0.0000E+00    0.0000E+00    8.710000E+06  0.02000  1.154E-02    0   0.8861   age067_m62            0.0000     5.7269E-06    90.8798   1.7288   413.3521
 39      0.0000     0.0000E+00    0.0000E+00    1.445000E+07  0.02000  7.663E-03    0   0.8472   age078_m62            0.0000     5.3999E-06    87.9922   1.9098   414.2961
 40      0.0000     0.0000E+00    0.0000E+00    2.512000E+07  0.02000  4.532E-03    0   0.8099   age090_m62            0.0000     5.4554E-06    88.4032   1.9024   412.7408
 41      0.0000     0.0000E+00    0.0000E+00    5.500000E+07  0.02000  2.733E-03    0   0.7595   age110_m62            0.0000     5.3057E-06    86.4773   1.9120   413.7831
 42      0.0000     0.0000E+00    0.0000E+00    1.609000E+08  0.02000  1.369E-03    0   0.6985   age120_m62            0.0000     5.3883E-06    85.4527   1.7627   422.7203
 43      0.0000     0.0000E+00    0.0000E+00    2.861200E+08  0.02000  9.013E-04    0   0.6714   age125_m62            0.0000     5.4678E-06    84.5879   1.5233   432.5434
 44      0.0000     0.0000E+00    0.0000E+00    5.088000E+08  0.02000  5.028E-04    0   0.6449   age130_m62            0.0000     5.3501E-06    82.0588   1.1414   444.4484
 45      0.0000     0.0000E+00    0.0000E+00    9.047900E+08  0.02000  2.428E-04    0   0.6179   age135_m62            0.0000     5.0918E-06    80.4882   0.5366   445.0042
 46      0.0000     0.0000E+00    0.0000E+00    1.434000E+09  0.02000  1.263E-04    0   0.5908   age139_m62            0.0000     4.9480E-06    79.5172   0.0779   440.8578
 47      0.0000     0.0000E+00    0.0000E+00    2.500000E+09  0.02000  5.985E-05    0   0.5673   age150_m62            0.0000     4.8105E-06    77.5938  -0.2970   436.4461
 48      0.0000     0.0000E+00    0.0000E+00    4.250000E+09  0.02000  3.271E-05    0   0.5468   age158_m62            0.0000     4.7526E-06    75.9292  -0.6068   433.2986
 49      0.0000     0.0000E+00    0.0000E+00    1.000000E+10  0.02000  1.360E-05    0   0.5167   age181_m62            0.0000     4.7382E-06    73.6175  -0.9605   431.9609
 50      0.0000     0.0000E+00    0.0000E+00    1.800000E+10  0.02000  7.124E-06    0   0.5013   age213_m62            0.0000     4.7764E-06    71.3844  -1.0000   407.2080
 51      0.0000     0.0000E+00    0.0000E+00    1.000000E+06  0.05000  2.592E-02    0   0.9998   age020_m72            0.0000     4.9151E-06    83.8354   3.1113   381.5314
 52      0.0000     0.0000E+00    0.0000E+00    3.160000E+06  0.05000  4.845E-02    0   0.9577   age045_m72            0.0000     4.9076E-06    83.3618   2.9394   389.7258
 53      0.0000     0.0000E+00    0.0000E+00    5.010000E+06  0.05000  3.072E-02    0   0.9147   age055_m72            0.0000     5.1951E-06    86.3967   2.4744   402.5088
 54      0.0000     0.0000E+00    0.0000E+00    6.610000E+06  0.05000  1.455E-02    0   0.8877   age061_m72            0.0000     6.0366E-06    92.9278   1.7599   416.0631
 55      0.0000     0.0000E+00    0.0000E+00    1.000000E+07  0.05000  9.074E-03    0   0.8524   age070_m72            0.0000     5.2326E-06    86.5615   2.6438   402.0020
 56      0.0000     0.0000E+00    0.0000E+00    2.512000E+07  0.05000  4.250E-03    0   0.7902   age090_m72            0.0000     5.3203E-06    86.9672   2.3606   407.2299
 57      0.0000     0.0000E+00    0.0000E+00    4.000000E+07  0.05000  3.087E-03    0   0.7618   age104_m72            0.0000     5.4270E-06    87.6206   2.1413   412.1493
 58      0.0000     0.0000E+00    0.0000E+00    1.015200E+08  0.05000  1.700E-03    0   0.7096   age116_m72            0.0000     5.4562E-06    86.3616   1.9024   420.9916
 59      0.0000     0.0000E+00    0.0000E+00    2.861200E+08  0.05000  7.384E-04    0   0.6633   age125_m72            0.0000     5.4177E-06    83.4995   1.3872   438.9931
 60      0.0000     0.0000E+00    0.0000E+00    5.088000E+08  0.05000  3.819E-04    0   0.6372   age130_m72            0.0000     5.1862E-06    81.0403   0.8802   448.8604
 61      0.0000     0.0000E+00    0.0000E+00    9.047900E+08  0.05000  1.676E-04    0   0.6110   age135_m72            0.0000     4.8815E-06    77.8536   0.1643   444.7153
 62      0.0000     0.0000E+00    0.0000E+00    1.434000E+09  0.05000  8.837E-05    0   0.5874   age139_m72            0.0000     4.8477E-06    77.2186  -0.2962   442.3570
 63      0.0000     0.0000E+00    0.0000E+00    2.500000E+09  0.05000  4.233E-05    0   0.5598   age150_m72            0.0000     4.7210E-06    75.2053  -0.6154   438.3012
 64      0.0000     0.0000E+00    0.0000E+00    6.250000E+09  0.05000  1.435E-05    0   0.5249   age166_m72            0.0000     4.7234E-06    73.1378  -1.0000   423.1534
 65      0.0000     0.0000E+00    0.0000E+00    1.300000E+10  0.05000  6.513E-06    0   0.5036   age193_m72            0.0000     4.8817E-06    70.3264  -1.0000   390.9736
 66    130.0000     1.0000E+02    1.0000E+02    1.800000E+10  0.05000  4.527E-06    0   0.4945   age213_m72            0.0000     5.0557E-06    68.6603  -1.0000   369.1814


## Synthesis Results - Average & Chains ##

# j      x_j: min, <> & last-chain-values for 1 ...  7 chains
  1      0.0000      0.2984      0.0000      0.0000      0.0000      0.0004      0.0000      0.0000      0.0000
  2      0.0000      0.5464      0.0000      0.0000      0.0000      0.0000      0.0000      0.0000      0.0000
  3      0.0000      0.3657      0.0000      0.0000      0.0000      0.0000      0.0000      0.0000      0.0000
  4      0.0000      0.3214      0.0000      0.0000      0.0000      0.0000      0.0000      0.0000      0.0000
  5      0.0000      0.2954      0.0000      0.0000      0.0000      0.0000      0.0000      0.0000      0.0000
  6      0.0000      0.2753      0.0000      0.0000      0.0000      0.0000      0.0000      0.0000      0.0000
  7      0.0000      0.3391      0.0000      0.0000      0.0000      0.0000      0.0000      0.0000      0.0000
  8      0.0000      0.2086      0.0000      0.0000      0.0000      0.0000      0.0000      0.0000      0.0000
  9      0.0000      0.2559      0.0000      0.0000      0.0000      0.0000      0.0000      0.0000      0.0000
 10      0.0000      0.2022      0.0000      0.0000      0.0000      0.0000      0.0000      0.0000      0.0000
 11      0.0000      0.3073      0.0000      0.0000      0.0000      0.0000      0.0000      0.0000      0.0000
 12      0.0000      0.3224      0.0000      0.0000      0.0000      0.0000      0.0000      0.0000      0.0000
 13      0.0000      0.2784      0.0000      0.0000      0.0000      0.0000      0.0000      0.0000      0.0000
 14      0.0000      0.3076      0.0000      0.0000      0.0000      0.0000      0.0000      0.0000      0.0000
 15      0.0000      0.3338      0.0000      0.0000      0.0000      0.0000      0.0000      0.0000      0.0000
 16      0.0000      0.3603      0.0000      0.0000      0.0000      0.0000      0.0000      0.0000      0.0000
 17      0.0000      0.3748      0.0000      0.0000      0.0000      0.0000      0.0000      0.0000      0.0000
 18      0.0000      0.3149      0.0000      0.0000      0.0000      0.0000      0.0000      0.0000      0.0000
 19      0.0000      0.2285      0.0000      0.0000      0.0000      0.0000      0.0000      0.0000      0.0000
 20      0.0000      0.3218      0.0000      0.0000      0.0000      0.0000      0.0000      0.0000      0.0000
 21      0.0000      0.2232      0.0000      0.0000      0.0000      0.0000      0.0000      0.0000      0.0000
 22      0.0000      0.2599      0.0000      0.0000      0.0000      0.0000      0.0000      0.0000      0.0000
 23      0.0000      0.2898      0.0000      0.0000      0.0000      0.0000      0.0000      0.0000      0.0000
 24      0.0000      0.2615      0.0000      0.0000      0.0000      0.0000      0.0000      0.0000      0.0000
 25      0.0000      0.2079      0.0000      0.0000      0.0000      0.0000      0.0000      0.0000      0.0000
 26      0.0000      0.4474      0.0000      0.0000      0.0000      0.0000      0.0000      0.0000      0.0000
 27      0.0000      0.3277      0.0000      0.0000      0.0000      0.0000      0.0000      0.0000      0.0000
 28      0.0000      0.3684      0.0000      0.0000      0.0000      0.0000      0.0000      0.0000      0.0000
 29      0.0000      0.3290      0.0000      0.0000      0.0000      0.0000      0.0000      0.0000      0.0000
 30      0.0000      0.4269      0.0000      0.0000      0.0000      0.0000      0.0000      0.0000      0.0000
 31      0.0000      0.4593      0.0000      0.0000      0.0000      0.0000      0.0000      0.0000      0.0000
 32      0.0000      0.2842      0.0000      0.0000      0.0000      0.0000      0.0000      0.0000      0.0000
 33      0.0000      0.3415      0.0000      0.0000      0.0000      0.0000      0.0000      0.0001      0.0000
 34      0.0000      0.2620      0.0000      0.0027      0.0000      0.0000      0.0004      0.0000      0.0000
 35      0.0000      0.3074      0.0000      0.0000      0.0000      0.0000      0.0000      0.0000      0.0000
 36      0.0000      0.2949      0.0000      0.0000      0.0000      0.0000      0.0000      0.0000      0.0000
 37      0.0000      0.3743      0.0000      0.0000      0.0000      0.0000      0.0000      0.0000      0.0000
 38      0.0000      0.4098      0.0000      0.0000      0.0000      0.0000      0.0000      0.0000      0.0000
 39      0.0000      0.2691      0.0000      0.0000      0.0000      0.0000      0.0000      0.0000      0.0000
 40      0.0000      0.2786      0.0000      0.0000      0.0000      0.0000      0.0000      0.0000      0.0000
 41      0.0000      0.2731      0.0000      0.0000      0.0000      0.0000      0.0000      0.0000      0.0000
 42      0.0000      0.2456      0.0000      0.0000      0.0000      0.0000      0.0000      0.0000      0.0000
 43      0.0000      0.2423      0.0000      0.0000      0.0000      0.0000      0.0000      0.0000      0.0000
 44      0.0000      0.2693      0.0000      0.0010      0.0000      0.0000      0.0000      0.0000      0.0000
 45      0.0000      0.3379      0.0000      0.0000      0.0000      0.0000      0.0000      0.0000      0.0000
 46      0.0000      0.3236      0.0000      0.0000      0.0000      0.0000      0.0000      0.0000      0.0000
 47      0.0000      0.2420      0.0000      0.0000      0.0000      0.0000      0.0000      0.0007      0.0000
 48      0.0000      0.3609      0.0000      0.0000      0.0000      0.0011      0.0000      0.0000      0.0000
 49      0.0000      0.3816      0.0000      0.0000      0.0000      0.0000      0.0000      0.0000      0.0000
 50      0.0000      0.2463      0.0000      0.0000      0.0000      0.0000      0.0000      0.0000      0.0000
 51      0.0000      0.3787      0.0000      0.0000      0.0000      0.0000      0.0000      0.0000      0.0000
 52      0.0000      0.2260      0.0000      0.0000      0.0000      0.0000      0.0000      0.0000      0.0000
 53      0.0000      0.2719      0.0000      0.0000      0.0003      0.0000      0.0000      0.0000      0.0000
 54      0.0000      0.3602      0.0000      0.0000      0.0000      0.0000      0.0000      0.0000      0.0000
 55      0.0000      0.3493      0.0000      0.0000      0.0005      0.0000      0.0000      0.0000      0.0000
 56      0.0000      0.3171      0.0000      0.0000      0.0000      0.0000      0.0000      0.0000      0.0000
 57      0.0000      0.2095      0.0000      0.0000      0.0000      0.0000      0.0000      0.0000      0.0000
 58      0.0000      0.2654      0.0000      0.0000      0.0000      0.0000      0.0000      0.0000      0.0000
 59      0.0000      0.3515      0.0000      0.0000      0.0000      0.0000      0.0000      0.0000      0.0000
 60      0.0000      0.3145      0.0000      0.0000      0.0000      0.0000      0.0000      0.0000      0.0000
 61      0.0000      0.2867      0.0000      0.0000      0.0019      0.0000      0.0000      0.0000      0.0000
 62      0.0000      0.3371      0.0000      0.0000      0.0000      0.0000      0.0000      0.0006      0.0000
 63      0.0000      0.3482      0.0000      0.0000      0.0000      0.0000      0.0000      0.0000      0.0000
 64      0.0000      0.3338      0.0000      0.0000      0.0000      0.0000      0.0000      0.0000      0.0000
 65      0.0000      0.5037      0.0000      0.0000      0.0009      0.0000      0.0000      1.8827      0.0000
 66    130.0000    109.3917    129.9996    129.9963    129.9964    129.9984    129.9996    128.1159    130.0000

# j      m_j: min, <> & last-chain-values for 1 ...  7 chains
  1  0.0000E+00  2.2497E-04  0.0000E+00  0.0000E+00  0.0000E+00  2.7268E-07  0.0000E+00  0.0000E+00  0.0000E+00
  2  0.0000E+00  1.1244E-04  0.0000E+00  0.0000E+00  0.0000E+00  0.0000E+00  0.0000E+00  0.0000E+00  0.0000E+00
  3  0.0000E+00  1.1269E-04  0.0000E+00  0.0000E+00  0.0000E+00  0.0000E+00  0.0000E+00  0.0000E+00  0.0000E+00
  4  0.0000E+00  9.3264E-05  0.0000E+00  0.0000E+00  0.0000E+00  0.0000E+00  0.0000E+00  0.0000E+00  0.0000E+00
  5  0.0000E+00  1.6332E-04  0.0000E+00  0.0000E+00  0.0000E+00  0.0000E+00  0.0000E+00  0.0000E+00  0.0000E+00
  6  0.0000E+00  2.4687E-04  0.0000E+00  0.0000E+00  0.0000E+00  0.0000E+00  0.0000E+00  0.0000E+00  0.0000E+00
  7  0.0000E+00  4.3535E-04  0.0000E+00  0.0000E+00  0.0000E+00  0.0000E+00  0.0000E+00  0.0000E+00  0.0000E+00
  8  0.0000E+00  3.7016E-04  0.0000E+00  0.0000E+00  7.1051E-08  0.0000E+00  0.0000E+00  0.0000E+00  0.0000E+00
  9  0.0000E+00  5.1966E-04  0.0000E+00  0.0000E+00  0.0000E+00  0.0000E+00  0.0000E+00  0.0000E+00  0.0000E+00
 10  0.0000E+00  5.3952E-04  0.0000E+00  0.0000E+00  0.0000E+00  0.0000E+00  0.0000E+00  0.0000E+00  0.0000E+00
 11  0.0000E+00  1.5414E-03  0.0000E+00  0.0000E+00  0.0000E+00  0.0000E+00  0.0000E+00  0.0000E+00  0.0000E+00
 12  0.0000E+00  2.5651E-03  0.0000E+00  0.0000E+00  0.0000E+00  0.0000E+00  0.0000E+00  0.0000E+00  0.0000E+00
 13  0.0000E+00  6.2441E-03  0.0000E+00  0.0000E+00  0.0000E+00  0.0000E+00  0.0000E+00  0.0000E+00  0.0000E+00
 14  0.0000E+00  2.3141E-02  0.0000E+00  0.0000E+00  0.0000E+00  0.0000E+00  0.0000E+00  0.0000E+00  0.0000E+00
 15  0.0000E+00  4.0872E-02  0.0000E+00  0.0000E+00  0.0000E+00  0.0000E+00  0.0000E+00  0.0000E+00  0.0000E+00
 16  0.0000E+00  7.4597E-02  0.0000E+00  0.0000E+00  0.0000E+00  0.0000E+00  0.0000E+00  0.0000E+00  0.0000E+00
 17  0.0000E+00  1.0067E-01  0.0000E+00  0.0000E+00  0.0000E+00  0.0000E+00  0.0000E+00  0.0000E+00  0.0000E+00
 18  0.0000E+00  2.0977E-04  0.0000E+00  0.0000E+00  0.0000E+00  0.0000E+00  0.0000E+00  0.0000E+00  0.0000E+00
 19  0.0000E+00  6.1101E-05  0.0000E+00  0.0000E+00  0.0000E+00  0.0000E+00  0.0000E+00  0.0000E+00  0.0000E+00
 20  0.0000E+00  9.3932E-05  0.0000E+00  0.0000E+00  0.0000E+00  0.0000E+00  0.0000E+00  0.0000E+00  0.0000E+00
 21  0.0000E+00  7.9096E-05  0.0000E+00  0.0000E+00  0.0000E+00  0.0000E+00  0.0000E+00  0.0000E+00  0.0000E+00
 22  0.0000E+00  1.5570E-04  0.0000E+00  0.0000E+00  0.0000E+00  0.0000E+00  0.0000E+00  0.0000E+00  0.0000E+00
 23  0.0000E+00  2.3445E-04  0.0000E+00  0.0000E+00  0.0000E+00  0.0000E+00  0.0000E+00  0.0000E+00  0.0000E+00
 24  0.0000E+00  3.1475E-04  0.0000E+00  0.0000E+00  0.0000E+00  0.0000E+00  0.0000E+00  0.0000E+00  0.0000E+00
 25  0.0000E+00  3.4505E-04  0.0000E+00  0.0000E+00  0.0000E+00  0.0000E+00  0.0000E+00  0.0000E+00  0.0000E+00
 26  0.0000E+00  1.2412E-03  0.0000E+00  0.0000E+00  0.0000E+00  0.0000E+00  0.0000E+00  0.0000E+00  0.0000E+00
 27  0.0000E+00  1.8198E-03  0.0000E+00  0.0000E+00  0.0000E+00  0.0000E+00  0.0000E+00  0.0000E+00  0.0000E+00
 28  2.6222E-07  5.9380E-03  0.0000E+00  0.0000E+00  0.0000E+00  0.0000E+00  0.0000E+00  0.0000E+00  2.6222E-07
 29  0.0000E+00  9.2387E-03  0.0000E+00  0.0000E+00  0.0000E+00  0.0000E+00  0.0000E+00  0.0000E+00  0.0000E+00
 30  0.0000E+00  2.5045E-02  0.0000E+00  0.0000E+00  0.0000E+00  0.0000E+00  0.0000E+00  0.0000E+00  0.0000E+00
 31  0.0000E+00  4.7403E-02  0.0000E+00  0.0000E+00  0.0000E+00  0.0000E+00  0.0000E+00  0.0000E+00  0.0000E+00
 32  0.0000E+00  3.9459E-02  0.0000E+00  0.0000E+00  0.0000E+00  0.0000E+00  0.0000E+00  0.0000E+00  0.0000E+00
 33  0.0000E+00  1.0497E-01  0.0000E+00  0.0000E+00  0.0000E+00  0.0000E+00  1.1974E-05  2.2737E-05  0.0000E+00
 34  0.0000E+00  1.0908E-01  0.0000E+00  9.5179E-04  0.0000E+00  0.0000E+00  1.3176E-04  0.0000E+00  0.0000E+00
 35  0.0000E+00  1.6419E-04  0.0000E+00  0.0000E+00  0.0000E+00  0.0000E+00  0.0000E+00  0.0000E+00  0.0000E+00
 36  0.0000E+00  6.3741E-05  0.0000E+00  0.0000E+00  0.0000E+00  0.0000E+00  0.0000E+00  0.0000E+00  0.0000E+00
 37  0.0000E+00  8.7499E-05  0.0000E+00  0.0000E+00  0.0000E+00  0.0000E+00  0.0000E+00  0.0000E+00  0.0000E+00
 38  0.0000E+00  2.5949E-04  0.0000E+00  0.0000E+00  0.0000E+00  0.0000E+00  0.0000E+00  0.0000E+00  0.0000E+00
 39  0.0000E+00  2.4532E-04  0.0000E+00  0.0000E+00  0.0000E+00  0.0000E+00  0.0000E+00  0.0000E+00  0.0000E+00
 40  0.0000E+00  4.1056E-04  0.0000E+00  0.0000E+00  0.0000E+00  0.0000E+00  0.0000E+00  0.0000E+00  0.0000E+00
 41  0.0000E+00  6.2603E-04  0.0000E+00  0.0000E+00  0.0000E+00  0.0000E+00  0.0000E+00  0.0000E+00  0.0000E+00
 42  0.0000E+00  1.0335E-03  0.0000E+00  0.0000E+00  0.0000E+00  0.0000E+00  0.0000E+00  0.0000E+00  0.0000E+00
 43  0.0000E+00  1.4884E-03  0.0000E+00  0.0000E+00  0.0000E+00  0.0000E+00  0.0000E+00  0.0000E+00  0.0000E+00
 44  0.0000E+00  2.8482E-03  0.0000E+00  8.9785E-06  0.0000E+00  0.0000E+00  0.0000E+00  0.0000E+00  0.0000E+00
 45  0.0000E+00  7.0925E-03  0.0000E+00  0.0000E+00  0.0000E+00  0.0000E+00  0.0000E+00  0.0000E+00  0.0000E+00
 46  0.0000E+00  1.2483E-02  0.0000E+00  0.0000E+00  0.0000E+00  0.0000E+00  0.0000E+00  0.0000E+00  0.0000E+00
 47  0.0000E+00  1.8919E-02  0.0000E+00  0.0000E+00  0.0000E+00  0.0000E+00  0.0000E+00  4.8082E-05  0.0000E+00
 48  0.0000E+00  4.9752E-02  0.0000E+00  1.3079E-06  0.0000E+00  1.3218E-04  0.0000E+00  0.0000E+00  0.0000E+00
 49  0.0000E+00  1.1955E-01  0.0000E+00  0.0000E+00  0.0000E+00  0.0000E+00  0.0000E+00  0.0000E+00  0.0000E+00
 50  0.0000E+00  1.4291E-01  0.0000E+00  0.0000E+00  0.0000E+00  0.0000E+00  0.0000E+00  0.0000E+00  0.0000E+00
 51  0.0000E+00  1.2047E-04  0.0000E+00  0.0000E+00  0.0000E+00  0.0000E+00  0.0000E+00  0.0000E+00  0.0000E+00
 52  0.0000E+00  3.6839E-05  0.0000E+00  0.0000E+00  0.0000E+00  0.0000E+00  0.0000E+00  0.0000E+00  0.0000E+00
 53  0.0000E+00  6.6767E-05  0.0000E+00  0.0000E+00  5.8160E-08  0.0000E+00  0.0000E+00  0.0000E+00  0.0000E+00
 54  0.0000E+00  1.8125E-04  0.0000E+00  0.0000E+00  0.0000E+00  0.0000E+00  0.0000E+00  0.0000E+00  0.0000E+00
 55  0.0000E+00  2.7063E-04  0.0000E+00  0.0000E+00  3.3426E-07  0.0000E+00  0.0000E+00  0.0000E+00  0.0000E+00
 56  0.0000E+00  4.8618E-04  0.0000E+00  0.0000E+00  0.0000E+00  0.0000E+00  0.0000E+00  0.0000E+00  0.0000E+00
 57  0.0000E+00  4.2630E-04  0.0000E+00  0.0000E+00  0.0000E+00  0.0000E+00  0.0000E+00  0.0000E+00  0.0000E+00
 58  0.0000E+00  9.1349E-04  0.0000E+00  0.0000E+00  0.0000E+00  0.0000E+00  0.0000E+00  0.0000E+00  0.0000E+00
 59  0.0000E+00  2.6039E-03  0.0000E+00  0.0000E+00  0.0000E+00  0.0000E+00  0.0000E+00  0.0000E+00  0.0000E+00
 60  0.0000E+00  4.3273E-03  0.0000E+00  0.0000E+00  0.0000E+00  0.0000E+00  0.0000E+00  0.0000E+00  0.0000E+00
 61  0.0000E+00  8.6209E-03  0.0000E+00  0.0000E+00  4.8468E-05  0.0000E+00  0.0000E+00  0.0000E+00  0.0000E+00
 62  0.0000E+00  1.8480E-02  0.0000E+00  0.0000E+00  0.0000E+00  0.0000E+00  0.0000E+00  2.7834E-05  0.0000E+00
 63  0.0000E+00  3.7982E-02  0.0000E+00  0.0000E+00  0.0000E+00  0.0000E+00  0.0000E+00  0.0000E+00  0.0000E+00
 64  0.0000E+00  1.0068E-01  0.0000E+00  9.4307E-06  0.0000E+00  0.0000E+00  0.0000E+00  0.0000E+00  0.0000E+00
 65  0.0000E+00  3.2122E-01  0.0000E+00  0.0000E+00  4.8172E-04  0.0000E+00  0.0000E+00  1.0295E+00  0.0000E+00
 66  1.0000E+02  9.8547E+01  1.0000E+02  9.9999E+01  9.9999E+01  1.0000E+02  1.0000E+02  9.8970E+01  1.0000E+02

# AV, chi2 & Mass for <> & i_chain = 1 ...  7 solutions
AV       0.8993      0.8946      0.8996      0.8989      0.8989      0.8989      0.8997      0.9019      0.8993
chi2 1.0796E-05  1.1123E-05  1.0796E-05  1.0796E-05  1.0796E-05  1.0796E-05  1.0796E-05  1.0797E-05  1.0796E-05
Mass 4.8397E-13  4.1064E-13  4.8411E-13  4.8368E-13  4.8368E-13  4.8371E-13  4.8418E-13  4.8359E-13  4.8397E-13
-338.74                                  [v0_min (km/s) before EX0s...]
  48.92                                  [vd_min (km/s) before EX0s...]


## Synthetic spectrum (Best Model) ##l_obs f_obs f_syn wei
 3478    [Nl_obs]
 3741.00   -4.79795   0.28003    0.000
 3742.00   -2.98540   0.26644    0.000
 3743.00    0.07214   0.25629    0.000
 3744.00    0.17004   0.23964    0.000
 3745.00   -1.45646   0.24935    0.000
 3746.00   -0.79872   0.31639    0.000
 3747.00    1.01898   0.41005    0.003
 3748.00    2.85281   0.48618    0.003
 3749.00    4.69372   0.54925    0.003
 3750.00    4.79671   0.60696    0.003
 3751.00    4.24358   0.61793    0.003
 3752.00    4.89317   0.54362    0.003
 3753.00    5.92821   0.42115    0.003
 3754.00    6.03704   0.34235    0.003
 3755.00    5.89768   0.35271    0.003
 3756.00    7.76022   0.40949    0.003
 3757.00   10.06215   0.44558    0.003
 3758.00   10.88534   0.43443    0.003
 3759.00   11.45039   0.40532    0.003
 3760.00    8.68309   0.40257    0.003
 3761.00    5.47313   0.41515    0.003
 3762.00   -0.28123   0.41090    0.000
 3763.00   -6.27470   0.42591    0.000
 3764.00    0.40600   0.49779    0.002
 3765.00    7.81783   0.58002    0.002
 3766.00    4.17879   0.62610    0.002
 3767.00    0.31028   0.65410    0.002
 3768.00    0.41628   0.67753    0.002
 3769.00    0.57547   0.67582    0.002
 3770.00    2.02688   0.64616    0.002
 3771.00    2.86136   0.62028    0.002
 3772.00   -4.38864   0.61796    0.000
 3773.00  -10.30987   0.62578    0.000
 3774.00   -4.56592   0.63958    0.000
 3775.00    0.73684   0.66870    0.002
 3776.00    3.17901   0.69515    0.002
 3777.00    4.23598   0.69995    0.002
 3778.00   -1.71797   0.69946    0.000
 3779.00   -5.58633   0.70570    0.000
 3780.00   -0.91805   0.68753    0.000
 3781.00    2.15127   0.61021    0.002
 3782.00   -0.20253   0.50553    0.000
 3783.00   -3.21312   0.43418    0.000
 3784.00   -8.10217   0.40578    0.000
 3785.00   -8.94438   0.40929    0.000
 3786.00    0.10082   0.44662    0.002
 3787.00    5.07631   0.49174    0.003
 3788.00    1.47418   0.49574    0.002
 3789.00   -1.82204   0.45665    0.000
 3790.00   -4.55791   0.41847    0.000
 3791.00   -3.88314   0.41220    0.000
 3792.00    2.25119   0.42062    0.002
 3793.00    4.15486   0.40524    0.002
 3794.00    0.11604   0.37891    0.002
 3795.00   -2.80049   0.39303    0.000
 3796.00   -4.32986   0.45359    0.000
 3797.00   -4.85688   0.52017    0.000
 3798.00   -4.29185   0.56938    0.000
 3799.00   -4.84186   0.60080    0.000
 3800.00   -6.46339   0.60510    0.000
 3801.00   -5.95296   0.57159    0.000
 3802.00   -3.63594   0.51688    0.000
 3803.00   -2.55945   0.48919    0.000
 3804.00   -2.40867   0.51440    0.000
 3805.00   -2.20982   0.55987    0.000
 3806.00   -1.97947   0.58260    0.000
 3807.00   -0.93474   0.56549    0.000
 3808.00    0.57732   0.51086    0.002
 3809.00    0.34885   0.44092    0.002
 3810.00   -0.74956   0.38267    0.000
 3811.00   -0.60452   0.34860    0.000
 3812.00    0.07823   0.34677    0.002
 3813.00    0.59656   0.36352    0.002
 3814.00    1.05390   0.35521    0.002
 3815.00   -0.26560   0.31016    0.000
 3816.00   -2.14367   0.27515    0.000
 3817.00   -0.34992   0.28683    0.000
 3818.00    2.40703   0.31708    0.002
 3819.00    2.27708   0.31465    0.002
 3820.00    1.52860   0.27850    0.002
 3821.00   -0.49290   0.24913    0.000
 3822.00   -2.73045   0.24849    0.000
 3823.00   -2.70393   0.26709    0.000
 3824.00   -2.38688   0.29082    0.000
 3825.00   -2.76065   0.31304    0.000
 3826.00   -3.19643   0.32345    0.000
 3827.00   -2.25833   0.30967    0.000
 3828.00   -1.24639   0.28147    0.000
 3829.00   -4.46041   0.26973    0.000
 3830.00   -7.68513   0.29235    0.000
 3831.00   -4.66620   0.33252    0.000
 3832.00   -1.74202   0.34973    0.000
 3833.00   -0.92294   0.32715    0.000
 3834.00   -0.19455   0.29091    0.000
 3835.00   -0.59389   0.27009    0.000
 3836.00   -0.71993   0.27818    0.000
 3837.00    1.46397   0.32409    0.002
 3838.00    3.26541   0.39065    0.002
 3839.00    2.66068   0.43772    0.002
 3840.00    1.95276   0.45101    0.002
 3841.00    0.73574   0.44667    0.002
 3842.00   -0.58308   0.44454    0.000
 3843.00   -2.30936   0.44318    0.000
 3844.00   -3.27684   0.42211    0.000
 3845.00   -1.72167   0.38654    0.000
 3846.00   -0.21722   0.37675    0.000
 3847.00    1.14481   0.40331    0.000
 3848.00    1.32091   0.42393    0.000
 3849.00   -1.35141   0.41294    0.000
 3850.00   -3.09704   0.38756    0.000
 3851.00   -2.92081   0.36247    0.000
 3852.00   -2.06323   0.34173    0.000
 3853.00    0.02325   0.32334    0.000
 3854.00    1.18038   0.29643    0.000
 3855.00    0.87186   0.27239    0.000
 3856.00    0.06041   0.28518    0.000
 3857.00   -1.44728   0.34375    0.000
 3858.00   -1.78306   0.41077    0.000
 3859.00   -0.69092   0.44065    0.000
 3860.00    0.11670   0.43032    0.000
 3861.00    0.61871   0.41238    0.000
 3862.00    1.46920   0.40729    0.000
 3863.00    2.64987   0.40616    0.000
 3864.00    2.29575   0.39457    0.000
 3865.00    0.65945   0.37038    0.000
 3866.00    2.21140   0.34229    0.000
 3867.00    6.10831   0.32719    0.000
 3868.00    5.62098   0.34416    0.000
 3869.00    2.30178   0.40017    0.000
 3870.00    1.54447   0.46672    0.000
 3871.00    2.23498   0.49302    0.000
 3872.00    1.16308   0.45905    0.000
 3873.00   -0.77577   0.39749    0.000
 3874.00   -1.87594   0.36422    0.000
 3875.00   -2.61949   0.37792    0.000
 3876.00   -2.61203   0.39486    0.000
 3877.00   -2.33101   0.39179    0.000
 3878.00   -0.15319   0.41539    0.000
 3879.00    2.60937   0.47853    0.000
 3880.00    2.82838   0.50221    0.000
 3881.00    2.39442   0.44589    0.002
 3882.00    2.17183   0.38913    0.002
 3883.00    1.99343   0.40246    0.002
 3884.00    1.35081   0.46461    0.002
 3885.00    0.63164   0.54146    0.002
 3886.00    0.54116   0.62432    0.002
 3887.00    0.52853   0.69619    0.002
 3888.00   -1.03339   0.72748    0.000
 3889.00   -2.72789   0.70509    0.000
 3890.00   -1.48839   0.65148    0.000
 3891.00   -0.10266   0.61606    0.000
 3892.00   -1.14886   0.62391    0.000
 3893.00   -2.22423   0.63369    0.000
 3894.00   -2.61118   0.60819    0.000
 3895.00   -2.85233   0.58428    0.000
 3896.00   -0.11089   0.60449    0.000
 3897.00    2.38668   0.63467    0.002
 3898.00    2.00018   0.62672    0.002
 3899.00    1.72557   0.60094    0.002
 3900.00    2.36243   0.57759    0.002
 3901.00    2.90888   0.55452    0.002
 3902.00    2.90313   0.56864    0.002
 3903.00    2.75025   0.63816    0.002
 3904.00    1.88942   0.71566    0.002
 3905.00    0.97325   0.75816    0.002
 3906.00   -0.15957   0.77418    0.000
 3907.00   -0.90815   0.79017    0.000
 3908.00   -0.40432   0.80490    0.000
 3909.00    0.88797   0.80505    0.002
 3910.00    4.35450   0.79204    0.002
 3911.00    6.64259   0.76486    0.002
 3912.00    6.14787   0.72675    0.002
 3913.00    5.39171   0.69077    0.002
 3914.00    4.10198   0.64488    0.002
 3915.00    3.11451   0.57542    0.002
 3916.00    2.66388   0.51017    0.002
 3917.00    1.09113   0.48494    0.002
 3918.00   -2.22517   0.50081    0.000
 3919.00   -2.84246   0.53555    0.000
 3920.00    0.22290   0.55840    0.002
 3921.00    1.14515   0.54293    0.002
 3922.00   -0.50696   0.49165    0.000
 3923.00   -1.71755   0.42456    0.000
 3924.00   -2.46054   0.36013    0.000
 3925.00   -1.72277   0.30875    0.000
 3926.00    0.39832   0.27021    0.002
 3927.00    1.03354   0.24462    0.002
 3928.00    0.44506   0.23372    0.002
 3929.00   -0.01694   0.23146    0.000
 3930.00   -0.38725   0.23249    0.000
 3931.00    0.26758   0.24839    0.002
 3932.00    1.57482   0.29143    0.002
 3933.00    0.03794   0.35527    0.002
 3934.00   -3.08178   0.42427    0.000
 3935.00   -5.33921   0.47872    0.000
 3936.00   -7.17923   0.50252    0.000
 3937.00   -4.68098   0.49833    0.000
 3938.00   -0.36897   0.47722    0.000
 3939.00    0.18840   0.45938    0.002
 3940.00   -0.59728   0.49007    0.000
 3941.00   -1.80058   0.57838    0.000
 3942.00   -3.13012   0.65492    0.000
 3943.00   -2.18950   0.67526    0.000
 3944.00   -0.67870   0.68837    0.000
 3945.00    0.88186   0.74094    0.002
 3946.00    2.45257   0.79711    0.002
 3947.00    0.37262   0.80136    0.002
 3948.00   -2.29188   0.78123    0.000
 3949.00   -1.53367   0.80109    0.000
 3950.00   -0.36682   0.83094    0.000
 3951.00   -1.34395   0.80309    0.000
 3952.00   -2.49567   0.74637    0.000
 3953.00   -1.25632   0.72634    0.000
 3954.00    0.09292   0.73014    0.002
 3955.00   -0.04764   0.68976    0.000
 3956.00   -0.15491   0.58105    0.000
 3957.00    2.46918   0.46734    0.002
 3958.00    4.86854   0.41779    0.002
 3959.00    3.01086   0.41675    0.002
 3960.00    1.39404   0.40390    0.000
 3961.00    2.49173   0.35622    0.000
 3962.00    3.44884   0.29756    0.000
 3963.00    3.30106   0.25890    0.000
 3964.00    2.98838   0.25063    0.000
 3965.00    1.69724   0.27006    0.000
 3966.00    0.67011   0.31211    0.000
 3967.00    0.88258   0.36748    0.000
 3968.00    0.83281   0.42804    0.000
 3969.00   -0.22196   0.49647    0.000
 3970.00   -0.77471   0.57502    0.000
 3971.00    0.27711   0.64907    0.000
 3972.00    0.99502   0.71098    0.000
 3973.00    0.80856   0.77578    0.000
 3974.00    1.05064   0.84905    0.000
 3975.00    2.28782   0.91164    0.000
 3976.00    3.01380   0.93516    0.000
 3977.00    2.71305   0.91777    0.000
 3978.00    1.51264   0.89598    0.000
 3979.00   -1.26143   0.89964    0.000
 3980.00   -2.49740   0.93017    0.000
 3981.00   -1.37860   0.96988    0.000
 3982.00   -0.31022   1.00726    0.000
 3983.00    0.69034   1.04550    0.002
 3984.00    0.52679   1.05616    0.002
 3985.00   -1.01536   1.02518    0.000
 3986.00   -1.04744   1.01007    0.000
 3987.00    0.49730   1.04136    0.002
 3988.00    1.82103   1.07999    0.002
 3989.00    2.94119   1.08737    0.002
 3990.00    2.84797   1.06226    0.002
 3991.00    1.76963   1.02158    0.002
 3992.00    1.86029   0.98087    0.002
 3993.00    2.78616   0.97241    0.002
 3994.00    1.47847   1.03191    0.002
 3995.00   -1.22966   1.12954    0.000
 3996.00   -1.72237   1.19334    0.000
 3997.00   -1.00100   1.21773    0.000
 3998.00    0.24583   1.22336    0.002
 3999.00    1.74296   1.16613    0.002
 4000.00    1.78563   1.03146    0.002
 4001.00    1.23051   0.92807    0.002
 4002.00    2.27479   0.95387    0.002
 4003.00    3.88082   1.05863    0.002
 4004.00    3.12330   1.14105    0.002
 4005.00    1.66548   1.17424    0.002
 4006.00    0.65685   1.18197    0.002
 4007.00   -0.24144   1.18742    0.000
 4008.00    0.36006   1.20178    0.002
 4009.00    1.25976   1.22362    0.002
 4010.00    2.05758   1.25096    0.002
 4011.00    2.83957   1.26724    0.002
 4012.00    1.62205   1.24691    0.002
 4013.00    0.17461   1.22446    0.002
 4014.00    0.27095   1.24897    0.002
 4015.00    0.48664   1.28165    0.002
 4016.00    0.97056   1.27167    0.002
 4017.00    1.46578   1.24260    0.002
 4018.00    1.47559   1.22082    0.002
 4019.00    1.47604   1.19275    0.002
 4020.00    1.26055   1.17254    0.002
 4021.00    1.08710   1.20007    0.002
 4022.00    1.65468   1.26883    0.002
 4023.00    2.25856   1.32945    0.002
 4024.00    3.25308   1.31056    0.002
 4025.00    3.78671   1.16852    0.002
 4026.00    0.82156   0.97931    0.002
 4027.00   -1.60050   0.85670    0.000
 4028.00   -0.89002   0.81016    0.000
 4029.00   -0.16064   0.81719    0.000
 4030.00    0.65533   0.89845    0.002
 4031.00    1.22505   1.05446    0.002
 4032.00    0.87105   1.22818    0.002
 4033.00    1.00000   1.33943    0.002
 4034.00    2.64302   1.35172    0.002
 4035.00    3.67643   1.29823    0.002
 4036.00    3.08803   1.24728    0.002
 4037.00    2.09304   1.23577    0.002
 4038.00    0.16964   1.20199    0.002
 4039.00   -1.07834   1.05579    0.000
 4040.00   -0.99108   0.83612    0.000
 4041.00   -0.26917   0.70553    0.000
 4042.00    1.54606   0.77340    0.002
 4043.00    2.23200   0.97076    0.002
 4044.00    1.21437   1.15267    0.002
 4045.00    0.73646   1.26393    0.002
 4046.00    0.97398   1.31593    0.002
 4047.00    2.18655   1.31362    0.002
 4048.00    4.53748   1.27070    0.002
 4049.00    5.57369   1.20758    0.002
 4050.00    5.25632   1.14502    0.002
 4051.00    3.49213   1.10411    0.002
 4052.00    0.41409   1.06735    0.002
 4053.00   -1.39430   1.02739    0.000
 4054.00   -2.18652   1.03939    0.000
 4055.00   -2.51619   1.11452    0.000
 4056.00   -2.52016   1.15875    0.000
 4057.00   -2.28289   1.07861    0.000
 4058.00   -1.89660   0.90839    0.000
 4059.00   -1.56130   0.80565    0.000
 4060.00   -1.25351   0.86564    0.000
 4061.00   -2.35382   0.98909    0.000
 4062.00   -4.11408   1.06050    0.000
 4063.00   -1.02365   1.11570    0.000
 4064.00    4.02653   1.19255    0.002
 4065.00    4.11540   1.20168    0.002
 4066.00    2.49361   1.08583    0.002
 4067.00    2.77981   0.97626    0.002
 4068.00    3.62005   1.02073    0.002
 4069.00    2.96832   1.14645    0.002
 4070.00    1.95823   1.18041    0.002
 4071.00    2.11691   1.08639    0.002
 4072.00    2.50205   0.96624    0.002
 4073.00    3.20929   0.93678    0.002
 4074.00    3.96507   1.03041    0.002
 4075.00    2.83440   1.19005    0.002
 4076.00    1.49507   1.33057    0.002
 4077.00   -0.05076   1.37790    0.000
 4078.00   -1.61171   1.32714    0.000
 4079.00   -0.21222   1.25759    0.000
 4080.00    1.30060   1.23433    0.002
 4081.00    1.14209   1.27098    0.002
 4082.00    0.98649   1.36254    0.002
 4083.00    1.28936   1.46983    0.002
 4084.00    1.59727   1.52700    0.002
 4085.00    1.98812   1.50770    0.002
 4086.00    2.29614   1.44814    0.002
 4087.00    1.75188   1.39606    0.002
 4088.00    1.27416   1.38050    0.002
 4089.00    1.28474   1.37840    0.002
 4090.00    1.43152   1.31870    0.002
 4091.00    2.34233   1.21037    0.002
 4092.00    3.21603   1.14451    0.000
 4093.00    3.92372   1.14642    0.000
 4094.00    4.39850   1.15882    0.000
 4095.00    4.01791   1.12495    0.000
 4096.00    3.30811   1.05650    0.000
 4097.00    1.58582   1.03071    0.000
 4098.00    0.32994   1.07748    0.000
 4099.00    0.29306   1.14775    0.000
 4100.00    0.46754   1.21897    0.000
 4101.00    1.11673   1.29757    0.000
 4102.00    1.57579   1.34783    0.000
 4103.00    1.66490   1.33816    0.000
 4104.00    1.93893   1.28591    0.000
 4105.00    2.52674   1.22243    0.000
 4106.00    3.26712   1.17575    0.000
 4107.00    4.23426   1.17118    0.000
 4108.00    4.61768   1.21449    0.000
 4109.00    4.23838   1.27267    0.000
 4110.00    3.93135   1.30940    0.000
 4111.00    3.70751   1.32604    0.000
 4112.00    2.63333   1.31810    0.000
 4113.00    0.69597   1.26126    0.002
 4114.00    0.02026   1.19110    0.002
 4115.00    0.47414   1.17781    0.002
 4116.00    0.73241   1.20399    0.002
 4117.00    0.83634   1.21022    0.002
 4118.00    0.66729   1.20754    0.002
 4119.00    0.30880   1.24129    0.002
 4120.00    0.20156   1.29744    0.002
 4121.00    0.24722   1.31375    0.002
 4122.00    1.30810   1.27645    0.002
 4123.00    2.90834   1.22777    0.002
 4124.00    4.42797   1.19316    0.002
 4125.00    5.91043   1.15738    0.002
 4126.00    6.16594   1.09519    0.002
 4127.00    5.93425   1.01522    0.002
 4128.00    5.24742   0.97098    0.002
 4129.00    4.40656   0.99858    0.002
 4130.00    3.14463   1.09154    0.002
 4131.00    1.76291   1.20352    0.002
 4132.00    1.37789   1.26956    0.002
 4133.00    1.22688   1.28765    0.002
 4134.00    1.34098   1.29639    0.002
 4135.00    1.50511   1.29579    0.002
 4136.00    0.82100   1.24689    0.002
 4137.00    0.01302   1.11114    0.002
 4138.00   -0.23107   0.93351    0.000
 4139.00   -0.41523   0.85232    0.000
 4140.00    1.78284   0.93192    0.002
 4141.00    4.14569   1.07432    0.002
 4142.00    2.49265   1.16334    0.002
 4143.00    0.70110   1.17747    0.002
 4144.00    2.67430   1.14276    0.002
 4145.00    4.54155   1.09459    0.002
 4146.00    2.66248   1.06846    0.002
 4147.00    0.98094   1.06665    0.002
 4148.00    2.35373   1.06867    0.002
 4149.00    3.60633   1.06216    0.002
 4150.00    3.67406   1.05328    0.002
 4151.00    3.66072   1.05035    0.002
 4152.00    3.07181   1.06781    0.002
 4153.00    2.71293   1.12755    0.002
 4154.00    3.60970   1.21003    0.002
 4155.00    4.05296   1.26557    0.002
 4156.00    2.51389   1.29083    0.002
 4157.00    1.05073   1.32406    0.002
 4158.00   -0.13943   1.35128    0.000
 4159.00   -0.45470   1.32320    0.000
 4160.00    1.87010   1.25624    0.002
 4161.00    3.51950   1.19334    0.002
 4162.00    3.43449   1.14495    0.002
 4163.00    3.21467   1.13912    0.002
 4164.00    2.69708   1.19160    0.002
 4165.00    2.60743   1.24169    0.002
 4166.00    3.33756   1.21323    0.002
 4167.00    4.06523   1.10616    0.002
 4168.00    4.78880   1.01103    0.002
 4169.00    4.18407   1.00166    0.002
 4170.00    1.63360   1.04691    0.002
 4171.00    0.70338   1.08134    0.002
 4172.00    1.85999   1.08597    0.002
 4173.00    3.19995   1.09062    0.002
 4174.00    4.74798   1.12085    0.002
 4175.00    5.23835   1.14745    0.002
 4176.00    4.67018   1.13847    0.002
 4177.00    4.26406   1.12489    0.002
 4178.00    4.00097   1.15812    0.002
 4179.00    4.18792   1.23877    0.002
 4180.00    4.72488   1.30630    0.002
 4181.00    4.69666   1.27854    0.002
 4182.00    4.28192   1.16977    0.002
 4183.00    4.55943   1.11599    0.002
 4184.00    5.25189   1.17151    0.002
 4185.00    5.30086   1.23584    0.002
 4186.00    5.01327   1.24528    0.002
 4187.00    2.97173   1.26200    0.002
 4188.00    0.13461   1.31713    0.002
 4189.00    1.41388   1.32840    0.002
 4190.00    4.29946   1.24607    0.002
 4191.00    5.36356   1.13015    0.002
 4192.00    5.82268   1.05091    0.002
 4193.00    4.72572   1.02094    0.002
 4194.00    3.19505   1.03238    0.002
 4195.00    2.08201   1.06316    0.002
 4196.00    1.06478   1.06634    0.002
 4197.00    2.47866   1.05477    0.002
 4198.00    4.33932   1.09436    0.002
 4199.00    3.26963   1.17914    0.002
 4200.00    1.78557   1.25996    0.002
 4201.00    1.39488   1.32791    0.002
 4202.00    1.11567   1.38456    0.002
 4203.00    0.66390   1.41430    0.002
 4204.00    0.20088   1.39566    0.002
 4205.00    2.21843   1.34723    0.002
 4206.00    4.30914   1.33219    0.002
 4207.00    4.44497   1.35315    0.002
 4208.00    4.53120   1.33297    0.002
 4209.00    3.15984   1.23223    0.002
 4210.00    1.98243   1.11747    0.002
 4211.00    3.62847   1.12064    0.002
 4212.00    5.13108   1.28438    0.002
 4213.00    5.27735   1.48078    0.002
 4214.00    5.20916   1.58856    0.002
 4215.00    3.66672   1.61653    0.002
 4216.00    2.34694   1.59435    0.002
 4217.00    2.21060   1.50164    0.002
 4218.00    2.51274   1.33848    0.002
 4219.00    4.68760   1.13692    0.002
 4220.00    6.02336   0.91126    0.002
 4221.00    4.40271   0.70255    0.002
 4222.00    3.02087   0.63078    0.002
 4223.00    2.34623   0.77834    0.002
 4224.00    2.09090   1.05351    0.002
 4225.00    2.89370   1.30147    0.002
 4226.00    3.42348   1.44601    0.002
 4227.00    3.35999   1.45796    0.002
 4228.00    3.39064   1.37664    0.002
 4229.00    3.59884   1.30833    0.002
 4230.00    3.15428   1.27828    0.002
 4231.00    1.63508   1.25469    0.002
 4232.00    1.34868   1.26404    0.002
 4233.00    2.84189   1.31057    0.002
 4234.00    3.58161   1.35350    0.002
 4235.00    3.36468   1.40126    0.002
 4236.00    3.57083   1.47495    0.002
 4237.00    4.25033   1.54533    0.002
 4238.00    4.69312   1.61056    0.002
 4239.00    4.90233   1.70381    0.002
 4240.00    4.11508   1.77090    0.002
 4241.00    2.46062   1.72457    0.002
 4242.00    2.00311   1.58798    0.002
 4243.00    2.46323   1.44752    0.002
 4244.00    3.09262   1.32985    0.002
 4245.00    3.83609   1.22914    0.002
 4246.00    4.95202   1.20231    0.002
 4247.00    6.28786   1.26404    0.002
 4248.00    6.83344   1.29020    0.002
 4249.00    6.97216   1.22348    0.002
 4250.00    6.07957   1.20007    0.002
 4251.00    4.72685   1.32587    0.002
 4252.00    4.05408   1.48758    0.002
 4253.00    3.64202   1.50289    0.002
 4254.00    2.89799   1.36201    0.002
 4255.00    2.04577   1.20975    0.002
 4256.00    1.55691   1.19045    0.002
 4257.00    1.16723   1.34304    0.002
 4258.00    1.50500   1.56161    0.002
 4259.00    2.00580   1.71363    0.002
 4260.00    3.93642   1.77788    0.002
 4261.00    6.12277   1.78083    0.002
 4262.00    5.50814   1.71268    0.002
 4263.00    4.51028   1.58892    0.002
 4264.00    3.62378   1.44584    0.002
 4265.00    2.74816   1.26739    0.002
 4266.00    4.54651   1.06394    0.002
 4267.00    6.50840   0.94624    0.002
 4268.00    4.44724   0.96512    0.002
 4269.00    2.29241   1.02617    0.002
 4270.00    3.04405   1.10006    0.002
 4271.00    3.74924   1.25969    0.002
 4272.00    3.22675   1.47911    0.002
 4273.00    2.77931   1.63692    0.002
 4274.00    3.36365   1.64895    0.002
 4275.00    4.03418   1.54675    0.002
 4276.00    5.48760   1.45934    0.002
 4277.00    6.83244   1.45387    0.002
 4278.00    7.45399   1.49015    0.002
 4279.00    7.83551   1.50940    0.002
 4280.00    6.97442   1.48136    0.002
 4281.00    5.94913   1.44324    0.002
 4282.00    4.23840   1.42785   -2.000
 4283.00    2.81862   1.36952   -2.000
 4284.00    2.40325   1.22551   -2.000
 4285.00    1.85044   1.10539   -2.000
 4286.00    0.89816   1.13564   -2.000
 4287.00    1.14675   1.28623   -2.000
 4288.00    4.37383   1.41410   -2.000
 4289.00    6.31267   1.43755   -2.000
 4290.00    5.49748   1.42019   -2.000
 4291.00    4.47824   1.41430   -2.000
 4292.00    3.08011   1.36512   -2.000
 4293.00    2.68252   1.23181   -2.000
 4294.00    3.90762   1.06104   -2.000
 4295.00    4.18061   0.95889   -2.000
 4296.00    3.09908   0.97368   -2.000
 4297.00    2.42706   1.03197   -2.000
 4298.00    2.26758   1.07235    0.002
 4299.00    2.07421   1.09706    0.002
 4300.00    1.84347   1.08287    0.002
 4301.00    1.74771   1.00816    0.002
 4302.00    1.78328   0.90115    0.002
 4303.00    2.36754   0.82186    0.002
 4304.00    3.42259   0.83369    0.002
 4305.00    3.22897   0.94237    0.002
 4306.00    2.09176   1.09401    0.002
 4307.00    0.96997   1.24091    0.002
 4308.00   -0.14157   1.36327    0.000
 4309.00    0.07327   1.47656    0.002
 4310.00    1.05945   1.65203    0.002
 4311.00    2.44630   1.90340    0.002
 4312.00    4.03621   2.09439    0.002
 4313.00    4.76293   2.12668    0.002
 4314.00    5.11089   2.06124    0.002
 4315.00    5.38752   1.97700    0.002
 4316.00    5.63730   1.89473    0.002
 4317.00    4.61247   1.79536    0.002
 4318.00    3.18013   1.61571    0.002
 4319.00    2.60034   1.34777    0.002
 4320.00    2.24841   1.11416    0.002
 4321.00    3.77849   1.08929    0.002
 4322.00    5.72040   1.33838    0.002
 4323.00    4.28848   1.70264    0.002
 4324.00    2.26966   1.93730    0.002
 4325.00    3.05575   1.97290    0.002
 4326.00    4.21286   1.94232    0.002
 4327.00    5.08378   1.96273    0.002
 4328.00    5.92797   2.02561    0.002
 4329.00    5.94754   2.09767    0.002
 4330.00    5.91995   2.14056    0.000
 4331.00    4.78191   2.05532    0.000
 4332.00    3.63692   1.81183    0.000
 4333.00    4.66515   1.55854    0.000
 4334.00    5.70344   1.42080    0.000
 4335.00    6.98346   1.39200    0.000
 4336.00    8.01742   1.47553    0.000
 4337.00    5.84854   1.64577    0.000
 4338.00    3.82847   1.77766    0.000
 4339.00    3.10849   1.83297    0.000
 4340.00    2.44532   1.88718    0.000
 4341.00    2.14900   1.93628    0.000
 4342.00    2.18207   1.96267    0.000
 4343.00    3.87690   2.03361    0.000
 4344.00    5.06070   2.11569    0.000
 4345.00    4.15863   2.03054    0.000
 4346.00    3.66827   1.75454    0.000
 4347.00    4.57075   1.53169    0.000
 4348.00    4.66066   1.53959    0.000
 4349.00    2.43188   1.67750    0.000
 4350.00    1.39386   1.80217    0.000
 4351.00    3.25890   1.90589    0.002
 4352.00    4.92737   1.97483    0.002
 4353.00    6.18235   1.94196    0.002
 4354.00    7.09356   1.85308    0.002
 4355.00    7.37631   1.85202    0.002
 4356.00    7.24535   1.95853    0.002
 4357.00    6.45338   2.05360    0.002
 4358.00    5.38271   2.09311    0.002
 4359.00    3.92128   2.14701    0.002
 4360.00    3.60020   2.20399    0.002
 4361.00    4.68608   2.15620    0.002
 4362.00    4.99323   2.00473    0.002
 4363.00    4.45349   1.88463    0.002
 4364.00    4.26298   1.87054    0.002
 4365.00    4.40750   1.90622    0.002
 4366.00    4.02833   1.93036    0.002
 4367.00    3.20617   1.91352    0.002
 4368.00    3.41378   1.81845    0.002
 4369.00    4.38842   1.66453    0.002
 4370.00    5.18575   1.56681    0.002
 4371.00    5.86705   1.62966    0.002
 4372.00    6.57111   1.81447    0.002
 4373.00    7.28821   1.96345    0.002
 4374.00    6.45906   1.97421    0.002
 4375.00    4.85862   1.87410    0.002
 4376.00    5.80735   1.70383    0.002
 4377.00    7.85614   1.43729    0.002
 4378.00    6.67165   1.12350    0.002
 4379.00    4.29077   0.97473    0.002
 4380.00    2.89590   1.12644    0.002
 4381.00    1.81023   1.43245    0.002
 4382.00    2.19360   1.64423    0.002
 4383.00    2.96131   1.69143    0.002
 4384.00    2.68377   1.66020    0.002
 4385.00    2.18296   1.63610    0.002
 4386.00    3.34735   1.66638    0.002
 4387.00    4.79333   1.74009    0.002
 4388.00    5.54618   1.78878    0.002
 4389.00    6.21048   1.78240    0.002
 4390.00    4.37509   1.79856    0.002
 4391.00    2.31664   1.92019    0.002
 4392.00    3.28963   2.07786    0.002
 4393.00    4.42407   2.12141    0.002
 4394.00    5.93915   2.01619    0.002
 4395.00    7.43986   1.87030    0.002
 4396.00    7.16696   1.82351    0.002
 4397.00    6.86306   1.85284    0.002
 4398.00    5.87750   1.75146    0.002
 4399.00    4.79148   1.48344    0.002
 4400.00    2.46421   1.30654    0.002
 4401.00    0.58443   1.36239    0.002
 4402.00    2.46931   1.49519    0.002
 4403.00    4.04489   1.59371    0.002
 4404.00    3.68187   1.74042    0.002
 4405.00    3.56845   1.95634    0.002
 4406.00    4.68272   2.13142    0.002
 4407.00    5.97012   2.19530    0.002
 4408.00    7.94867   2.11734    0.002
 4409.00    8.78618   1.89309    0.002
 4410.00    5.83967   1.67682    0.002
 4411.00    3.83929   1.66472    0.002
 4412.00    4.48968   1.83344    0.002
 4413.00    5.73228   2.03666    0.002
 4414.00    8.39425   2.18276    0.002
 4415.00    9.62090   2.21171    0.002
 4416.00    7.87681   2.10253    0.002
 4417.00    6.81680   1.94199    0.002
 4418.00    6.98825   1.87033    0.002
 4419.00    6.89803   1.90945    0.002
 4420.00    6.39589   1.95515    0.002
 4421.00    5.61518   1.96204    0.002
 4422.00    4.44954   1.97946    0.001
 4423.00    3.79803   2.01979    0.001
 4424.00    3.77184   2.01289    0.002
 4425.00    3.81458   1.95399    0.002
 4426.00    3.93122   1.95445    0.002
 4427.00    4.00706   2.00696    0.002
 4428.00    4.04430   1.96328    0.002
 4429.00    5.02272   1.80062    0.002
 4430.00    6.78600   1.67580    0.002
 4431.00    6.69281   1.73483    0.002
 4432.00    5.23666   1.95426    0.002
 4433.00    4.72136   2.18568    0.002
 4434.00    4.81263   2.29887    0.002
 4435.00    4.51685   2.23624    0.002
 4436.00    4.00275   2.04848    0.002
 4437.00    3.59936   1.87889    0.002
 4438.00    3.25031   1.85173    0.002
 4439.00    4.38629   1.98782    0.002
 4440.00    6.15240   2.18689    0.002
 4441.00    6.33889   2.30046    0.002
 4442.00    5.95130   2.30444    0.002
 4443.00    5.23485   2.29690    0.002
 4444.00    4.41727   2.29121    0.002
 4445.00    4.47691   2.25196    0.002
 4446.00    4.76114   2.21904    0.002
 4447.00    5.63876   2.18549    0.002
 4448.00    6.64005   2.07543    0.002
 4449.00    6.46707   1.89388    0.002
 4450.00    6.10116   1.75382    0.002
 4451.00    5.78456   1.74054    0.002
 4452.00    5.47403   1.79202    0.002
 4453.00    6.11147   1.80379    0.002
 4454.00    6.82954   1.77064    0.002
 4455.00    5.71766   1.72683    0.002
 4456.00    4.51547   1.69163    0.002
 4457.00    6.10935   1.74200    0.002
 4458.00    7.71902   1.91507    0.002
 4459.00    7.52669   2.07276    0.002
 4460.00    7.23396   2.10514    0.002
 4461.00    4.90779   2.08143    0.000
 4462.00    2.86854   2.07470    0.000
 4463.00    4.20160   2.06009    0.000
 4464.00    5.41656   2.02791    0.000
 4465.00    5.67374   2.03814    0.000
 4466.00    5.64916   2.11822    0.000
 4467.00    3.90990   2.23538    0.000
 4468.00    2.61383   2.34092    0.000
 4469.00    3.44384   2.38425    0.000
 4470.00    4.24203   2.38342    0.000
 4471.00    4.91588   2.42767    0.000
 4472.00    5.28937   2.51789    0.000
 4473.00    4.68623   2.52886    0.000
 4474.00    4.30726   2.38515    0.000
 4475.00    4.54506   2.16748    0.000
 4476.00    4.50796   2.01747    0.000
 4477.00    3.82304   2.02053    0.000
 4478.00    3.40764   2.17233    0.000
 4479.00    3.54121   2.37633    0.000
 4480.00    4.17741   2.52660    0.000
 4481.00    5.70462   2.57319    0.000
 4482.00    6.66614   2.49618    0.002
 4483.00    6.75031   2.32386    0.002
 4484.00    6.72622   2.15922    0.002
 4485.00    6.55471   2.11797    0.001
 4486.00    5.95076   2.21237    0.001
 4487.00    4.82828   2.31309    0.001
 4488.00    4.25652   2.27657    0.001
 4489.00    4.26696   2.11878    0.001
 4490.00    5.23549   2.00244    0.002
 4491.00    7.09744   2.03211    0.002
 4492.00    6.79921   2.17568    0.002
 4493.00    4.72508   2.34381    0.002
 4494.00    3.40733   2.44817    0.002
 4495.00    2.63688   2.44315    0.002
 4496.00    4.25079   2.39219    0.002
 4497.00    7.37929   2.44372    0.001
 4498.00    8.14545   2.61924    0.001
 4499.00    7.59943   2.76248    0.002
 4500.00    6.89952   2.76893    0.002
 4501.00    6.12526   2.68318    0.002
 4502.00    5.90855   2.60024    0.002
 4503.00    5.92445   2.57888    0.002
 4504.00    5.49056   2.61423    0.002
 4505.00    4.89615   2.65275    0.002
 4506.00    4.51781   2.62779    0.001
 4507.00    4.20462   2.52456    0.001
 4508.00    4.95605   2.40687    0.001
 4509.00    5.97414   2.35087    0.002
 4510.00    6.74925   2.37453    0.002
 4511.00    7.47496   2.41597    0.002
 4512.00    6.87298   2.41019    0.001
 4513.00    6.05921   2.40261    0.001
 4514.00    6.10289   2.47370    0.001
 4515.00    6.24848   2.59229    0.001
 4516.00    7.20392   2.64738    0.001
 4517.00    8.22489   2.58169    0.001
 4518.00    7.65736   2.46694    0.001
 4519.00    7.01760   2.37478    0.001
 4520.00    4.96474   2.26507    0.001
 4521.00    2.97046   2.10865    0.001
 4522.00    4.85072   1.95668    0.001
 4523.00    6.60832   1.87311    0.001
 4524.00    6.06372   1.88288    0.001
 4525.00    5.64128   1.95900    0.001
 4526.00    6.58749   2.06155    0.001
 4527.00    7.43785   2.14606    0.001
 4528.00    7.53808   2.14064    0.001
 4529.00    7.27597   2.05077    0.001
 4530.00    4.87161   2.02027    0.001
 4531.00    3.11568   2.17880    0.001
 4532.00    4.39503   2.43633    0.002
 4533.00    5.42761   2.56550    0.002
 4534.00    5.51704   2.50137    0.002
 4535.00    5.58578   2.37309    0.001
 4536.00    5.58856   2.32402    0.001
 4537.00    5.70021   2.38442    0.001
 4538.00    6.10606   2.44756    0.001
 4539.00    6.32512   2.41601    0.001
 4540.00    6.11138   2.34778    0.001
 4541.00    6.04070   2.34124    0.001
 4542.00    6.25677   2.36888    0.001
 4543.00    5.96368   2.35086    0.001
 4544.00    4.78169   2.30890    0.001
 4545.00    4.54443   2.32532    0.001
 4546.00    5.75083   2.37214    0.001
 4547.00    7.13271   2.35890    0.001
 4548.00    8.75014   2.29517    0.001
 4549.00    8.90023   2.24972    0.001
 4550.00    7.31574   2.27921    0.000
 4551.00    6.45570   2.40833    0.000
 4552.00    6.35081   2.58055    0.000
 4553.00    6.49981   2.69677    0.000
 4554.00    6.88225   2.72064    0.000
 4555.00    6.98145   2.69794    0.000
 4556.00    6.85109   2.68271    0.000
 4557.00    6.98111   2.64485    0.000
 4558.00    7.29682   2.52749    0.000
 4559.00    6.62873   2.38523    0.000
 4560.00    5.34493   2.34445    0.000
 4561.00    3.62903   2.45862    0.000
 4562.00    1.67678   2.64138    0.000
 4563.00    3.25692   2.74945    0.000
 4564.00    6.51627   2.72657    0.000
 4565.00    7.54801   2.60418    0.000
 4566.00    7.66613   2.48004    0.000
 4567.00    6.43578   2.49353    0.000
 4568.00    4.73293   2.62496    0.000
 4569.00    4.29869   2.70248    0.000
 4570.00    4.23940   2.68691    0.000
 4571.00    5.14431   2.66016    0.000
 4572.00    6.28542   2.62518    0.000
 4573.00    4.98237   2.52978    0.000
 4574.00    3.19493   2.38566    0.000
 4575.00    3.66682   2.28746    0.000
 4576.00    4.48845   2.31483    0.000
 4577.00    3.58609   2.42221    0.000
 4578.00    2.48646   2.48592    0.000
 4579.00    4.25723   2.45851    0.000
 4580.00    6.24845   2.39953    0.000
 4581.00    5.57793   2.40116    0.000
 4582.00    4.79662   2.51085    0.000
 4583.00    5.70053   2.66618    0.000
 4584.00    6.59012   2.74717    0.000
 4585.00    6.23694   2.69871    0.000
 4586.00    5.92437   2.57432    0.000
 4587.00    6.32158   2.47212    0.000
 4588.00    6.58633   2.42507    0.000
 4589.00    5.43399   2.39544    0.000
 4590.00    4.45135   2.37196    0.000
 4591.00    4.75148   2.37659    0.000
 4592.00    4.84769   2.40869    0.000
 4593.00    3.77192   2.45359    0.000
 4594.00    2.92014   2.47552    0.000
 4595.00    3.09181   2.45264    0.000
 4596.00    3.18993   2.44003    0.000
 4597.00    3.01287   2.46514    0.000
 4598.00    3.22753   2.47602    0.000
 4599.00    4.66730   2.44925    0.000
 4600.00    5.42541   2.43029    0.000
 4601.00    4.37410   2.49404    0.000
 4602.00    3.74538   2.66425    0.000
 4603.00    4.07962   2.86220    0.000
 4604.00    4.37377   2.96209    0.000
 4605.00    4.58886   2.91760    0.000
 4606.00    4.86613   2.80362    0.000
 4607.00    5.25033   2.71193    0.000
 4608.00    5.66482   2.68707    0.000
 4609.00    6.12490   2.73933    0.000
 4610.00    6.30114   2.81675    0.000
 4611.00    6.10180   2.86301    0.000
 4612.00    6.57276   2.87948    0.000
 4613.00    7.82489   2.85326    0.000
 4614.00    7.27881   2.80541    0.000
 4615.00    4.88467   2.81460    0.000
 4616.00    4.15883   2.85860    0.000
 4617.00    4.94527   2.86048    0.000
 4618.00    5.63028   2.83984    0.000
 4619.00    6.23424   2.82079    0.000
 4620.00    7.01012   2.78464    0.000
 4621.00    7.90683   2.76197    0.000
 4622.00    7.34491   2.77853    0.000
 4623.00    5.88369   2.78482    0.000
 4624.00    4.85815   2.76903    0.000
 4625.00    4.06725   2.79558    0.000
 4626.00    3.77694   2.84443    0.000
 4627.00    3.72077   2.81376    0.000
 4628.00    4.18792   2.71613    0.000
 4629.00    4.86604   2.65517    0.000
 4630.00    5.52219   2.64518    0.000
 4631.00    6.17079   2.61844    0.000
 4632.00    6.21901   2.54826    0.000
 4633.00    6.09333   2.47114    0.000
 4634.00    5.46852   2.42467    0.000
 4635.00    4.72416   2.44663    0.000
 4636.00    5.34608   2.54281    0.000
 4637.00    6.23187   2.61822    0.000
 4638.00    5.73054   2.59308    0.000
 4639.00    5.02099   2.49114    0.000
 4640.00    5.67368   2.34758    0.000
 4641.00    6.47630   2.20843    0.000
 4642.00    6.77190   2.16366    0.000
 4643.00    7.03063   2.24314    0.000
 4644.00    5.82268   2.38753    0.000
 4645.00    4.55928   2.53005    0.000
 4646.00    4.97197   2.63657    0.000
 4647.00    5.38841   2.69116    0.000
 4648.00    5.62767   2.66570    0.000
 4649.00    5.86966   2.56533    0.000
 4650.00    6.15627   2.47747    0.000
 4651.00    6.26917   2.48962    0.000
 4652.00    4.60416   2.62316    0.000
 4653.00    3.17952   2.82397    0.000
 4654.00    3.51140   2.97927    0.000
 4655.00    3.83014   3.00144    0.000
 4656.00    4.07542   2.89222    0.000
 4657.00    4.26191   2.73007    0.000
 4658.00    4.18607   2.60818    0.000
 4659.00    4.01208   2.54620    0.000
 4660.00    3.47862   2.45176    0.000
 4661.00    3.55733   2.26140    0.000
 4662.00    5.51427   2.09102    0.000
 4663.00    6.46102   2.10686    0.000
 4664.00    4.77335   2.30205    0.000
 4665.00    3.97818   2.52505    0.000
 4666.00    5.18321   2.65192    0.000
 4667.00    5.98733   2.66112    0.000
 4668.00    6.01285   2.61498    0.000
 4669.00    5.86695   2.59904    0.000
 4670.00    5.43074   2.65502    0.000
 4671.00    5.32564   2.72955    0.000
 4672.00    5.71182   2.72330    0.000
 4673.00    6.37604   2.62955    0.000
 4674.00    7.40292   2.52443    0.000
 4675.00    7.48279   2.45509    0.000
 4676.00    6.47456   2.44061    0.000
 4677.00    5.69845   2.49996    0.000
 4678.00    5.15755   2.59974    0.000
 4679.00    4.99585   2.66493    0.000
 4680.00    5.17305   2.67440    0.000
 4681.00    5.28132   2.64700    0.000
 4682.00    5.33532   2.60115    0.000
 4683.00    5.44124   2.57889    0.000
 4684.00    5.58313   2.58991    0.000
 4685.00    5.13648   2.58692    0.000
 4686.00    4.33236   2.56614    0.000
 4687.00    5.02557   2.57106    0.000
 4688.00    6.51271   2.61511    0.000
 4689.00    6.89756   2.69110    0.000
 4690.00    6.77520   2.77166    0.000
 4691.00    6.99876   2.78300    0.000
 4692.00    7.35939   2.67786    0.000
 4693.00    7.12477   2.52858    0.000
 4694.00    6.68918   2.45535    0.000
 4695.00    5.78662   2.46162    0.000
 4696.00    4.75154   2.45983    0.000
 4697.00    4.99532   2.43290    0.000
 4698.00    5.53849   2.44783    0.000
 4699.00    5.79011   2.52567    0.000
 4700.00    5.98688   2.58471    0.000
 4701.00    6.26643   2.56048    0.000
 4702.00    6.55801   2.49454    0.000
 4703.00    5.64787   2.46105    0.000
 4704.00    4.61067   2.49676    0.000
 4705.00    4.65417   2.60282    0.000
 4706.00    4.77187   2.70733    0.000
 4707.00    4.52913   2.70894    0.000
 4708.00    4.27413   2.61061    0.000
 4709.00    5.41414   2.52905    0.000
 4710.00    6.50135   2.57806    0.000
 4711.00    5.80130   2.72998    0.000
 4712.00    5.19093   2.86804    0.000
 4713.00    5.95655   2.96022    0.000
 4714.00    6.65315   3.02993    0.000
 4715.00    6.67291   3.05338    0.000
 4716.00    6.60607   3.00834    0.000
 4717.00    5.92688   2.94661    0.000
 4718.00    5.53375   2.95151    0.000
 4719.00    6.69693   3.01659    0.000
 4720.00    7.42849   3.02225    0.000
 4721.00    6.27892   2.87214    0.000
 4722.00    5.09334   2.62517    0.000
 4723.00    3.77852   2.44492    0.000
 4724.00    3.33658   2.41193    0.000
 4725.00    5.52246   2.47836    0.000
 4726.00    6.92687   2.58062    0.000
 4727.00    6.32883   2.67782    0.000
 4728.00    5.83028   2.74196    0.000
 4729.00    5.55101   2.77461    0.000
 4730.00    5.70392   2.76443    0.000
 4731.00    6.68304   2.72372    0.000
 4732.00    7.20744   2.75476    0.000
 4733.00    6.97326   2.86966    0.000
 4734.00    6.72811   2.92995    0.000
 4735.00    6.46691   2.89082    0.000
 4736.00    6.92322   2.85218    0.000
 4737.00    8.30200   2.87455    0.000
 4738.00    7.92748   2.91109    0.000
 4739.00    5.56687   2.91458    0.000
 4740.00    4.32705   2.92772    0.000
 4741.00    4.20698   2.98621    0.000
 4742.00    4.96831   3.03321    0.000
 4743.00    6.50627   3.03509    0.000
 4744.00    6.85740   3.02868    0.000
 4745.00    6.28714   3.01797    0.000
 4746.00    6.49814   2.96806    0.000
 4747.00    7.24244   2.88802    0.000
 4748.00    6.95035   2.82045    0.000
 4749.00    6.03821   2.78950    0.000
 4750.00    5.47308   2.79437    0.000
 4751.00    5.08910   2.81632    0.000
 4752.00    4.59753   2.84150    0.000
 4753.00    4.05727   2.87463    0.000
 4754.00    5.03745   2.90970    0.000
 4755.00    6.60962   2.89670    0.000
 4756.00    7.36311   2.80816    0.000
 4757.00    7.84533   2.70706    0.000
 4758.00    7.00268   2.64115    0.000
 4759.00    5.79171   2.57285    0.000
 4760.00    5.27470   2.49779    0.000
 4761.00    4.91644   2.49239    0.001
 4762.00    5.24746   2.59438    0.001
 4763.00    5.70472   2.75009    0.001
 4764.00    5.51341   2.87367    0.001
 4765.00    5.23077   2.89483    0.001
 4766.00    6.28587   2.83482    0.001
 4767.00    7.47665   2.81224    0.001
 4768.00    6.58937   2.89205    0.001
 4769.00    5.56774   3.00050    0.001
 4770.00    5.95382   3.04500    0.001
 4771.00    6.38087   3.04913    0.001
 4772.00    6.00740   3.06471    0.001
 4773.00    5.68849   3.06412    0.001
 4774.00    6.95080   3.02786    0.001
 4775.00    8.05693   2.97873    0.001
 4776.00    6.90615   2.90742    0.001
 4777.00    5.85714   2.80738    0.001
 4778.00    5.76558   2.74591    0.001
 4779.00    5.77631   2.76218    0.001
 4780.00    6.48738   2.77962    0.001
 4781.00    6.91588   2.76396    0.001
 4782.00    5.84755   2.77223    0.001
 4783.00    4.90486   2.79360    0.001
 4784.00    4.49718   2.79257    0.001
 4785.00    4.34086   2.80814    0.001
 4786.00    5.06785   2.87479    0.001
 4787.00    5.77510   2.99049    0.001
 4788.00    6.42403   3.13765    0.001
 4789.00    6.86224   3.25309    0.001
 4790.00    6.76979   3.26560    0.001
 4791.00    6.58317   3.17905    0.001
 4792.00    6.19235   3.05056    0.001
 4793.00    6.04187   2.92920    0.001
 4794.00    6.34371   2.86772    0.001
 4795.00    6.93164   2.91707    0.001
 4796.00    7.98970   3.05520    0.001
 4797.00    7.99098   3.17477    0.001
 4798.00    6.46957   3.18165    0.001
 4799.00    5.46703   3.08647    0.001
 4800.00    5.12210   2.97704    0.001
 4801.00    5.81051   2.90076    0.001
 4802.00    7.65300   2.85190    0.001
 4803.00    8.52784   2.85610    0.001
 4804.00    8.44951   2.92624    0.001
 4805.00    8.12752   3.00198    0.001
 4806.00    7.59387   3.02942    0.001
 4807.00    7.19170   3.02054    0.001
 4808.00    6.89016   3.01222    0.001
 4809.00    6.57103   3.02631    0.001
 4810.00    6.24006   3.06942    0.001
 4811.00    6.25585   3.13461    0.001
 4812.00    6.47599   3.20085    0.001
 4813.00    5.90328   3.25222    0.001
 4814.00    4.92318   3.27532    0.001
 4815.00    5.08864   3.24813    0.001
 4816.00    5.76414   3.15169    0.001
 4817.00    6.47731   2.99373    0.001
 4818.00    7.20490   2.86649    0.001
 4819.00    7.59110   2.88152    0.001
 4820.00    7.86631   2.99628    0.001
 4821.00    8.09475   3.06649    0.001
 4822.00    8.31046   3.04421    0.001
 4823.00    7.04308   3.00114    0.001
 4824.00    5.44434   2.99232    0.001
 4825.00    4.65335   2.97040    0.001
 4826.00    4.00634   2.90000    0.001
 4827.00    4.90096   2.87121    0.001
 4828.00    6.00563   2.95092    0.001
 4829.00    6.43303   3.05828    0.001
 4830.00    6.79463   3.10412    0.001
 4831.00    4.83240   3.09978    0.001
 4832.00    2.72920   3.06810    0.001
 4833.00    4.43806   2.99464    0.001
 4834.00    6.23146   2.91243    0.001
 4835.00    5.05527   2.89039    0.001
 4836.00    3.97881   2.91439    0.001
 4837.00    5.50593   2.91753    0.001
 4838.00    6.86637   2.92737    0.001
 4839.00    5.95158   3.01407    0.001
 4840.00    5.16558   3.12641    0.001
 4841.00    5.54377   3.14706    0.001
 4842.00    5.83384   3.05648    0.001
 4843.00    5.53921   2.96304    0.001
 4844.00    5.32260   2.97104    0.001
 4845.00    5.50852   3.04244    0.001
 4846.00    5.55807   3.08171    0.001
 4847.00    5.03995   3.06635    0.001
 4848.00    4.87395   2.98228    0.000
 4849.00    5.92041   2.83160    0.000
 4850.00    6.54595   2.73155    0.000
 4851.00    5.95087   2.77295    0.000
 4852.00    5.50859   2.84682    0.000
 4853.00    5.44448   2.79015    0.000
 4854.00    5.59464   2.58923    0.000
 4855.00    6.20196   2.37588    0.000
 4856.00    6.17301   2.31795    0.000
 4857.00    4.96501   2.44878    0.000
 4858.00    4.22966   2.62243    0.000
 4859.00    4.25943   2.73715    0.000
 4860.00    4.41126   2.82140    0.000
 4861.00    4.73641   2.88350    0.000
 4862.00    5.36559   2.90111    0.000
 4863.00    6.37462   2.88133    0.000
 4864.00    6.87303   2.79315    0.000
 4865.00    6.80919   2.60912    0.000
 4866.00    6.71276   2.46414    0.000
 4867.00    6.58467   2.51454    0.000
 4868.00    6.21583   2.68424    0.000
 4869.00    5.64081   2.80292    0.000
 4870.00    5.69097   2.85878    0.000
 4871.00    6.21273   2.92156    0.000
 4872.00    6.70044   3.00496    0.000
 4873.00    7.16558   3.10089    0.000
 4874.00    6.61043   3.15052    0.000
 4875.00    5.46306   3.07862    0.001
 4876.00    5.87823   2.96948    0.001
 4877.00    7.08371   2.95235    0.001
 4878.00    6.86383   2.96322    0.001
 4879.00    6.01980   2.87791    0.001
 4880.00    4.73647   2.74343    0.001
 4881.00    3.28802   2.69180    0.001
 4882.00    4.12285   2.73598    0.001
 4883.00    5.68590   2.76276    0.001
 4884.00    5.57142   2.67763    0.001
 4885.00    5.00979   2.54178    0.001
 4886.00    4.55027   2.55662    0.001
 4887.00    4.11302   2.80216    0.001
 4888.00    4.38054   3.12066    0.001
 4889.00    4.77022   3.34888    0.001
 4890.00    5.51581   3.45133    0.001
 4891.00    6.30827   3.46103    0.001
 4892.00    6.90956   3.41873    0.001
 4893.00    7.49308   3.32986    0.001
 4894.00    7.60788   3.21835    0.001
 4895.00    7.69611   3.15807    0.001
 4896.00    7.05768   3.14522    0.001
 4897.00    6.40444   3.10903    0.001
 4898.00    5.94418   3.08443    0.001
 4899.00    5.52528   3.16167    0.001
 4900.00    6.08806   3.30007    0.001
 4901.00    6.60068   3.35545    0.001
 4902.00    6.46464   3.26310    0.001
 4903.00    6.34557   3.08878    0.001
 4904.00    6.37405   2.93892    0.001
 4905.00    6.46754   2.89323    0.001
 4906.00    6.97927   2.95909    0.001
 4907.00    7.38498   3.07078    0.001
 4908.00    7.25752   3.17620    0.001
 4909.00    7.04064   3.26975    0.001
 4910.00    6.45984   3.31600    0.001
 4911.00    6.08794   3.23041    0.001
 4912.00    6.42102   2.97238    0.001
 4913.00    6.78787   2.62733    0.001
 4914.00    7.25088   2.37640    0.001
 4915.00    7.70483   2.36563    0.001
 4916.00    8.13674   2.57284    0.001
 4917.00    7.88635   2.80779    0.001
 4918.00    6.20368   2.91085    0.001
 4919.00    4.95000   2.93039    0.001
 4920.00    4.47906   3.00752    0.001
 4921.00    4.78812   3.15257    0.001
 4922.00    6.34108   3.28934    0.001
 4923.00    6.86175   3.39732    0.001
 4924.00    5.93772   3.46613    0.001
 4925.00    5.68684   3.46994    0.001
 4926.00    6.26500   3.39264    0.001
 4927.00    6.81719   3.23331    0.001
 4928.00    7.34122   3.09070    0.001
 4929.00    7.66316   3.08378    0.001
 4930.00    7.79159   3.12882    0.001
 4931.00    7.00536   3.04570    0.001
 4932.00    5.44682   2.83967    0.001
 4933.00    4.43317   2.70424    0.001
 4934.00    3.82465   2.78868    0.001
 4935.00    4.09887   3.02638    0.001
 4936.00    4.94962   3.24003    0.001
 4937.00    5.17168   3.36414    0.001
 4938.00    5.03434   3.42160    0.001
 4939.00    5.77317   3.40518    0.001
 4940.00    6.94817   3.34953    0.000
 4941.00    7.16359   3.34738    0.000
 4942.00    6.96578   3.40736    0.000
 4943.00    7.10610   3.46323    0.000
 4944.00    7.37125   3.49890    0.000
 4945.00    7.40078   3.52973    0.000
 4946.00    7.35659   3.52372    0.000
 4947.00    6.54727   3.45298    0.000
 4948.00    5.53833   3.35505    0.000
 4949.00    5.21597   3.24561    0.000
 4950.00    5.03983   3.04795    0.000
 4951.00    6.65707   2.74587    0.000
 4952.00    8.57649   2.56102    0.000
 4953.00    6.46914   2.70467    0.000
 4954.00    3.84960   3.03061    0.000
 4955.00    5.10437   3.25076    0.000
 4956.00    6.70284   3.30599    0.000
 4957.00    6.82522   3.29999    0.000
 4958.00    6.86971   3.25282    0.000
 4959.00    6.33847   3.12494    0.000
 4960.00    5.81472   2.98183    0.000
 4961.00    6.73944   2.92497    0.000
 4962.00    7.59147   2.95022    0.000
 4963.00    6.86254   3.00814    0.000
 4964.00    6.18393   3.07653    0.000
 4965.00    6.12297   3.15282    0.000
 4966.00    6.14363   3.23707    0.000
 4967.00    6.84763   3.31078    0.000
 4968.00    7.28283   3.35625    0.000
 4969.00    6.03962   3.36284    0.000
 4970.00    5.44374   3.32321    0.000
 4971.00    8.02188   3.24125    0.000
 4972.00    9.80130   3.12563    0.000
 4973.00    8.40103   3.01944    0.000
 4974.00    7.26673   2.95744    0.000
 4975.00    7.01232   2.87309    0.000
 4976.00    6.87655   2.70460    0.000
 4977.00    7.07241   2.54917    0.000
 4978.00    7.44884   2.53960    0.000
 4979.00    8.25713   2.65918    0.000
 4980.00    8.41148   2.82353    0.000
 4981.00    7.21504   2.99370    0.000
 4982.00    6.32984   3.11930    0.000
 4983.00    6.00383   3.14959    0.000
 4984.00    5.30711   3.10709    0.000
 4985.00    4.02794   3.06468    0.000
 4986.00    3.57502   3.07739    0.000
 4987.00    4.26177   3.11078    0.000
 4988.00    4.58281   3.11070    0.000
 4989.00    4.45984   3.11674    0.000
 4990.00    5.28854   3.15419    0.000
 4991.00    7.13587   3.17049    0.000
 4992.00    7.49454   3.12544    0.000
 4993.00    6.44771   3.01189    0.000
 4994.00    6.74879   2.87582    0.000
 4995.00    8.17190   2.79826    0.000
 4996.00    7.91909   2.79404    0.000
 4997.00    6.43810   2.81142    0.000
 4998.00    6.05368   2.78802    0.000
 4999.00    6.37493   2.68918    0.000
 5000.00    5.87504   2.57839    0.000
 5001.00    4.91285   2.59635    0.000
 5002.00    4.91995   2.77358    0.000
 5003.00    5.40193   2.95942    0.000
 5004.00    5.23181   3.01843    0.000
 5005.00    4.78556   2.94737    0.000
 5006.00    4.76001   2.79047    0.000
 5007.00    4.88700   2.61399    0.000
 5008.00    5.16107   2.50914    0.000
 5009.00    5.48025   2.53489    0.000
 5010.00    6.12040   2.65003    0.000
 5011.00    6.84251   2.73838    0.000
 5012.00    6.76195   2.76239    0.000
 5013.00    6.51462   2.78583    0.000
 5014.00    6.38741   2.82282    0.000
 5015.00    6.27986   2.81718    0.000
 5016.00    5.33085   2.77121    0.000
 5017.00    4.27856   2.77733    0.000
 5018.00    5.05130   2.87272    0.000
 5019.00    5.97832   2.97118    0.000
 5020.00    5.68114   2.98731    0.000
 5021.00    5.32413   2.92298    0.000
 5022.00    6.39271   2.87586    0.000
 5023.00    7.45154   2.93808    0.000
 5024.00    6.57076   3.06293    0.000
 5025.00    5.70661   3.17241    0.000
 5026.00    5.17589   3.27357    0.000
 5027.00    4.64936   3.36081    0.000
 5028.00    4.17168   3.35122    0.000
 5029.00    3.85808   3.19309    0.001
 5030.00    4.86916   2.99319    0.001
 5031.00    5.79626   2.90809    0.001
 5032.00    6.21411   2.89799    0.001
 5033.00    6.58383   2.79633    0.001
 5034.00    6.72331   2.57812    0.001
 5035.00    6.76526   2.40631    0.001
 5036.00    6.42731   2.46703    0.001
 5037.00    6.08902   2.74766    0.001
 5038.00    5.74960   3.05898    0.001
 5039.00    5.32893   3.28648    0.001
 5040.00    4.68521   3.41045    0.001
 5041.00    4.65262   3.38076    0.001
 5042.00    6.05710   3.18976    0.001
 5043.00    6.53380   2.96688    0.001
 5044.00    5.12461   2.85211    0.001
 5045.00    4.66520   2.84945    0.001
 5046.00    5.88627   2.89841    0.001
 5047.00    6.47759   2.98965    0.001
 5048.00    6.09402   3.12095    0.001
 5049.00    6.08348   3.23929    0.001
 5050.00    6.58010   3.29735    0.001
 5051.00    5.89540   3.31569    0.001
 5052.00    3.79672   3.33683    0.001
 5053.00    3.64813   3.36460    0.001
 5054.00    5.55753   3.40176    0.001
 5055.00    6.57214   3.45641    0.001
 5056.00    6.75380   3.47853    0.001
 5057.00    6.88215   3.38494    0.001
 5058.00    6.96673   3.17083    0.001
 5059.00    7.49277   2.97212    0.001
 5060.00    8.33767   2.92331    0.001
 5061.00    7.14840   2.96657    0.001
 5062.00    4.66939   2.98707    0.001
 5063.00    4.05517   3.01195    0.001
 5064.00    4.47475   3.08149    0.001
 5065.00    4.80058   3.11354    0.001
 5066.00    5.08119   3.06615    0.001
 5067.00    4.40207   3.04333    0.001
 5068.00    3.32341   3.09302    0.001
 5069.00    4.10925   3.12563    0.001
 5070.00    5.55900   3.11148    0.001
 5071.00    5.52940   3.09924    0.001
 5072.00    5.05488   3.03562    0.001
 5073.00    5.43610   2.84469    0.001
 5074.00    6.03106   2.64719    0.001
 5075.00    5.96589   2.61609    0.001
 5076.00    5.76695   2.71472    0.001
 5077.00    4.77615   2.80817    0.001
 5078.00    3.65949   2.88229    0.001
 5079.00    4.47948   2.98003    0.001
 5080.00    5.52856   3.07335    0.001
 5081.00    5.26077   3.12043    0.001
 5082.00    4.88711   3.14171    0.001
 5083.00    5.10112   3.17236    0.001
 5084.00    5.34157   3.20695    0.001
 5085.00    4.42161   3.23798    0.001
 5086.00    3.53566   3.29061    0.001
 5087.00    5.02900   3.35899    0.001
 5088.00    6.39299   3.37481    0.001
 5089.00    5.35123   3.30005    0.001
 5090.00    4.41391   3.17469    0.001
 5091.00    4.63975   3.03703    0.001
 5092.00    4.91468   2.89175    0.001
 5093.00    5.57195   2.79325    0.001
 5094.00    6.15106   2.83787    0.001
 5095.00    6.26976   3.00325    0.001
 5096.00    6.27885   3.14029    0.001
 5097.00    5.77646   3.16032    0.001
 5098.00    5.31465   3.10768    0.001
 5099.00    5.00758   3.05511    0.001
 5100.00    4.80017   3.00919    0.001
 5101.00    4.90976   2.94630    0.001
 5102.00    4.96002   2.88856    0.001
 5103.00    4.85035   2.86275    0.001
 5104.00    4.74474   2.86610    0.001
 5105.00    4.64852   2.91993    0.001
 5106.00    4.83185   3.02033    0.001
 5107.00    5.57443   3.11105    0.001
 5108.00    6.10715   3.17788    0.001
 5109.00    6.27420   3.23836    0.001
 5110.00    6.12521   3.29798    0.001
 5111.00    5.49416   3.36332    0.001
 5112.00    5.09183   3.40872    0.001
 5113.00    4.99596   3.38780    0.001
 5114.00    5.30977   3.29855    0.001
 5115.00    6.10700   3.17566    0.001
 5116.00    6.29274   3.03578    0.001
 5117.00    5.84221   2.88043    0.001
 5118.00    5.64495   2.76367    0.001
 5119.00    5.68013   2.74980    0.001
 5120.00    6.11012   2.79912    0.001
 5121.00    6.85951   2.82568    0.001
 5122.00    7.21328   2.81786    0.001
 5123.00    7.28541   2.82070    0.001
 5124.00    6.83350   2.87374    0.001
 5125.00    6.05423   2.97829    0.001
 5126.00    5.37488   3.08141    0.001
 5127.00    4.75007   3.13840    0.001
 5128.00    3.97347   3.17861    0.001
 5129.00    3.12486   3.22718    0.001
 5130.00    3.43830   3.22117    0.001
 5131.00    4.22733   3.11749    0.001
 5132.00    4.74873   2.97845    0.001
 5133.00    5.17657   2.90038    0.001
 5134.00    5.64738   2.93350    0.001
 5135.00    6.13086   2.99564    0.001
 5136.00    5.35836   2.96877    0.001
 5137.00    4.27905   2.91546    0.001
 5138.00    5.45801   2.93560    0.001
 5139.00    7.08309   2.95937    0.001
 5140.00    6.85694   2.91377    0.001
 5141.00    6.34532   2.85742    0.001
 5142.00    5.66631   2.86272    0.001
 5143.00    4.96825   2.91404    0.001
 5144.00    5.53195   2.93580    0.001
 5145.00    6.19191   2.89835    0.001
 5146.00    6.32343   2.84750    0.001
 5147.00    6.43320   2.82974    0.001
 5148.00    5.84619   2.86586    0.001
 5149.00    5.28172   2.96663    0.001
 5150.00    5.90758   3.11175    0.001
 5151.00    6.52176   3.24845    0.001
 5152.00    6.93329   3.32481    0.001
 5153.00    7.24381   3.33590    0.001
 5154.00    6.47977   3.32487    0.001
 5155.00    5.82260   3.29236    0.001
 5156.00    5.96977   3.20251    0.001
 5157.00    5.97773   3.07580    0.001
 5158.00    5.18831   2.91743    0.001
 5159.00    4.48365   2.66112    0.001
 5160.00    4.16511   2.30589    0.001
 5161.00    4.05388   1.99741    0.001
 5162.00    4.71617   1.91481    0.001
 5163.00    5.23858   2.07412    0.001
 5164.00    5.32458   2.25361    0.001
 5165.00    5.41861   2.20254    0.001
 5166.00    5.53392   1.96648    0.001
 5167.00    5.61030   1.87279    0.001
 5168.00    5.59818   2.11177    0.001
 5169.00    5.11671   2.50471    0.001
 5170.00    3.71109   2.78739    0.001
 5171.00    3.69803   2.91460    0.001
 5172.00    6.07486   2.96424    0.001
 5173.00    6.84596   2.95292    0.001
 5174.00    5.20370   2.85196    0.001
 5175.00    4.70118   2.63793    0.001
 5176.00    5.70404   2.30979    0.001
 5177.00    6.48201   1.98276    0.001
 5178.00    6.99836   1.90258    0.001
 5179.00    6.01857   2.18549    0.001
 5180.00    3.50388   2.63351    0.001
 5181.00    2.57522   2.96698    0.001
 5182.00    3.08172   3.11729    0.001
 5183.00    3.63595   3.18383    0.001
 5184.00    4.22824   3.18367    0.001
 5185.00    4.20926   3.03060    0.001
 5186.00    3.76144   2.80033    0.001
 5187.00    4.50788   2.70949    0.001
 5188.00    5.98924   2.78618    0.001
 5189.00    5.84032   2.88902    0.001
 5190.00    4.81512   2.97923    0.000
 5191.00    4.21470   3.09564    0.000
 5192.00    3.81255   3.21637    0.000
 5193.00    4.48414   3.29986    0.000
 5194.00    5.58766   3.32877    0.000
 5195.00    5.44617   3.29932    0.000
 5196.00    4.87740   3.22481    0.000
 5197.00    5.03984   3.10179    0.000
 5198.00    5.41354   2.89706    0.000
 5199.00    5.32098   2.65343    0.000
 5200.00    5.11707   2.49546    0.000
 5201.00    5.02160   2.44633    0.000
 5202.00    4.94699   2.43337    0.000
 5203.00    5.17227   2.47848    0.000
 5204.00    5.44238   2.65027    0.000
 5205.00    4.66663   2.91801    0.000
 5206.00    3.77634   3.18171    0.000
 5207.00    4.15212   3.34242    0.000
 5208.00    4.61931   3.34645    0.000
 5209.00    4.88424   3.23267    0.000
 5210.00    5.14163   3.12993    0.000
 5211.00    5.89599   3.14849    0.001
 5212.00    6.59564   3.27692    0.001
 5213.00    5.21944   3.41816    0.001
 5214.00    3.97726   3.50387    0.001
 5215.00    4.90777   3.52889    0.001
 5216.00    5.78078   3.48318    0.001
 5217.00    6.06838   3.33828    0.001
 5218.00    6.11627   3.10390    0.001
 5219.00    4.41986   2.83893    0.001
 5220.00    3.01773   2.63346    0.001
 5221.00    3.25510   2.61198    0.001
 5222.00    3.64256   2.83345    0.001
 5223.00    4.69766   3.15666    0.001
 5224.00    5.51317   3.37822    0.001
 5225.00    5.45334   3.42896    0.001
 5226.00    5.31104   3.33685    0.001
 5227.00    4.91627   3.19918    0.001
 5228.00    4.81887   3.15468    0.001
 5229.00    5.49525   3.25210    0.001
 5230.00    5.89707   3.42995    0.001
 5231.00    5.68486   3.58889    0.001
 5232.00    5.34923   3.65504    0.001
 5233.00    4.77439   3.63667    0.001
 5234.00    4.60683   3.60222    0.001
 5235.00    5.12773   3.59193    0.001
 5236.00    5.60281   3.59559    0.001
 5237.00    6.01005   3.61835    0.001
 5238.00    5.95603   3.66569    0.001
 5239.00    5.30149   3.64866    0.001
 5240.00    4.83832   3.47757    0.001
 5241.00    4.59463   3.25798    0.001
 5242.00    4.54391   3.16635    0.001
 5243.00    4.68839   3.17124    0.001
 5244.00    4.87666   3.15133    0.001
 5245.00    5.10399   3.14691    0.001
 5246.00    5.59915   3.22731    0.001
 5247.00    6.30486   3.31397    0.001
 5248.00    5.94691   3.31319    0.001
 5249.00    4.85354   3.29236    0.001
 5250.00    4.65927   3.39471    0.001
 5251.00    5.01006   3.60686    0.001
 5252.00    5.32074   3.77238    0.001
 5253.00    5.61019   3.79115    0.001
 5254.00    4.76137   3.66823    0.001
 5255.00    3.38985   3.44724    0.001
 5256.00    3.65965   3.17653    0.001
 5257.00    4.57835   2.91391    0.001
 5258.00    5.46199   2.70725    0.001
 5259.00    6.33382   2.58406    0.001
 5260.00    6.74153   2.58480    0.001
 5261.00    7.01785   2.68236    0.001
 5262.00    5.27541   2.68198    0.001
 5263.00    3.06173   2.49651    0.001
 5264.00    3.43090   2.39472    0.001
 5265.00    4.28435   2.60937    0.001
 5266.00    4.79720   2.96807    0.001
 5267.00    5.26071   3.19394    0.001
 5268.00    5.76503   3.24361    0.001
 5269.00    6.27364   3.23958    0.001
 5270.00    6.07250   3.32466    0.001
 5271.00    5.82298   3.52873    0.001
 5272.00    4.58091   3.71410    0.001
 5273.00    3.30554   3.74351    0.001
 5274.00    4.70110   3.62327    0.001
 5275.00    6.05563   3.45149    0.001
 5276.00    6.00252   3.30952    0.001
 5277.00    5.92653   3.24162    0.001
 5278.00    5.50207   3.30692    0.001
 5279.00    5.08067   3.52937    0.001
 5280.00    4.68901   3.78792    0.001
 5281.00    4.31565   3.91864    0.001
 5282.00    4.07117   3.91443    0.001
 5283.00    3.87033   3.89881    0.001
 5284.00    3.90612   3.93591    0.001
 5285.00    4.00931   3.96941    0.001
 5286.00    4.40536   3.93746    0.001
 5287.00    4.69736   3.86366    0.001
 5288.00    4.61700   3.79307    0.001
 5289.00    4.72045   3.68455    0.001
 5290.00    5.37593   3.46674    0.001
 5291.00    5.81616   3.20531    0.001
 5292.00    5.70605   3.09357    0.001
 5293.00    5.43808   3.20526    0.001
 5294.00    4.82280   3.37636    0.001
 5295.00    4.34094   3.45879    0.001
 5296.00    4.11367   3.52071    0.001
 5297.00    4.20599   3.66936    0.001
 5298.00    4.83042   3.86696    0.001
 5299.00    5.12290   3.99590    0.001
 5300.00    4.93093   4.00001    0.001
 5301.00    5.00714   3.93973    0.001
 5302.00    5.42751   3.92466    0.001
 5303.00    5.70380   3.98104    0.001
 5304.00    5.81718   4.03578    0.001
 5305.00    5.80157   4.03041    0.001
 5306.00    5.65732   3.97643    0.001
 5307.00    5.26291   3.91620    0.001
 5308.00    4.64846   3.87628    0.001
 5309.00    4.47532   3.84547    0.001
 5310.00    4.64418   3.80851    0.001
 5311.00    5.54353   3.78467    0.001
 5312.00    6.94060   3.78522    0.001
 5313.00    6.99819   3.78678    0.001
 5314.00    6.25591   3.77850    0.001
 5315.00    5.76289   3.75769    0.001
 5316.00    5.39973   3.69402    0.001
 5317.00    4.93418   3.57069    0.001
 5318.00    4.42237   3.45210    0.001
 5319.00    4.03775   3.39967    0.001
 5320.00    3.70255   3.30479    0.001
 5321.00    4.42881   3.03607    0.001
 5322.00    5.50595   2.75655    0.001
 5323.00    5.75060   2.78105    0.001
 5324.00    5.76442   3.11203    0.001
 5325.00    5.29593   3.44717    0.001
 5326.00    4.71743   3.60410    0.001
 5327.00    4.92943   3.67162    0.001
 5328.00    5.28573   3.77483    0.001
 5329.00    5.07003   3.88513    0.001
 5330.00    4.77411   3.92156    0.001
 5331.00    4.00139   3.88437    0.001
 5332.00    3.18057   3.78865    0.001
 5333.00    3.67466   3.60987    0.001
 5334.00    4.25310   3.41170    0.001
 5335.00    4.35130   3.36658    0.001
 5336.00    4.43469   3.51736    0.001
 5337.00    4.31388   3.69825    0.001
 5338.00    4.24566   3.76255    0.001
 5339.00    5.68071   3.71856    0.001
 5340.00    6.95133   3.65901    0.001
 5341.00    5.86291   3.62427    0.001
 5342.00    4.83147   3.57624    0.001
 5343.00    4.33322   3.54294    0.001
 5344.00    3.91019   3.61728    0.001
 5345.00    4.00006   3.78356    0.001
 5346.00    4.13534   3.92947    0.001
 5347.00    4.51044   4.01688    0.001
 5348.00    4.60129   4.09837    0.001
 5349.00    3.48514   4.18512    0.001
 5350.00    2.67543   4.23472    0.001
 5351.00    2.93983   4.24151    0.001
 5352.00    3.46549   4.22827    0.001
 5353.00    4.76122   4.19856    0.001
 5354.00    5.64142   4.13652    0.001
 5355.00    5.47753   4.03965    0.001
 5356.00    5.51745   3.94644    0.001
 5357.00    5.99844   3.88573    0.001
 5358.00    6.24836   3.83112    0.001
 5359.00    6.06426   3.77121    0.001
 5360.00    5.81669   3.73608    0.001
 5361.00    5.46501   3.71881    0.001
 5362.00    5.09817   3.65909    0.001
 5363.00    4.70955   3.49801    0.001
 5364.00    4.71737   3.27216    0.001
 5365.00    5.22674   3.15623    0.001
 5366.00    5.09774   3.29793    0.001
 5367.00    4.25706   3.62042    0.001
 5368.00    4.39278   3.90579   -2.000
 5369.00    5.48860   4.03023   -2.000
 5370.00    6.16687   4.01962   -2.000
 5371.00    6.48306   3.97891   -2.000
 5372.00    6.89027   3.98876   -2.000
 5373.00    7.36702   4.02068   -2.000
 5374.00    6.32879   4.00685   -2.000
 5375.00    4.27333   3.94557   -2.000
 5376.00    3.85473   3.87617   -2.000
 5377.00    4.39891   3.83992   -2.000
 5378.00    4.83410   3.86907   -2.000
 5379.00    5.21340   3.93473   -2.000
 5380.00    5.63520   3.96634   -2.000
 5381.00    6.07589   3.93707   -2.000
 5382.00    6.06726   3.85874   -2.000
 5383.00    5.88712   3.74860    0.001
 5384.00    5.64601   3.64573    0.001
 5385.00    5.38514   3.59138    0.001
 5386.00    5.43222   3.58374    0.001
 5387.00    5.56293   3.59042    0.001
 5388.00    5.89974   3.58064    0.001
 5389.00    6.28246   3.51475    0.001
 5390.00    5.21834   3.37951    0.001
 5391.00    3.89724   3.28927    0.001
 5392.00    4.52435   3.37810    0.001
 5393.00    5.41578   3.56960    0.001
 5394.00    5.41598   3.69956    0.001
 5395.00    5.33006   3.74958    0.001
 5396.00    5.49132   3.74233    0.001
 5397.00    5.66744   3.61509    0.001
 5398.00    4.59491   3.36110    0.001
 5399.00    3.49692   3.13401    0.001
 5400.00    3.57619   3.10244    0.001
 5401.00    3.66389   3.24881    0.001
 5402.00    3.96909   3.38305    0.001
 5403.00    4.30256   3.39616    0.001
 5404.00    5.01939   3.40254    0.001
 5405.00    5.57313   3.53668    0.001
 5406.00    4.65989   3.73691    0.001
 5407.00    3.79285   3.86068    0.001
 5408.00    3.23117   3.88939    0.001
 5409.00    2.93828   3.91756    0.001
 5410.00    4.02791   3.99949    0.001
 5411.00    4.89082   4.07724    0.001
 5412.00    4.81265   4.07163    0.001
 5413.00    4.70426   3.98589    0.001
 5414.00    4.49209   3.89843    0.001
 5415.00    4.31541   3.87698    0.001
 5416.00    4.24144   3.88592    0.001
 5417.00    4.30352   3.84205    0.001
 5418.00    4.70162   3.78750    0.001
 5419.00    4.95220   3.84274    0.001
 5420.00    4.88870   3.98342    0.001
 5421.00    4.55944   4.03060    0.001
 5422.00    3.73865   3.86265    0.001
 5423.00    3.24345   3.60146    0.001
 5424.00    3.27431   3.50010    0.001
 5425.00    3.50785   3.58029    0.001
 5426.00    4.02867   3.62378    0.001
 5427.00    4.31947   3.53738    0.001
 5428.00    4.32343   3.43292    0.001
 5429.00    4.45973   3.42462    0.001
 5430.00    4.74148   3.53597    0.001
 5431.00    4.32059   3.73282    0.001
 5432.00    3.21849   3.95569    0.001
 5433.00    2.60602   4.13477    0.001
 5434.00    2.41216   4.23197    0.001
 5435.00    3.13431   4.26148    0.001
 5436.00    4.54619   4.25222    0.001
 5437.00    4.71567   4.19471    0.001
 5438.00    4.06315   4.03872    0.001
 5439.00    3.47430   3.77125    0.001
 5440.00    2.92232   3.50134    0.001
 5441.00    3.24768   3.41500    0.001
 5442.00    4.01592   3.56802    0.001
 5443.00    4.82187   3.80170    0.001
 5444.00    5.64430   3.94260    0.001
 5445.00    5.71472   3.95804    0.001
 5446.00    5.50312   3.89032    0.001
 5447.00    4.56835   3.75584    0.001
 5448.00    3.40349   3.56464    0.001
 5449.00    3.61549   3.41380    0.001
 5450.00    4.19353   3.44796    0.001
 5451.00    4.48399   3.66568    0.001
 5452.00    4.71192   3.89085    0.001
 5453.00    5.09453   3.97455    0.001
 5454.00    5.50387   3.91741    0.001
 5455.00    5.39534   3.79885    0.001
 5456.00    5.21890   3.68493    0.001
 5457.00    4.26216   3.64012    0.001
 5458.00    3.23332   3.70277    0.001
 5459.00    4.16401   3.80663    0.001
 5460.00    5.20483   3.86746    0.001
 5461.00    4.57485   3.89139    0.001
 5462.00    3.91615   3.89395    0.001
 5463.00    4.15371   3.85287    0.001
 5464.00    4.39144   3.79110    0.001
 5465.00    4.63340   3.75842    0.001
 5466.00    4.86059   3.73447    0.001
 5467.00    4.89806   3.68290    0.001
 5468.00    4.88797   3.61658    0.001
 5469.00    4.46625   3.52038    0.001
 5470.00    4.11266   3.40192    0.001
 5471.00    4.19575   3.39326    0.001
 5472.00    4.25824   3.55287    0.001
 5473.00    4.21747   3.70544    0.001
 5474.00    4.26613   3.68583    0.001
 5475.00    4.67779   3.57654    0.001
 5476.00    5.01358   3.56266    0.001
 5477.00    5.09401   3.69068    0.001
 5478.00    5.14304   3.86603   -2.000
 5479.00    5.10287   3.96329   -2.000
 5480.00    4.97939   3.91625   -2.000
 5481.00    4.65364   3.79446   -2.000
 5482.00    4.40689   3.73289   -2.000
 5483.00    4.32561   3.76161   -2.000
 5484.00    3.94869   3.82078   -2.000
 5485.00    3.03336   3.87164   -2.000
 5486.00    3.57362   3.88534   -2.000
 5487.00    6.43086   3.85885   -2.000
 5488.00    6.70630   3.84560   -2.000
 5489.00    3.37506   3.85386   -2.000
 5490.00    1.51844   3.82835   -2.000
 5491.00    1.47467   3.79637   -2.000
 5492.00    2.67074   3.84514   -2.000
 5493.00    5.21043   3.93069   -2.000
 5494.00    6.21168   3.92189   -2.000
 5495.00    5.74235   3.82027   -2.000
 5496.00    5.25283   3.74396   -2.000
 5497.00    4.74628   3.73883   -2.000
 5498.00    4.49297   3.73976   -2.000
 5499.00    4.42760   3.68899   -2.000
 5500.00    4.32854   3.63833   -2.000
 5501.00    4.20751   3.68338   -2.000
 5502.00    4.17870   3.79660    0.001
 5503.00    4.20252   3.85709    0.001
 5504.00    4.12775   3.80983    0.001
 5505.00    4.00400   3.68567    0.001
 5506.00    3.70682   3.56043    0.001
 5507.00    3.33511   3.51049    0.001
 5508.00    3.52915   3.54603    0.001
 5509.00    3.93160   3.62713    0.001
 5510.00    4.49221   3.73165    0.001
 5511.00    5.10219   3.86405    0.001
 5512.00    5.11261   3.99944    0.001
 5513.00    4.96701   4.07478    0.001
 5514.00    4.09918   4.07347    0.001
 5515.00    3.07802   4.04597    0.001
 5516.00    3.19547   4.03215    0.001
 5517.00    3.50408   4.02548    0.001
 5518.00    3.77418   4.00044    0.001
 5519.00    4.03940   3.93546    0.001
 5520.00    4.38662   3.81854    0.001
 5521.00    4.74107   3.67778    0.001
 5522.00    4.83720   3.61260    0.001
 5523.00    4.91984   3.69566    0.001
 5524.00    4.64450   3.85014    0.001
 5525.00    4.36505   3.94385    0.001
 5526.00    4.28070   3.94933    0.001
 5527.00    4.14983   3.91621    0.001
 5528.00    3.01752   3.87740    0.001
 5529.00    1.98119   3.85522    0.001
 5530.00    2.11555   3.86362    0.001
 5531.00    2.26167   3.88544    0.001
 5532.00    2.50581   3.92041    0.001
 5533.00    2.79336   3.99111    0.001
 5534.00    3.35097   4.07345    0.001
 5535.00    3.91895   4.10299    0.001
 5536.00    4.53759   4.05903    0.003
 5537.00    4.96967   3.99837   -1.000
 5538.00    4.66107   3.97408   -1.000
 5539.00    4.40917   3.97175   -1.000
 5540.00    4.34439   3.98513   -1.000
 5541.00    4.37569   4.04915   -1.000
 5542.00    4.67493   4.14795   -1.000
 5543.00    5.05556   4.21630   -1.000
 5544.00    5.63043   4.23048   -1.000
 5545.00    6.16567   4.20315    0.007
 5546.00    6.61920   4.14046    0.002
 5547.00    6.65116   4.06096    0.001
 5548.00    5.92715   4.00945    0.001
 5549.00    5.53252   4.00846    0.001
 5550.00    5.65444   4.02417    0.001
 5551.00    5.74591   4.02333    0.001
 5552.00    5.79549   4.02098    0.001
 5553.00    5.42926   4.02849    0.001
 5554.00    4.55910   4.01932    0.001
 5555.00    4.24914   3.97543    0.001
 5556.00    4.53772   3.92401    0.001
 5557.00    4.36099   3.90541    0.001
 5558.00    3.74570   3.90428    0.001
 5559.00    3.18607   3.87487    0.001
 5560.00    2.67270   3.83331    0.001
 5561.00    3.04577   3.82124    0.001
 5562.00    4.06728   3.82745    0.001
 5563.00    4.57627   3.84228    0.001
 5564.00    4.75605   3.88158    0.001
 5565.00    4.73420   3.90151    0.001
 5566.00    4.59906   3.86581    0.001
 5567.00    4.75236   3.85745    0.001
 5568.00    5.04671   3.92430    0.001
 5569.00    5.15701   3.98892    0.001
 5570.00    5.18955   4.01376    0.001
 5571.00    4.76092   4.02857    0.001
 5572.00    4.16543   4.03794    0.001
 5573.00    4.24661   4.04574    0.001
 5574.00    4.53485   4.05292    0.001
 5575.00    4.41008   4.03559    0.001
 5576.00    4.18014   3.99867    0.001
 5577.00    4.18271   3.95647    0.001
 5578.00    4.23344   3.87972    0.001
 5579.00    5.10317   3.74096    0.001
 5580.00    6.10648   3.56693    0.001
 5581.00    6.01631   3.43027    0.001
 5582.00    5.79255   3.39293    0.001
 5583.00    4.89310   3.45859    0.001
 5584.00    3.93688   3.58006    0.001
 5585.00    4.39948   3.68659    0.001
 5586.00    4.93072   3.73405    0.001
 5587.00    5.44801   3.74474    0.001
 5588.00    5.94984   3.79081    0.001
 5589.00    5.54757   3.90914    0.001
 5590.00    5.12330   4.00882    0.001
 5591.00    4.26220   3.97508    0.001
 5592.00    3.47273   3.85117    0.001
 5593.00    3.51491   3.75051    0.001
 5594.00    3.58166   3.68638    0.001
 5595.00    3.84583   3.63217    0.001
 5596.00    4.14086   3.62550    0.001
 5597.00    4.62229   3.72296    0.001
 5598.00    5.09123   3.90850    0.001
 5599.00    5.50058   4.09414    0.001
 5600.00    5.65006   4.20811    0.001
 5601.00    4.79011   4.23952    0.001
 5602.00    4.21807   4.22073    0.001
 5603.00    4.57756   4.19720    0.001
 5604.00    5.00663   4.20146    0.001
 5605.00    5.62627   4.23135    0.001
 5606.00    5.87668   4.22858    0.001
 5607.00    5.26071   4.10073    0.001
 5608.00    4.80901   3.83860    0.001
 5609.00    4.69056   3.61169    0.001
 5610.00    4.86755   3.59902    0.001
 5611.00    5.56626   3.74020    0.001
 5612.00    5.70304   3.84904    0.001
 5613.00    4.97152   3.88022    0.001
 5614.00    4.36020   3.91205    0.001
 5615.00    3.91199   3.96718    0.001
 5616.00    3.86441   3.96452    0.001
 5617.00    4.29551   3.84431    0.001
 5618.00    4.44536   3.68863    0.001
 5619.00    4.29890   3.64616    0.001
 5620.00    4.39835   3.74066    0.001
 5621.00    4.72629   3.87365    0.001
 5622.00    4.97857   3.98931    0.001
 5623.00    5.16887   4.09097    0.001
 5624.00    5.16416   4.16056    0.001
 5625.00    5.01884   4.17579    0.001
 5626.00    4.64101   4.14532    0.001
 5627.00    4.11602   4.08877    0.001
 5628.00    3.93260   4.01908    0.001
 5629.00    3.93817   3.94625    0.001
 5630.00    4.20083   3.88484    0.001
 5631.00    4.58721   3.86148    0.001
 5632.00    4.82591   3.88650    0.001
 5633.00    5.00326   3.91603    0.001
 5634.00    5.06216   3.89914    0.001
 5635.00    5.07897   3.85928    0.001
 5636.00    4.45080   3.85596    0.001
 5637.00    3.62914   3.89173    0.001
 5638.00    3.43142   3.93509    0.001
 5639.00    3.38911   3.97551    0.001
 5640.00    3.59714   4.01067    0.001
 5641.00    3.85575   4.02841    0.001
 5642.00    3.85161   4.01824    0.001
 5643.00    3.80586   4.00387    0.001
 5644.00    3.67333   4.03036    0.001
 5645.00    3.53057   4.09563    0.001
 5646.00    3.60190   4.13500    0.001
 5647.00    3.69034   4.09796    0.001
 5648.00    3.71371   4.02070    0.001
 5649.00    3.73418   3.97620    0.001
 5650.00    3.88970   3.93553    0.001
 5651.00    4.04245   3.81197    0.001
 5652.00    3.98527   3.67381    0.001
 5653.00    3.94812   3.67421    0.001
 5654.00    4.28009   3.77645    0.001
 5655.00    4.55202   3.82876    0.001
 5656.00    4.15916   3.83148    0.001
 5657.00    3.77704   3.88720    0.001
 5658.00    3.47828   3.99830    0.001
 5659.00    3.26879   4.07253    0.001
 5660.00    3.58343   4.05762    0.001
 5661.00    3.80058   3.99455    0.001
 5662.00    3.56424   3.95600    0.001
 5663.00    3.41632   3.96397    0.001
 5664.00    3.60452   4.00241    0.001
 5665.00    3.71360   4.07406    0.001
 5666.00    3.57165   4.17658    0.001
 5667.00    3.46578   4.25679    0.001
 5668.00    3.45695   4.27302    0.001
 5669.00    3.51635   4.26318    0.001
 5670.00    3.73318   4.27249    0.001
 5671.00    4.09272   4.27497    0.001
 5672.00    4.73722   4.24000    0.001
 5673.00    5.15324   4.19082    0.001
 5674.00    5.17192   4.14085    0.001
 5675.00    5.00887   4.06820    0.001
 5676.00    4.56911   3.99564    0.001
 5677.00    4.09250   3.98935    0.001
 5678.00    3.56657   4.03926    0.001
 5679.00    3.29504   4.05286    0.001
 5680.00    3.32316   3.99140    0.001
 5681.00    3.85606   3.92404    0.001
 5682.00    4.91326   3.93214    0.001
 5683.00    5.28852   4.02030    0.001
 5684.00    5.03903   4.13624    0.001
 5685.00    4.92478   4.23547    0.001
 5686.00    4.91976   4.29477    0.001
 5687.00    4.95357   4.29916    0.001
 5688.00    5.01497   4.26560    0.001
 5689.00    4.75447   4.23362    0.001
 5690.00    4.29327   4.20389    0.001
 5691.00    3.99224   4.14406    0.001
 5692.00    3.77848   4.06187    0.001
 5693.00    3.64408   3.99114    0.001
 5694.00    3.54724   3.92729    0.001
 5695.00    3.44272   3.87392    0.001
 5696.00    3.33507   3.87881    0.001
 5697.00    3.43630   3.94696    0.001
 5698.00    3.61040   4.00020    0.001
 5699.00    3.93815   3.96663    0.001
 5700.00    4.31107   3.86053    0.001
 5701.00    4.65135   3.74472    0.001
 5702.00    4.98369   3.66653    0.001
 5703.00    4.85550   3.65047    0.001
 5704.00    4.63662   3.68348    0.001
 5705.00    4.06350   3.73941    0.001
 5706.00    3.43596   3.83814    0.001
 5707.00    3.11033   3.98308    0.001
 5708.00    2.81892   4.11295    0.001
 5709.00    2.90518   4.18950    0.001
 5710.00    3.02005   4.22437    0.001
 5711.00    3.89035   4.23820    0.001
 5712.00    4.79137   4.25560    0.001
 5713.00    4.63444   4.28876    0.001
 5714.00    4.45521   4.33218    0.001
 5715.00    3.69484   4.38352    0.001
 5716.00    2.99539   4.43133    0.001
 5717.00    3.34260   4.45050    0.001
 5718.00    3.67605   4.42531    0.001
 5719.00    3.86398   4.35030    0.001
 5720.00    4.01806   4.24831    0.001
 5721.00    3.91837   4.19500    0.001
 5722.00    3.83301   4.23155    0.001
 5723.00    3.82940   4.27737    0.001
 5724.00    3.92986   4.24566    0.001
 5725.00    4.50304   4.18835    0.001
 5726.00    4.93986   4.20729    0.001
 5727.00    4.86920   4.29373    0.001
 5728.00    4.87635   4.36169    0.001
 5729.00    5.12566   4.36799    0.001
 5730.00    5.29245   4.33369    0.001
 5731.00    5.24117   4.30017    0.001
 5732.00    5.20453   4.28937    0.001
 5733.00    5.20112   4.29400    0.001
 5734.00    5.18553   4.29533    0.001
 5735.00    5.14602   4.28047    0.001
 5736.00    5.00884   4.26230    0.001
 5737.00    4.70438   4.28043    0.001
 5738.00    4.53828   4.34619    0.001
 5739.00    4.57974   4.39912    0.001
 5740.00    4.72816   4.36527    0.000
 5741.00    5.01761   4.26470    0.000
 5742.00    4.87700   4.20989    0.000
 5743.00    4.23695   4.25812    0.000
 5744.00    3.90992   4.32357    0.000
 5745.00    3.90344   4.29068    0.000
 5746.00    4.25758   4.15884    0.000
 5747.00    4.93746   4.04096    0.000
 5748.00    4.98344   4.04965    0.000
 5749.00    4.52480   4.18644    0.000
 5750.00    4.48406   4.34681    0.000
 5751.00    4.73597   4.43017    0.000
 5752.00    4.76941   4.40552    0.000
 5753.00    4.66866   4.29424    0.000
 5754.00    4.56048   4.14482    0.000
 5755.00    4.44831   4.02314    0.000
 5756.00    4.29341   4.00094    0.000
 5757.00    4.11860   4.10873    0.000
 5758.00    3.98386   4.28209    0.000
 5759.00    3.86521   4.41585    0.000
 5760.00    3.85492   4.47343    0.000
 5761.00    3.88175   4.48182    0.000
 5762.00    4.25232   4.46365    0.000
 5763.00    4.72195   4.42868    0.000
 5764.00    4.77694   4.38604    0.000
 5765.00    4.73318   4.34414    0.000
 5766.00    4.76949   4.31435    0.000
 5767.00    4.82117   4.30081    0.000
 5768.00    4.75292   4.30368    0.000
 5769.00    4.66680   4.33022    0.000
 5770.00    4.59568   4.36886    0.000
 5771.00    4.52619   4.38090    0.000
 5772.00    4.72575   4.32561    0.000
 5773.00    4.94460   4.17859    0.000
 5774.00    4.84253   3.97824    0.000
 5775.00    4.72863   3.83372    0.000
 5776.00    4.99990   3.80265    0.000
 5777.00    5.26906   3.81525    0.000
 5778.00    5.40531   3.80464    0.000
 5779.00    5.50848   3.82629    0.000
 5780.00    5.07965   3.94508    0.000
 5781.00    4.66898   4.10833    0.000
 5782.00    4.44215   4.21861    0.000
 5783.00    4.24048   4.23518    0.000
 5784.00    4.22101   4.19839    0.000
 5785.00    4.22496   4.19607    0.000
 5786.00    4.35887   4.26533    0.000
 5787.00    4.48897   4.36425    0.000
 5788.00    4.60212   4.43704    0.000
 5789.00    4.52873   4.43823    0.000
 5790.00    3.77556   4.35783    0.000
 5791.00    3.11187   4.27414   -2.000
 5792.00    2.72138   4.29680   -2.000
 5793.00    2.71726   4.42555   -2.000
 5794.00    3.71631   4.55695   -2.000
 5795.00    4.42886   4.61432   -2.000
 5796.00    4.50197   4.58096   -2.000
 5797.00    4.54729   4.47719   -2.000
 5798.00    4.53883   4.36910   -2.000
 5799.00    4.54400   4.32081   -2.000
 5800.00    4.57213   4.33257   -2.000
 5801.00    4.49434   4.36568   -2.000
 5802.00    4.25994   4.39802   -2.000
 5803.00    4.19617   4.43198   -2.000
 5804.00    4.35414   4.46488   -2.000
 5805.00    4.35963   4.48101   -2.000
 5806.00    4.19055   4.47136   -2.000
 5807.00    4.34356   4.42870   -2.000
 5808.00    4.82178   4.34924   -2.000
 5809.00    4.98532   4.26986   -2.000
 5810.00    4.86862   4.26197   -2.000
 5811.00    4.69819   4.35081    0.000
 5812.00    4.48562   4.47573    0.000
 5813.00    4.18445   4.56109    0.000
 5814.00    3.82215   4.58312    0.000
 5815.00    3.66958   4.55902    0.000
 5816.00    3.64391   4.52157    0.000
 5817.00    4.10432   4.50252    0.000
 5818.00    4.82144   4.51091    0.000
 5819.00    5.30484   4.52731    0.000
 5820.00    5.68114   4.53405    0.000
 5821.00    5.60547   4.53822    0.000
 5822.00    5.35152   4.55361    0.000
 5823.00    5.21789   4.57010    0.000
 5824.00    5.12470   4.56754    0.000
 5825.00    5.27784   4.54918    0.000
 5826.00    5.50052   4.52225    0.000
 5827.00    5.47664   4.48035    0.000
 5828.00    5.39536   4.44299    0.000
 5829.00    4.70940   4.44494    0.000
 5830.00    3.91043   4.46448    0.000
 5831.00    3.83869   4.45749    0.000
 5832.00    3.87187   4.44895    0.000
 5833.00    3.82270   4.48833    0.000
 5834.00    3.76491   4.56207    0.000
 5835.00    3.73089   4.62150    0.000
 5836.00    3.69848   4.64193    0.000
 5837.00    4.55835   4.62046    0.000
 5838.00    5.44772   4.56214    0.000
 5839.00    4.95778   4.48253    0.000
 5840.00    4.46149   4.40628    0.000
 5841.00    3.79300   4.36345    0.000
 5842.00    3.19261   4.36509    0.000
 5843.00    3.62109   4.38434    0.000
 5844.00    4.03872   4.37504    0.000
 5845.00    4.35100   4.31168    0.000
 5846.00    4.60727   4.22550    0.000
 5847.00    4.47072   4.18474    0.000
 5848.00    4.36511   4.19791    0.000
 5849.00    4.42663   4.18395    0.000
 5850.00    4.45342   4.09499    0.000
 5851.00    4.32971   4.00714    0.000
 5852.00    4.19091   4.01973    0.000
 5853.00    3.99826   4.12338    0.000
 5854.00    3.91752   4.22989    0.000
 5855.00    4.17204   4.27325    0.000
 5856.00    4.38427   4.26982    0.000
 5857.00    4.48860   4.27444    0.000
 5858.00    4.43896   4.28761    0.000
 5859.00    4.05135   4.27029    0.000
 5860.00    3.74562   4.24263    0.000
 5861.00    3.59583   4.27006    0.000
 5862.00    3.56887   4.35505    0.000
 5863.00    3.74602   4.43398    0.000
 5864.00    3.95787   4.45784    0.000
 5865.00    4.22026   4.42859    0.000
 5866.00    4.25872   4.38613    0.000
 5867.00    4.01030   4.37712    0.000
 5868.00    4.03702   4.40114    0.000
 5869.00    4.37433   4.40836    0.000
 5870.00    4.57632   4.37150    0.000
 5871.00    4.64361   4.30673    0.000
 5872.00    4.65221   4.23005    0.000
 5873.00    4.60930   4.15702    0.000
 5874.00    4.48498   4.12793    0.000
 5875.00    4.29771   4.15522    0.000
 5876.00    4.16405   4.18309    0.000
 5877.00    4.06687   4.17148    0.000
 5878.00    3.88811   4.14644    0.000
 5879.00    3.66074   4.10842    0.000
 5880.00    3.62436   3.96491    0.000
 5881.00    3.68728   3.60587    0.000
 5882.00    4.16053   3.06452    0.000
 5883.00    4.81873   2.61013    0.000
 5884.00    4.95975   2.54033    0.000
 5885.00    4.90028   2.83109    0.000
 5886.00    4.64263   3.16497    0.000
 5887.00    4.31963   3.26537    0.000
 5888.00    4.61083   3.09043    0.000
 5889.00    5.07189   2.86786    0.000
 5890.00    5.17016   2.90836    0.000
 5891.00    5.18593   3.23933    0.000
 5892.00    4.62749   3.61634    0.000
 5893.00    3.96460   3.88119    0.000
 5894.00    3.49882   4.04772    0.000
 5895.00    3.06059   4.14971    0.000
 5896.00    3.17851   4.20215    0.000
 5897.00    3.35224   4.22010    0.000
 5898.00    3.27814   4.21139    0.000
 5899.00    3.18828   4.19695    0.000
 5900.00    3.50274   4.20996    0.000
 5901.00    3.82924   4.25143    0.001
 5902.00    4.22241   4.29155    0.001
 5903.00    4.58371   4.31727    0.001
 5904.00    4.04619   4.33704    0.001
 5905.00    3.53895   4.33702    0.001
 5906.00    3.46303   4.28326    0.001
 5907.00    3.44175   4.18368    0.001
 5908.00    3.92937   4.10037    0.001
 5909.00    4.33266   4.08354    0.001
 5910.00    4.16318   4.13267    0.001
 5911.00    3.99803   4.21137    0.001
 5912.00    3.85569   4.28081    0.001
 5913.00    3.72501   4.32261    0.001
 5914.00    3.64373   4.32787    0.001
 5915.00    3.54529   4.30449    0.001
 5916.00    3.38685   4.28999    0.001
 5917.00    3.25692   4.30971    0.001
 5918.00    3.21085   4.34978    0.001
 5919.00    3.12952   4.38287    0.001
 5920.00    2.95980   4.38379    0.001
 5921.00    2.76977   4.33997    0.001
 5922.00    2.53585   4.26990    0.001
 5923.00    2.53396   4.22495    0.001
 5924.00    2.96708   4.25249    0.001
 5925.00    3.36515   4.32658    0.001
 5926.00    3.70584   4.35764    0.001
 5927.00    3.83950   4.30888    0.001
 5928.00    3.67597   4.24904    0.001
 5929.00    3.52896   4.25563    0.001
 5930.00    3.40282   4.31786    0.001
 5931.00    3.43978   4.38054    0.001
 5932.00    3.65823   4.41194    0.001
 5933.00    3.96017   4.39010    0.001
 5934.00    4.34406   4.31932    0.001
 5935.00    4.68192   4.26119    0.001
 5936.00    4.97993   4.27136    0.001
 5937.00    5.11158   4.33993    0.001
 5938.00    5.11639   4.42155    0.001
 5939.00    4.97779   4.47237    0.001
 5940.00    4.74307   4.45916    0.001
 5941.00    4.53693   4.38374    0.001
 5942.00    4.34757   4.30532    0.001
 5943.00    3.88095   4.28932    0.001
 5944.00    3.27243   4.31731    0.001
 5945.00    3.07679   4.31329    0.001
 5946.00    3.06423   4.27402    0.001
 5947.00    3.35075   4.26788    0.001
 5948.00    3.75119   4.29797    0.001
 5949.00    4.02954   4.29738    0.001
 5950.00    4.26838   4.25758    0.001
 5951.00    4.25341   4.24257    0.001
 5952.00    4.16970   4.29055    0.001
 5953.00    4.25453   4.37816    0.001
 5954.00    4.37679   4.46072    0.001
 5955.00    5.10100   4.50705    0.001
 5956.00    5.93176   4.51175    0.001
 5957.00    5.65848   4.48587    0.001
 5958.00    5.23604   4.44266    0.001
 5959.00    4.60548   4.41017    0.001
 5960.00    3.95493   4.42303    0.001
 5961.00    3.92011   4.47412    0.001
 5962.00    3.92202   4.52592    0.001
 5963.00    3.70903   4.56323    0.001
 5964.00    3.49360   4.58676    0.001
 5965.00    3.75158   4.59193    0.001
 5966.00    4.00624   4.57528    0.001
 5967.00    4.17614   4.53118    0.001
 5968.00    4.32599   4.45146    0.001
 5969.00    4.20589   4.35314    0.001
 5970.00    4.07734   4.28176    0.001
 5971.00    3.87325   4.27199    0.001
 5972.00    3.69044   4.32246    0.001
 5973.00    3.64778   4.39983    0.001
 5974.00    3.59175   4.44923    0.001
 5975.00    3.46719   4.42254    0.001
 5976.00    3.37936   4.31950    0.001
 5977.00    3.44356   4.20652    0.001
 5978.00    3.54831   4.17362    0.001
 5979.00    3.79202   4.23738    0.001
 5980.00    4.00441   4.32779    0.001
 5981.00    4.12637   4.39373    0.001
 5982.00    4.29469   4.43876    0.001
 5983.00    4.57721   4.45897    0.001
 5984.00    4.60124   4.44494    0.001
 5985.00    4.07604   4.43223    0.001
 5986.00    3.78227   4.46655    0.001
 5987.00    3.91571   4.52673    0.001
 5988.00    4.05387   4.54548    0.001
 5989.00    4.19964   4.49288    0.001
 5990.00    4.14722   4.40155    0.001
 5991.00    3.81439   4.33398    0.001
 5992.00    3.67557   4.33081    0.001
 5993.00    3.77828   4.37538    0.001
 5994.00    3.96114   4.40997    0.001
 5995.00    4.23193   4.39693    0.001
 5996.00    4.33195   4.36473    0.001
 5997.00    4.26669   4.36234    0.001
 5998.00    4.21717   4.37318    0.001
 5999.00    4.18108   4.33697    0.001
 6000.00    3.83095   4.24865    0.001
 6001.00    3.24481   4.18255    0.001
 6002.00    3.05253   4.21864    0.001
 6003.00    3.12034   4.34045    0.001
 6004.00    3.31540   4.43119    0.001
 6005.00    3.58403   4.41189    0.001
 6006.00    3.64412   4.33170    0.001
 6007.00    3.59915   4.28587    0.001
 6008.00    3.74353   4.29273    0.001
 6009.00    3.97049   4.30151    0.001
 6010.00    4.11675   4.29354    0.001
 6011.00    4.23280   4.28993    0.001
 6012.00    4.17800   4.28433    0.001
 6013.00    4.06895   4.26235    0.001
 6014.00    4.09902   4.24861    0.001
 6015.00    4.16596   4.26846    0.001
 6016.00    4.35040   4.31050    0.001
 6017.00    4.56031   4.35914    0.001
 6018.00    4.59786   4.41124    0.001
 6019.00    4.60573   4.45511    0.001
 6020.00    4.33377   4.48395    0.001
 6021.00    4.02526   4.51671    0.001
 6022.00    4.19602   4.55834    0.001
 6023.00    4.41080   4.58309    0.001
 6024.00    4.82845   4.58802    0.001
 6025.00    5.25740   4.60014    0.001
 6026.00    4.85176   4.62625    0.001
 6027.00    4.42819   4.64612    0.001
 6028.00    4.03779   4.65104    0.001
 6029.00    3.67628   4.65132    0.001
 6030.00    3.98537   4.65241    0.001
 6031.00    4.28393   4.64533    0.001
 6032.00    4.44795   4.62156    0.001
 6033.00    4.56428   4.59031    0.001
 6034.00    4.26976   4.57252    0.001
 6035.00    4.03017   4.58356    0.001
 6036.00    4.14133   4.62375    0.001
 6037.00    4.17590   4.67622    0.001
 6038.00    3.82782   4.71784    0.001
 6039.00    3.52139   4.74023    0.001
 6040.00    3.38354   4.74366    0.001
 6041.00    3.33210   4.72867    0.001
 6042.00    3.57078   4.71359    0.001
 6043.00    3.73173   4.71853    0.001
 6044.00    3.67240   4.72682    0.001
 6045.00    3.67844   4.70364    0.001
 6046.00    3.84282   4.65105    0.001
 6047.00    3.98877   4.59743    0.001
 6048.00    4.09622   4.55327    0.001
 6049.00    4.10982   4.51588    0.001
 6050.00    3.95286   4.50054    0.001
 6051.00    3.85010   4.52763    0.001
 6052.00    3.83344   4.58769    0.001
 6053.00    3.90975   4.64207    0.001
 6054.00    4.11572   4.65385    0.001
 6055.00    4.17627   4.61159    0.001
 6056.00    4.05836   4.52695    0.001
 6057.00    3.96042   4.42487    0.001
 6058.00    3.88405   4.35763    0.001
 6059.00    4.06822   4.39442    0.001
 6060.00    4.50099   4.53738    0.001
 6061.00    4.65619   4.69219    0.001
 6062.00    4.57787   4.77729    0.001
 6063.00    4.23820   4.80037    0.001
 6064.00    3.70492   4.80653    0.001
 6065.00    3.31214   4.81729    0.001
 6066.00    3.01079   4.82754    0.001
 6067.00    2.95599   4.82544    0.001
 6068.00    3.04161   4.80193    0.001
 6069.00    3.11637   4.75262    0.001
 6070.00    3.18574   4.67934    0.001
 6071.00    3.50817   4.59724    0.001
 6072.00    3.93910   4.53840    0.001
 6073.00    3.86520   4.51286    0.001
 6074.00    3.60575   4.48708    0.001
 6075.00    3.66409   4.45377    0.001
 6076.00    3.82136   4.45270    0.001
 6077.00    4.29591   4.48442    0.001
 6078.00    4.85279   4.50689    0.001
 6079.00    4.87392   4.51717    0.001
 6080.00    4.78166   4.54017    0.001
 6081.00    4.47392   4.56002    0.001
 6082.00    4.13014   4.53452    0.001
 6083.00    4.07738   4.46923    0.001
 6084.00    4.06130   4.42138    0.001
 6085.00    4.25683   4.42297    0.001
 6086.00    4.47090   4.46200    0.001
 6087.00    3.88192   4.52788    0.001
 6088.00    3.25136   4.59866    0.001
 6089.00    2.99661   4.62999    0.001
 6090.00    2.75572   4.61827    0.001
 6091.00    3.02766   4.61344    0.001
 6092.00    3.29076   4.63840    0.001
 6093.00    3.36541   4.63734    0.001
 6094.00    3.45149   4.52721    0.001
 6095.00    3.67619   4.32481    0.001
 6096.00    3.90329   4.19192    0.001
 6097.00    4.15030   4.25523    0.001
 6098.00    4.34836   4.43380    0.001
 6099.00    4.24299   4.56309    0.001
 6100.00    4.13050   4.59484    0.001
 6101.00    3.98327   4.59597    0.001
 6102.00    3.87543   4.62182    0.001
 6103.00    3.92349   4.64517    0.001
 6104.00    3.99120   4.63154    0.001
 6105.00    4.12361   4.62340    0.001
 6106.00    4.19848   4.66847    0.001
 6107.00    4.11327   4.72888    0.001
 6108.00    4.07840   4.73462    0.001
 6109.00    4.16344   4.68445    0.001
 6110.00    4.22971   4.63846    0.001
 6111.00    4.25736   4.61404    0.001
 6112.00    4.22976   4.55695    0.001
 6113.00    4.10327   4.43350    0.001
 6114.00    4.04115   4.28365    0.001
 6115.00    4.07983   4.19974    0.001
 6116.00    4.19754   4.26223    0.001
 6117.00    4.42389   4.42709    0.001
 6118.00    4.45228   4.55018    0.001
 6119.00    4.24118   4.56421    0.001
 6120.00    4.04113   4.51911    0.001
 6121.00    3.85284   4.48560    0.001
 6122.00    3.62219   4.50613    0.001
 6123.00    3.35169   4.58121    0.001
 6124.00    3.12079   4.66735    0.001
 6125.00    2.92276   4.71575    0.001
 6126.00    2.99818   4.69664    0.001
 6127.00    3.27327   4.58194    0.001
 6128.00    3.67855   4.35922    0.001
 6129.00    4.16729   4.08753    0.001
 6130.00    4.48058   3.92022    0.001
 6131.00    4.69548   3.99804    0.001
 6132.00    4.88600   4.26394    0.001
 6133.00    5.06462   4.49146    0.001
 6134.00    5.12529   4.55163    0.001
 6135.00    5.13621   4.53841    0.001
 6136.00    4.85052   4.58842    0.001
 6137.00    4.45775   4.69353    0.001
 6138.00    3.95325   4.76214    0.001
 6139.00    3.41464   4.75840    0.001
 6140.00    2.98612   4.70425    0.001
 6141.00    2.58555   4.62361    0.001
 6142.00    2.27128   4.53812    0.001
 6143.00    1.97483   4.48516    0.001
 6144.00    2.24990   4.49419    0.001
 6145.00    2.61785   4.54547    0.001
 6146.00    3.27126   4.57635    0.001
 6147.00    3.95938   4.54876    0.001
 6148.00    3.93780   4.49963    0.001
 6149.00    3.85697   4.48023    0.001
 6150.00    3.51530   4.48134    0.001
 6151.00    3.16114   4.46060    0.001
 6152.00    2.94245   4.37328    0.001
 6153.00    2.73421   4.17438    0.001
 6154.00    3.01575   3.89175    0.001
 6155.00    3.30766   3.67517    0.001
 6156.00    3.80362   3.66381    0.001
 6157.00    4.27163   3.83521    0.001
 6158.00    4.41716   4.04962    0.001
 6159.00    4.54422   4.20169    0.001
 6160.00    4.52347   4.26119    0.001
 6161.00    4.46839   4.20834    0.001
 6162.00    4.20664   4.07384    0.001
 6163.00    3.92473   3.99925    0.001
 6164.00    3.54702   4.08227    0.001
 6165.00    3.23027   4.23667    0.001
 6166.00    3.14962   4.33472    0.001
 6167.00    3.18238   4.36684    0.001
 6168.00    3.58117   4.37357    0.001
 6169.00    3.89051   4.36777    0.001
 6170.00    3.95546   4.36969    0.001
 6171.00    4.00896   4.40156    0.001
 6172.00    4.03565   4.43976    0.001
 6173.00    4.05229   4.45865    0.001
 6174.00    4.04854   4.48030    0.001
 6175.00    4.04496   4.51480    0.001
 6176.00    4.04165   4.53448    0.001
 6177.00    4.02037   4.52298    0.001
 6178.00    3.97138   4.47454    0.001
 6179.00    3.85755   4.38826    0.001
 6180.00    3.65591   4.29782    0.001
 6181.00    3.41726   4.23920    0.001
 6182.00    3.13449   4.19352    0.001
 6183.00    3.04118   4.10901    0.001
 6184.00    3.14712   4.00374    0.001
 6185.00    3.04986   3.99510    0.001
 6186.00    2.76412   4.13189    0.001
 6187.00    2.64968   4.30959    0.001
 6188.00    2.67532   4.43096    0.001
 6189.00    2.92371   4.49305    0.001
 6190.00    3.33240   4.50366    0.001
 6191.00    3.57042   4.44016    0.001
 6192.00    3.70061   4.32209    0.001
 6193.00    3.69708   4.24841    0.001
 6194.00    3.61970   4.29376    0.001
 6195.00    2.90867   4.41158    0.001
 6196.00    1.89336   4.50295   -2.000
 6197.00    1.63082   4.53032   -2.000
 6198.00    1.68032   4.52558   -2.000
 6199.00    2.68405   4.52417   -2.000
 6200.00    4.02601   4.52815   -2.000
 6201.00    4.64499   4.52532   -2.000
 6202.00    5.04761   4.50677   -2.000
 6203.00    4.76079   4.46565   -2.000
 6204.00    4.30272   4.39890   -2.000
 6205.00    4.25487   4.29560   -2.000
 6206.00    4.28963   4.15121   -2.000
 6207.00    4.07476   4.01371   -2.000
 6208.00    3.82051   3.95276    0.001
 6209.00    3.69697   3.98816    0.001
 6210.00    3.58875   4.07438    0.001
 6211.00    3.85780   4.12852    0.001
 6212.00    4.15679   4.10940    0.001
 6213.00    4.51674   4.06947    0.001
 6214.00    4.87938   4.08151    0.001
 6215.00    4.67766   4.14436    0.001
 6216.00    4.46674   4.19908    0.001
 6217.00    4.11172   4.21891    0.001
 6218.00    3.78200   4.23611    0.001
 6219.00    3.91426   4.26865    0.001
 6220.00    4.05936   4.28527    0.001
 6221.00    4.34569   4.24069    0.001
 6222.00    4.60916   4.11131    0.001
 6223.00    4.69608   3.94441    0.001
 6224.00    4.77650   3.85507    0.001
 6225.00    4.81892   3.90936    0.001
 6226.00    4.83371   4.06807    0.001
 6227.00    4.72034   4.25598    0.001
 6228.00    4.62243   4.39949    0.001
 6229.00    4.58313   4.44639    0.001
 6230.00    4.46937   4.39782    0.001
 6231.00    4.11995   4.29176    0.001
 6232.00    3.77813   4.17303    0.001
 6233.00    3.45672   4.08966    0.001
 6234.00    3.28623   4.05807    0.001
 6235.00    3.46327   4.03020    0.001
 6236.00    3.72262   3.98251    0.001
 6237.00    4.14597   3.96556    0.001
 6238.00    4.34808   4.00494    0.001
 6239.00    4.16617   4.08486    0.001
 6240.00    3.91998   4.19907    0.001
 6241.00    3.57614   4.31240    0.001
 6242.00    3.28905   4.36159    0.001
 6243.00    3.07774   4.32220    0.001
 6244.00    2.94083   4.21253    0.001
 6245.00    2.89140   4.08101    0.001
 6246.00    2.97477   3.99506    0.001
 6247.00    3.19581   3.97581    0.001
 6248.00    3.29152   3.97043    0.001
 6249.00    3.27260   3.92060    0.001
 6250.00    3.31222   3.83623    0.001
 6251.00    3.39903   3.79158    0.001
 6252.00    3.53164   3.85240    0.001
 6253.00    3.69674   4.00069    0.001
 6254.00    3.80840   4.16404    0.001
 6255.00    3.88679   4.30079    0.001
 6256.00    3.95308   4.38146    0.001
 6257.00    4.01277   4.37105    0.001
 6258.00    3.96371   4.30541    0.001
 6259.00    3.86325   4.27560    0.001
 6260.00    4.20060   4.30071    0.001
 6261.00    4.71635   4.32101    0.001
 6262.00    5.83119   4.31179    0.001
 6263.00    7.15450   4.30812    0.001
 6264.00    7.29977   4.33603    0.001
 6265.00    7.09949   4.38102    0.001
 6266.00    5.76497   4.41023    0.001
 6267.00    4.15492   4.41120    0.001
 6268.00    3.63906   4.40505    0.001
 6269.00    3.33797   4.41069    0.001
 6270.00    3.45953   4.41921    0.001
 6271.00    3.64578   4.40692    0.001
 6272.00    3.78303   4.35660    0.001
 6273.00    3.91475   4.28914    0.001
 6274.00    4.31055   4.26162    0.001
 6275.00    4.72623   4.30315    0.001
 6276.00    4.56086   4.38215    0.001
 6277.00    4.37213   4.44409    0.001
 6278.00    4.04224   4.47209    0.001
 6279.00    3.71622   4.49981    0.001
 6280.00    3.58894   4.55259    0.000
 6281.00    3.47512   4.60885    0.000
 6282.00    3.59052   4.62536    0.000
 6283.00    3.70603   4.58199    0.000
 6284.00    3.82266   4.50542    0.000
 6285.00    3.86197   4.44379    0.000
 6286.00    3.32430   4.42550    0.000
 6287.00    2.82422   4.43289    0.000
 6288.00    2.53795   4.40971    0.000
 6289.00    2.36760   4.33480    0.000
 6290.00    2.72220   4.26703    0.000
 6291.00    3.11772   4.26740    0.000
 6292.00    3.66513   4.31026    0.000
 6293.00    4.03841   4.31942    0.000
 6294.00    3.87101   4.27782    0.000
 6295.00    3.69264   4.24989    0.000
 6296.00    3.48533   4.28236    0.000
 6297.00    3.29719   4.34422    0.000
 6298.00    3.15246   4.39785    0.000
 6299.00    3.13046   4.46138    0.000
 6300.00    3.34917   4.55018    0.000
 6301.00    3.65019   4.61958    0.000
 6302.00    4.09196   4.61490    0.000
 6303.00    4.24088   4.54111    0.000
 6304.00    3.95129   4.45726    0.000
 6305.00    3.64641   4.41302    0.000
 6306.00    3.32142   4.39534    0.000
 6307.00    3.29534   4.36088    0.000
 6308.00    3.61577   4.31322    0.000
 6309.00    3.71245   4.27674    0.000
 6310.00    3.58042   4.23543    0.000
 6311.00    3.35795   4.19485    0.000
 6312.00    3.05394   4.21350    0.000
 6313.00    2.78218   4.29995    0.000
 6314.00    2.53606   4.38781    0.000
 6315.00    2.39670   4.44082    0.000
 6316.00    2.33199   4.48597    0.000
 6317.00    2.54645   4.53877    0.000
 6318.00    2.93207   4.57710    0.000
 6319.00    3.26456   4.58655    0.000
 6320.00    3.56861   4.58744    0.000
 6321.00    3.60833   4.60091    0.001
 6322.00    3.52517   4.61007    0.001
 6323.00    3.43367   4.60060    0.001
 6324.00    3.33884   4.59989    0.001
 6325.00    3.02388   4.62155    0.001
 6326.00    2.63372   4.61422    0.001
 6327.00    2.53314   4.51849    0.001
 6328.00    2.51579   4.36803    0.001
 6329.00    2.69597   4.27621    0.001
 6330.00    2.92306   4.30026    0.001
 6331.00    3.30254   4.38639    0.001
 6332.00    3.71118   4.47039    0.001
 6333.00    3.71263   4.53405    0.001
 6334.00    3.65369   4.55538    0.001
 6335.00    3.42778   4.50645    0.001
 6336.00    3.18377   4.41519    0.001
 6337.00    3.12095   4.36443    0.001
 6338.00    3.07103   4.40005    0.001
 6339.00    3.21092   4.48399    0.001
 6340.00    3.35772   4.55894    0.001
 6341.00    3.16221   4.60638    0.001
 6342.00    2.97072   4.63142    0.001
 6343.00    2.96578   4.64307    0.001
 6344.00    2.97011   4.64782    0.001
 6345.00    3.12241   4.63191    0.001
 6346.00    3.27171   4.57143    0.001
 6347.00    3.39084   4.48190    0.001
 6348.00    3.49822   4.41884    0.001
 6349.00    3.52079   4.39557    0.002
 6350.00    3.56880   4.35559   -1.000
 6351.00    3.75758   4.26834   -1.000
 6352.00    3.94588   4.17865   -1.000
 6353.00    4.13204   4.12480   -1.000
 6354.00    4.26432   4.09450   -1.000
 6355.00    4.20076   4.08466   -1.000
 6356.00    4.12682   4.12081   -1.000
 6357.00    4.02126   4.20695   -1.000
 6358.00    3.88296   4.31432   -1.000
 6359.00    3.65983   4.42087   -1.000
 6360.00    3.41098   4.52161    0.006
 6361.00    3.10482   4.59936    0.001
 6362.00    2.89550   4.63208    0.001
 6363.00    2.87313   4.63763    0.001
 6364.00    2.91031   4.66294    0.001
 6365.00    3.04779   4.71730    0.001
 6366.00    3.13834   4.76029    0.001
 6367.00    3.15964   4.76541    0.001
 6368.00    3.14548   4.75258    0.001
 6369.00    3.08531   4.73960    0.001
 6370.00    3.10252   4.70928    0.001
 6371.00    3.20817   4.65420    0.001
 6372.00    3.27659   4.60520    0.001
 6373.00    3.30747   4.59080    0.001
 6374.00    3.30565   4.60954    0.001
 6375.00    3.27476   4.63828    0.001
 6376.00    3.29932   4.65057    0.001
 6377.00    3.36733   4.64768    0.001
 6378.00    3.47453   4.65996    0.001
 6379.00    3.60874   4.69655    0.001
 6380.00    3.56540   4.73077    0.001
 6381.00    3.41483   4.74750    0.001
 6382.00    3.33540   4.75492    0.001
 6383.00    3.29347   4.74049    0.001
 6384.00    3.38852   4.66371    0.001
 6385.00    3.54620   4.52399    0.001
 6386.00    3.52285   4.41019    0.001
 6387.00    3.42825   4.42266    0.001
 6388.00    3.35639   4.55160    0.001
 6389.00    3.29217   4.68886    0.001
 6390.00    3.22243   4.73372    0.001
 6391.00    3.15113   4.64788    0.001
 6392.00    3.01170   4.48544    0.001
 6393.00    2.85646   4.39366    0.001
 6394.00    2.81913   4.47259    0.001
 6395.00    2.80376   4.65018    0.001
 6396.00    2.73806   4.78598    0.001
 6397.00    2.66513   4.82695    0.001
 6398.00    2.94491   4.79571    0.001
 6399.00    3.26141   4.71792    0.001
 6400.00    3.88156   4.63105    0.001
 6401.00    4.52211   4.59503    0.001
 6402.00    4.43417   4.61848    0.001
 6403.00    4.32248   4.63325    0.001
 6404.00    3.76799   4.60456    0.001
 6405.00    3.22121   4.57999    0.001
 6406.00    2.91676   4.59657    0.001
 6407.00    2.62883   4.63981    0.001
 6408.00    2.58841   4.69076    0.001
 6409.00    2.55389   4.73034    0.001
 6410.00    2.57617   4.72562    0.001
 6411.00    2.57430   4.65713    0.001
 6412.00    2.40380   4.54591    0.001
 6413.00    2.28458   4.45665    0.001
 6414.00    2.44159   4.46567    0.001
 6415.00    2.57474   4.58305    0.001
 6416.00    2.60481   4.72150    0.001
 6417.00    2.63662   4.79481    0.001
 6418.00    2.67460   4.81514    0.001
 6419.00    2.72050   4.83999    0.001
 6420.00    2.79008   4.86701    0.001
 6421.00    2.82911   4.83524    0.001
 6422.00    2.79038   4.71238    0.001
 6423.00    2.68022   4.55826    0.001
 6424.00    2.41357   4.48650    0.001
 6425.00    2.29007   4.54538    0.001
 6426.00    2.43866   4.67067    0.001
 6427.00    2.63670   4.77224    0.001
 6428.00    2.91674   4.81339    0.001
 6429.00    3.29921   4.78843    0.001
 6430.00    3.83060   4.69639    0.001
 6431.00    4.08632   4.58350    0.001
 6432.00    3.98953   4.55149    0.001
 6433.00    3.77224   4.64954    0.001
 6434.00    3.41919   4.80268    0.001
 6435.00    3.20368   4.90644    0.001
 6436.00    3.12486   4.94057    0.001
 6437.00    3.15662   4.95068    0.001
 6438.00    3.28529   4.96765    0.001
 6439.00    3.28509   4.96376    0.001
 6440.00    3.18538   4.86804    0.001
 6441.00    3.20942   4.64637    0.001
 6442.00    3.31746   4.39169    0.001
 6443.00    3.50868   4.27883    0.001
 6444.00    3.74937   4.37978    0.001
 6445.00    3.83586   4.58614    0.001
 6446.00    3.84232   4.73839    0.001
 6447.00    3.91036   4.76977    0.001
 6448.00    4.00609   4.73141    0.001
 6449.00    3.87062   4.72510    0.001
 6450.00    3.64571   4.79789    0.001
 6451.00    3.55090   4.90439    0.001
 6452.00    3.49888   4.96548    0.001
 6453.00    3.51543   4.92254    0.001
 6454.00    3.55091   4.77100    0.001
 6455.00    3.31868   4.59950    0.001
 6456.00    3.02576   4.53876    0.001
 6457.00    2.98411   4.62165    0.001
 6458.00    2.98801   4.76010    0.001
 6459.00    3.10984   4.86766    0.001
 6460.00    3.24807   4.91950    0.001
 6461.00    3.19129   4.91517    0.001
 6462.00    3.11504   4.86460    0.001
 6463.00    2.80594   4.80151    0.001
 6464.00    2.48213   4.77198    0.001
 6465.00    2.33548   4.79456    0.001
 6466.00    2.19533   4.83285    0.001
 6467.00    2.47142   4.83985    0.001
 6468.00    2.74536   4.82841    0.001
 6469.00    2.95959   4.83949    0.001
 6470.00    3.18235   4.86631    0.001
 6471.00    3.52562   4.87344    0.001
 6472.00    3.85098   4.84401    0.001
 6473.00    4.01043   4.76880    0.001
 6474.00    4.16911   4.65534    0.001
 6475.00    4.32254   4.56433    0.001
 6476.00    4.40263   4.56218    0.001
 6477.00    4.09799   4.63963    0.001
 6478.00    3.83050   4.73215    0.001
 6479.00    3.71988   4.79796    0.001
 6480.00    3.62757   4.83163    0.001
 6481.00    3.59910   4.82837    0.001
 6482.00    3.58164   4.78262    0.001
 6483.00    3.59653   4.70956    0.001
 6484.00    3.62237   4.61781    0.001
 6485.00    3.67563   4.47131    0.001
 6486.00    3.59569   4.24348    0.001
 6487.00    3.22863   4.00791    0.001
 6488.00    2.92943   3.89305    0.001
 6489.00    2.75719   3.93636    0.001
 6490.00    2.66770   4.06126    0.001
 6491.00    2.71341   4.18800    0.001
 6492.00    2.75499   4.30272    0.001
 6493.00    2.79067   4.42397    0.001
 6494.00    2.76974   4.54364    0.001
 6495.00    2.67746   4.63721    0.001
 6496.00    2.55155   4.70481    0.001
 6497.00    2.38827   4.76035    0.001
 6498.00    2.53827   4.80362    0.001
 6499.00    2.99522   4.81660    0.001
 6500.00    3.33561   4.78893    0.001
 6501.00    3.57527   4.74896    0.001
 6502.00    3.45754   4.74296    0.001
 6503.00    3.06779   4.77804    0.001
 6504.00    2.86878   4.81890    0.001
 6505.00    2.79738   4.83886    0.001
 6506.00    2.86323   4.83598    0.001
 6507.00    3.00952   4.80993    0.001
 6508.00    2.86120   4.76380    0.001
 6509.00    2.56239   4.71244    0.001
 6510.00    2.29090   4.66905    0.001
 6511.00    2.03148   4.65084    0.001
 6512.00    2.31872   4.68379    0.001
 6513.00    2.81370   4.76137    0.001
 6514.00    3.30041   4.83440    0.001
 6515.00    3.78445   4.87209    0.001
 6516.00    3.86806   4.88762    0.001
 6517.00    3.84351   4.89238    0.001
 6518.00    3.53435   4.86803    0.001
 6519.00    3.16217   4.81182    0.001
 6520.00    2.99482   4.77046    0.001
 6521.00    2.86361   4.78291    0.001
 6522.00    2.90600   4.82401    0.001
 6523.00    2.97174   4.83693    0.001
 6524.00    2.95056   4.79901    0.001
 6525.00    2.92108   4.74755    0.001
 6526.00    2.83793   4.74359    0.001
 6527.00    2.75162   4.80135    0.001
 6528.00    2.59682   4.86958    0.000
 6529.00    2.44125   4.89646    0.000
 6530.00    2.42340   4.89481    0.000
 6531.00    2.41148   4.91261    0.000
 6532.00    2.54894   4.95404    0.000
 6533.00    2.71884   4.97172    0.000
 6534.00    3.32247   4.93693    0.000
 6535.00    3.88685   4.87080    0.000
 6536.00    4.10167   4.80134    0.000
 6537.00    4.24177   4.72736    0.000
 6538.00    3.89182   4.64630    0.000
 6539.00    3.56780   4.59684    0.000
 6540.00    3.37629   4.62377    0.000
 6541.00    3.24417   4.70235    0.000
 6542.00    3.35721   4.75878    0.000
 6543.00    3.45461   4.75407    0.000
 6544.00    3.49858   4.70848    0.000
 6545.00    3.50639   4.65323    0.000
 6546.00    3.41007   4.59108    0.000
 6547.00    3.38075   4.52480    0.000
 6548.00    3.51615   4.48718    0.000
 6549.00    3.68387   4.50565    0.000
 6550.00    3.92012   4.55963    0.000
 6551.00    4.07782   4.59584    0.000
 6552.00    4.09082   4.55753    0.000
 6553.00    4.07096   4.37978    0.000
 6554.00    3.99822   4.03967    0.000
 6555.00    3.83831   3.68942    0.000
 6556.00    3.55530   3.60942    0.000
 6557.00    3.10479   3.88515    0.000
 6558.00    2.44613   4.28900    0.000
 6559.00    2.32314   4.57842    0.000
 6560.00    2.78685   4.69459    0.000
 6561.00    3.82112   4.68406    0.000
 6562.00    5.40660   4.62631    0.000
 6563.00    6.63597   4.58733    0.000
 6564.00    7.56198   4.56235    0.000
 6565.00    7.73120   4.51337    0.000
 6566.00    7.33266   4.45171    0.000
 6567.00    6.36229   4.43261    0.000
 6568.00    5.01499   4.49521    0.000
 6569.00    4.08293   4.62215    0.000
 6570.00    3.39050   4.74324    0.000
 6571.00    3.27804   4.79360    0.000
 6572.00    3.45718   4.76221    0.000
 6573.00    3.43343   4.69396    0.000
 6574.00    3.32139   4.65658    0.000
 6575.00    3.29372   4.68013    0.000
 6576.00    3.29754   4.73119    0.000
 6577.00    3.26961   4.76330    0.000
 6578.00    3.23162   4.77004    0.000
 6579.00    3.07868   4.78260    0.000
 6580.00    2.89534   4.82256    0.000
 6581.00    3.09451   4.86591    0.000
 6582.00    3.37638   4.87120    0.000
 6583.00    3.90238   4.80764    0.000
 6584.00    4.47025   4.66059    0.000
 6585.00    4.68696   4.47905    0.000
 6586.00    4.85801   4.37978    0.000
 6587.00    4.77321   4.42912    0.000
 6588.00    4.66504   4.55560    0.000
 6589.00    4.45410   4.64443    0.000
 6590.00    4.23747   4.66446    0.000
 6591.00    3.96624   4.66658    0.000
 6592.00    3.69490   4.70595    0.000
 6593.00    3.52450   4.78085    0.000
 6594.00    3.34047   4.84085    0.000
 6595.00    2.84389   4.84868    0.000
 6596.00    2.39116   4.80938    0.000
 6597.00    2.49418   4.74752    0.000
 6598.00    2.59958   4.68445    0.000
 6599.00    2.72528   4.62600    0.000
 6600.00    2.78988   4.56469    0.000
 6601.00    2.46580   4.51456    0.000
 6602.00    2.14929   4.52579    0.000
 6603.00    1.87044   4.62041    0.000
 6604.00    1.66324   4.73491    0.000
 6605.00    1.74524   4.79112    0.000
 6606.00    1.86733   4.79591    0.000
 6607.00    2.12370   4.80894    0.000
 6608.00    2.32892   4.84143    0.000
 6609.00    2.38953   4.85601    0.001
 6610.00    2.59146   4.84684    0.001
 6611.00    3.13498   4.84644    0.001
 6612.00    3.55118   4.86846    0.001
 6613.00    3.70173   4.89015    0.001
 6614.00    3.74558   4.87746    0.001
 6615.00    3.59586   4.81088    0.001
 6616.00    3.42866   4.70603    0.001
 6617.00    3.23373   4.62059    0.001
 6618.00    3.02194   4.61090    0.001
 6619.00    2.78668   4.66391    0.001
 6620.00    2.73506   4.71373    0.001
 6621.00    2.90839   4.72342    0.001
 6622.00    2.97847   4.70121    0.001
 6623.00    2.93705   4.66082    0.001
 6624.00    2.79656   4.60179    0.001
 6625.00    2.56173   4.52826    0.001
 6626.00    2.33949   4.47692    0.001
 6627.00    2.12781   4.49456    0.001
 6628.00    2.16338   4.57897    0.001
 6629.00    2.38179   4.67397    0.001
 6630.00    2.78605   4.72565    0.001
 6631.00    3.31101   4.72380    0.001
 6632.00    3.60583   4.70287    0.001
 6633.00    3.76983   4.69941    0.001
 6634.00    3.67282   4.69807    0.001
 6635.00    3.44665   4.66230    0.001
 6636.00    3.29551   4.61656    0.001
 6637.00    3.17647   4.61740    0.001
 6638.00    3.08382   4.65769    0.001
 6639.00    3.00085   4.68596    0.001
 6640.00    2.66071   4.69142    0.001
 6641.00    2.24071   4.69927    0.001
 6642.00    2.29991   4.71109    0.001
 6643.00    2.48314   4.70640    0.001
 6644.00    3.08983   4.68572    0.001
 6645.00    3.78586   4.67008    0.001
 6646.00    3.90488   4.67129    0.001
 6647.00    3.92772   4.68273    0.001
 6648.00    3.85668   4.68890    0.001
 6649.00    3.77386   4.68604    0.001
 6650.00    3.77078   4.68461    0.001
 6651.00    3.77465   4.68196    0.001
 6652.00    3.57826   4.66210    0.001
 6653.00    3.37161   4.62077    0.001
 6654.00    3.24791   4.56154    0.001
 6655.00    3.12614   4.49329    0.001
 6656.00    3.03736   4.45001    0.001
 6657.00    2.94898   4.45898    0.001
 6658.00    2.86934   4.49529    0.001
 6659.00    2.79726   4.52305    0.001
 6660.00    2.81612   4.54874    0.001
 6661.00    2.85087   4.59806    0.001
 6662.00    3.01686   4.66742    0.001
 6663.00    3.13670   4.72492    0.001
 6664.00    2.97147   4.75006    0.001
 6665.00    2.83563   4.75279    0.001
 6666.00    2.84255   4.75156    0.001
 6667.00    2.86990   4.74234    0.001
 6668.00    2.97789   4.69155    0.001
 6669.00    3.07671   4.57515    0.001
 6670.00    3.14537   4.44301    0.001
 6671.00    3.17038   4.39709    0.001
 6672.00    3.07420   4.46181    0.001
 6673.00    2.94141   4.55434    0.001
 6674.00    2.72163   4.61176    0.001
 6675.00    2.48093   4.64564    0.001
 6676.00    2.19728   4.67805    0.001
 6677.00    2.10543   4.70338    0.001
 6678.00    2.35617   4.70979    0.001
 6679.00    2.64451   4.69823    0.001
 6680.00    2.99159   4.68193    0.001
 6681.00    3.21300   4.67845    0.001
 6682.00    3.26200   4.69179    0.001
 6683.00    3.13317   4.70806    0.001
 6684.00    2.78958   4.71444    0.001
 6685.00    2.48132   4.70821    0.001
 6686.00    2.21070   4.68437    0.001
 6687.00    2.22048   4.63011    0.001
 6688.00    2.49359   4.55205    0.001
 6689.00    2.65677   4.49289    0.001
 6690.00    2.72892   4.49155    0.001
 6691.00    2.63345   4.54828    0.001
 6692.00    2.41580   4.63042    0.001
 6693.00    2.13994   4.69099    0.001
 6694.00    1.82683   4.69775    0.001
 6695.00    1.85835   4.65599    0.001
 6696.00    2.08276   4.60376    0.000
 6697.00    2.47536   4.58480    0.000
 6698.00    2.94987   4.60982    0.000
 6699.00    3.28539   4.64970    0.000
 6700.00    3.56243   4.67297    0.000
 6701.00    3.53144   4.66930    0.000
 6702.00    3.38952   4.64493    0.000
 6703.00    3.44562   4.61873    0.000
 6704.00    3.56201   4.60027    0.000
 6705.00    3.73652   4.57375    0.000
 6706.00    3.92574   4.52220    0.000
 6707.00    3.70926   4.44729    0.000
 6708.00    3.40926   4.36587    0.000
 6709.00    3.32521   4.30936    0.000
 6710.00    3.27612   4.31784    0.000
 6711.00    3.49143   4.39915    0.000
 6712.00    3.73874   4.49994    0.000
 6713.00    3.49696   4.56096    0.000
 6714.00    3.21460   4.58334    0.000
 6715.00    3.14050   4.60492    0.000
 6716.00    3.07626   4.63037    0.000
 6717.00    3.40411   4.62938    0.000
 6718.00    3.73110   4.59902    0.000
 6719.00    3.69837   4.57746    0.000
 6720.00    3.65493   4.59038    0.000
 6721.00    3.40301   4.62665    0.000
 6722.00    3.18787   4.66463    0.000
 6723.00    3.39483   4.68705    0.000
 6724.00    3.55877   4.68268    0.000
 6725.00    3.38018   4.65727    0.000
 6726.00    3.18706   4.63617    0.000
 6727.00    2.90679   4.63853    0.000
 6728.00    2.64146   4.65025    0.000
 6729.00    2.44697   4.63661    0.000
 6730.00    2.32169   4.58980    0.000
 6731.00    2.46378   4.54585    0.000
 6732.00    2.66941   4.53910    0.000
 6733.00    3.07965   4.55689    0.000
 6734.00    3.39008   4.56145    0.000
 6735.00    3.42836   4.54825    0.000
 6736.00    3.40134   4.54604    0.000
 6737.00    3.22176   4.56033    0.000
 6738.00    3.04690   4.56446    0.000
 6739.00    2.88158   4.54649    0.000
 6740.00    2.79361   4.52141    0.000
 6741.00    2.84173   4.50346    0.000
 6742.00    2.75814   4.49718    0.000
 6743.00    2.47180   4.50203    0.000
 6744.00    2.35865   4.50642    0.000
 6745.00    2.47967   4.50517    0.000
 6746.00    2.60149   4.51681    0.000
 6747.00    2.72427   4.55481    0.000
 6748.00    2.80813   4.61190    0.000
 6749.00    2.85113   4.67585    0.000
 6750.00    2.84242   4.73300    0.000
 6751.00    2.78583   4.77023    0.000
 6752.00    2.86327   4.78229    0.000
 6753.00    3.05012   4.77098    0.001
 6754.00    2.94642   4.74844    0.001
 6755.00    2.63401   4.73394    0.001
 6756.00    2.03015   4.72887    0.001
 6757.00    1.24253   4.70891    0.001
 6758.00    0.77763   4.65657    0.001
 6759.00    0.49060   4.59330    0.001
 6760.00    0.79155   4.56080    0.001
 6761.00    1.37427   4.56722    0.001
 6762.00    1.95357   4.57899    0.001
 6763.00    2.53145   4.57921    0.001
 6764.00    2.74863   4.59508    0.001
 6765.00    2.83825   4.64996    0.001
 6766.00    2.71814   4.72540    0.001
 6767.00    2.53543   4.78605    0.001
 6768.00    2.66493   4.81525    0.001
 6769.00    2.87177   4.82191    0.001
 6770.00    2.81327   4.82732    0.001
 6771.00    2.70150   4.83975    0.001
 6772.00    2.66599   4.84025    0.001
 6773.00    2.64246   4.80055    0.001
 6774.00    2.59337   4.71056    0.001
 6775.00    2.54130   4.59097    0.001
 6776.00    2.58648   4.48725    0.001
 6777.00    2.63934   4.44280    0.001
 6778.00    3.13674   4.47020    0.001
 6779.00    3.65350   4.54603    0.001
 6780.00    3.01220   4.62506    0.001
 6781.00    2.36829   4.67147    0.001
 6782.00    2.16876   4.68690    0.001
 6783.00    1.99666   4.69102    0.001
 6784.00    2.32126   4.68294    0.001
 6785.00    2.61102   4.65393    0.001
 6786.00    2.51939   4.61927    0.001
 6787.00    2.38707   4.60276    0.001
 6788.00    1.94193   4.61054    0.001
 6789.00    1.62309   4.63447    0.001
 6790.00    2.04040   4.66188    0.001
 6791.00    2.40373   4.68386    0.001
 6792.00    2.51743   4.70311    0.001
 6793.00    2.63626   4.72383    0.001
 6794.00    2.77449   4.73693    0.001
 6795.00    2.87302   4.73157    0.001
 6796.00    2.84614   4.71625    0.001
 6797.00    2.67996   4.70680    0.001
 6798.00    2.14070   4.70177    0.001
 6799.00    1.85394   4.69436    0.001
 6800.00    2.14739   4.68824    0.001
 6801.00    2.42158   4.68442    0.001
 6802.00    2.65746   4.68154    0.001
 6803.00    2.66770   4.68657    0.001
 6804.00    2.28701   4.69761    0.001
 6805.00    2.06364   4.69431    0.001
 6806.00    2.07892   4.66866    0.001
 6807.00    2.22996   4.64937    0.001
 6808.00    2.56196   4.67161    0.001
 6809.00    2.76088   4.72527    0.001
 6810.00    2.80359   4.76079    0.001
 6811.00    2.99739   4.75011    0.001
 6812.00    3.34754   4.71895    0.001
 6813.00    3.70364   4.71377    0.001
 6814.00    4.06518   4.75066    0.001
 6815.00    4.08469   4.80418    0.001
 6816.00    3.82900   4.84095    0.001
 6817.00    3.60954   4.84832    0.001
 6818.00    3.41573   4.82739    0.001
 6819.00    3.23506   4.78076    0.001
 6820.00    3.06257   4.72522    0.001
 6821.00    3.06398   4.69648    0.001
 6822.00    3.15977   4.71508    0.001
 6823.00    3.00479   4.75813    0.001
 6824.00    2.73156   4.78747    0.001
 6825.00    2.92542   4.79691    0.001
 6826.00    3.30920   4.80848    0.001
 6827.00    3.69477   4.82738    0.001
 6828.00    4.08096   4.83020    0.001
 6829.00    4.06123   4.79895    0.001
 6830.00    3.92274   4.73739    0.001
 6831.00    3.58716   4.65568    0.001
 6832.00    3.20384   4.56689    0.001
 6833.00    2.89633   4.49679    0.001
 6834.00    2.60366   4.47823    0.001
 6835.00    2.63255   4.52710    0.001
 6836.00    2.71045   4.62175    0.001
 6837.00    3.14482   4.71467    0.001
 6838.00    3.61919   4.77292    0.001
 6839.00    3.53146   4.79882    0.001
 6840.00    3.40171   4.80792    0.001
 6841.00    2.38529   4.80566    0.001
 6842.00    1.33366   4.79501    0.001
 6843.00    1.39482   4.78548    0.001
 6844.00    1.48899   4.77895    0.001
 6845.00    2.59156   4.75628    0.001
 6846.00    3.61841   4.69689    0.001
 6847.00    3.36624   4.61877    0.001
 6848.00    3.15574   4.57287    0.001
 6849.00    3.38119   4.58247    0.001
 6850.00    3.56217   4.61880    0.001
 6851.00    3.41270   4.63839    0.001
 6852.00    3.24827   4.61838    0.001
 6853.00    2.99906   4.57829    0.001
 6854.00    2.75245   4.57497    0.001
 6855.00    2.51758   4.64048    0.001
 6856.00    2.28903   4.73302    0.001
 6857.00    2.08392   4.77977    0.001
 6858.00    2.07638   4.74908    0.001
 6859.00    2.68082   4.66846    0.001
 6860.00    3.16368   4.60145    0.001
 6861.00    3.32666   4.59904    0.001
 6862.00    3.34666   4.64399    0.001
 6863.00    3.04356   4.67169    0.001
 6864.00    2.99106   4.65834    0.001
 6865.00    3.42907   4.64156    0.001
 6866.00    3.87722   4.65180    0.001
 6867.00    4.34267   4.67867    0.001
 6868.00    4.46217   4.70991    0.001
 6869.00    4.06459   4.75090    0.001
 6870.00    3.46738   4.79515    0.001
 6871.00    2.60793   4.81567    0.001
 6872.00    2.23075   4.79415    0.001
 6873.00    2.41162   4.73864    0.001
 6874.00    2.76575   4.68033    0.001
 6875.00    3.29669   4.65886    0.001
 6876.00    3.72538   4.68852    0.001
 6877.00    4.06204   4.74069    0.001
 6878.00    3.93653   4.78336    0.001
 6879.00    3.44440   4.81961    0.001
 6880.00    3.18930   4.86262    0.001
 6881.00    3.09957   4.90591    0.001
 6882.00    2.82646   4.93749    0.001
 6883.00    2.44113   4.95079    0.001
 6884.00    2.26049   4.94219    0.001
 6885.00    2.18922   4.91988    0.001
 6886.00    2.13842   4.89766    0.001
 6887.00    2.09712   4.87909    0.001
 6888.00    1.73818   4.86898    0.001
 6889.00    1.25228   4.87799    0.001
 6890.00    1.22420   4.89752    0.001
 6891.00    1.35214   4.90236    0.001
 6892.00    1.94316   4.89238    0.001
 6893.00    2.66694   4.89700    0.001
 6894.00    2.95704   4.92558    0.001
 6895.00    3.14444   4.94995    0.001
 6896.00    2.96920   4.94961    0.001
 6897.00    2.72483   4.94065    0.001
 6898.00    3.13866   4.94762    0.001
 6899.00    3.64975   4.97103    0.001
 6900.00    3.75693   4.99436    0.001
 6901.00    3.82053   5.00644    0.001
 6902.00    4.02546   5.00257    0.001
 6903.00    4.24037   4.97726    0.001
 6904.00    3.85025   4.93012    0.001
 6905.00    3.43842   4.87374    0.001
 6906.00    2.97765   4.83190    0.001
 6907.00    2.53508   4.82319    0.001
 6908.00    2.72863   4.83997    0.001
 6909.00    2.91258   4.86287    0.001
 6910.00    2.94454   4.89114    0.001
 6911.00    2.94048   4.93256    0.001
 6912.00    2.57572   4.97849    0.001
 6913.00    2.25770   5.00790    0.001
 6914.00    2.27568   5.00038    0.001
 6915.00    2.33187   4.94386    0.001
 6916.00    2.59874   4.85106    0.001
 6917.00    2.77415   4.76773    0.001
 6918.00    2.54627   4.74169    0.001
 6919.00    2.31447   4.77915    0.001
 6920.00    2.06844   4.84378    0.001
 6921.00    1.98498   4.89592    0.001
 6922.00    2.39557   4.91892    0.001
 6923.00    2.78901   4.91116    0.001
 6924.00    3.13811   4.87975    0.001
 6925.00    3.37972   4.85074    0.001
 6926.00    3.38239   4.85653    0.001
 6927.00    3.18686   4.89510    0.001
 6928.00    2.60939   4.92894    0.001
 6929.00    2.16476   4.93762    0.001
 6930.00    1.94336   4.94142    0.001
 6931.00    2.00794   4.96592    0.001
 6932.00    2.49374   5.00490    0.001
 6933.00    2.68352   5.02359    0.001
 6934.00    2.49000   4.99205    0.001
 6935.00    2.49298   4.91403    0.001
 6936.00    2.72014   4.82575    0.001
 6937.00    3.04793   4.77522    0.001
 6938.00    3.47698   4.79443    0.001
 6939.00    3.30768   4.87040    0.001
 6940.00    2.60740   4.95165    0.001
 6941.00    2.04609   4.99208    0.001
 6942.00    1.59344   4.97711    0.001
 6943.00    1.79275   4.92215    0.001
 6944.00    2.44037   4.86204    0.001
 6945.00    2.46828   4.82627    0.001
 6946.00    2.12265   4.82556    0.001
 6947.00    2.02289   4.86060    0.001
 6948.00    2.05247   4.91869    0.001
 6949.00    1.95630   4.97116    0.001
 6950.00    1.80274   4.99842    0.001
 6951.00    1.75326   5.00778    0.001
 6952.00    1.74465   5.01705    0.001
 6953.00    1.83514   5.03343    0.001
 6954.00    1.95877   5.05257    0.001
 6955.00    2.25952   5.06645    0.001
 6956.00    2.61001   5.06552    0.001
 6957.00    2.80936   5.04682    0.001
 6958.00    2.97373   5.03183    0.001
 6959.00    2.85385   5.05168    0.001
 6960.00    2.68121   5.09854    0.001
 6961.00    2.67213   5.12425    0.001
 6962.00    2.68647   5.10323    0.001
 6963.00    3.10499   5.06806    0.001
 6964.00    3.56538   5.06508    0.001
 6965.00    3.29203   5.08866    0.001
 6966.00    2.96978   5.08623    0.001
 6967.00    2.77599   5.02656    0.001
 6968.00    2.58633   4.92146    0.001
 6969.00    2.39514   4.78953    0.001
 6970.00    2.21135   4.66349    0.001
 6971.00    2.25412   4.61436    0.001
 6972.00    2.31385   4.69016    0.001
 6973.00    2.62588   4.84807    0.001
 6974.00    2.94254   5.00281    0.001
 6975.00    3.30381   5.10783    0.001
 6976.00    3.68047   5.16039    0.001
 6977.00    4.16424   5.17449    0.001
 6978.00    4.42042   5.16642    0.001
 6979.00    3.45494   5.14302    0.001
 6980.00    2.64889   5.10222    0.001
 6981.00    2.52968   5.05518    0.001
 6982.00    2.37750   5.03501    0.001
 6983.00    2.10823   5.06205    0.001
 6984.00    1.98057   5.11141    0.001
 6985.00    2.27521   5.13901    0.001
 6986.00    2.66247   5.13168    0.001
 6987.00    3.28499   5.11429    0.001
 6988.00    3.62723   5.11058    0.001
 6989.00    3.35667   5.10888    0.001
 6990.00    3.13071   5.07705    0.001
 6991.00    2.98933   5.01142    0.001
 6992.00    2.93343   4.95723    0.001
 6993.00    3.01904   4.96167    0.001
 6994.00    2.89270   5.00958    0.001
 6995.00    2.45872   5.03844    0.001
 6996.00    2.42872   5.01789    0.001
 6997.00    2.91439   4.97920    0.001
 6998.00    3.03556   4.96569    0.001
 6999.00    2.74676   4.98804    0.001
 7000.00    2.71671   5.03076    0.001
 7001.00    2.94335   5.07034    0.001
 7002.00    2.99978   5.08684    0.001
 7003.00    2.90731   5.08268    0.001
 7004.00    2.82905   5.07984    0.001
 7005.00    2.76174   5.07631    0.001
 7006.00    3.01383   5.02935    0.001
 7007.00    3.48237   4.91753    0.001
 7008.00    3.70957   4.80424    0.001
 7009.00    3.79348   4.79334    0.001
 7010.00    3.57856   4.90885    0.001
 7011.00    3.20889   5.06497    0.001
 7012.00    2.94096   5.16777    0.001
 7013.00    2.71870   5.18557    0.001
 7014.00    2.63836   5.12627    0.001
 7015.00    2.61278   5.02206    0.001
 7016.00    2.63468   4.93553    0.001
 7017.00    2.67216   4.92121    0.001
 7018.00    2.83870   4.97375    0.001
 7019.00    3.04074   5.04395    0.001
 7020.00    2.82612   5.09851    0.001
 7021.00    2.51730   5.13592    0.001
 7022.00    3.09102   5.15800    0.001
 7023.00    3.82420   5.16046    0.001
 7024.00    3.43209   5.14821    0.001
 7025.00    2.88409   5.13964    0.001
 7026.00    3.26557   5.15064    0.001
 7027.00    3.73932   5.17484    0.001
 7028.00    3.53527   5.17585    0.001
 7029.00    3.28876   5.11715    0.001
 7030.00    3.32317   5.03121    0.001
 7031.00    3.36383   5.02109    0.001
 7032.00    2.94747   5.13823    0.001
 7033.00    2.55493   5.30915    0.001
 7034.00    2.81673   5.42325    0.001
 7035.00    3.00914   5.43405    0.001
 7036.00    2.22747   5.36888    0.001
 7037.00    1.48152   5.29854    0.001
 7038.00    1.06489   5.29032    0.001
 7039.00    0.80565   5.35208    0.001
 7040.00    1.60708   5.43264    0.001
 7041.00    2.38993   5.47437    0.001
 7042.00    3.07558   5.44525    0.001
 7043.00    3.69119   5.33481    0.001
 7044.00    4.01193   5.15551    0.001
 7045.00    4.09611   4.96033    0.001
 7046.00    3.35741   4.82257    0.001
 7047.00    2.89232   4.78094    0.001
 7048.00    3.22805   4.81507    0.001
 7049.00    3.42119   4.86180    0.001
 7050.00    3.25835   4.85646   -2.000
 7051.00    3.04177   4.78506   -2.000
 7052.00    2.70958   4.69985   -2.000
 7053.00    2.46437   4.66504   -2.000
 7054.00    2.38157   4.69251   -2.000
 7055.00    2.48392   4.74895   -2.000
 7056.00    2.88823   4.79633   -2.000
 7057.00    3.36144   4.79915   -2.000
 7058.00    3.93321   4.73798   -2.000
 7059.00    4.00178   4.63956   -2.000
 7060.00    3.43721   4.57175   -2.000
 7061.00    3.17818   4.59591   -2.000
 7062.00    3.25797   4.70822   -2.000
 7063.00    3.36008   4.83566   -2.000
 7064.00    3.48402   4.91139   -2.000
 7065.00    3.76497   4.93106   -2.000
 7066.00    4.18135   4.92440   -2.000
 7067.00    3.92507   4.91321   -2.000
 7068.00    3.15772   4.90959   -2.000
 7069.00    3.04388   4.92202   -2.000
 7070.00    3.36640   4.95018   -2.000
 7071.00    3.59466   4.98655   -2.000
 7072.00    3.76781   5.01841   -2.000
 7073.00    3.56839   5.01505   -2.000
 7074.00    3.17904   4.93980   -2.000
 7075.00    3.91413   4.79587   -2.000
 7076.00    5.14573   4.64408   -2.000
 7077.00    4.46181   4.55804   -2.000
 7078.00    3.05153   4.54898   -2.000
 7079.00    2.96167   4.55708   -2.000
 7080.00    3.29701   4.53511   -2.000
 7081.00    2.80500   4.49290   -2.000
 7082.00    2.09011   4.46169   -2.000
 7083.00    2.54428   4.45732   -2.000
 7084.00    3.25658   4.46959   -2.000
 7085.00    3.06995   4.48162   -2.000
 7086.00    2.72532   4.49257   -2.000
 7087.00    2.85516   4.50734   -2.000
 7088.00    3.04857   4.52856   -2.000
 7089.00    3.56940   4.55970   -2.000
 7090.00    4.12134   4.60038   -2.000
 7091.00    2.84935   4.63910   -2.000
 7092.00    1.47036   4.65457   -2.000
 7093.00    2.39377   4.63540   -2.000
 7094.00    3.36384   4.60084   -2.000
 7095.00    2.96292   4.59021   -2.000
 7096.00    2.55493   4.61838   -2.000
 7097.00    1.97098   4.65101   -2.000
 7098.00    1.47484   4.64681   -2.000
 7099.00    2.14481   4.61376   -2.000
 7100.00    2.76209   4.58800   -2.000
 7101.00    2.91246   4.57282   -2.000
 7102.00    3.05663   4.54537   -2.000
 7103.00    3.16026   4.51328   -2.000
 7104.00    3.29527   4.51346   -2.000
 7105.00    3.59014   4.55643   -2.000
 7106.00    3.70762   4.61273   -2.000
 7107.00    3.09493   4.65319   -2.000
 7108.00    2.71184   4.67105   -2.000
 7109.00    3.11139   4.66937   -2.000
 7110.00    3.41767   4.65469   -2.000
 7111.00    3.45596   4.63606   -2.000
 7112.00    3.27399   4.61718   -2.000
 7113.00    2.55156   4.59693   -2.000
 7114.00    2.14121   4.58245   -2.000
 7115.00    2.39128   4.58151   -2.000
 7116.00    2.59769   4.57449   -2.000
 7117.00    2.72382   4.53359   -2.000
 7118.00    2.80909   4.47311   -2.000
 7119.00    2.82871   4.43363   -2.000
 7120.00    3.27168   4.41712   -2.000
 7121.00    4.31143   4.38544   -2.000
 7122.00    4.82982   4.33126   -2.000
 7123.00    4.70152   4.30229   -2.000
 7124.00    4.90507   4.33761   -2.000
 7125.00    5.47146   4.42037   -2.000
 7126.00    5.68106   4.50399   -2.000
 7127.00    5.54659   4.56035   -2.000
 7128.00    4.50195   4.59291   -2.000
 7129.00    2.68333   4.60378   -2.000
 7130.00    2.34850   4.58122   -2.000
 7131.00    3.12488   4.54261   -2.000
 7132.00    3.80781   4.53612   -2.000
 7133.00    4.42925   4.57136   -2.000
 7134.00    3.86881   4.60657   -2.000
 7135.00    2.62759   4.61385   -2.000
 7136.00    2.29633   4.60362   -2.000
 7137.00    2.42168   4.58726   -2.000
 7138.00    2.62682   4.55262   -2.000
 7139.00    2.86661   4.48900   -2.000
 7140.00    2.94921   4.42544   -2.000
 7141.00    2.97326   4.41017   -2.000
 7142.00    2.82886   4.45596   -2.000
 7143.00    2.63124   4.53960   -2.000
 7144.00    2.45584   4.63064   -2.000
 7145.00    2.28631   4.69303   -2.000
 7146.00    2.48253   4.70145   -2.000
 7147.00    2.75759   4.68093   -2.000
 7148.00    3.21921   4.68407   -2.000
 7149.00    3.71272   4.71203   -2.000
 7150.00    3.01678   4.71473   -2.000
 7151.00    2.16688   4.67563   -2.000
 7152.00    2.35931   4.63734   -2.000
 7153.00    2.64638   4.63421   -2.000
 7154.00    2.68697   4.63777   -2.000
 7155.00    2.71407   4.59311   -2.000
 7156.00    3.23733   4.50445   -2.000
 7157.00    3.76454   4.45111   -2.000
 7158.00    3.70338   4.49801   -2.000
 7159.00    3.71178   4.61762   -2.000
 7160.00    5.29886   4.72385   -2.000
 7161.00    6.65275   4.76677   -2.000
 7162.00    5.06955   4.77278   -2.000
 7163.00    3.52198   4.79257   -2.000
 7164.00    2.27835   4.83222   -2.000
 7165.00    1.11333   4.85385   -2.000
 7166.00    0.44655   4.82811   -2.000
 7167.00    0.28459   4.77014   -2.000
 7168.00    2.62914   4.72981   -2.000
 7169.00    4.55519   4.73852   -2.000
 7170.00    4.79670   4.75891   -2.000
 7171.00    4.65980   4.72272   -2.000
 7172.00    3.25863   4.63115   -2.000
 7173.00    2.20709   4.57228   -2.000
 7174.00    2.14179   4.61711   -2.000
 7175.00    2.33952   4.73146   -2.000
 7176.00    3.17166   4.81674   -2.000
 7177.00    3.64772   4.80925   -2.000
 7178.00    3.38236   4.71644   -2.000
 7179.00    3.36739   4.59466   -2.000
 7180.00    3.80576   4.51446   -2.000
 7181.00    4.06293   4.51464   -2.000
 7182.00    4.03327   4.57349   -2.000
 7183.00    3.68935   4.63256   -2.000
 7184.00    2.90881   4.65514   -2.000
 7185.00    2.59278   4.65989   -2.000
 7186.00    2.84473   4.68309   -2.000
 7187.00    3.07787   4.71855   -2.000
 7188.00    3.29074   4.73078   -2.000
 7189.00    3.09284   4.71726   -2.000
 7190.00    2.50440   4.71076   -2.000
 7191.00    2.36528   4.72348   -2.000
 7192.00    2.60286   4.73511   -2.000
 7193.00    2.33572   4.73721   -2.000
 7194.00    1.69602   4.75255   -2.000
 7195.00    1.89542   4.79671   -2.000
 7196.00    2.63881   4.83572   -2.000
 7197.00    2.78464   4.80633   -2.000
 7198.00    2.59149   4.69012   -2.000
 7199.00    4.21095   4.55589   -2.000
 7200.00    6.72560   4.50336   -2.000
 7201.00    6.05202   4.56856   -2.000
 7202.00    4.01705   4.70044   -2.000
 7203.00    3.38359   4.80958   -2.000
 7204.00    3.26291   4.83575   -2.000
 7205.00    2.70693   4.79103   -2.000
 7206.00    2.01610   4.73759   -2.000
 7207.00    1.90422   4.72749   -2.000
 7208.00    1.94177   4.77249   -2.000
 7209.00    1.94026   4.84710   -2.000
 7210.00    1.93053   4.90453   -2.000
 7211.00    3.00142   4.91144   -2.000
 7212.00    4.25178   4.87684   -2.000
 7213.00    3.86692   4.83462   -2.000
 7214.00    3.27774   4.81015   -2.000
 7215.00    2.92501   4.81737   -2.000
 7216.00    2.59276   4.86384   -2.000
 7217.00    2.76874   4.93524   -2.000
 7218.00    2.97054   4.99238   -2.000
