###################################################################
## OUTPUT of StarlightChains_v04.for    [Cid@UFSC - 01/Apr/2007] ##
###################################################################

## Some input info
KUG0210-078._54_20.txt                   [arq_obs]
Base.CB07.vall.4m                        [arq_base]
Masks.EmLines.NEW.gm                     [arq_masks]
StCv04.C11.config                        [arq_config]
   66                                    [N_base]
    0                                    [N_YAV_components = # of components with extra extinction!]
    0                                    [i_FitPowerLaw (1/0 = Yes/No)]
-9.99                                    [alpha_PowerLaw]
CCM                                      [red_law_option]
 1.458241                                [q_norm = A(l_norm)/A(V)]

## (Re)Sampling Parameters
 3741.00                                 [l_ini (A)]
 7218.00                                 [l_fin (A)]
    1.00                                 [dl    (A)]     (OBS: dl_cushion =    50.00 A)

## Normalization info
 4020.00                                 [l_norm (A) - for base]
 4010.00                                 [llow_norm (A) - window for f_obs]
 4060.00                                 [lupp_norm (A) - window for f_obs]
5.907643E-18                             [fobs_norm (in input units)]

## S/N
 3691.00                                 [llow_SN (A) - window for S/N]
 7268.00                                 [lupp_SN (A) - window for S/N]
   1.723                                 [S/N in S/N window]
   2.753                                 [S/N in norm. window]
   0.004                                 [S/N_err in S/N window]
   0.006                                 [S/N_err in norm. window]
  1.0000                                 [fscale_chi2]

## etc...
    -2008001                             [idum_orig]
  2414                                   [NOl_eff]
  2402                                   [Nl_eff]
    12    NSIGMA                         [Ntot_cliped & clip_method]
   776300                                [Nglobal_steps]
   7                                     [N_chains]
  38                                     [NEX0s_base = N_base in EX0s-fits]
 0   0   1       12   2.0   8.470E+02    [Clip-Bug, RC-Crash & Burn-In warning-flags, n_censored_weights, wei_nsig_threshold & wei_limit]
    20     20.273     19.698      0.575  [idt_all, wdt_TotTime, wdt_UsrTime & wdt_SysTime (sec)]

## Synthesis Results - Best model ##

 1.03471E-05                             [chi2/Nl_eff]
    47.54481                             [adev (%)]

   130.00002                             [sum-of-x (%)]
 2.00475E-18                             [Flux_tot (units of input spectrum!)]
 8.38028E-15                             [Mini_tot (???)]
 4.90215E-15                             [Mcor_tot (???)]

 -34.30                                  [v0_min  (km/s)]
   0.01                                  [vd_min  (km/s)]
-1.0000                                  [AV_min  (mag)]
 0.0000                                  [YAV_min (mag)]

# j     x_j(%)      Mini_j(%)     Mcor_j(%)     age_j(yr)     Z_j      (L/M)_j    YAV?  Mstars   component_j        a/Fe...       SSP_chi2r SSP_adev(%)   SSP_AV   SSP_x(%)
  1      0.0000     0.0000E+00    0.0000E+00    1.000000E+06  0.00400  1.094E-02    0   1.0000   age020_m42            0.0000     1.1403E-05    49.8171   1.2209   111.1435
  2      0.0000     0.0000E+00    0.0000E+00    3.160000E+06  0.00400  4.007E-02    0   0.9999   age045_m42            0.0000     1.0986E-05    48.5898   0.3921   120.6530
  3      0.0000     0.0000E+00    0.0000E+00    5.010000E+06  0.00400  2.539E-02    0   0.9488   age055_m42            0.0000     1.1219E-05    49.1852   0.7709   116.4979
  4      1.3140     9.2292E-03    1.4547E-02    6.610000E+06  0.00400  2.620E-02    0   0.9220   age061_m42            0.0000     1.1056E-05    48.5355   0.3374   120.3908
  5      0.0000     0.0000E+00    0.0000E+00    1.000000E+07  0.00400  1.322E-02    0   0.8862   age070_m42            0.0000     1.1079E-05    48.7162   0.1707   120.0638
  6      0.0000     0.0000E+00    0.0000E+00    1.445000E+07  0.00400  7.883E-03    0   0.8571   age078_m42            0.0000     1.1230E-05    49.1020   0.5056   116.9472
  7      0.0000     0.0000E+00    0.0000E+00    2.512000E+07  0.00400  5.251E-03    0   0.8174   age090_m42            0.0000     1.1080E-05    48.1664  -0.0003   120.8689
  8      0.0000     0.0000E+00    0.0000E+00    4.000000E+07  0.00400  3.649E-03    0   0.7851   age104_m42            0.0000     1.0959E-05    48.3140  -0.2062   122.1065
  9      0.0000     0.0000E+00    0.0000E+00    5.500000E+07  0.00400  3.098E-03    0   0.7629   age110_m42            0.0000     1.0969E-05    47.9466  -0.1227   123.7156
 10      0.2528     2.0879E-02    2.5724E-02    1.015200E+08  0.00400  2.228E-03    0   0.7207   age116_m42            0.0000     1.1008E-05    47.7107  -0.1478   124.9395
 11      0.0000     0.0000E+00    0.0000E+00    2.861200E+08  0.00400  1.093E-03    0   0.6648   age125_m42            0.0000     1.0869E-05    46.9428  -0.7024   128.0082
 12      0.0000     0.0000E+00    0.0000E+00    5.088000E+08  0.00400  6.597E-04    0   0.6365   age130_m42            0.0000     1.0832E-05    46.5760  -0.7965   131.1247
 13      3.2487     2.8040E+00    2.7793E+00    1.434000E+09  0.00400  2.132E-04    0   0.5798   age139_m42            0.0000     1.1191E-05    60.4848  -1.0000   124.1337
 14      0.0000     0.0000E+00    0.0000E+00    4.250000E+09  0.00400  5.895E-05    0   0.5377   age158_m42            0.0000     1.2421E-05    74.3212  -1.0000   111.7636
 15      1.6366     8.5803E+00    7.6451E+00    7.500000E+09  0.00400  3.510E-05    0   0.5212   age171_m42            0.0000     1.3370E-05    80.0757  -1.0000   107.0481
 16      0.0000     0.0000E+00    0.0000E+00    1.300000E+10  0.00400  2.005E-05    0   0.5034   age193_m42            0.0000     1.4336E-05    84.8790  -1.0000   102.6338
 17      0.0000     0.0000E+00    0.0000E+00    1.800000E+10  0.00400  1.525E-05    0   0.4967   age213_m42            0.0000     1.4468E-05    85.7162  -1.0000   101.6318
 18      0.0000     0.0000E+00    0.0000E+00    1.000000E+06  0.00800  1.238E-02    0   1.0000   age020_m52            0.0000     1.1410E-05    49.8528   1.2173   111.3700
 19      6.3971     3.8295E-02    6.5243E-02    3.160000E+06  0.00800  3.074E-02    0   0.9966   age045_m52            0.0000     1.1414E-05    49.7772   1.1300   112.5240
 20     10.8718     7.4985E-02    1.2105E-01    5.010000E+06  0.00800  2.668E-02    0   0.9443   age055_m52            0.0000     1.1279E-05    49.3569   0.8692   115.1766
 21      0.0000     0.0000E+00    0.0000E+00    6.610000E+06  0.00800  2.136E-02    0   0.9177   age061_m52            0.0000     1.0779E-05    48.2114  -0.3444   122.0364
 22      0.0000     0.0000E+00    0.0000E+00    1.000000E+07  0.00800  1.215E-02    0   0.8827   age070_m52            0.0000     1.1168E-05    49.0951   0.3883   118.8968
 23      0.0000     0.0000E+00    0.0000E+00    1.445000E+07  0.00800  8.717E-03    0   0.8552   age078_m52            0.0000     1.1175E-05    48.9592   0.4649   118.6459
 24      0.0000     0.0000E+00    0.0000E+00    2.512000E+07  0.00800  5.592E-03    0   0.8162   age090_m52            0.0000     1.1064E-05    48.6162   0.1137   121.8021
 25      2.6433     1.2485E-01    1.6735E-01    4.000000E+07  0.00800  3.896E-03    0   0.7841   age104_m52            0.0000     1.0987E-05    48.1689  -0.0180   123.7450
 26      0.0000     0.0000E+00    0.0000E+00    1.015200E+08  0.00800  2.148E-03    0   0.7226   age116_m52            0.0000     1.0943E-05    47.6844  -0.1513   125.2152
 27      7.6985     1.4274E+00    1.6307E+00    2.861200E+08  0.00800  9.925E-04    0   0.6683   age125_m52            0.0000     1.0867E-05    46.4902  -0.7314   132.3526
 28      0.0000     0.0000E+00    0.0000E+00    9.047900E+08  0.00800  3.141E-04    0   0.6138   age135_m52            0.0000     1.0941E-05    53.9515  -1.0000   132.7565
 29      5.3685     5.7469E+00    5.7502E+00    1.434000E+09  0.00800  1.719E-04    0   0.5853   age139_m52            0.0000     1.2198E-05    70.9913  -1.0000   119.2141
 30      0.0587     1.3733E-01    1.3147E-01    2.500000E+09  0.00800  7.872E-05    0   0.5600   age150_m52            0.0000     1.3511E-05    79.3047  -1.0000   110.6197
 31      1.3794     5.8543E+00    5.4303E+00    4.250000E+09  0.00800  4.336E-05    0   0.5426   age158_m52            0.0000     1.3573E-05    79.6694  -1.0000   109.2704
 32      0.0000     0.0000E+00    0.0000E+00    6.250000E+09  0.00800  3.159E-05    0   0.5319   age166_m52            0.0000     1.4887E-05    85.3406  -1.0000   104.4207
 33      0.0000     0.0000E+00    0.0000E+00    1.300000E+10  0.00800  1.361E-05    0   0.5073   age193_m52            0.0000     1.8583E-05    97.5477  -1.0000    91.0021
 34      0.0000     0.0000E+00    0.0000E+00    1.800000E+10  0.00800  9.886E-06    0   0.4990   age213_m52            0.0000     1.9835E-05    99.3798  -1.0000    87.3434
 35      0.0000     0.0000E+00    0.0000E+00    1.000000E+06  0.02000  1.544E-02    0   1.0000   age020_m62            0.0000     1.1440E-05    49.8916   1.2159   111.5805
 36      0.0000     0.0000E+00    0.0000E+00    3.160000E+06  0.02000  3.762E-02    0   0.9858   age045_m62            0.0000     1.1481E-05    49.8964   1.1523   112.5819
 37      0.0555     3.0980E-04    4.9476E-04    5.010000E+06  0.02000  3.296E-02    0   0.9342   age055_m62            0.0000     1.1166E-05    48.9630   0.7006   118.5798
 38      0.4811     7.6714E-03    1.1621E-02    8.710000E+06  0.02000  1.154E-02    0   0.8861   age067_m62            0.0000     1.1504E-05    50.2623  -0.0000   117.3580
 39      0.6968     1.6732E-02    2.4233E-02    1.445000E+07  0.02000  7.663E-03    0   0.8472   age078_m62            0.0000     1.1130E-05    49.3225   0.0948   120.1084
 40      0.0000     0.0000E+00    0.0000E+00    2.512000E+07  0.02000  4.532E-03    0   0.8099   age090_m62            0.0000     1.1191E-05    49.3564   0.0942   119.4469
 41     12.0021     8.0812E-01    1.0492E+00    5.500000E+07  0.02000  2.733E-03    0   0.7595   age110_m62            0.0000     1.1056E-05    48.1962  -0.0216   122.4947
 42      0.0000     0.0000E+00    0.0000E+00    1.609000E+08  0.02000  1.369E-03    0   0.6985   age120_m62            0.0000     1.1078E-05    47.2322  -0.2978   128.4529
 43      0.0172     3.5168E-03    4.0364E-03    2.861200E+08  0.02000  9.013E-04    0   0.6714   age125_m62            0.0000     1.1077E-05    46.5528  -0.6305   134.1155
 44      1.2399     4.5380E-01    5.0029E-01    5.088000E+08  0.02000  5.028E-04    0   0.6449   age130_m62            0.0000     1.0844E-05    46.3018  -1.0000   139.9734
 45     46.0443     3.4897E+01    3.6862E+01    9.047900E+08  0.02000  2.428E-04    0   0.6179   age135_m62            0.0000     1.0936E-05    55.4265  -1.0000   131.5152
 46     15.3423     2.2354E+01    2.2577E+01    1.434000E+09  0.02000  1.263E-04    0   0.5908   age139_m62            0.0000     1.2035E-05    68.1151  -1.0000   121.3312
 47      0.0048     1.4766E-02    1.4320E-02    2.500000E+09  0.02000  5.985E-05    0   0.5673   age150_m62            0.0000     1.3895E-05    79.1800  -1.0000   111.6706
 48      1.8613     1.0471E+01    9.7878E+00    4.250000E+09  0.02000  3.271E-05    0   0.5468   age158_m62            0.0000     1.6082E-05    87.5634  -1.0000   102.9098
 49      0.0000     0.0000E+00    0.0000E+00    1.000000E+10  0.02000  1.360E-05    0   0.5167   age181_m62            0.0000     1.9270E-05    95.5841  -1.0000    92.4684
 50      0.0000     0.0000E+00    0.0000E+00    1.800000E+10  0.02000  7.124E-06    0   0.5013   age213_m62            0.0000     2.1603E-05    99.3063  -1.0000    85.3035
 51      0.0000     0.0000E+00    0.0000E+00    1.000000E+06  0.05000  2.592E-02    0   0.9998   age020_m72            0.0000     1.1512E-05    50.0093   1.2173   111.4061
 52      0.0000     0.0000E+00    0.0000E+00    3.160000E+06  0.05000  4.845E-02    0   0.9577   age045_m72            0.0000     1.1379E-05    49.6095   1.0027   114.6562
 53      0.0000     3.6417E-08    5.6944E-08    5.010000E+06  0.05000  3.072E-02    0   0.9147   age055_m72            0.0000     1.1312E-05    49.3859   0.6349   116.7113
 54      0.0000     0.0000E+00    0.0000E+00    6.610000E+06  0.05000  1.455E-02    0   0.8877   age061_m72            0.0000     1.1708E-05    52.6713   0.1782   115.7899
 55     10.5606     2.1417E-01    3.1208E-01    1.000000E+07  0.05000  9.074E-03    0   0.8524   age070_m72            0.0000     1.1336E-05    49.6348   0.8161   116.2662
 56      0.0000     0.0000E+00    0.0000E+00    2.512000E+07  0.05000  4.250E-03    0   0.7902   age090_m72            0.0000     1.1226E-05    48.8504   0.4827   119.0187
 57      0.4551     2.7130E-02    3.5332E-02    4.000000E+07  0.05000  3.087E-03    0   0.7618   age104_m72            0.0000     1.1212E-05    48.6638   0.2594   120.8186
 58      0.0000     0.0000E+00    0.0000E+00    1.015200E+08  0.05000  1.700E-03    0   0.7096   age116_m72            0.0000     1.1117E-05    47.4297  -0.1137   126.8335
 59      0.0000     0.0000E+00    0.0000E+00    2.861200E+08  0.05000  7.384E-04    0   0.6633   age125_m72            0.0000     1.0976E-05    46.2172  -0.8572   138.2424
 60      0.0000     0.0000E+00    0.0000E+00    5.088000E+08  0.05000  3.819E-04    0   0.6372   age130_m72            0.0000     1.0780E-05    48.7132  -1.0000   137.9944
 61      0.1352     1.4848E-01    1.5509E-01    9.047900E+08  0.05000  1.676E-04    0   0.6110   age135_m72            0.0000     1.2147E-05    65.4131  -1.0000   124.4698
 62      0.0974     2.0281E-01    2.0366E-01    1.434000E+09  0.05000  8.837E-05    0   0.5874   age139_m72            0.0000     1.4042E-05    78.9496  -1.0000   113.3011
 63      0.0000     0.0000E+00    0.0000E+00    2.500000E+09  0.05000  4.233E-05    0   0.5598   age150_m72            0.0000     1.6328E-05    87.2249  -1.0000   103.7852
 64      0.0000     0.0000E+00    0.0000E+00    6.250000E+09  0.05000  1.435E-05    0   0.5249   age166_m72            0.0000     2.0237E-05    97.6522  -1.0000    89.2232
 65      0.0000     0.0000E+00    0.0000E+00    1.300000E+10  0.05000  6.513E-06    0   0.5036   age193_m72            0.0000     2.3418E-05   101.9349  -1.0000    81.1861
 66      0.1368     5.5626E+00    4.7024E+00    1.800000E+10  0.05000  4.527E-06    0   0.4945   age213_m72            0.0000     2.5368E-05   103.6907  -1.0000    75.8590


## Synthesis Results - Average & Chains ##

# j      x_j: min, <> & last-chain-values for 1 ...  7 chains
  1      0.0000      1.3347      0.0000      0.2588      2.7758      0.0000      2.2257      4.3372      0.0000
  2      0.0000      1.4558      1.0463      3.7187      2.0315      0.0423      0.0000      0.0000      0.0000
  3      0.0000      1.3970      3.7773      0.7152      0.0000      7.5854      0.0000      0.2051      4.2590
  4      1.3140      1.7515      0.0000      2.1810      5.3835      0.0000      0.0000      9.3885      3.9097
  5      0.0000      1.5589      1.2008      8.1120      0.4399      1.3989      1.4688      5.4340      0.0000
  6      0.0000      1.5313      8.5508      1.9851      2.0710      2.7655      0.0000      0.0000      1.9164
  7      0.0000      1.5394      0.0000      0.9144      0.0109      0.0000      2.8970      1.9557      2.8535
  8      0.0000      1.9103      2.9234      2.3756      0.3225      6.5247      0.0419      0.9241      0.6420
  9      0.0000      1.6946      0.5419      2.2587      0.8610      0.3018      0.0000      0.0000      0.0000
 10      0.2528      2.4023      0.0000      1.4998      0.4450      0.0000     11.3122      3.9677     13.8981
 11      0.0000      1.2325      1.5568      3.2739      3.8839      4.1445      0.0000      0.0000      1.6727
 12      0.0000      1.1679      0.0000      2.0771      2.8786      0.0000      2.4336      6.7230      2.7987
 13      3.2487      1.2265      4.5619      0.7480      0.1696      0.7354      2.8637     13.8288      0.7510
 14      0.0000      1.2981      5.1200      1.3339      0.0000      0.0000      1.5562      2.2521      2.6236
 15      1.6366      1.1666      0.0000      1.6402      0.2345      2.6412      0.0000      7.3220      3.6449
 16      0.0000     17.5055      2.9516      8.5290      9.1931     10.1031      0.0000      0.0000     10.0061
 17      0.0000      7.7912      0.0000      3.8015      1.2729      4.6420      3.1469      0.0000      3.9233
 18      0.0000      1.5277      6.2482      1.6550      6.6006      3.0853      1.3850      0.4983      0.4426
 19      6.3971      1.4033      4.3931      0.0000      0.0000      4.4508      3.3897      0.8846      1.1044
 20     10.8718      2.0118      2.2097      4.3140      2.7071      0.1621      0.0000      1.4850      6.6350
 21      0.0000      1.9691      1.4608      1.5366      0.6355      0.0000      0.0000      2.3065      1.4196
 22      0.0000      1.5260      0.7049      1.1023      0.0000      0.0000      0.9079      0.0000      1.0167
 23      0.0000      1.7117      2.4065      5.3702      2.6628      0.3347      1.4461      0.0000      1.3797
 24      0.0000      1.5540      1.8966      4.5959      1.4956      9.9164      3.0742      0.0000      1.3487
 25      2.6433      2.1001      0.5817      1.9960      2.4429      0.7081      0.0000      2.0528      2.2305
 26      0.0000      1.6791      5.3039      0.6098      0.0000      0.1221      1.7438      0.0000      0.0000
 27      7.6985      1.4006      0.0000      0.0130      6.0819      5.4440      3.9754      1.4704      1.8343
 28      0.0000      1.4661      0.0000      1.8567      3.5058      0.0000      0.1412      0.0000      1.6192
 29      5.3685      1.6355     11.3512      1.8996      0.0000      0.2256      2.0206      1.2553      1.1150
 30      0.0587      1.2808      0.9559      3.1118      1.0481      0.0000      0.0000      1.9042      0.0000
 31      1.3794      1.5514      0.0000      0.6910      0.7787      1.2931      0.0000      3.3751      1.8614
 32      0.0000      1.6554      2.6775      0.7122      3.7806      2.9475      4.8762      0.0000      0.7418
 33      0.0000      1.3056      0.0000      2.4753      0.0000      0.0000      0.0000      0.0000      0.5438
 34      0.0000      1.3891      0.0000      0.0000      4.0604      0.6427      0.0000      0.0000      0.0000
 35      0.0000      1.5969      0.6355      0.0000      0.0000      0.0000      0.0452      0.0607      2.8439
 36      0.0000      1.3423      0.0000      0.0000      3.9661      1.3622      0.0000      0.2124      0.0000
 37      0.0555      1.8914      3.0754      0.3183      3.4755      1.7914      2.5837      1.4710      3.1045
 38      0.4811      1.7995      1.5549      0.9875      0.5113      2.4334      0.3756      1.6950      0.8454
 39      0.6968      1.3939      3.4895      0.5636      0.3625      4.5894      4.4941      7.9706      0.0000
 40      0.0000      1.4241      0.7158      0.4208      1.2336      1.1552      6.3532      0.0313      0.0000
 41     12.0021      1.5488      2.1808      2.1181      0.1976      4.8147      4.4373      1.5561      1.5266
 42      0.0000      1.7277      0.0163      0.7696      2.3949      2.3692      0.0000      2.8831      0.0052
 43      0.0172      1.4886      1.6478      0.5572      1.3137      0.1816      0.0000      0.6993      0.0000
 44      1.2399      1.7624      1.7880      3.9387      2.7966      0.8016      7.3220      0.5970      2.1123
 45     46.0443      1.9023      8.3649      3.5183      1.3350      2.0459      0.0000      1.0789      3.5929
 46     15.3423      1.9928      2.5917      3.3985      5.4301      0.1913      6.9684      7.2170      0.7398
 47      0.0048      2.2392      2.6412      5.0784      1.0844      0.0000      1.0407      5.3027      8.7604
 48      1.8613      1.5243      1.8232      1.2670      4.2106      0.2819      3.6919      3.3909      0.6198
 49      0.0000      1.5858      7.6122      0.0000      0.5014      0.0000      1.9762      0.0000      0.2404
 50      0.0000      1.7884      0.0000      2.9954      2.0808      0.0000      2.2318      0.2972      1.4183
 51      0.0000      1.7285      0.0000      5.8602      2.7012      0.7074      0.3239      5.0284      2.1115
 52      0.0000      1.8367      0.4295      0.0000      2.0933      1.9869      5.3631      0.0000      1.5144
 53      0.0000      1.3907      0.0000      1.1718      1.8619      0.0000      0.2327      0.7382      0.0000
 54      0.0000      1.6682      0.1305      2.5443      0.3793      3.0843      4.0036      0.4575      4.2883
 55     10.5606      1.8251      0.0000      0.3760      0.5397      5.9673      2.5040      4.4982      3.9026
 56      0.0000      1.5264      0.0000      2.7836      1.0278      0.0000      1.3653      0.0000      1.0588
 57      0.4551      1.8372      2.4899      1.7405      1.0628      0.0000      0.0000      1.6847      1.9269
 58      0.0000      2.0015      0.8196      2.2898      8.3242      0.0000      1.1187      0.0000      1.4247
 59      0.0000      1.3003      4.6649      1.3327      3.3218      0.0000      1.0343      0.2562      0.0000
 60      0.0000      1.3859      4.8706      0.0000      3.3474      3.4380      0.5485      0.1125      1.6470
 61      0.1352      1.7912      0.0000      1.9265      1.5081      7.6799     10.3992      5.6438      4.5310
 62      0.0974      2.0326      0.0000      2.0682      0.9291      4.8711      2.9710      0.9011      0.1230
 63      0.0000      1.3474      0.7025      1.4945      1.0105      1.0940      2.1998      1.0282      1.3771
 64      0.0000      1.5519      1.3922      1.4757      0.0000      4.5821      0.0000      0.0000      0.0000
 65      0.0000      1.3993      0.0000      0.0000      0.0000      0.0000      1.7150      0.4505      0.7207
 66      0.1368      1.5789      0.0000      0.0000      0.0000      1.3808      0.0000      0.7583      1.3002

# j      m_j: min, <> & last-chain-values for 1 ...  7 chains
  1  0.0000E+00  7.8736E-03  0.0000E+00  2.5158E-03  2.8192E-02  0.0000E+00  2.5564E-02  7.0061E-02  0.0000E+00
  2  0.0000E+00  2.3444E-03  3.8038E-03  9.8693E-03  5.6327E-03  1.0879E-04  0.0000E+00  0.0000E+00  0.0000E+00
  3  0.0000E+00  3.3689E-03  2.0564E-02  2.8423E-03  0.0000E+00  2.9197E-02  0.0000E+00  1.3544E-03  1.6071E-02
  4  1.4547E-02  3.9777E-03  0.0000E+00  8.1629E-03  2.1050E-02  0.0000E+00  0.0000E+00  5.8385E-02  1.3893E-02
  5  0.0000E+00  6.7437E-03  1.1727E-02  5.7834E-02  3.2762E-03  9.6593E-03  1.2372E-02  6.4372E-02  0.0000E+00
  6  0.0000E+00  1.0745E-02  1.3544E-01  2.2955E-02  2.5020E-02  3.0971E-02  0.0000E+00  0.0000E+00  2.1040E-02
  7  0.0000E+00  1.5464E-02  0.0000E+00  1.5138E-02  1.8864E-04  0.0000E+00  5.6666E-02  5.3798E-02  4.4853E-02
  8  0.0000E+00  2.6524E-02  9.1631E-02  5.4361E-02  7.7087E-03  1.4460E-01  1.1315E-03  3.5135E-02  1.3947E-02
  9  0.0000E+00  2.6931E-02  1.9441E-02  5.9157E-02  2.3560E-02  7.6561E-03  0.0000E+00  0.0000E+00  0.0000E+00
 10  2.5724E-02  5.0148E-02  0.0000E+00  5.1598E-02  1.5993E-02  0.0000E+00  4.5979E-01  2.2681E-01  4.5395E-01
 11  0.0000E+00  4.8379E-02  1.3795E-01  2.1179E-01  2.6248E-01  2.5965E-01  0.0000E+00  0.0000E+00  1.0273E-01
 12  0.0000E+00  7.2717E-02  0.0000E+00  2.1314E-01  3.0859E-01  0.0000E+00  2.9504E-01  1.1463E+00  2.7266E-01
 13  2.7793E+00  2.1525E-01  1.8074E+00  2.1635E-01  5.1260E-02  2.0600E-01  9.7859E-01  6.6459E+00  2.0622E-01
 14  0.0000E+00  7.6410E-01  6.8035E+00  1.2940E+00  0.0000E+00  0.0000E+00  1.7836E+00  3.6301E+00  2.4164E+00
 15  7.6451E+00  1.1180E+00  0.0000E+00  2.5904E+00  3.8689E-01  4.0397E+00  0.0000E+00  1.9214E+01  5.4651E+00
 16  0.0000E+00  2.8364E+01  1.0796E+01  2.2775E+01  2.5646E+01  2.6128E+01  0.0000E+00  0.0000E+00  2.5368E+01
 17  0.0000E+00  1.6376E+01  0.0000E+00  1.3168E+01  4.6066E+00  1.5573E+01  1.2879E+01  0.0000E+00  1.2903E+01
 18  0.0000E+00  7.9633E-03  7.3527E-02  1.4218E-02  5.9241E-02  2.5670E-02  1.4057E-02  7.1124E-03  3.6102E-03
 19  6.5243E-02  2.9361E-03  2.0749E-02  0.0000E+00  0.0000E+00  1.4863E-02  1.3809E-02  5.0683E-03  3.6153E-03
 20  1.2105E-01  4.5951E-03  1.1394E-02  1.6239E-02  1.0646E-02  5.9112E-04  0.0000E+00  9.2882E-03  2.3713E-02
 21  0.0000E+00  5.4595E-03  9.1432E-03  7.0214E-03  3.0337E-03  0.0000E+00  0.0000E+00  1.7512E-02  6.1585E-03
 22  0.0000E+00  7.1544E-03  7.4608E-03  8.5172E-03  0.0000E+00  0.0000E+00  8.2877E-03  0.0000E+00  7.4584E-03
 23  0.0000E+00  1.0837E-02  3.4395E-02  5.6034E-02  2.9027E-02  3.3824E-03  1.7827E-02  0.0000E+00  1.3668E-02
 24  0.0000E+00  1.4637E-02  4.0329E-02  7.1345E-02  2.4256E-02  1.4908E-01  5.6382E-02  0.0000E+00  1.9877E-02
 25  1.6735E-01  2.7276E-02  1.7056E-02  4.2724E-02  5.4627E-02  1.4678E-02  0.0000E+00  7.3011E-02  4.5329E-02
 26  0.0000E+00  3.6453E-02  2.5994E-01  2.1819E-02  0.0000E+00  4.2322E-03  7.3712E-02  0.0000E+00  0.0000E+00
 27  1.6307E+00  6.0860E-02  0.0000E+00  9.3121E-04  4.5503E-01  3.7758E-01  3.3636E-01  1.7497E-01  1.2472E-01
 28  0.0000E+00  1.8489E-01  0.0000E+00  3.8588E-01  7.6121E-01  0.0000E+00  3.4677E-02  0.0000E+00  3.1950E-01
 29  5.7502E+00  3.5938E-01  5.6306E+00  6.8791E-01  0.0000E+00  7.9126E-02  8.6449E-01  7.5533E-01  3.8334E-01
 30  1.3147E-01  5.8797E-01  9.9069E-01  2.3544E+00  8.2844E-01  0.0000E+00  0.0000E+00  2.3939E+00  0.0000E+00
 31  5.4303E+00  1.2529E+00  0.0000E+00  9.1966E-01  1.0828E+00  1.6668E+00  0.0000E+00  7.4638E+00  2.3520E+00
 32  0.0000E+00  1.7987E+00  6.5677E+00  1.2753E+00  7.0729E+00  5.1120E+00  1.0317E+01  0.0000E+00  1.2613E+00
 33  0.0000E+00  3.1406E+00  0.0000E+00  9.8126E+00  0.0000E+00  0.0000E+00  0.0000E+00  0.0000E+00  2.0466E+00
 34  0.0000E+00  4.5250E+00  0.0000E+00  0.0000E+00  2.2772E+01  3.3414E+00  0.0000E+00  0.0000E+00  0.0000E+00
 35  0.0000E+00  6.6745E-03  5.9962E-03  0.0000E+00  0.0000E+00  0.0000E+00  3.6766E-04  6.9487E-04  1.8599E-02
 36  0.0000E+00  2.2699E-03  0.0000E+00  0.0000E+00  1.1548E-02  3.6767E-03  0.0000E+00  9.8369E-04  0.0000E+00
 37  4.9476E-04  3.4596E-03  1.2699E-02  9.5957E-04  1.0945E-02  5.2300E-03  9.2017E-03  7.3677E-03  8.8852E-03
 38  1.1621E-02  8.9169E-03  1.7394E-02  8.0641E-03  4.3621E-03  1.9246E-02  3.6244E-03  2.3000E-02  6.5544E-03
 39  2.4233E-02  9.9451E-03  5.6204E-02  6.6274E-03  4.4533E-03  5.2263E-02  6.2431E-02  1.5572E-01  0.0000E+00
 40  0.0000E+00  1.6424E-02  1.8636E-02  7.9978E-03  2.4494E-02  2.1264E-02  1.4266E-01  9.8891E-04  0.0000E+00
 41  1.0492E+00  2.7777E-02  8.8290E-02  6.2603E-02  6.1019E-03  1.3782E-01  1.5495E-01  7.6419E-02  4.2839E-02
 42  0.0000E+00  5.6888E-02  1.2125E-03  4.1765E-02  1.3577E-01  1.2451E-01  0.0000E+00  2.5996E-01  2.6593E-04
 43  4.0364E-03  7.1562E-02  1.7882E-01  4.4148E-02  1.0873E-01  1.3936E-02  0.0000E+00  9.2061E-02  0.0000E+00
 44  5.0029E-01  1.4588E-01  3.3410E-01  5.3729E-01  3.9856E-01  1.0590E-01  1.1800E+00  1.3532E-01  2.7357E-01
 45  3.6862E+01  3.1242E-01  3.1013E+00  9.5228E-01  3.7749E-01  5.3629E-01  0.0000E+00  4.8522E-01  9.2327E-01
 46  2.2577E+01  6.0156E-01  1.7662E+00  1.6908E+00  2.8223E+00  9.2191E-02  4.0959E+00  5.9659E+00  3.4944E-01
 47  1.4320E-02  1.3697E+00  3.6472E+00  5.1196E+00  1.1421E+00  0.0000E+00  1.2395E+00  8.8822E+00  8.3847E+00
 48  9.7878E+00  1.6444E+00  4.4401E+00  2.2527E+00  7.8208E+00  4.8536E-01  7.7547E+00  1.0017E+01  1.0461E+00
 49  0.0000E+00  3.8880E+00  4.2133E+01  0.0000E+00  2.1166E+00  0.0000E+00  9.4341E+00  0.0000E+00  9.2223E-01
 50  0.0000E+00  8.1214E+00  0.0000E+00  2.2418E+01  1.6269E+01  0.0000E+00  1.9733E+01  3.6958E+00  1.0077E+01
 51  0.0000E+00  4.3028E-03  0.0000E+00  2.4041E-02  1.1577E-02  2.8106E-03  1.5697E-03  3.4276E-02  8.2240E-03
 52  0.0000E+00  2.3429E-03  1.2367E-03  0.0000E+00  4.5975E-03  4.0454E-03  1.3321E-02  0.0000E+00  3.0227E-03
 53  5.6944E-08  2.6722E-03  0.0000E+00  3.7109E-03  6.1600E-03  0.0000E+00  8.7053E-04  3.8840E-03  0.0000E+00
 54  0.0000E+00  6.5680E-03  1.1603E-03  1.6509E-02  2.5713E-03  1.9383E-02  3.0693E-02  4.9323E-03  2.6418E-02
 55  3.1208E-01  1.1064E-02  0.0000E+00  3.7566E-03  5.6327E-03  5.7739E-02  2.9556E-02  7.4673E-02  3.7018E-02
 56  0.0000E+00  1.8315E-02  0.0000E+00  5.5045E-02  2.1232E-02  0.0000E+00  3.1897E-02  0.0000E+00  1.9878E-02
 57  3.5332E-02  2.9258E-02  8.9516E-02  4.5681E-02  2.9140E-02  0.0000E+00  0.0000E+00  7.3471E-02  4.8016E-02
 58  0.0000E+00  5.3916E-02  4.9841E-02  1.0165E-01  3.8607E-01  0.0000E+00  5.8675E-02  0.0000E+00  6.0050E-02
 59  0.0000E+00  7.5379E-02  6.1048E-01  1.2733E-01  3.3155E-01  0.0000E+00  1.1675E-01  4.0664E-02  0.0000E+00
 60  0.0000E+00  1.4923E-01  1.1839E+00  0.0000E+00  6.2057E-01  5.9086E-01  1.1500E-01  3.3174E-02  2.7749E-01
 61  1.5509E-01  4.2140E-01  0.0000E+00  7.4694E-01  6.1088E-01  2.8839E+00  4.7637E+00  3.6359E+00  1.6679E+00
 62  2.0366E-01  8.7192E-01  0.0000E+00  1.4621E+00  6.8618E-01  3.3351E+00  2.4815E+00  1.0585E+00  8.2541E-02
 63  0.0000E+00  1.1499E+00  1.3535E+00  2.1020E+00  1.4849E+00  1.4902E+00  3.6554E+00  2.4030E+00  1.8389E+00
 64  0.0000E+00  3.6634E+00  7.4189E+00  5.7409E+00  0.0000E+00  1.7264E+01  0.0000E+00  0.0000E+00  0.0000E+00
 65  0.0000E+00  6.9825E+00  0.0000E+00  0.0000E+00  0.0000E+00  0.0000E+00  1.6662E+01  6.1554E+00  5.6272E+00
 66  4.7024E+00  1.1130E+01  0.0000E+00  0.0000E+00  0.0000E+00  1.5536E+01  0.0000E+00  1.4638E+01  1.4341E+01

# AV, chi2 & Mass for <> & i_chain = 1 ...  7 solutions
AV      -1.0000     -0.9361     -1.0000     -1.0000     -1.0000     -1.0000     -1.0000     -1.0000     -1.0000
chi2 1.0347E-05  1.0963E-05  1.0454E-05  1.0503E-05  1.0457E-05  1.0507E-05  1.0476E-05  1.0453E-05  1.0497E-05
Mass 4.9022E-15  2.6038E-14  1.0585E-14  1.4500E-14  1.3879E-14  1.4972E-14  1.2273E-14  8.7265E-15  1.5272E-14
 -34.30                                  [v0_min (km/s) before EX0s...]
   0.01                                  [vd_min (km/s) before EX0s...]


## Synthetic spectrum (Best Model) ##l_obs f_obs f_syn wei
 3478    [Nl_obs]
 3741.00    1.04754   1.02954    0.000
 3742.00    0.84277   1.00227    0.000
 3743.00    0.34160   0.97003    0.000
 3744.00    0.33235   0.93529    0.000
 3745.00    0.60971   0.88821    0.016
 3746.00    1.12787   0.83399    0.016
 3747.00    1.76829   0.76461    0.015
 3748.00    1.45395   0.67427    0.016
 3749.00    0.71978   0.61628    0.017
 3750.00    0.90050   0.64454    0.016
 3751.00    1.42663   0.73944    0.015
 3752.00    1.31864   0.84224    0.014
 3753.00    1.00743   0.92993    0.014
 3754.00    1.02748   1.00446    0.014
 3755.00    1.13629   1.04596    0.014
 3756.00    1.32399   1.03132    0.014
 3757.00    1.52900   0.98269    0.014
 3758.00    1.28603   0.95595    0.014
 3759.00    0.96485   0.97126    0.014
 3760.00    0.95890   1.00255    0.018
 3761.00    0.99482   1.02587    0.028
 3762.00    0.63072   1.03179    0.019
 3763.00    0.22902   1.02211    0.014
 3764.00    0.28802   1.00661    0.013
 3765.00    0.37360   0.97410    0.013
 3766.00    0.78029   0.91415    0.013
 3767.00    1.18588   0.85018    0.014
 3768.00    0.53296   0.78972    0.014
 3769.00   -0.08244   0.72257    0.000
 3770.00    0.21360   0.68679    0.013
 3771.00    0.51520   0.73080    0.013
 3772.00    0.88963   0.82336    0.013
 3773.00    1.22947   0.90003    0.013
 3774.00    1.26570   0.94945    0.013
 3775.00    1.26075   0.99474    0.013
 3776.00    0.98877   1.04236    0.013
 3777.00    0.70139   1.08271    0.013
 3778.00    0.33607   1.11713    0.013
 3779.00    0.07555   1.15462    0.013
 3780.00    0.24399   1.18304    0.013
 3781.00    0.47804   1.19062    0.013
 3782.00    0.93460   1.19163    0.013
 3783.00    1.14395   1.19798    0.014
 3784.00    0.64622   1.18777    0.013
 3785.00    0.16843   1.14172    0.013
 3786.00   -0.26066   1.09152    0.000
 3787.00   -0.35771   1.06686    0.000
 3788.00    0.24509   1.05306    0.014
 3789.00    0.70773   1.03916    0.014
 3790.00    0.91365   1.03079    0.013
 3791.00    0.89126   1.01793    0.013
 3792.00    0.50338   0.97997    0.013
 3793.00    0.15654   0.91558    0.013
 3794.00   -0.13266   0.84279    0.000
 3795.00    0.03447   0.76857    0.013
 3796.00    0.76563   0.68532    0.013
 3797.00    1.09601   0.61743    0.013
 3798.00    0.98977   0.62151    0.013
 3799.00    0.63852   0.70649    0.013
 3800.00    0.05183   0.81653    0.013
 3801.00   -0.27950   0.90989    0.000
 3802.00   -0.39446   0.98716    0.000
 3803.00   -0.31549   1.04567    0.000
 3804.00   -0.09180   1.07178    0.000
 3805.00    0.39925   1.06859    0.014
 3806.00    1.06558   1.06353    0.014
 3807.00    1.26724   1.09011    0.014
 3808.00    1.20225   1.14434    0.013
 3809.00    0.99127   1.19160    0.013
 3810.00    0.70732   1.21105    0.013
 3811.00    0.80461   1.19723    0.013
 3812.00    1.06676   1.15409    0.013
 3813.00    1.47342   1.10872    0.013
 3814.00    1.93368   1.08727    0.013
 3815.00    1.67926   1.09127    0.013
 3816.00    1.20017   1.11574    0.013
 3817.00    0.96150   1.13295    0.014
 3818.00    0.78589   1.09954    0.016
 3819.00    0.95389   1.03462    0.015
 3820.00    1.19552   1.01674    0.013
 3821.00    1.10898   1.06356    0.013
 3822.00    0.96675   1.10129    0.013
 3823.00    0.75740   1.07941    0.013
 3824.00    0.53944   1.03024    0.013
 3825.00    0.15866   1.00045    0.013
 3826.00   -0.23675   0.98751    0.000
 3827.00   -0.33016   0.97115    0.000
 3828.00   -0.40733   0.94828    0.000
 3829.00    0.08432   0.92355    0.015
 3830.00    0.58072   0.88664    0.014
 3831.00    0.51536   0.81990    0.013
 3832.00    0.47881   0.73319    0.013
 3833.00    1.08217   0.65004    0.013
 3834.00    1.63603   0.58778    0.013
 3835.00    1.57442   0.57679    0.013
 3836.00    1.53322   0.62517    0.014
 3837.00    1.66453   0.69224    0.015
 3838.00    1.76990   0.75234    0.015
 3839.00    1.71213   0.81127    0.014
 3840.00    1.56739   0.87372    0.014
 3841.00    0.99359   0.94246    0.013
 3842.00    0.52748   1.00606    0.013
 3843.00    0.49251   1.04875    0.013
 3844.00    0.40227   1.07296    0.013
 3845.00    0.12827   1.09053    0.013
 3846.00    0.03966   1.11504    0.014
 3847.00    0.47161   1.14139    0.000
 3848.00    0.92158   1.14449    0.000
 3849.00    1.41482   1.13048    0.000
 3850.00    1.62602   1.13995    0.000
 3851.00    1.25228   1.17481    0.000
 3852.00    0.83495   1.19502    0.000
 3853.00    0.33899   1.18783    0.000
 3854.00    0.33889   1.16665    0.000
 3855.00    1.12080   1.14563    0.000
 3856.00    1.55509   1.14528    0.000
 3857.00    1.50817   1.15392    0.000
 3858.00    1.37379   1.13983    0.000
 3859.00    1.13286   1.12726    0.000
 3860.00    1.31433   1.15000    0.000
 3861.00    1.94952   1.18689    0.000
 3862.00    2.05790   1.20838    0.000
 3863.00    1.66712   1.21479    0.000
 3864.00    1.34615   1.21022    0.000
 3865.00    1.08349   1.19734    0.000
 3866.00    1.08889   1.18776    0.000
 3867.00    1.29146   1.19104    0.000
 3868.00    1.38029   1.20263    0.000
 3869.00    1.39566   1.19848    0.000
 3870.00    1.45989   1.16105    0.000
 3871.00    1.55172   1.10587    0.000
 3872.00    1.42997   1.07680    0.000
 3873.00    1.20316   1.10006    0.000
 3874.00    0.98899   1.14157    0.000
 3875.00    0.78020   1.15243    0.000
 3876.00    0.44718   1.11953    0.000
 3877.00    0.06891   1.06359    0.000
 3878.00    0.33704   1.03359    0.000
 3879.00    0.80444   1.05019    0.000
 3880.00    1.08341   1.05816    0.000
 3881.00    1.31400   1.02212    0.012
 3882.00    0.62716   0.97903    0.012
 3883.00   -0.25148   0.95066    0.000
 3884.00    0.34733   0.90532    0.013
 3885.00    1.18976   0.82333    0.014
 3886.00    1.36503   0.73180    0.013
 3887.00    1.45768   0.65134    0.013
 3888.00    0.74000   0.59516    0.013
 3889.00   -0.04703   0.60554    0.000
 3890.00    0.44618   0.69130    0.013
 3891.00    1.00320   0.79634    0.013
 3892.00    1.09408   0.87465    0.013
 3893.00    1.17439   0.92220    0.013
 3894.00    1.06577   0.95240    0.013
 3895.00    0.94880   0.98209    0.013
 3896.00    0.66102   1.01910    0.013
 3897.00    0.42653   1.04590    0.012
 3898.00    0.82241   1.05113    0.012
 3899.00    1.18819   1.05942    0.012
 3900.00    1.30875   1.09376    0.012
 3901.00    1.41629   1.12918    0.011
 3902.00    1.44440   1.13171    0.011
 3903.00    1.44522   1.12027    0.011
 3904.00    1.31469   1.11197    0.011
 3905.00    1.15209   1.10124    0.010
 3906.00    0.86385   1.11326    0.010
 3907.00    0.66934   1.15856    0.010
 3908.00    0.78036   1.20332    0.011
 3909.00    0.97909   1.22701    0.011
 3910.00    1.41969   1.23714    0.011
 3911.00    1.78471   1.23820    0.012
 3912.00    1.97126   1.22439    0.012
 3913.00    1.96215   1.20681    0.012
 3914.00    1.55368   1.20351    0.012
 3915.00    1.03924   1.20228    0.012
 3916.00    0.33657   1.18872    0.012
 3917.00    0.21633   1.17044    0.012
 3918.00    1.00104   1.14882    0.013
 3919.00    1.46226   1.12645    0.013
 3920.00    1.48209   1.11744    0.013
 3921.00    1.32701   1.12924    0.013
 3922.00    0.96185   1.14847    0.013
 3923.00    0.73892   1.15832    0.013
 3924.00    0.66662   1.14871    0.013
 3925.00    0.59311   1.11540    0.013
 3926.00    0.51846   1.07379    0.013
 3927.00    0.37943   1.03436    0.013
 3928.00    0.18737   0.99086    0.013
 3929.00    0.14166   0.94019    0.013
 3930.00    0.20203   0.88071    0.013
 3931.00    0.53456   0.80841    0.013
 3932.00    1.04028   0.72952    0.014
 3933.00    1.06567   0.68206    0.014
 3934.00    0.82372   0.70662    0.013
 3935.00    0.82817   0.78793    0.013
 3936.00    0.95189   0.87901    0.014
 3937.00    0.94668   0.95426    0.013
 3938.00    0.88757   1.01588    0.013
 3939.00    0.55432   1.06611    0.013
 3940.00    0.12300   1.09312    0.013
 3941.00   -0.14203   1.09771    0.000
 3942.00   -0.35680   1.09066    0.000
 3943.00    0.00561   1.07995    0.013
 3944.00    0.51299   1.08978    0.013
 3945.00    0.54863   1.12800    0.013
 3946.00    0.48807   1.15194    0.013
 3947.00    0.57090   1.13886    0.013
 3948.00    0.67669   1.12430    0.013
 3949.00    0.90825   1.13391    0.013
 3950.00    1.15482   1.14860    0.013
 3951.00    1.24983   1.14325    0.013
 3952.00    1.33249   1.13106    0.013
 3953.00    1.04305   1.13798    0.013
 3954.00    0.73651   1.14328    0.013
 3955.00    0.35087   1.11477    0.013
 3956.00   -0.02312   1.07905    0.000
 3957.00    0.26434   1.07620    0.013
 3958.00    0.52720   1.09100    0.013
 3959.00    0.32402   1.07923    0.013
 3960.00    0.15498   1.02303    0.000
 3961.00    0.37065   0.95164    0.000
 3962.00    0.61512   0.90125    0.000
 3963.00    1.08603   0.86117    0.000
 3964.00    1.38427   0.80499    0.000
 3965.00    0.65797   0.72930    0.000
 3966.00    0.07389   0.63680    0.000
 3967.00    0.15761   0.53743    0.000
 3968.00    0.31662   0.45899    0.000
 3969.00    0.76413   0.43300    0.000
 3970.00    1.02392   0.47499    0.000
 3971.00    0.68364   0.56581    0.000
 3972.00    0.49953   0.66298    0.000
 3973.00    0.73834   0.74708    0.000
 3974.00    0.78113   0.82420    0.000
 3975.00    0.36877   0.88986    0.000
 3976.00    0.08334   0.93851    0.000
 3977.00    0.05283   0.98366    0.000
 3978.00    0.30191   1.03388    0.000
 3979.00    1.04004   1.07696    0.000
 3980.00    1.45393   1.09614    0.000
 3981.00    1.37143   1.09220    0.014
 3982.00    1.41995   1.08847    0.014
 3983.00    1.64468   1.10136    0.014
 3984.00    1.50969   1.12410    0.014
 3985.00    0.94869   1.14195    0.013
 3986.00    0.72336   1.15404    0.013
 3987.00    0.84854   1.17393    0.013
 3988.00    1.01883   1.19122    0.013
 3989.00    1.23067   1.18937    0.013
 3990.00    1.23102   1.18943    0.013
 3991.00    1.05967   1.20799    0.013
 3992.00    1.07360   1.22827    0.013
 3993.00    1.21991   1.23046    0.012
 3994.00    1.21694   1.21420    0.012
 3995.00    1.12035   1.19196    0.012
 3996.00    1.14475   1.17048    0.012
 3997.00    1.23545   1.16173    0.012
 3998.00    1.26212   1.18564    0.012
 3999.00    1.25830   1.22870    0.013
 4000.00    1.35761   1.25193    0.013
 4001.00    1.49930   1.25341    0.013
 4002.00    1.77487   1.25348    0.013
 4003.00    2.09747   1.23791    0.013
 4004.00    2.04962   1.18851    0.013
 4005.00    1.89201   1.14814    0.012
 4006.00    1.12465   1.16369    0.012
 4007.00    0.20750   1.20459    0.012
 4008.00    0.50735   1.22283    0.012
 4009.00    1.04917   1.22495    0.012
 4010.00    1.42490   1.23372    0.012
 4011.00    1.77483   1.24262    0.012
 4012.00    1.10156   1.24593    0.012
 4013.00    0.31064   1.25041    0.012
 4014.00    0.43641   1.25879    0.012
 4015.00    0.63306   1.26716    0.012
 4016.00    0.69626   1.26250    0.012
 4017.00    0.75384   1.25642    0.012
 4018.00    0.72785   1.27341    0.012
 4019.00    0.70816   1.29484    0.012
 4020.00    0.99847   1.29001    0.013
 4021.00    1.26458   1.26869    0.013
 4022.00    1.10395   1.24903    0.013
 4023.00    0.98673   1.22248    0.013
 4024.00    1.33654   1.18900    0.013
 4025.00    1.63786   1.17808    0.013
 4026.00    1.57109   1.20389    0.013
 4027.00    1.38867   1.24095    0.013
 4028.00    0.53919   1.25175    0.013
 4029.00   -0.09051   1.21952    0.000
 4030.00    0.28698   1.17030    0.012
 4031.00    0.61749   1.14515    0.012
 4032.00    0.77176   1.14684    0.012
 4033.00    0.86218   1.16133    0.012
 4034.00    0.75248   1.18670    0.012
 4035.00    0.72872   1.22449    0.012
 4036.00    0.93362   1.27035    0.012
 4037.00    1.05835   1.30299    0.013
 4038.00    1.00000   1.30593    0.013
 4039.00    0.89964   1.28432    0.013
 4040.00    0.71622   1.25972    0.012
 4041.00    0.83029   1.25749    0.012
 4042.00    1.45686   1.26377    0.013
 4043.00    1.78196   1.23148    0.013
 4044.00    1.65229   1.15850    0.013
 4045.00    1.44637   1.11164    0.013
 4046.00    1.13936   1.14438    0.013
 4047.00    1.10250   1.21369    0.013
 4048.00    1.38102   1.25111    0.013
 4049.00    1.82030   1.26218    0.013
 4050.00    2.42506   1.26839    0.013
 4051.00    2.44642   1.25914    0.013
 4052.00    1.93798   1.23359    0.013
 4053.00    1.38234   1.20810    0.012
 4054.00    0.78893   1.19371    0.012
 4055.00    0.89882   1.19219    0.012
 4056.00    1.50395   1.18761    0.012
 4057.00    1.60261   1.17364    0.012
 4058.00    1.38842   1.17861    0.012
 4059.00    0.98331   1.21106    0.012
 4060.00    0.47518   1.23395    0.012
 4061.00    0.41897   1.21214    0.012
 4062.00    0.57457   1.15390    0.012
 4063.00    0.55214   1.11649    0.012
 4064.00    0.45779   1.13885    0.012
 4065.00    0.62262   1.17520    0.012
 4066.00    0.87682   1.17743    0.012
 4067.00    1.17682   1.17732    0.012
 4068.00    1.49012   1.20271    0.012
 4069.00    1.34804   1.21344    0.012
 4070.00    1.09659   1.17666    0.012
 4071.00    1.04065   1.13432    0.012
 4072.00    1.02259   1.14278    0.012
 4073.00    1.17529   1.17842    0.012
 4074.00    1.35373   1.17804    0.012
 4075.00    1.08209   1.12920    0.012
 4076.00    0.76068   1.06692    0.012
 4077.00    0.99572   1.03938    0.012
 4078.00    1.27152   1.06895    0.012
 4079.00    0.98921   1.12913    0.012
 4080.00    0.68554   1.18072    0.012
 4081.00    0.55837   1.19894    0.012
 4082.00    0.46166   1.17899    0.012
 4083.00    1.47645   1.14375    0.012
 4084.00    2.43185   1.12021    0.012
 4085.00    2.40834   1.11837    0.012
 4086.00    2.37743   1.13587    0.012
 4087.00    2.27038   1.15736    0.012
 4088.00    2.10382   1.16381    0.012
 4089.00    1.50052   1.15281    0.012
 4090.00    0.94837   1.13337    0.012
 4091.00    0.68318   1.10934    0.012
 4092.00    0.49945   1.08786    0.000
 4093.00    0.68025   1.07171    0.000
 4094.00    1.08507   1.03968    0.000
 4095.00    2.31258   0.98435    0.000
 4096.00    3.04501   0.92964    0.000
 4097.00    2.25484   0.88614    0.000
 4098.00    1.64132   0.83894    0.000
 4099.00    1.48951   0.76557    0.000
 4100.00    1.34249   0.66620    0.000
 4101.00    1.20622   0.59876    0.000
 4102.00    1.21473   0.62480    0.000
 4103.00    1.50496   0.71786    0.000
 4104.00    1.56261   0.81254    0.000
 4105.00    1.22561   0.88690    0.000
 4106.00    1.15219   0.93988    0.000
 4107.00    1.47057   0.97152    0.000
 4108.00    1.75557   0.98879    0.000
 4109.00    1.99695   0.99915    0.000
 4110.00    2.15864   1.01202    0.000
 4111.00    2.22860   1.03395    0.000
 4112.00    1.99886   1.06304    0.000
 4113.00    1.46492   1.09237    0.012
 4114.00    1.39450   1.11487    0.012
 4115.00    1.73910   1.13121    0.012
 4116.00    1.52955   1.13823    0.012
 4117.00    0.88279   1.12218    0.012
 4118.00    0.40458   1.09313    0.012
 4119.00    0.04334   1.08236    0.012
 4120.00    0.41478   1.09051    0.012
 4121.00    1.23206   1.09831    0.012
 4122.00    1.58626   1.10690    0.012
 4123.00    1.69443   1.12683    0.012
 4124.00    1.85393   1.15123    0.019
 4125.00    2.03711   1.15735    0.084
 4126.00    2.06948   1.13611   -1.000
 4127.00    2.04197   1.10587   -1.000
 4128.00    1.61453   1.09454   -1.000
 4129.00    1.05174   1.10019   -1.000
 4130.00    0.87779   1.09346   -1.000
 4131.00    0.81448   1.07163   -1.000
 4132.00    1.08893   1.06251    0.027
 4133.00    1.44268   1.08053    0.012
 4134.00    0.99311   1.11616    0.011
 4135.00    0.39191   1.15334    0.011
 4136.00    0.30412   1.17308    0.011
 4137.00    0.29130   1.18025    0.011
 4138.00    1.38702   1.19375    0.011
 4139.00    2.60053   1.20528    0.012
 4140.00    2.18845   1.19659    0.012
 4141.00    1.66391   1.15348    0.012
 4142.00    1.27207   1.07936    0.011
 4143.00    0.88481   1.02987    0.011
 4144.00    1.25273   1.05539    0.011
 4145.00    1.60026   1.11734    0.011
 4146.00    1.22433   1.15477    0.011
 4147.00    0.86551   1.16182    0.011
 4148.00    0.77111   1.15224    0.011
 4149.00    0.72258   1.13882    0.012
 4150.00    1.12627   1.13674    0.012
 4151.00    1.46819   1.14054    0.012
 4152.00    1.37155   1.13306    0.011
 4153.00    1.22968   1.11443    0.011
 4154.00    0.84086   1.10152    0.012
 4155.00    0.57142   1.10189    0.012
 4156.00    0.82376   1.10756    0.012
 4157.00    1.02326   1.12187    0.011
 4158.00    1.03269   1.14440    0.011
 4159.00    0.94804   1.15746    0.011
 4160.00    0.57949   1.15562    0.011
 4161.00    0.49807   1.15656    0.011
 4162.00    1.15401   1.16922    0.011
 4163.00    1.67855   1.17776    0.012
 4164.00    1.91286   1.17629    0.012
 4165.00    1.98204   1.16719    0.012
 4166.00    1.73490   1.14667    0.012
 4167.00    1.56940   1.13139    0.012
 4168.00    1.54035   1.14042    0.012
 4169.00    1.38375   1.15145    0.012
 4170.00    1.04032   1.12953    0.011
 4171.00    0.67115   1.07802    0.011
 4172.00    0.26885   1.03682    0.011
 4173.00    0.20797   1.03861    0.011
 4174.00    0.53454   1.07025    0.011
 4175.00    0.65411   1.09298    0.011
 4176.00    0.56649   1.08864    0.012
 4177.00    0.61645   1.07273    0.012
 4178.00    0.78785   1.07581    0.012
 4179.00    0.84488   1.10403    0.012
 4180.00    0.81296   1.12280    0.012
 4181.00    0.83743   1.11211    0.011
 4182.00    0.90045   1.09942    0.011
 4183.00    0.83544   1.10640    0.011
 4184.00    0.69368   1.12447    0.011
 4185.00    0.47595   1.12996    0.011
 4186.00    0.21849   1.10428    0.011
 4187.00    0.62749   1.07868    0.011
 4188.00    1.33879   1.09373    0.011
 4189.00    1.50319   1.12405    0.011
 4190.00    1.45417   1.13077    0.011
 4191.00    1.35234   1.13165    0.011
 4192.00    1.23298   1.15415    0.011
 4193.00    0.90358   1.17220    0.011
 4194.00    0.51564   1.15213    0.011
 4195.00    0.48113   1.11293    0.011
 4196.00    0.52772   1.08434    0.011
 4197.00    0.74766   1.05984    0.011
 4198.00    0.99946   1.04267    0.011
 4199.00    1.01333   1.05438    0.011
 4200.00    0.99357   1.07163    0.011
 4201.00    1.07528   1.06787    0.011
 4202.00    1.16734   1.06676    0.011
 4203.00    1.12810   1.08060    0.011
 4204.00    1.08031   1.09357    0.011
 4205.00    1.34122   1.10709    0.011
 4206.00    1.61130   1.12583    0.011
 4207.00    1.67342   1.13959    0.011
 4208.00    1.72355   1.13892    0.011
 4209.00    1.42157   1.12805    0.011
 4210.00    1.15279   1.12645    0.011
 4211.00    1.36748   1.14072    0.011
 4212.00    1.54727   1.15067    0.011
 4213.00    1.39691   1.13378    0.011
 4214.00    1.21557   1.08743    0.011
 4215.00    0.82132   1.04884    0.011
 4216.00    0.51886   1.06375    0.010
 4217.00    0.70428   1.11221    0.010
 4218.00    0.83891   1.14232    0.010
 4219.00    0.75664   1.15007    0.010
 4220.00    0.70708   1.15431    0.010
 4221.00    0.77276   1.14836    0.010
 4222.00    0.88601   1.12295    0.010
 4223.00    1.14013   1.08398    0.010
 4224.00    1.34658   1.03110    0.011
 4225.00    1.43276   0.96600    0.011
 4226.00    1.44809   0.92506    0.011
 4227.00    1.30950   0.95872    0.010
 4228.00    1.10842   1.04654    0.010
 4229.00    0.78949   1.11591    0.010
 4230.00    0.67134   1.14272    0.010
 4231.00    0.88377   1.13253    0.010
 4232.00    1.00741   1.09304    0.010
 4233.00    1.00289   1.06465    0.010
 4234.00    1.08689   1.06509    0.010
 4235.00    1.28330   1.06468    0.010
 4236.00    1.46204   1.06259    0.010
 4237.00    1.62101   1.06908    0.010
 4238.00    1.50547   1.07073    0.010
 4239.00    1.11905   1.07405    0.010
 4240.00    1.02102   1.09304    0.010
 4241.00    1.17396   1.11181    0.010
 4242.00    1.25113   1.11957    0.010
 4243.00    1.27019   1.13178    0.010
 4244.00    1.05362   1.14174    0.010
 4245.00    0.67825   1.12309    0.010
 4246.00    0.83430   1.08679    0.010
 4247.00    1.30411   1.06931    0.011
 4248.00    1.55129   1.06924    0.011
 4249.00    1.68384   1.05642    0.011
 4250.00    1.56081   1.04366    0.011
 4251.00    1.32377   1.06195    0.011
 4252.00    1.28895   1.08348    0.011
 4253.00    1.33168   1.07250    0.011
 4254.00    1.32397   1.05656    0.011
 4255.00    1.29982   1.07248    0.011
 4256.00    0.91971   1.10329    0.011
 4257.00    0.44245   1.10746    0.011
 4258.00    0.77474   1.07684    0.011
 4259.00    1.28846   1.03572    0.011
 4260.00    1.29027   1.01580    0.011
 4261.00    1.20052   1.03940    0.011
 4262.00    1.39029   1.08934    0.011
 4263.00    1.61831   1.12710    0.011
 4264.00    1.35240   1.14156    0.011
 4265.00    1.03824   1.13817    0.011
 4266.00    1.22600   1.11564    0.011
 4267.00    1.44446   1.08765    0.011
 4268.00    1.20556   1.07276    0.011
 4269.00    0.95293   1.05448    0.011
 4270.00    0.42895   1.01113    0.010
 4271.00   -0.06801   0.97142    0.000
 4272.00    0.14936   0.97491    0.011
 4273.00    0.34844   0.99630    0.011
 4274.00    0.29612   1.00397    0.011
 4275.00    0.31333   1.02307    0.010
 4276.00    0.96215   1.06357    0.011
 4277.00    1.48940   1.09657    0.011
 4278.00    1.20687   1.10404    0.011
 4279.00    1.04765   1.08813    0.011
 4280.00    1.52677   1.06597    0.011
 4281.00    1.78726   1.05135    0.011
 4282.00    1.13510   1.04518   -2.000
 4283.00    0.59316   1.04851   -2.000
 4284.00    0.43171   1.05058   -2.000
 4285.00    0.36366   1.04437   -2.000
 4286.00    0.56710   1.03915   -2.000
 4287.00    0.78952   1.02614   -2.000
 4288.00    1.05901   0.98604   -2.000
 4289.00    1.37523   0.94116   -2.000
 4290.00    1.79135   0.94353   -2.000
 4291.00    1.83447   0.99449   -2.000
 4292.00    1.18504   1.03761   -2.000
 4293.00    0.86217   1.03729   -2.000
 4294.00    1.06890   1.01917   -2.000
 4295.00    1.18041   1.01428   -2.000
 4296.00    1.15645   1.01074   -2.000
 4297.00    1.15368   0.98790   -2.000
 4298.00    1.17744   0.94119    0.011
 4299.00    1.05502   0.89693    0.010
 4300.00    0.77136   0.88918    0.010
 4301.00    0.66393   0.90098    0.010
 4302.00    0.72798   0.90807    0.010
 4303.00    0.92677   0.92350    0.010
 4304.00    1.24118   0.94224    0.010
 4305.00    1.10700   0.94239    0.010
 4306.00    0.63384   0.92282    0.010
 4307.00    0.55090   0.89375    0.010
 4308.00    0.72709   0.88107    0.010
 4309.00    0.71172   0.90465    0.010
 4310.00    0.58494   0.94522    0.010
 4311.00    0.58276   0.96997    0.010
 4312.00    0.64373   0.96903    0.010
 4313.00    0.83753   0.95816    0.010
 4314.00    1.08962   0.96610    0.010
 4315.00    0.91596   1.01077    0.010
 4316.00    0.58191   1.06263    0.010
 4317.00    0.86079   1.08077    0.010
 4318.00    1.33563   1.06952    0.010
 4319.00    1.48580   1.04945    0.010
 4320.00    1.54919   1.03061    0.010
 4321.00    1.47679   1.02243    0.010
 4322.00    1.37468   1.01166    0.010
 4323.00    1.32673   0.96970    0.010
 4324.00    1.28821   0.90334    0.010
 4325.00    0.92824   0.86028    0.010
 4326.00    0.52576   0.88194    0.010
 4327.00    0.71789   0.94617    0.010
 4328.00    0.96559   0.99004    0.010
 4329.00    1.18247   0.98608    0.010
 4330.00    1.39758   0.96117    0.000
 4331.00    1.06145   0.94727    0.000
 4332.00    0.71709   0.94117    0.000
 4333.00    0.90021   0.93074    0.000
 4334.00    1.06922   0.91642    0.000
 4335.00    0.89918   0.88483    0.000
 4336.00    0.74076   0.81439    0.000
 4337.00    0.73370   0.72104    0.000
 4338.00    0.78635   0.63515    0.000
 4339.00    1.36062   0.56250    0.000
 4340.00    1.89991   0.53606    0.000
 4341.00    2.21329   0.59249    0.000
 4342.00    2.33663   0.68443    0.000
 4343.00    1.50116   0.75030    0.000
 4344.00    0.81405   0.79886    0.000
 4345.00    0.73246   0.84592    0.000
 4346.00    0.69910   0.87982    0.000
 4347.00    0.82893   0.90678    0.000
 4348.00    0.96493   0.93872    0.000
 4349.00    1.11854   0.95071    0.000
 4350.00    1.24747   0.91509    0.000
 4351.00    1.31624   0.86768    0.010
 4352.00    1.39414   0.87091    0.010
 4353.00    1.49123   0.91742    0.010
 4354.00    1.52656   0.95810    0.010
 4355.00    1.44897   0.98476    0.010
 4356.00    1.28453   1.00606    0.010
 4357.00    0.98132   1.00852    0.010
 4358.00    0.82021   0.99179    0.013
 4359.00    0.85834   0.98701    0.036
 4360.00    1.03295   1.00950   -1.000
 4361.00    1.37595   1.03586   -1.000
 4362.00    1.52102   1.04717   -1.000
 4363.00    1.45083   1.05512   -1.000
 4364.00    1.22915   1.06927   -1.000
 4365.00    0.86217   1.07011   -1.000
 4366.00    0.66869   1.04182    0.036
 4367.00    0.62198   1.00840    0.013
 4368.00    0.62816   0.99891    0.010
 4369.00    0.67375   1.00710    0.010
 4370.00    0.85396   1.01785    0.010
 4371.00    1.12226   1.02717    0.010
 4372.00    1.15252   1.02118    0.010
 4373.00    1.04644   0.98607    0.010
 4374.00    0.86278   0.94832    0.010
 4375.00    0.64042   0.95254    0.010
 4376.00    0.62153   0.99800    0.010
 4377.00    0.69046   1.04247    0.010
 4378.00    0.77511   1.05620    0.010
 4379.00    0.86556   1.04789    0.010
 4380.00    0.81080   1.03653    0.010
 4381.00    0.71050   1.00783    0.010
 4382.00    0.87021   0.93857    0.010
 4383.00    1.09793   0.86554    0.010
 4384.00    1.02998   0.85459    0.010
 4385.00    0.89889   0.90544    0.010
 4386.00    0.93282   0.95391    0.010
 4387.00    0.99466   0.96663    0.010
 4388.00    1.08765   0.96902    0.010
 4389.00    1.18460   0.97523    0.010
 4390.00    0.96339   0.98057    0.010
 4391.00    0.71378   0.99511    0.010
 4392.00    0.63493   1.01168    0.010
 4393.00    0.56517   1.00286    0.010
 4394.00    0.78348   0.97778    0.010
 4395.00    1.00516   0.98221    0.010
 4396.00    1.04152   1.02240    0.010
 4397.00    1.07486   1.04920    0.010
 4398.00    1.04194   1.03442    0.010
 4399.00    0.99789   0.99599    0.010
 4400.00    0.81619   0.97373    0.010
 4401.00    0.65258   0.99268    0.010
 4402.00    0.64117   1.01416    0.010
 4403.00    0.66427   0.98759    0.010
 4404.00    0.90364   0.94557    0.010
 4405.00    1.10729   0.94843    0.010
 4406.00    1.13525   0.97577    0.010
 4407.00    1.17120   0.97981    0.010
 4408.00    1.23902   0.97810    0.010
 4409.00    1.22965   1.00119    0.010
 4410.00    0.96427   1.03208    0.010
 4411.00    0.78714   1.05168    0.010
 4412.00    0.85730   1.05702    0.010
 4413.00    0.98784   1.02908    0.010
 4414.00    1.26312   0.97151    0.010
 4415.00    1.45609   0.93604    0.010
 4416.00    1.47868   0.94494    0.010
 4417.00    1.45948   0.97488    0.010
 4418.00    1.36503   1.01361    0.010
 4419.00    1.31375   1.04684    0.010
 4420.00    1.33043   1.04946    0.010
 4421.00    1.13831   1.02202    0.010
 4422.00    0.65767   0.99674    0.010
 4423.00    0.53460   0.99795    0.010
 4424.00    0.84645   1.01007    0.010
 4425.00    1.15027   1.01098    0.010
 4426.00    1.44547   1.00607    0.010
 4427.00    1.69554   1.00977    0.010
 4428.00    1.90294   1.01590    0.010
 4429.00    1.70335   1.00492    0.010
 4430.00    1.16437   0.99106    0.010
 4431.00    0.82145   0.99810    0.010
 4432.00    0.62247   1.00180    0.010
 4433.00    0.72523   0.97656    0.010
 4434.00    1.02252   0.94255    0.010
 4435.00    1.10733   0.93714    0.010
 4436.00    1.07229   0.97107    0.010
 4437.00    0.84830   1.01788    0.010
 4438.00    0.53154   1.04960    0.010
 4439.00    0.42282   1.05323    0.010
 4440.00    0.40239   1.02532    0.010
 4441.00    0.73872   0.97917    0.010
 4442.00    1.20473   0.94106    0.010
 4443.00    1.31373   0.93832    0.010
 4444.00    1.31295   0.97674    0.010
 4445.00    1.39471   1.01928    0.010
 4446.00    1.49760   1.02922    0.010
 4447.00    1.50874   1.02287    0.010
 4448.00    1.50075   1.02299    0.010
 4449.00    1.30059   1.01679    0.010
 4450.00    1.06885   1.00638    0.010
 4451.00    1.02706   1.00918    0.010
 4452.00    1.00868   1.00900    0.010
 4453.00    1.14828   0.98021    0.010
 4454.00    1.30131   0.93596    0.009
 4455.00    1.23500   0.91797    0.009
 4456.00    1.15785   0.93459    0.009
 4457.00    1.13774   0.95010    0.009
 4458.00    1.11909   0.94856    0.009
 4459.00    1.13579   0.94462    0.009
 4460.00    1.13705   0.93765    0.009
 4461.00    0.82577   0.92963    0.000
 4462.00    0.56220   0.94449    0.000
 4463.00    0.85935   0.97352    0.000
 4464.00    1.12165   0.98461    0.000
 4465.00    1.10138   0.97923    0.000
 4466.00    1.11120   0.97207    0.000
 4467.00    1.30420   0.96022    0.000
 4468.00    1.46621   0.94134    0.000
 4469.00    1.47954   0.92740    0.000
 4470.00    1.41265   0.92621    0.000
 4471.00    1.03248   0.94016    0.000
 4472.00    0.66874   0.97250    0.000
 4473.00    0.35844   1.00722    0.000
 4474.00    0.24396   1.02024    0.000
 4475.00    0.66821   1.01810    0.000
 4476.00    0.99644   1.02607    0.000
 4477.00    1.09839   1.03893    0.000
 4478.00    1.08565   1.02599    0.000
 4479.00    0.83929   0.97490    0.000
 4480.00    0.85908   0.91193    0.000
 4481.00    1.35069   0.88796    0.000
 4482.00    1.48772   0.92250    0.009
 4483.00    1.07485   0.97797    0.009
 4484.00    0.87315   1.01636    0.009
 4485.00    0.95906   1.03361    0.009
 4486.00    1.10237   1.03164    0.009
 4487.00    1.31451   1.00607    0.009
 4488.00    1.39062   0.96815    0.009
 4489.00    1.32291   0.94623    0.009
 4490.00    1.26823   0.95490    0.009
 4491.00    1.22569   0.98168    0.009
 4492.00    1.11002   0.99851    0.009
 4493.00    0.93424   0.98631    0.009
 4494.00    0.83240   0.96335    0.009
 4495.00    0.78406   0.95821    0.009
 4496.00    0.97316   0.97260    0.009
 4497.00    1.31308   0.99587    0.009
 4498.00    1.28506   1.01395    0.009
 4499.00    1.05266   1.01154    0.009
 4500.00    1.02149   0.99038    0.009
 4501.00    1.08754   0.98187    0.009
 4502.00    1.09924   1.00912    0.009
 4503.00    1.08827   1.04572    0.009
 4504.00    1.14361   1.05909    0.009
 4505.00    1.22263   1.05087    0.009
 4506.00    1.10423   1.03194    0.009
 4507.00    0.92631   1.01225    0.009
 4508.00    1.19451   1.00792    0.009
 4509.00    1.57444   1.02185    0.009
 4510.00    1.47094   1.03385    0.009
 4511.00    1.26917   1.02787    0.009
 4512.00    1.13690   1.01026    0.009
 4513.00    1.01572   0.99136    0.009
 4514.00    1.07358   0.97781    0.009
 4515.00    1.15272   0.97884    0.009
 4516.00    1.08466   0.98649    0.009
 4517.00    1.00470   0.98571    0.009
 4518.00    1.04645   0.98441    0.009
 4519.00    1.09373   0.99164    0.009
 4520.00    1.30723   0.99980    0.009
 4521.00    1.51482   0.99252    0.009
 4522.00    1.31694   0.97226    0.009
 4523.00    1.13435   0.96247    0.009
 4524.00    1.23851   0.95914    0.009
 4525.00    1.31810   0.94538    0.009
 4526.00    1.12235   0.92545    0.009
 4527.00    0.96797   0.90597    0.009
 4528.00    1.13731   0.89342    0.009
 4529.00    1.25742   0.89735    0.009
 4530.00    1.08650   0.91398    0.009
 4531.00    0.94703   0.93141    0.008
 4532.00    0.95472   0.93141    0.008
 4533.00    0.89405   0.90766    0.009
 4534.00    0.57215   0.89007    0.009
 4535.00    0.35005   0.90777    0.009
 4536.00    0.44617   0.95599    0.009
 4537.00    0.58575   0.99756    0.009
 4538.00    0.84275   1.00160    0.009
 4539.00    0.98643   0.97811    0.009
 4540.00    0.86751   0.95502    0.008
 4541.00    0.81739   0.95338    0.008
 4542.00    0.90520   0.96937    0.009
 4543.00    1.02246   0.97414    0.009
 4544.00    1.19115   0.96074    0.009
 4545.00    1.19231   0.95351    0.009
 4546.00    0.93747   0.95784    0.009
 4547.00    0.86489   0.95002    0.009
 4548.00    1.03697   0.91846    0.009
 4549.00    1.07952   0.89710    0.009
 4550.00    0.96894   0.91588    0.000
 4551.00    0.83658   0.94107    0.000
 4552.00    0.68152   0.93797    0.000
 4553.00    0.67475   0.91781    0.000
 4554.00    0.80433   0.90150    0.000
 4555.00    0.84135   0.90634    0.000
 4556.00    0.80336   0.93539    0.000
 4557.00    0.66480   0.96308    0.000
 4558.00    0.45451   0.97351    0.000
 4559.00    0.52628   0.97909    0.000
 4560.00    0.77455   0.98689    0.000
 4561.00    1.02469   0.98838    0.000
 4562.00    1.27584   0.97137    0.000
 4563.00    1.21760   0.94143    0.000
 4564.00    1.01228   0.92365    0.000
 4565.00    1.07035   0.93196    0.000
 4566.00    1.23643   0.95824    0.000
 4567.00    1.12386   0.98188    0.000
 4568.00    0.91365   0.99026    0.000
 4569.00    0.96164   0.98285    0.000
 4570.00    1.08593   0.95583    0.000
 4571.00    1.05067   0.92963    0.000
 4572.00    0.97632   0.94065    0.000
 4573.00    0.86325   0.97041    0.000
 4574.00    0.74249   0.97852    0.000
 4575.00    0.90583   0.97207    0.000
 4576.00    1.11315   0.97054    0.000
 4577.00    0.80924   0.96828    0.000
 4578.00    0.44683   0.95319    0.000
 4579.00    0.68480   0.92889    0.000
 4580.00    0.96889   0.91250    0.000
 4581.00    0.92549   0.91069    0.000
 4582.00    0.86846   0.91040    0.000
 4583.00    0.69658   0.90656    0.000
 4584.00    0.53198   0.90895    0.000
 4585.00    0.72277   0.91661    0.000
 4586.00    0.90932   0.92578    0.000
 4587.00    1.02195   0.93896    0.000
 4588.00    1.14199   0.95156    0.000
 4589.00    1.34122   0.95414    0.000
 4590.00    1.49168   0.94195    0.000
 4591.00    1.27349   0.92448    0.000
 4592.00    1.07334   0.91917    0.000
 4593.00    0.97686   0.92559    0.000
 4594.00    0.91028   0.92747    0.000
 4595.00    0.98025   0.92383    0.000
 4596.00    1.03635   0.92488    0.000
 4597.00    1.04058   0.93113    0.000
 4598.00    1.04939   0.93705    0.000
 4599.00    1.07252   0.93316    0.000
 4600.00    1.07502   0.92248    0.000
 4601.00    1.02279   0.92200    0.000
 4602.00    1.01366   0.92968    0.000
 4603.00    1.10275   0.93318    0.000
 4604.00    1.10950   0.93045    0.000
 4605.00    0.95380   0.92898    0.000
 4606.00    0.81674   0.93756    0.000
 4607.00    0.71175   0.95602    0.000
 4608.00    0.64148   0.97472    0.000
 4609.00    0.62350   0.97877    0.000
 4610.00    0.71708   0.96654    0.000
 4611.00    0.95827   0.95252    0.000
 4612.00    1.17824   0.94405    0.000
 4613.00    1.37346   0.94320    0.000
 4614.00    1.44028   0.94958    0.000
 4615.00    1.37513   0.95079    0.000
 4616.00    1.15919   0.94698    0.000
 4617.00    0.80655   0.94267    0.000
 4618.00    0.61541   0.93069    0.000
 4619.00    0.55330   0.92422    0.000
 4620.00    0.59655   0.93706    0.000
 4621.00    0.71385   0.95134    0.000
 4622.00    0.87385   0.95509    0.000
 4623.00    1.06020   0.95525    0.000
 4624.00    1.02945   0.95030    0.000
 4625.00    0.88179   0.94200    0.000
 4626.00    0.79774   0.94122    0.000
 4627.00    0.74344   0.94141    0.000
 4628.00    0.75138   0.93012    0.000
 4629.00    0.78442   0.92230    0.000
 4630.00    0.78794   0.93502    0.000
 4631.00    0.78130   0.94865    0.000
 4632.00    0.83919   0.93943    0.000
 4633.00    0.91578   0.92054    0.000
 4634.00    0.93256   0.91503    0.000
 4635.00    0.93501   0.91978    0.000
 4636.00    0.91205   0.91785    0.000
 4637.00    0.88418   0.90773    0.000
 4638.00    0.87020   0.90155    0.000
 4639.00    0.85830   0.90259    0.000
 4640.00    0.86316   0.91055    0.000
 4641.00    0.86986   0.92238    0.000
 4642.00    0.93995   0.92571    0.000
 4643.00    1.01466   0.91945    0.000
 4644.00    0.94629   0.90839    0.000
 4645.00    0.87252   0.88676    0.000
 4646.00    0.84327   0.86196    0.000
 4647.00    0.81712   0.85425    0.000
 4648.00    0.89716   0.86710    0.000
 4649.00    0.97653   0.88832    0.000
 4650.00    1.04504   0.90540    0.000
 4651.00    1.08818   0.91576    0.000
 4652.00    0.87165   0.92118    0.000
 4653.00    0.69262   0.91313    0.000
 4654.00    0.78756   0.89423    0.000
 4655.00    0.88226   0.88264    0.000
 4656.00    0.97558   0.88649    0.000
 4657.00    1.06172   0.90813    0.000
 4658.00    1.11585   0.93876    0.000
 4659.00    1.18024   0.95631    0.000
 4660.00    1.28225   0.95053    0.000
 4661.00    1.31305   0.93013    0.000
 4662.00    1.12533   0.90909    0.000
 4663.00    0.91272   0.89868    0.000
 4664.00    0.63517   0.89535    0.000
 4665.00    0.47761   0.87648    0.000
 4666.00    0.58893   0.83866    0.000
 4667.00    0.67981   0.81600    0.000
 4668.00    0.73098   0.82906    0.000
 4669.00    0.78604   0.85983    0.000
 4670.00    0.84768   0.88740    0.000
 4671.00    0.88736   0.90101    0.000
 4672.00    0.89447   0.89883    0.000
 4673.00    0.88052   0.89398    0.000
 4674.00    0.83912   0.89883    0.000
 4675.00    0.83371   0.91211    0.000
 4676.00    0.86964   0.91951    0.000
 4677.00    0.80953   0.90878    0.000
 4678.00    0.65211   0.88975    0.000
 4679.00    0.65811   0.87876    0.000
 4680.00    0.81016   0.87534    0.000
 4681.00    0.83902   0.87630    0.000
 4682.00    0.77085   0.88584    0.000
 4683.00    0.96817   0.89757    0.000
 4684.00    1.34938   0.89968    0.000
 4685.00    1.41805   0.89631    0.000
 4686.00    1.29691   0.89441    0.000
 4687.00    1.08162   0.89249    0.000
 4688.00    0.81641   0.89180    0.000
 4689.00    0.77893   0.89145    0.000
 4690.00    0.84625   0.88605    0.000
 4691.00    0.85909   0.88197    0.000
 4692.00    0.85035   0.88633    0.000
 4693.00    0.82849   0.89397    0.000
 4694.00    0.80219   0.90276    0.000
 4695.00    0.86058   0.91141    0.000
 4696.00    0.94300   0.90903    0.000
 4697.00    1.06516   0.88830    0.000
 4698.00    1.19662   0.86458    0.000
 4699.00    0.72223   0.85924    0.000
 4700.00    0.13386   0.86396    0.000
 4701.00    0.18413   0.85688    0.000
 4702.00    0.32728   0.84199    0.000
 4703.00    0.59392   0.84305    0.000
 4704.00    0.87362   0.86180    0.000
 4705.00    0.80303   0.87392    0.000
 4706.00    0.70838   0.86651    0.000
 4707.00    0.71658   0.85148    0.000
 4708.00    0.72827   0.84455    0.000
 4709.00    0.67683   0.85235    0.000
 4710.00    0.63308   0.87209    0.000
 4711.00    0.84239   0.88461    0.000
 4712.00    1.02967   0.87545    0.000
 4713.00    0.87876   0.85665    0.000
 4714.00    0.76326   0.85114    0.000
 4715.00    0.99485   0.86607    0.000
 4716.00    1.19182   0.88686    0.000
 4717.00    1.14405   0.89861    0.000
 4718.00    1.11202   0.90498    0.000
 4719.00    1.16565   0.91180    0.000
 4720.00    1.17218   0.91261    0.000
 4721.00    0.97342   0.90482    0.000
 4722.00    0.79902   0.89853    0.000
 4723.00    0.71202   0.90340    0.000
 4724.00    0.76124   0.91355    0.000
 4725.00    1.22055   0.91163    0.000
 4726.00    1.43919   0.88783    0.000
 4727.00    1.04114   0.85685    0.000
 4728.00    0.75922   0.84175    0.000
 4729.00    0.73334   0.84152    0.000
 4730.00    0.71423   0.84382    0.000
 4731.00    0.70805   0.85162    0.000
 4732.00    0.79746   0.86553    0.000
 4733.00    1.04630   0.87590    0.000
 4734.00    1.16608   0.87998    0.000
 4735.00    1.09714   0.87260    0.000
 4736.00    0.97114   0.85918    0.000
 4737.00    0.77179   0.86340    0.000
 4738.00    0.67769   0.88020    0.000
 4739.00    0.70279   0.88333    0.000
 4740.00    0.76378   0.87469    0.000
 4741.00    0.86061   0.87274    0.000
 4742.00    0.92300   0.88041    0.000
 4743.00    0.95505   0.88515    0.000
 4744.00    0.96298   0.88160    0.000
 4745.00    0.95219   0.88088    0.000
 4746.00    1.00273   0.88658    0.000
 4747.00    1.09514   0.88810    0.000
 4748.00    1.11246   0.88594    0.000
 4749.00    1.08488   0.88756    0.000
 4750.00    0.97812   0.88826    0.000
 4751.00    0.83004   0.88080    0.000
 4752.00    0.99021   0.86964    0.000
 4753.00    1.28991   0.86075    0.000
 4754.00    1.19307   0.85527    0.000
 4755.00    0.94184   0.85324    0.000
 4756.00    0.85447   0.85544    0.000
 4757.00    0.82140   0.86167    0.000
 4758.00    0.84356   0.86920    0.000
 4759.00    0.88108   0.87400    0.000
 4760.00    1.15810   0.86703    0.000
 4761.00    1.48990   0.84624    0.008
 4762.00    1.43517   0.82779    0.008
 4763.00    1.30964   0.82086    0.008
 4764.00    1.09867   0.81627    0.008
 4765.00    0.87566   0.81210    0.008
 4766.00    0.67333   0.81752    0.008
 4767.00    0.47310   0.83250    0.008
 4768.00    0.68116   0.84913    0.008
 4769.00    0.91561   0.85931    0.008
 4770.00    0.79187   0.85417    0.008
 4771.00    0.65836   0.84173    0.008
 4772.00    1.05340   0.84229    0.008
 4773.00    1.42398   0.85781    0.008
 4774.00    1.08591   0.87053    0.008
 4775.00    0.76975   0.87057    0.008
 4776.00    0.77023   0.86948    0.008
 4777.00    0.77221   0.87195    0.008
 4778.00    0.78830   0.86692    0.008
 4779.00    0.80782   0.85747    0.008
 4780.00    0.85080   0.85561    0.008
 4781.00    0.88343   0.85426    0.008
 4782.00    0.86123   0.84330    0.008
 4783.00    0.82664   0.83634    0.008
 4784.00    0.73927   0.84076    0.008
 4785.00    0.67794   0.83782    0.008
 4786.00    0.70815   0.82886    0.007
 4787.00    0.75637   0.82975    0.007
 4788.00    0.85778   0.83154    0.007
 4789.00    0.94150   0.83042    0.008
 4790.00    0.98070   0.83505    0.008
 4791.00    0.96735   0.84243    0.008
 4792.00    0.84004   0.85223    0.008
 4793.00    0.77409   0.86753    0.008
 4794.00    0.82363   0.87961    0.008
 4795.00    0.81253   0.87925    0.008
 4796.00    0.70180   0.86873    0.008
 4797.00    0.65360   0.85326    0.008
 4798.00    0.69548   0.83677    0.008
 4799.00    0.75145   0.82769    0.008
 4800.00    0.82528   0.83376    0.008
 4801.00    0.81801   0.84982    0.008
 4802.00    0.72017   0.86040    0.008
 4803.00    0.70735   0.85452    0.008
 4804.00    0.77827   0.83805    0.008
 4805.00    0.77710   0.82903    0.008
 4806.00    0.71329   0.82923    0.008
 4807.00    0.67157   0.82780    0.008
 4808.00    0.64674   0.82787    0.008
 4809.00    0.62812   0.83310    0.008
 4810.00    0.61368   0.83701    0.008
 4811.00    0.69714   0.83645    0.008
 4812.00    0.83830   0.83516    0.008
 4813.00    0.79121   0.83681    0.008
 4814.00    0.64739   0.84076    0.008
 4815.00    0.71248   0.84546    0.008
 4816.00    0.87060   0.85064    0.008
 4817.00    0.95812   0.85478    0.008
 4818.00    1.01863   0.85742    0.008
 4819.00    1.06440   0.85768    0.008
 4820.00    1.10538   0.85431    0.008
 4821.00    0.97023   0.84352    0.008
 4822.00    0.78713   0.81778    0.008
 4823.00    0.64497   0.79335    0.008
 4824.00    0.51195   0.79772    0.008
 4825.00    0.69659   0.82091    0.008
 4826.00    0.93785   0.83383    0.008
 4827.00    0.76845   0.82899    0.008
 4828.00    0.54310   0.81921    0.008
 4829.00    0.52400   0.81686    0.008
 4830.00    0.52493   0.81555    0.008
 4831.00    0.61548   0.80750    0.008
 4832.00    0.71148   0.80504    0.008
 4833.00    0.79920   0.81370    0.008
 4834.00    0.88600   0.82006    0.008
 4835.00    0.84557   0.81763    0.008
 4836.00    0.80848   0.81486    0.008
 4837.00    0.85873   0.81218    0.008
 4838.00    0.90432   0.80113    0.008
 4839.00    0.88636   0.78778    0.008
 4840.00    0.86444   0.78528    0.007
 4841.00    0.80669   0.78911    0.007
 4842.00    0.76917   0.78594    0.007
 4843.00    0.86590   0.78210    0.007
 4844.00    0.93986   0.78861    0.007
 4845.00    0.89639   0.79559    0.007
 4846.00    0.88023   0.78827    0.007
 4847.00    0.97773   0.76713    0.007
 4848.00    0.98730   0.75021    0.000
 4849.00    0.69413   0.75105    0.000
 4850.00    0.50728   0.75649    0.000
 4851.00    0.62875   0.75180    0.000
 4852.00    0.72400   0.74061    0.000
 4853.00    0.75436   0.71984    0.000
 4854.00    0.79093   0.68508    0.000
 4855.00    0.84075   0.65644    0.000
 4856.00    0.90249   0.64853    0.000
 4857.00    0.98635   0.63975    0.000
 4858.00    1.13896   0.60334    0.000
 4859.00    1.40287   0.53481    0.000
 4860.00    1.58012   0.46201    0.000
 4861.00    1.63432   0.44321    0.000
 4862.00    1.59812   0.49470    0.000
 4863.00    1.44897   0.56132    0.000
 4864.00    1.26199   0.60713    0.000
 4865.00    1.03336   0.64146    0.000
 4866.00    0.95378   0.66883    0.000
 4867.00    1.01897   0.68729    0.000
 4868.00    0.87856   0.70055    0.000
 4869.00    0.56207   0.70185    0.000
 4870.00    0.46751   0.68282    0.000
 4871.00    0.54038   0.66778    0.000
 4872.00    0.58335   0.68369    0.000
 4873.00    0.60652   0.71355    0.000
 4874.00    0.66235   0.73049    0.000
 4875.00    0.73715   0.73589    0.008
 4876.00    0.84106   0.74096    0.008
 4877.00    0.95970   0.74857    0.007
 4878.00    0.92405   0.76411    0.007
 4879.00    0.82084   0.78102    0.007
 4880.00    0.67865   0.77955    0.007
 4881.00    0.52181   0.76701    0.007
 4882.00    0.50880   0.76327    0.007
 4883.00    0.54166   0.76249    0.007
 4884.00    0.59426   0.75309    0.007
 4885.00    0.65212   0.74251    0.007
 4886.00    0.56291   0.74286    0.007
 4887.00    0.44161   0.75191    0.007
 4888.00    0.41269   0.75589    0.007
 4889.00    0.39979   0.74307    0.008
 4890.00    0.49005   0.72018    0.008
 4891.00    0.59391   0.72111    0.008
 4892.00    0.60444   0.75625    0.008
 4893.00    0.60629   0.79447    0.008
 4894.00    0.62166   0.81699    0.008
 4895.00    0.63780   0.82553    0.007
 4896.00    0.40549   0.82551    0.008
 4897.00    0.16981   0.82150    0.008
 4898.00    0.18576   0.80929    0.008
 4899.00    0.21255   0.79193    0.007
 4900.00    0.49629   0.78744    0.008
 4901.00    0.75479   0.79282    0.008
 4902.00    0.68679   0.78873    0.008
 4903.00    0.63750   0.78239    0.008
 4904.00    0.75098   0.79276    0.008
 4905.00    0.83283   0.81222    0.008
 4906.00    0.71118   0.81934    0.008
 4907.00    0.58559   0.80939    0.008
 4908.00    0.44012   0.78961    0.008
 4909.00    0.32981   0.76667    0.008
 4910.00    0.36256   0.75512    0.007
 4911.00    0.39158   0.76460    0.007
 4912.00    0.40794   0.78234    0.007
 4913.00    0.42449   0.79571    0.007
 4914.00    0.44161   0.80726    0.007
 4915.00    0.48278   0.81415    0.007
 4916.00    0.58243   0.80373    0.007
 4917.00    0.64234   0.77125    0.007
 4918.00    0.61884   0.72857    0.007
 4919.00    0.65749   0.69566    0.007
 4920.00    0.80958   0.68740    0.007
 4921.00    0.82205   0.70561    0.007
 4922.00    0.61184   0.72695    0.007
 4923.00    0.52453   0.73235    0.007
 4924.00    0.60921   0.73804    0.007
 4925.00    0.59835   0.76183    0.007
 4926.00    0.46984   0.78730    0.007
 4927.00    0.44007   0.79995    0.007
 4928.00    0.51749   0.80856    0.007
 4929.00    0.56827   0.81432    0.007
 4930.00    0.59351   0.81294    0.007
 4931.00    0.66122   0.80330    0.007
 4932.00    0.76478   0.77848    0.007
 4933.00    0.78212   0.75308    0.007
 4934.00    0.73535   0.75625    0.007
 4935.00    0.69641   0.77449    0.007
 4936.00    0.66257   0.77226    0.007
 4937.00    0.68804   0.74725    0.007
 4938.00    0.74740   0.72742    0.007
 4939.00    0.67624   0.73738    0.007
 4940.00    0.54011   0.76824    0.000
 4941.00    0.42296   0.78995    0.000
 4942.00    0.31399   0.79816    0.000
 4943.00    0.52304   0.80371    0.000
 4944.00    0.84950   0.80134    0.000
 4945.00    0.81664   0.79094    0.000
 4946.00    0.67138   0.78869    0.000
 4947.00    0.70200   0.79719    0.000
 4948.00    0.77852   0.80360    0.000
 4949.00    0.68520   0.80510    0.000
 4950.00    0.55572   0.80656    0.000
 4951.00    0.57439   0.80438    0.000
 4952.00    0.61803   0.79564    0.000
 4953.00    0.47940   0.78757    0.000
 4954.00    0.31757   0.78253    0.000
 4955.00    0.57319   0.76483    0.000
 4956.00    0.86583   0.72222    0.000
 4957.00    0.94201   0.69251    0.000
 4958.00    1.00676   0.71664    0.000
 4959.00    0.80844   0.76334    0.000
 4960.00    0.61058   0.78604    0.000
 4961.00    0.84348   0.78590    0.000
 4962.00    1.05890   0.78427    0.000
 4963.00    0.89422   0.78267    0.000
 4964.00    0.73422   0.77000    0.000
 4965.00    0.63170   0.75327    0.000
 4966.00    0.54316   0.74685    0.000
 4967.00    0.57162   0.74793    0.000
 4968.00    0.62257   0.75020    0.000
 4969.00    0.81395   0.75292    0.000
 4970.00    0.98234   0.75798    0.000
 4971.00    1.03802   0.76650    0.000
 4972.00    1.05103   0.77416    0.000
 4973.00    0.89414   0.78026    0.000
 4974.00    0.75396   0.78444    0.000
 4975.00    0.66903   0.78316    0.000
 4976.00    0.63111   0.77674    0.000
 4977.00    0.72461   0.76469    0.000
 4978.00    0.79858   0.75170    0.000
 4979.00    0.82584   0.74494    0.000
 4980.00    0.80929   0.73441    0.000
 4981.00    0.70225   0.70841    0.000
 4982.00    0.67119   0.68213    0.000
 4983.00    0.77661   0.67808    0.000
 4984.00    0.76323   0.69354    0.000
 4985.00    0.56319   0.71610    0.000
 4986.00    0.46726   0.74177    0.000
 4987.00    0.51492   0.75925    0.000
 4988.00    0.58078   0.75936    0.000
 4989.00    0.66871   0.74884    0.000
 4990.00    0.75361   0.73827    0.000
 4991.00    0.83524   0.73790    0.000
 4992.00    0.85362   0.74226    0.000
 4993.00    0.81228   0.74160    0.000
 4994.00    0.74030   0.74546    0.000
 4995.00    0.64280   0.75517    0.000
 4996.00    0.63191   0.75932    0.000
 4997.00    0.68449   0.75514    0.000
 4998.00    0.70651   0.74134    0.000
 4999.00    0.70888   0.72121    0.000
 5000.00    0.66114   0.70592    0.000
 5001.00    0.58519   0.70222    0.000
 5002.00    0.62586   0.70962    0.000
 5003.00    0.72366   0.71569    0.000
 5004.00    0.91512   0.70417    0.000
 5005.00    1.14624   0.68201    0.000
 5006.00    1.41614   0.67863    0.000
 5007.00    1.70010   0.70322    0.000
 5008.00    1.66134   0.72974    0.000
 5009.00    1.52358   0.73685    0.000
 5010.00    1.25252   0.72749    0.000
 5011.00    0.94741   0.70822    0.000
 5012.00    0.88559   0.68693    0.000
 5013.00    0.87430   0.67284    0.000
 5014.00    0.75471   0.67177    0.000
 5015.00    0.61738   0.68309    0.000
 5016.00    0.64250   0.68828    0.000
 5017.00    0.68756   0.67820    0.000
 5018.00    0.51354   0.67473    0.000
 5019.00    0.32100   0.68985    0.000
 5020.00    0.44589   0.70314    0.000
 5021.00    0.58629   0.70158    0.000
 5022.00    0.57156   0.70147    0.000
 5023.00    0.55241   0.71381    0.000
 5024.00    0.41076   0.72601    0.000
 5025.00    0.28376   0.72659    0.000
 5026.00    0.45051   0.71450    0.000
 5027.00    0.58964   0.70436    0.000
 5028.00    0.40597   0.71223    0.000
 5029.00    0.25594   0.72539    0.007
 5030.00    0.37744   0.73084    0.007
 5031.00    0.49076   0.73750    0.007
 5032.00    0.55444   0.74946    0.007
 5033.00    0.63736   0.75320    0.007
 5034.00    0.81228   0.73559    0.007
 5035.00    0.90437   0.71017    0.007
 5036.00    0.67384   0.70430    0.007
 5037.00    0.51470   0.71040    0.007
 5038.00    0.58716   0.70180    0.007
 5039.00    0.63848   0.67296    0.007
 5040.00    0.63175   0.64165    0.007
 5041.00    0.60571   0.64151    0.007
 5042.00    0.53425   0.67926    0.007
 5043.00    0.52235   0.71830    0.007
 5044.00    0.63152   0.74026    0.007
 5045.00    0.68507   0.75205    0.007
 5046.00    0.64020   0.74906    0.007
 5047.00    0.64390   0.72764    0.007
 5048.00    0.72278   0.70340    0.007
 5049.00    0.70177   0.69285    0.007
 5050.00    0.54494   0.69182    0.007
 5051.00    0.39214   0.69383    0.007
 5052.00    0.24417   0.70412    0.007
 5053.00    0.35780   0.72075    0.007
 5054.00    0.74749   0.72961    0.007
 5055.00    0.80554   0.72781    0.007
 5056.00    0.55488   0.72716    0.007
 5057.00    0.43493   0.73455    0.007
 5058.00    0.42223   0.74164    0.007
 5059.00    0.47680   0.74474    0.007
 5060.00    0.57995   0.74916    0.007
 5061.00    0.56465   0.75289    0.007
 5062.00    0.47426   0.74721    0.007
 5063.00    0.51867   0.72509    0.007
 5064.00    0.63783   0.69907    0.007
 5065.00    0.53958   0.69367    0.007
 5066.00    0.33652   0.70273    0.007
 5067.00    0.32932   0.70395    0.007
 5068.00    0.40367   0.70260    0.007
 5069.00    0.46487   0.71151    0.007
 5070.00    0.52138   0.71649    0.007
 5071.00    0.57237   0.70536    0.007
 5072.00    0.62168   0.69768    0.007
 5073.00    0.58118   0.70364    0.007
 5074.00    0.51824   0.70685    0.007
 5075.00    0.59008   0.70518    0.007
 5076.00    0.68923   0.70896    0.007
 5077.00    0.63713   0.70760    0.007
 5078.00    0.56099   0.68358    0.007
 5079.00    0.42012   0.65563    0.007
 5080.00    0.27159   0.65427    0.007
 5081.00    0.31228   0.67141    0.007
 5082.00    0.36819   0.68130    0.007
 5083.00    0.39368   0.68525    0.007
 5084.00    0.41780   0.69638    0.007
 5085.00    0.48303   0.70797    0.007
 5086.00    0.54754   0.70948    0.007
 5087.00    0.55189   0.70733    0.007
 5088.00    0.55677   0.71040    0.007
 5089.00    0.57180   0.71359    0.007
 5090.00    0.59247   0.71347    0.007
 5091.00    0.67591   0.71747    0.007
 5092.00    0.74799   0.72635    0.007
 5093.00    0.73155   0.73092    0.007
 5094.00    0.71124   0.72599    0.007
 5095.00    0.66812   0.71325    0.007
 5096.00    0.62189   0.69555    0.007
 5097.00    0.56112   0.67541    0.007
 5098.00    0.51589   0.65921    0.007
 5099.00    0.52987   0.66075    0.007
 5100.00    0.54254   0.68123    0.007
 5101.00    0.55099   0.70088    0.007
 5102.00    0.54350   0.70630    0.007
 5103.00    0.49301   0.70256    0.007
 5104.00    0.48041   0.69929    0.007
 5105.00    0.55540   0.69576    0.007
 5106.00    0.54837   0.68552    0.007
 5107.00    0.37726   0.67617    0.007
 5108.00    0.31352   0.67515    0.007
 5109.00    0.43688   0.67493    0.007
 5110.00    0.50744   0.67887    0.007
 5111.00    0.49747   0.69155    0.007
 5112.00    0.53184   0.70177    0.007
 5113.00    0.62562   0.70580    0.007
 5114.00    0.69384   0.70768    0.007
 5115.00    0.73189   0.70999    0.007
 5116.00    0.73751   0.71651    0.007
 5117.00    0.70938   0.72277    0.007
 5118.00    0.73621   0.72126    0.007
 5119.00    0.81347   0.71278    0.007
 5120.00    0.85060   0.70113    0.007
 5121.00    0.85526   0.68892    0.007
 5122.00    0.83615   0.67357    0.007
 5123.00    0.80012   0.65886    0.007
 5124.00    0.66438   0.65527    0.007
 5125.00    0.46637   0.66044    0.007
 5126.00    0.44511   0.66418    0.007
 5127.00    0.52032   0.66381    0.007
 5128.00    0.57235   0.66193    0.007
 5129.00    0.61338   0.66406    0.007
 5130.00    0.65294   0.67329    0.007
 5131.00    0.69190   0.68122    0.007
 5132.00    0.62118   0.68092    0.007
 5133.00    0.51212   0.68103    0.007
 5134.00    0.40163   0.69089    0.007
 5135.00    0.29071   0.69604    0.007
 5136.00    0.46618   0.68447    0.007
 5137.00    0.71161   0.66758    0.007
 5138.00    0.72385   0.65360    0.007
 5139.00    0.69002   0.65401    0.007
 5140.00    0.65797   0.66709    0.007
 5141.00    0.62620   0.66521    0.007
 5142.00    0.52784   0.65450    0.007
 5143.00    0.42190   0.66091    0.007
 5144.00    0.39150   0.67114    0.007
 5145.00    0.36687   0.66696    0.007
 5146.00    0.29853   0.65795    0.007
 5147.00    0.22839   0.65639    0.007
 5148.00    0.41071   0.66421    0.007
 5149.00    0.58931   0.67000    0.007
 5150.00    0.52422   0.66498    0.007
 5151.00    0.46591   0.65778    0.007
 5152.00    0.52522   0.65364    0.007
 5153.00    0.58238   0.65037    0.007
 5154.00    0.61671   0.65405    0.007
 5155.00    0.64674   0.66755    0.007
 5156.00    0.64454   0.68376    0.007
 5157.00    0.65338   0.69444    0.007
 5158.00    0.72554   0.69607    0.007
 5159.00    0.75587   0.69510    0.007
 5160.00    0.59565   0.69279    0.007
 5161.00    0.45128   0.68265    0.007
 5162.00    0.36610   0.67332    0.007
 5163.00    0.33685   0.66982    0.007
 5164.00    0.48210   0.65482    0.007
 5165.00    0.58119   0.61698    0.007
 5166.00    0.55800   0.56851    0.007
 5167.00    0.53574   0.53812    0.007
 5168.00    0.51557   0.54724    0.007
 5169.00    0.45399   0.58189    0.007
 5170.00    0.31085   0.59528    0.007
 5171.00    0.25128   0.56589    0.007
 5172.00    0.33514   0.54115    0.007
 5173.00    0.37445   0.56834    0.007
 5174.00    0.34683   0.62117    0.007
 5175.00    0.33311   0.65287    0.007
 5176.00    0.33778   0.66145    0.007
 5177.00    0.32815   0.66493    0.007
 5178.00    0.30188   0.66612    0.007
 5179.00    0.34406   0.66135    0.007
 5180.00    0.45644   0.64964    0.007
 5181.00    0.51819   0.62126    0.007
 5182.00    0.53414   0.57079    0.007
 5183.00    0.48282   0.53563    0.007
 5184.00    0.37786   0.55679    0.007
 5185.00    0.44918   0.60928    0.007
 5186.00    0.64417   0.64466    0.007
 5187.00    0.65329   0.65085    0.007
 5188.00    0.54804   0.64985    0.007
 5189.00    0.51436   0.65742    0.007
 5190.00    0.51916   0.65067    0.000
 5191.00    0.49820   0.62289    0.000
 5192.00    0.46521   0.61165    0.000
 5193.00    0.58797   0.62591    0.000
 5194.00    0.77338   0.63472    0.000
 5195.00    0.71302   0.63381    0.000
 5196.00    0.56831   0.63801    0.000
 5197.00    0.40675   0.64696    0.000
 5198.00    0.24032   0.65774    0.000
 5199.00    0.42817   0.66608    0.000
 5200.00    0.70063   0.66674    0.000
 5201.00    0.64523   0.66138    0.000
 5202.00    0.52672   0.65483    0.000
 5203.00    0.62567   0.64052    0.000
 5204.00    0.75713   0.61508    0.000
 5205.00    0.52393   0.59802    0.000
 5206.00    0.25081   0.59905    0.000
 5207.00    0.38654   0.59902    0.000
 5208.00    0.55181   0.59745    0.000
 5209.00    0.63624   0.61036    0.000
 5210.00    0.71765   0.63168    0.000
 5211.00    0.60923   0.65230    0.007
 5212.00    0.50469   0.66887    0.007
 5213.00    0.57335   0.67278    0.007
 5214.00    0.63919   0.65829    0.007
 5215.00    0.65910   0.63891    0.007
 5216.00    0.66745   0.63410    0.007
 5217.00    0.55809   0.64666    0.007
 5218.00    0.45844   0.66500    0.007
 5219.00    0.42951   0.67722    0.007
 5220.00    0.42543   0.68198    0.007
 5221.00    0.55988   0.68166    0.007
 5222.00    0.64085   0.67420    0.007
 5223.00    0.48396   0.65830    0.007
 5224.00    0.36912   0.63406    0.007
 5225.00    0.40788   0.60072    0.007
 5226.00    0.46317   0.57484    0.007
 5227.00    0.56910   0.58684    0.007
 5228.00    0.67541   0.62601    0.007
 5229.00    0.78276   0.65453    0.007
 5230.00    0.77216   0.66507    0.007
 5231.00    0.49776   0.65891    0.007
 5232.00    0.36913   0.63855    0.007
 5233.00    0.52306   0.62466    0.007
 5234.00    0.65211   0.62842    0.007
 5235.00    0.73910   0.64440    0.007
 5236.00    0.72199   0.66192    0.007
 5237.00    0.55071   0.67184    0.007
 5238.00    0.47454   0.67385    0.007
 5239.00    0.52220   0.67316    0.007
 5240.00    0.53586   0.67378    0.007
 5241.00    0.51052   0.67223    0.007
 5242.00    0.52088   0.66824    0.007
 5243.00    0.56736   0.67163    0.007
 5244.00    0.44567   0.68003    0.007
 5245.00    0.17394   0.67418    0.007
 5246.00    0.11041   0.65381    0.007
 5247.00    0.21056   0.64302    0.007
 5248.00    0.36450   0.64474    0.007
 5249.00    0.55562   0.64062    0.007
 5250.00    0.70764   0.63550    0.007
 5251.00    0.83596   0.64270    0.007
 5252.00    0.71385   0.65325    0.007
 5253.00    0.45922   0.65171    0.007
 5254.00    0.45296   0.64174    0.007
 5255.00    0.56075   0.64432    0.007
 5256.00    0.71315   0.66346    0.007
 5257.00    0.88320   0.68073    0.007
 5258.00    0.79017   0.68527    0.007
 5259.00    0.60853   0.67733    0.007
 5260.00    0.82647   0.65847    0.007
 5261.00    1.15751   0.63220    0.007
 5262.00    0.93415   0.60605    0.007
 5263.00    0.58139   0.58513    0.007
 5264.00    0.54509   0.56932    0.007
 5265.00    0.56814   0.56431    0.007
 5266.00    0.54378   0.58073    0.007
 5267.00    0.51254   0.59796    0.007
 5268.00    0.56672   0.57975    0.008
 5269.00    0.62988   0.55050    0.008
 5270.00    0.53261   0.56255    0.007
 5271.00    0.42440   0.60213    0.007
 5272.00    0.58352   0.62493    0.007
 5273.00    0.75161   0.62511    0.007
 5274.00    0.81118   0.61488    0.007
 5275.00    0.86520   0.61112    0.007
 5276.00    0.74528   0.63134    0.007
 5277.00    0.63063   0.66016    0.007
 5278.00    0.59637   0.67035    0.007
 5279.00    0.56618   0.66074    0.007
 5280.00    0.57582   0.64576    0.007
 5281.00    0.60512   0.63352    0.007
 5282.00    0.77282   0.62234    0.007
 5283.00    0.90958   0.61615    0.007
 5284.00    0.87865   0.63041    0.007
 5285.00    0.84583   0.65981    0.007
 5286.00    0.80476   0.67883    0.007
 5287.00    0.76114   0.67967    0.007
 5288.00    0.70842   0.67615    0.007
 5289.00    0.64922   0.67866    0.007
 5290.00    0.57058   0.68248    0.007
 5291.00    0.50865   0.68015    0.007
 5292.00    0.48940   0.67300    0.007
 5293.00    0.50364   0.66876    0.007
 5294.00    0.59153   0.66597    0.007
 5295.00    0.67590   0.65339    0.007
 5296.00    0.75353   0.62753    0.007
 5297.00    0.81714   0.60627    0.007
 5298.00    0.85740   0.61091    0.007
 5299.00    0.84546   0.63150    0.007
 5300.00    0.75733   0.64103    0.007
 5301.00    0.67980   0.63929    0.007
 5302.00    0.61588   0.64436    0.007
 5303.00    0.57807   0.66011    0.007
 5304.00    0.56979   0.67326    0.007
 5305.00    0.58288   0.67312    0.007
 5306.00    0.61728   0.66374    0.007
 5307.00    0.64890   0.65879    0.007
 5308.00    0.67807   0.66465    0.007
 5309.00    0.59452   0.67268    0.007
 5310.00    0.42362   0.67460    0.007
 5311.00    0.42916   0.67123    0.007
 5312.00    0.55491   0.66552    0.007
 5313.00    0.53404   0.66129    0.007
 5314.00    0.42563   0.65704    0.007
 5315.00    0.40938   0.64506    0.007
 5316.00    0.44114   0.63402    0.007
 5317.00    0.45842   0.63861    0.007
 5318.00    0.46916   0.65015    0.007
 5319.00    0.37119   0.65494    0.007
 5320.00    0.23100   0.65453    0.007
 5321.00    0.26806   0.65228    0.007
 5322.00    0.36373   0.64320    0.007
 5323.00    0.43847   0.62647    0.007
 5324.00    0.50741   0.61848    0.007
 5325.00    0.71857   0.62122    0.007
 5326.00    0.96217   0.60658    0.007
 5327.00    0.83069   0.56783    0.007
 5328.00    0.63075   0.55105    0.007
 5329.00    0.59966   0.58095    0.007
 5330.00    0.59226   0.62137    0.007
 5331.00    0.66988   0.63863    0.007
 5332.00    0.75609   0.63884    0.007
 5333.00    0.62885   0.64200    0.007
 5334.00    0.48791   0.64994    0.007
 5335.00    0.46025   0.65088    0.007
 5336.00    0.43642   0.64484    0.007
 5337.00    0.60520   0.63983    0.007
 5338.00    0.76818   0.63103    0.007
 5339.00    0.76547   0.61219    0.007
 5340.00    0.75551   0.60129    0.007
 5341.00    0.64155   0.61428    0.007
 5342.00    0.53500   0.63521    0.007
 5343.00    0.49785   0.64528    0.007
 5344.00    0.47480   0.64126    0.007
 5345.00    0.54780   0.63266    0.006
 5346.00    0.59714   0.63102    0.006
 5347.00    0.52153   0.63008    0.006
 5348.00    0.45156   0.62279    0.006
 5349.00    0.40550   0.62218    0.006
 5350.00    0.36553   0.63601    0.006
 5351.00    0.34692   0.65008    0.006
 5352.00    0.34090   0.65363    0.006
 5353.00    0.37205   0.65580    0.006
 5354.00    0.37717   0.66383    0.006
 5355.00    0.31692   0.67042    0.006
 5356.00    0.28801   0.67172    0.006
 5357.00    0.32696   0.67095    0.006
 5358.00    0.33795   0.66999    0.006
 5359.00    0.29644   0.66720    0.006
 5360.00    0.33672   0.65895    0.006
 5361.00    0.51116   0.64579    0.006
 5362.00    0.56914   0.63576    0.006
 5363.00    0.45962   0.63062    0.006
 5364.00    0.40918   0.62587    0.006
 5365.00    0.43350   0.62445    0.006
 5366.00    0.43404   0.62625    0.006
 5367.00    0.40809   0.62632    0.006
 5368.00    0.38987   0.61889   -2.000
 5369.00    0.37925   0.59926   -2.000
 5370.00    0.42157   0.57921   -2.000
 5371.00    0.50980   0.58201   -2.000
 5372.00    0.66292   0.60921   -2.000
 5373.00    0.86561   0.63682   -2.000
 5374.00    0.93331   0.65091   -2.000
 5375.00    0.91037   0.65307   -2.000
 5376.00    0.70319   0.64903   -2.000
 5377.00    0.38763   0.64726   -2.000
 5378.00    0.33967   0.64733   -2.000
 5379.00    0.42894   0.64213   -2.000
 5380.00    0.41752   0.63462   -2.000
 5381.00    0.36138   0.62983   -2.000
 5382.00    0.44546   0.62544   -2.000
 5383.00    0.58308   0.62622    0.007
 5384.00    0.60324   0.63582    0.007
 5385.00    0.58529   0.64370    0.007
 5386.00    0.48975   0.64373    0.007
 5387.00    0.37314   0.63998    0.007
 5388.00    0.32582   0.63278    0.006
 5389.00    0.29393   0.62326    0.006
 5390.00    0.42636   0.61698    0.006
 5391.00    0.58798   0.61454    0.006
 5392.00    0.52289   0.61310    0.006
 5393.00    0.42705   0.61343    0.006
 5394.00    0.37761   0.61456    0.006
 5395.00    0.33265   0.60546    0.006
 5396.00    0.47180   0.58732    0.006
 5397.00    0.62201   0.58547    0.006
 5398.00    0.52682   0.60301    0.006
 5399.00    0.42610   0.61505    0.006
 5400.00    0.46910   0.61701    0.006
 5401.00    0.51199   0.62001    0.006
 5402.00    0.55214   0.61601    0.006
 5403.00    0.57406   0.59491    0.006
 5404.00    0.34877   0.57004    0.006
 5405.00    0.15410   0.56215    0.006
 5406.00    0.23495   0.57649    0.006
 5407.00    0.31149   0.59506    0.006
 5408.00    0.35963   0.59627    0.006
 5409.00    0.41767   0.58510    0.006
 5410.00    0.52667   0.58626    0.006
 5411.00    0.59345   0.60457    0.006
 5412.00    0.48498   0.62038    0.006
 5413.00    0.38971   0.62108    0.006
 5414.00    0.33978   0.61566    0.006
 5415.00    0.29095   0.61980    0.006
 5416.00    0.24529   0.63130    0.006
 5417.00    0.23777   0.63614    0.006
 5418.00    0.32444   0.63147    0.006
 5419.00    0.40236   0.62369    0.006
 5420.00    0.46165   0.61989    0.006
 5421.00    0.52235   0.62291    0.006
 5422.00    0.58565   0.62052    0.006
 5423.00    0.68112   0.60683    0.006
 5424.00    0.82857   0.60165    0.006
 5425.00    0.84348   0.61586    0.006
 5426.00    0.67051   0.63311    0.006
 5427.00    0.53995   0.63069    0.006
 5428.00    0.46229   0.60390    0.006
 5429.00    0.42829   0.58291    0.006
 5430.00    0.44228   0.59157    0.006
 5431.00    0.49241   0.60518    0.006
 5432.00    0.57757   0.60073    0.006
 5433.00    0.59834   0.58836    0.006
 5434.00    0.56407   0.58324    0.006
 5435.00    0.53834   0.58973    0.006
 5436.00    0.51905   0.60391    0.006
 5437.00    0.52108   0.62075    0.006
 5438.00    0.53722   0.63447    0.006
 5439.00    0.58656   0.64121    0.006
 5440.00    0.65513   0.64223    0.006
 5441.00    0.66283   0.64171    0.006
 5442.00    0.63980   0.64085    0.006
 5443.00    0.60590   0.63370    0.006
 5444.00    0.56724   0.61475    0.006
 5445.00    0.56281   0.58730    0.006
 5446.00    0.57122   0.56967    0.006
 5447.00    0.49696   0.57951    0.006
 5448.00    0.39640   0.60389    0.006
 5449.00    0.42184   0.61962    0.006
 5450.00    0.48079   0.62307    0.006
 5451.00    0.52781   0.62081    0.006
 5452.00    0.57224   0.61510    0.006
 5453.00    0.55828   0.60122    0.006
 5454.00    0.53423   0.57834    0.006
 5455.00    0.53494   0.56739    0.006
 5456.00    0.53889   0.58373    0.006
 5457.00    0.46087   0.60917    0.006
 5458.00    0.37527   0.62202    0.006
 5459.00    0.56709   0.62072    0.006
 5460.00    0.77450   0.61266    0.006
 5461.00    0.74315   0.59997    0.006
 5462.00    0.70577   0.58623    0.006
 5463.00    0.59619   0.58545    0.006
 5464.00    0.49158   0.59725    0.006
 5465.00    0.50344   0.60423    0.006
 5466.00    0.51810   0.60498    0.006
 5467.00    0.56854   0.60865    0.006
 5468.00    0.61415   0.61153    0.006
 5469.00    0.61798   0.60789    0.006
 5470.00    0.60910   0.60404    0.006
 5471.00    0.51875   0.60263    0.006
 5472.00    0.43734   0.59693    0.006
 5473.00    0.40072   0.59093    0.006
 5474.00    0.37355   0.58678    0.006
 5475.00    0.38474   0.57174    0.006
 5476.00    0.37835   0.55539    0.006
 5477.00    0.31278   0.56346    0.006
 5478.00    0.25446   0.58663   -2.000
 5479.00    0.21674   0.59555   -2.000
 5480.00    0.18680   0.58602   -2.000
 5481.00    0.17576   0.57928   -2.000
 5482.00    0.18857   0.58614   -2.000
 5483.00    0.25135   0.59933   -2.000
 5484.00    0.44496   0.61071   -2.000
 5485.00    0.87681   0.61183   -2.000
 5486.00    1.39828   0.59996   -2.000
 5487.00    2.06244   0.58924   -2.000
 5488.00    2.42985   0.59076   -2.000
 5489.00    2.38273   0.59661   -2.000
 5490.00    2.00529   0.60109   -2.000
 5491.00    1.22177   0.60426   -2.000
 5492.00    0.50300   0.60167   -2.000
 5493.00   -0.14562   0.59744   -2.000
 5494.00   -0.30730   0.59948   -2.000
 5495.00   -0.00352   0.60053   -2.000
 5496.00    0.21493   0.59242   -2.000
 5497.00    0.36147   0.58851   -2.000
 5498.00    0.36178   0.59801   -2.000
 5499.00    0.25354   0.60448   -2.000
 5500.00    0.23443   0.59550   -2.000
 5501.00    0.27342   0.58311   -2.000
 5502.00    0.26137   0.58102    0.006
 5503.00    0.22021   0.58695    0.006
 5504.00    0.24548   0.58888    0.006
 5505.00    0.30377   0.58070    0.006
 5506.00    0.37106   0.57528    0.006
 5507.00    0.44223   0.58271    0.006
 5508.00    0.39669   0.59070    0.006
 5509.00    0.30816   0.59068    0.006
 5510.00    0.26922   0.58548    0.006
 5511.00    0.24577   0.57647    0.006
 5512.00    0.31476   0.56982    0.006
 5513.00    0.40781   0.57182    0.006
 5514.00    0.41795   0.57906    0.006
 5515.00    0.41049   0.58615    0.006
 5516.00    0.43702   0.59208    0.006
 5517.00    0.46925   0.59969    0.006
 5518.00    0.38376   0.60631    0.006
 5519.00    0.28335   0.60679    0.006
 5520.00    0.39596   0.60386    0.006
 5521.00    0.52737   0.60189    0.006
 5522.00    0.54179   0.60181    0.006
 5523.00    0.55010   0.60132    0.006
 5524.00    0.43217   0.59662    0.006
 5525.00    0.31474   0.58711    0.006
 5526.00    0.41243   0.57327    0.006
 5527.00    0.51154   0.55951    0.006
 5528.00    0.64114   0.55956    0.006
 5529.00    0.75891   0.57585    0.006
 5530.00    0.73222   0.59119    0.006
 5531.00    0.68834   0.59514    0.006
 5532.00    0.50120   0.59217    0.006
 5533.00    0.34528   0.58567    0.006
 5534.00    0.38352   0.57826    0.006
 5535.00    0.43197   0.57892    0.006
 5536.00    0.53034   0.58648    0.006
 5537.00    0.60801   0.59077    0.006
 5538.00    0.60353   0.59313    0.006
 5539.00    0.58621   0.59833    0.006
 5540.00    0.52646   0.60285    0.006
 5541.00    0.50444   0.60065    0.006
 5542.00    0.58762   0.59198    0.006
 5543.00    0.65456   0.58578    0.006
 5544.00    0.68276   0.58574    0.006
 5545.00    0.68544   0.58651    0.006
 5546.00    0.63551   0.58885    0.006
 5547.00    0.55543   0.59589    0.006
 5548.00    0.42128   0.60242    0.006
 5549.00    0.35380   0.60450    0.006
 5550.00    0.39091   0.60390    0.006
 5551.00    0.39908   0.60119    0.006
 5552.00    0.36742   0.59500    0.006
 5553.00    0.35329   0.58755    0.006
 5554.00    0.36038   0.58481    0.006
 5555.00    0.36999   0.58766    0.006
 5556.00    0.38230   0.58985    0.006
 5557.00    0.38933   0.58931    0.006
 5558.00    0.39138   0.58956    0.006
 5559.00    0.46601   0.59012    0.006
 5560.00    0.60095   0.58831    0.006
 5561.00    0.65741   0.58331    0.006
 5562.00    0.65645   0.57763    0.006
 5563.00    0.57818   0.57605    0.006
 5564.00    0.45025   0.57554    0.006
 5565.00    0.39686   0.57248    0.006
 5566.00    0.38536   0.57154    0.006
 5567.00    0.41542   0.57289    0.006
 5568.00    0.46580   0.57094    0.006
 5569.00    0.53424   0.57014    0.006
 5570.00    0.61031   0.57490    0.006
 5571.00    0.56789   0.57292    0.006
 5572.00    0.48261   0.56479    0.006
 5573.00    0.46272   0.56824    0.006
 5574.00    0.46284   0.57782    0.006
 5575.00    0.42369   0.57923    0.006
 5576.00    0.37455   0.57958    0.006
 5577.00    0.37311   0.58243    0.006
 5578.00    0.38156   0.58376    0.006
 5579.00    0.50744   0.58496    0.006
 5580.00    0.65248   0.58358    0.006
 5581.00    0.60573   0.57877    0.006
 5582.00    0.53556   0.57762    0.006
 5583.00    0.47654   0.57912    0.006
 5584.00    0.41846   0.57509    0.006
 5585.00    0.42577   0.56132    0.006
 5586.00    0.43624   0.54267    0.006
 5587.00    0.45051   0.53032    0.006
 5588.00    0.46493   0.52945    0.006
 5589.00    0.48441   0.53871    0.006
 5590.00    0.49896   0.55205    0.006
 5591.00    0.41546   0.56016    0.006
 5592.00    0.33703   0.55955    0.006
 5593.00    0.31743   0.55438    0.006
 5594.00    0.31695   0.55620    0.006
 5595.00    0.47022   0.56927    0.006
 5596.00    0.59872   0.57571    0.006
 5597.00    0.57756   0.56504    0.006
 5598.00    0.55180   0.55390    0.006
 5599.00    0.50409   0.55232    0.006
 5600.00    0.46979   0.54964    0.006
 5601.00    0.48756   0.54240    0.006
 5602.00    0.48293   0.54101    0.006
 5603.00    0.40582   0.55359    0.006
 5604.00    0.34092   0.57215    0.006
 5605.00    0.30944   0.58409    0.006
 5606.00    0.30701   0.58784    0.006
 5607.00    0.37272   0.58776    0.006
 5608.00    0.40848   0.58680    0.006
 5609.00    0.38347   0.58577    0.006
 5610.00    0.37943   0.58646    0.006
 5611.00    0.41242   0.58893    0.006
 5612.00    0.47933   0.58801    0.006
 5613.00    0.59868   0.57370    0.006
 5614.00    0.66626   0.54679    0.006
 5615.00    0.66360   0.53202    0.006
 5616.00    0.60783   0.54286    0.006
 5617.00    0.48859   0.55883    0.006
 5618.00    0.45384   0.56349    0.006
 5619.00    0.50808   0.56291    0.006
 5620.00    0.56189   0.56630    0.006
 5621.00    0.61529   0.57202    0.006
 5622.00    0.56942   0.56958    0.006
 5623.00    0.44220   0.55494    0.006
 5624.00    0.36930   0.54301    0.006
 5625.00    0.33556   0.54687    0.006
 5626.00    0.40235   0.55776    0.006
 5627.00    0.53277   0.56484    0.006
 5628.00    0.56885   0.57050    0.006
 5629.00    0.55275   0.57663    0.006
 5630.00    0.49793   0.57983    0.006
 5631.00    0.42448   0.57881    0.005
 5632.00    0.43876   0.57480    0.005
 5633.00    0.48950   0.57004    0.005
 5634.00    0.47145   0.56607    0.005
 5635.00    0.42898   0.56122    0.005
 5636.00    0.36613   0.55488    0.005
 5637.00    0.29717   0.55211    0.005
 5638.00    0.23955   0.55536    0.005
 5639.00    0.18475   0.55747    0.005
 5640.00    0.14667   0.55344    0.005
 5641.00    0.11197   0.55144    0.005
 5642.00    0.17846   0.55518    0.005
 5643.00    0.26097   0.55862    0.005
 5644.00    0.39740   0.56035    0.005
 5645.00    0.54018   0.56211    0.006
 5646.00    0.51782   0.56437    0.006
 5647.00    0.48226   0.56539    0.006
 5648.00    0.42717   0.56342    0.006
 5649.00    0.37122   0.56079    0.006
 5650.00    0.40793   0.56200    0.006
 5651.00    0.44403   0.56682    0.006
 5652.00    0.39929   0.56887    0.006
 5653.00    0.35789   0.56270    0.006
 5654.00    0.37819   0.55413    0.006
 5655.00    0.39666   0.55328    0.006
 5656.00    0.39493   0.55030    0.006
 5657.00    0.39172   0.53361    0.006
 5658.00    0.37709   0.52234    0.006
 5659.00    0.35444   0.53272    0.006
 5660.00    0.28468   0.54506    0.006
 5661.00    0.21909   0.54281    0.005
 5662.00    0.17293   0.53851    0.006
 5663.00    0.15926   0.54517    0.006
 5664.00    0.26908   0.55587    0.006
 5665.00    0.36661   0.55888    0.006
 5666.00    0.42512   0.55380    0.006
 5667.00    0.48349   0.54857    0.005
 5668.00    0.54149   0.54804    0.006
 5669.00    0.55927   0.55039    0.006
 5670.00    0.48425   0.55404    0.005
 5671.00    0.43167   0.55999    0.005
 5672.00    0.42390   0.56741    0.005
 5673.00    0.42692   0.57045    0.005
 5674.00    0.44871   0.56690    0.005
 5675.00    0.48729   0.56419    0.006
 5676.00    0.55144   0.56670    0.005
 5677.00    0.60036   0.56716    0.006
 5678.00    0.62891   0.56294    0.006
 5679.00    0.58649   0.56039    0.006
 5680.00    0.46045   0.55892    0.005
 5681.00    0.37429   0.55158    0.005
 5682.00    0.32956   0.54361    0.005
 5683.00    0.33328   0.54404    0.005
 5684.00    0.38138   0.54885    0.005
 5685.00    0.41719   0.54936    0.005
 5686.00    0.44306   0.54397    0.005
 5687.00    0.46066   0.53932    0.005
 5688.00    0.47237   0.54153    0.006
 5689.00    0.41513   0.54900    0.006
 5690.00    0.31490   0.55582    0.005
 5691.00    0.34532   0.56102    0.005
 5692.00    0.44692   0.56381    0.006
 5693.00    0.52804   0.56229    0.006
 5694.00    0.59947   0.55979    0.006
 5695.00    0.52094   0.55985    0.006
 5696.00    0.38117   0.55924    0.006
 5697.00    0.34682   0.55397    0.006
 5698.00    0.34924   0.54902    0.006
 5699.00    0.39264   0.54631    0.006
 5700.00    0.44808   0.54127    0.006
 5701.00    0.42599   0.53705    0.006
 5702.00    0.38501   0.54003    0.006
 5703.00    0.39360   0.54694    0.006
 5704.00    0.41194   0.54820    0.006
 5705.00    0.39563   0.54101    0.006
 5706.00    0.37400   0.53287    0.006
 5707.00    0.32818   0.52613    0.005
 5708.00    0.27961   0.51945    0.005
 5709.00    0.31876   0.51781    0.005
 5710.00    0.36455   0.52007    0.005
 5711.00    0.36838   0.52310    0.005
 5712.00    0.37051   0.53265    0.005
 5713.00    0.42065   0.54459    0.005
 5714.00    0.47054   0.55061    0.005
 5715.00    0.49456   0.55338    0.005
 5716.00    0.51439   0.55459    0.005
 5717.00    0.46236   0.55392    0.005
 5718.00    0.41512   0.55517    0.005
 5719.00    0.41843   0.55830    0.005
 5720.00    0.41428   0.56094    0.005
 5721.00    0.35413   0.56362    0.005
 5722.00    0.28695   0.56540    0.005
 5723.00    0.17971   0.56526    0.005
 5724.00    0.10432   0.56367    0.005
 5725.00    0.17362   0.55895    0.005
 5726.00    0.25321   0.55196    0.005
 5727.00    0.37107   0.55006    0.005
 5728.00    0.48651   0.55467    0.006
 5729.00    0.59438   0.55683    0.006
 5730.00    0.63965   0.55163    0.006
 5731.00    0.51946   0.54677    0.006
 5732.00    0.41321   0.55004    0.006
 5733.00    0.33862   0.55692    0.006
 5734.00    0.31940   0.56042    0.006
 5735.00    0.40903   0.55960    0.006
 5736.00    0.47387   0.55691    0.006
 5737.00    0.49628   0.55483    0.006
 5738.00    0.52935   0.55383    0.006
 5739.00    0.57841   0.55349    0.006
 5740.00    0.58006   0.55337    0.000
 5741.00    0.51920   0.55210    0.000
 5742.00    0.47217   0.55053    0.000
 5743.00    0.44121   0.55245    0.000
 5744.00    0.43887   0.55746    0.000
 5745.00    0.46584   0.55984    0.000
 5746.00    0.50245   0.55424    0.000
 5747.00    0.54777   0.54540    0.000
 5748.00    0.60548   0.54463    0.000
 5749.00    0.67306   0.55200    0.000
 5750.00    0.66910   0.55603    0.000
 5751.00    0.61506   0.54942    0.000
 5752.00    0.53647   0.53660    0.000
 5753.00    0.44282   0.52804    0.000
 5754.00    0.37388   0.53206    0.000
 5755.00    0.31821   0.54444    0.000
 5756.00    0.25710   0.55427    0.000
 5757.00    0.19346   0.55758    0.000
 5758.00    0.22025   0.55492    0.000
 5759.00    0.28332   0.54811    0.000
 5760.00    0.30781   0.53955    0.000
 5761.00    0.31908   0.53080    0.000
 5762.00    0.37814   0.52680    0.000
 5763.00    0.45096   0.53418    0.000
 5764.00    0.50911   0.54662    0.000
 5765.00    0.56376   0.55361    0.000
 5766.00    0.48834   0.55562    0.000
 5767.00    0.38796   0.55561    0.000
 5768.00    0.41141   0.55417    0.000
 5769.00    0.45330   0.55223    0.000
 5770.00    0.46556   0.54982    0.000
 5771.00    0.47458   0.54625    0.000
 5772.00    0.51111   0.54405    0.000
 5773.00    0.54962   0.54266    0.000
 5774.00    0.51978   0.54154    0.000
 5775.00    0.48743   0.54366    0.000
 5776.00    0.45085   0.54752    0.000
 5777.00    0.41592   0.54903    0.000
 5778.00    0.44022   0.54564    0.000
 5779.00    0.46138   0.53493    0.000
 5780.00    0.43195   0.52106    0.000
 5781.00    0.40320   0.51454    0.000
 5782.00    0.38145   0.51680    0.000
 5783.00    0.36131   0.51801    0.000
 5784.00    0.35281   0.51446    0.000
 5785.00    0.35936   0.51563    0.000
 5786.00    0.44943   0.52531    0.000
 5787.00    0.52887   0.53462    0.000
 5788.00    0.56116   0.53919    0.000
 5789.00    0.57829   0.53778    0.000
 5790.00    0.54020   0.53215    0.000
 5791.00    0.49247   0.53111   -2.000
 5792.00    0.41531   0.53599   -2.000
 5793.00    0.38120   0.54192   -2.000
 5794.00    0.45886   0.54686   -2.000
 5795.00    0.55006   0.54747   -2.000
 5796.00    0.67147   0.54111   -2.000
 5797.00    0.72707   0.53443   -2.000
 5798.00    0.65536   0.53726   -2.000
 5799.00    0.59240   0.54635   -2.000
 5800.00    0.54419   0.55248   -2.000
 5801.00    0.51673   0.55427   -2.000
 5802.00    0.51995   0.55166   -2.000
 5803.00    0.52191   0.54379   -2.000
 5804.00    0.52225   0.53684   -2.000
 5805.00    0.51020   0.53546   -2.000
 5806.00    0.48396   0.53811   -2.000
 5807.00    0.42103   0.54090   -2.000
 5808.00    0.32106   0.54197   -2.000
 5809.00    0.31315   0.54273   -2.000
 5810.00    0.38723   0.54418   -2.000
 5811.00    0.47715   0.54481    0.000
 5812.00    0.57951   0.54407    0.000
 5813.00    0.65104   0.54181    0.000
 5814.00    0.70130   0.53654    0.000
 5815.00    0.67532   0.52991    0.000
 5816.00    0.60323   0.52952    0.000
 5817.00    0.52918   0.53715    0.000
 5818.00    0.45409   0.54466    0.000
 5819.00    0.38596   0.54733    0.000
 5820.00    0.32100   0.54706    0.000
 5821.00    0.37644   0.54563    0.000
 5822.00    0.47939   0.54370    0.000
 5823.00    0.56902   0.54297    0.000
 5824.00    0.65419   0.54440    0.000
 5825.00    0.63985   0.54514    0.000
 5826.00    0.59742   0.54419    0.000
 5827.00    0.58369   0.54354    0.000
 5828.00    0.57665   0.54467    0.000
 5829.00    0.59769   0.54567    0.000
 5830.00    0.62398   0.54472    0.000
 5831.00    0.56481   0.54376    0.000
 5832.00    0.49331   0.54324    0.000
 5833.00    0.44111   0.54086    0.000
 5834.00    0.39094   0.53802    0.000
 5835.00    0.41585   0.53898    0.000
 5836.00    0.44584   0.54092    0.000
 5837.00    0.55165   0.53892    0.000
 5838.00    0.65997   0.53721    0.000
 5839.00    0.56814   0.53977    0.000
 5840.00    0.47804   0.54361    0.000
 5841.00    0.44691   0.54547    0.000
 5842.00    0.41976   0.54557    0.000
 5843.00    0.45282   0.54438    0.000
 5844.00    0.48340   0.54127    0.000
 5845.00    0.48986   0.53683    0.000
 5846.00    0.49375   0.53211    0.000
 5847.00    0.47964   0.52912    0.000
 5848.00    0.46958   0.52961    0.000
 5849.00    0.48139   0.53140    0.000
 5850.00    0.48046   0.53064    0.000
 5851.00    0.42434   0.52475    0.000
 5852.00    0.38527   0.51612    0.000
 5853.00    0.40701   0.51293    0.000
 5854.00    0.41829   0.51669    0.000
 5855.00    0.39824   0.51670    0.000
 5856.00    0.39482   0.50754    0.000
 5857.00    0.43383   0.49973    0.000
 5858.00    0.48132   0.50321    0.000
 5859.00    0.54743   0.51262    0.000
 5860.00    0.58589   0.51941    0.000
 5861.00    0.57170   0.51959    0.000
 5862.00    0.58551   0.51801    0.000
 5863.00    0.64585   0.52108    0.000
 5864.00    0.67450   0.52466    0.000
 5865.00    0.65701   0.52284    0.000
 5866.00    0.59083   0.51887    0.000
 5867.00    0.46228   0.51984    0.000
 5868.00    0.39456   0.52497    0.000
 5869.00    0.39548   0.52963    0.000
 5870.00    0.42543   0.53082    0.000
 5871.00    0.48428   0.52829    0.000
 5872.00    0.51421   0.52493    0.000
 5873.00    0.51874   0.52224    0.000
 5874.00    0.53751   0.51892    0.000
 5875.00    0.56730   0.51548    0.000
 5876.00    0.58956   0.51504    0.000
 5877.00    0.60668   0.51802    0.000
 5878.00    0.54739   0.51779    0.000
 5879.00    0.44254   0.51403    0.000
 5880.00    0.42851   0.51259    0.000
 5881.00    0.46169   0.51472    0.000
 5882.00    0.49033   0.51465    0.000
 5883.00    0.51693   0.51162    0.000
 5884.00    0.47518   0.51076    0.000
 5885.00    0.40694   0.51213    0.000
 5886.00    0.34772   0.50893    0.000
 5887.00    0.29149   0.49056    0.000
 5888.00    0.32943   0.44991    0.000
 5889.00    0.39342   0.41063    0.000
 5890.00    0.41769   0.41138    0.000
 5891.00    0.43292   0.44408    0.000
 5892.00    0.42466   0.47092    0.000
 5893.00    0.41213   0.47609    0.000
 5894.00    0.40194   0.45559    0.000
 5895.00    0.39209   0.42863    0.000
 5896.00    0.36018   0.43282    0.000
 5897.00    0.32606   0.46237    0.000
 5898.00    0.31606   0.48438    0.000
 5899.00    0.30759   0.49428    0.000
 5900.00    0.35150   0.50179    0.000
 5901.00    0.39685   0.50671    0.005
 5902.00    0.40987   0.50903    0.005
 5903.00    0.42211   0.51024    0.005
 5904.00    0.41259   0.50871    0.005
 5905.00    0.40474   0.50628    0.005
 5906.00    0.42070   0.50774    0.005
 5907.00    0.44004   0.51151    0.005
 5908.00    0.49083   0.51296    0.005
 5909.00    0.53756   0.51272    0.005
 5910.00    0.55669   0.51417    0.005
 5911.00    0.55792   0.51519    0.005
 5912.00    0.46490   0.51034    0.005
 5913.00    0.38625   0.50091    0.005
 5914.00    0.36842   0.49581    0.005
 5915.00    0.37147   0.49745    0.005
 5916.00    0.44750   0.50222    0.005
 5917.00    0.49482   0.50668    0.005
 5918.00    0.45772   0.50900    0.005
 5919.00    0.41110   0.51095    0.005
 5920.00    0.34063   0.51147    0.005
 5921.00    0.32511   0.50911    0.005
 5922.00    0.42830   0.50752    0.005
 5923.00    0.49672   0.50895    0.005
 5924.00    0.49998   0.51154    0.005
 5925.00    0.47615   0.51368    0.005
 5926.00    0.40797   0.51378    0.005
 5927.00    0.36922   0.51016    0.005
 5928.00    0.37275   0.50352    0.005
 5929.00    0.40851   0.49774    0.005
 5930.00    0.48499   0.49931    0.005
 5931.00    0.52383   0.50703    0.005
 5932.00    0.52079   0.51081    0.005
 5933.00    0.50975   0.50661    0.005
 5934.00    0.49087   0.50237    0.005
 5935.00    0.46948   0.50505    0.005
 5936.00    0.44591   0.51013    0.005
 5937.00    0.43193   0.51282    0.005
 5938.00    0.42527   0.51376    0.005
 5939.00    0.40295   0.51107    0.005
 5940.00    0.37014   0.50430    0.005
 5941.00    0.37543   0.50034    0.005
 5942.00    0.40308   0.50206    0.005
 5943.00    0.43285   0.50597    0.005
 5944.00    0.46372   0.50972    0.005
 5945.00    0.42252   0.51180    0.005
 5946.00    0.34937   0.50966    0.005
 5947.00    0.30731   0.50225    0.005
 5948.00    0.27709   0.49558    0.005
 5949.00    0.30909   0.49731    0.005
 5950.00    0.36123   0.50329    0.005
 5951.00    0.40898   0.50262    0.005
 5952.00    0.45555   0.49764    0.005
 5953.00    0.46489   0.49881    0.005
 5954.00    0.46596   0.50386    0.005
 5955.00    0.47780   0.50313    0.005
 5956.00    0.49155   0.49778    0.005
 5957.00    0.50392   0.49578    0.005
 5958.00    0.51610   0.49892    0.005
 5959.00    0.52402   0.50446    0.005
 5960.00    0.53153   0.50900    0.005
 5961.00    0.51404   0.51126    0.005
 5962.00    0.49507   0.51128    0.005
 5963.00    0.48372   0.51021    0.005
 5964.00    0.47275   0.50752    0.005
 5965.00    0.49019   0.50429    0.005
 5966.00    0.50707   0.50460    0.005
 5967.00    0.50970   0.50743    0.005
 5968.00    0.50726   0.50948    0.005
 5969.00    0.43664   0.51091    0.005
 5970.00    0.37402   0.51270    0.005
 5971.00    0.38293   0.51312    0.005
 5972.00    0.40192   0.51209    0.005
 5973.00    0.48734   0.50992    0.005
 5974.00    0.55547   0.50507    0.005
 5975.00    0.53495   0.49816    0.005
 5976.00    0.50389   0.49304    0.005
 5977.00    0.42922   0.49169    0.005
 5978.00    0.37697   0.49470    0.005
 5979.00    0.40154   0.50084    0.005
 5980.00    0.43876   0.50582    0.005
 5981.00    0.51251   0.50540    0.005
 5982.00    0.56743   0.49811    0.005
 5983.00    0.57593   0.48772    0.005
 5984.00    0.57247   0.48424    0.005
 5985.00    0.54357   0.48961    0.005
 5986.00    0.50151   0.49489    0.005
 5987.00    0.43512   0.49681    0.005
 5988.00    0.40145   0.49967    0.005
 5989.00    0.42054   0.50213    0.005
 5990.00    0.46940   0.49997    0.005
 5991.00    0.56040   0.49752    0.005
 5992.00    0.61285   0.50087    0.005
 5993.00    0.61732   0.50642    0.005
 5994.00    0.59648   0.50792    0.005
 5995.00    0.54788   0.50450    0.005
 5996.00    0.49220   0.49827    0.005
 5997.00    0.42967   0.49342    0.005
 5998.00    0.38830   0.49354    0.005
 5999.00    0.36497   0.49716    0.005
 6000.00    0.35442   0.49969    0.005
 6001.00    0.35345   0.49737    0.005
 6002.00    0.37259   0.49301    0.005
 6003.00    0.40501   0.49328    0.005
 6004.00    0.42761   0.49616    0.005
 6005.00    0.44452   0.49518    0.005
 6006.00    0.45954   0.48879    0.005
 6007.00    0.47360   0.48093    0.005
 6008.00    0.51196   0.48134    0.005
 6009.00    0.56091   0.49125    0.005
 6010.00    0.53809   0.49902    0.005
 6011.00    0.48842   0.49689    0.005
 6012.00    0.47518   0.48965    0.005
 6013.00    0.47352   0.48693    0.005
 6014.00    0.46078   0.48980    0.005
 6015.00    0.44510   0.49043    0.005
 6016.00    0.43540   0.48874    0.005
 6017.00    0.42699   0.49019    0.005
 6018.00    0.46710   0.49028    0.005
 6019.00    0.51556   0.48491    0.005
 6020.00    0.51948   0.48079    0.005
 6021.00    0.51759   0.48214    0.005
 6022.00    0.48598   0.48474    0.005
 6023.00    0.45164   0.48556    0.005
 6024.00    0.46069   0.48863    0.005
 6025.00    0.47216   0.49271    0.005
 6026.00    0.44445   0.49315    0.005
 6027.00    0.41579   0.49405    0.005
 6028.00    0.37797   0.49710    0.005
 6029.00    0.34087   0.49850    0.005
 6030.00    0.32065   0.49811    0.005
 6031.00    0.30351   0.49911    0.005
 6032.00    0.32565   0.50122    0.005
 6033.00    0.34842   0.50186    0.005
 6034.00    0.37655   0.50100    0.005
 6035.00    0.40143   0.50028    0.005
 6036.00    0.40559   0.50060    0.005
 6037.00    0.39739   0.50082    0.005
 6038.00    0.32744   0.49942    0.005
 6039.00    0.27969   0.49704    0.005
 6040.00    0.32179   0.49533    0.005
 6041.00    0.35573   0.49415    0.005
 6042.00    0.36227   0.49580    0.005
 6043.00    0.37168   0.49948    0.005
 6044.00    0.38917   0.50120    0.005
 6045.00    0.42323   0.50101    0.005
 6046.00    0.49739   0.50129    0.005
 6047.00    0.54645   0.50158    0.005
 6048.00    0.54299   0.50117    0.005
 6049.00    0.53655   0.50167    0.005
 6050.00    0.52469   0.50217    0.005
 6051.00    0.52339   0.50017    0.005
 6052.00    0.53888   0.49586    0.005
 6053.00    0.53342   0.49254    0.005
 6054.00    0.49874   0.49095    0.005
 6055.00    0.50165   0.48881    0.005
 6056.00    0.55068   0.48821    0.005
 6057.00    0.58807   0.49080    0.005
 6058.00    0.61284   0.49510    0.005
 6059.00    0.57372   0.49816    0.005
 6060.00    0.47363   0.49836    0.005
 6061.00    0.40345   0.49597    0.005
 6062.00    0.35844   0.49215    0.005
 6063.00    0.37007   0.48625    0.005
 6064.00    0.42366   0.47787    0.005
 6065.00    0.48648   0.47606    0.005
 6066.00    0.55530   0.48520    0.005
 6067.00    0.56277   0.49524    0.005
 6068.00    0.53530   0.49959    0.005
 6069.00    0.48552   0.50032    0.005
 6070.00    0.42467   0.50009    0.005
 6071.00    0.42377   0.50012    0.005
 6072.00    0.44858   0.50045    0.005
 6073.00    0.44575   0.50060    0.005
 6074.00    0.43276   0.50001    0.005
 6075.00    0.45095   0.49807    0.005
 6076.00    0.47885   0.49386    0.005
 6077.00    0.49601   0.48652    0.005
 6078.00    0.51038   0.48121    0.005
 6079.00    0.52929   0.48279    0.005
 6080.00    0.54916   0.48482    0.005
 6081.00    0.55406   0.48268    0.005
 6082.00    0.55646   0.48145    0.005
 6083.00    0.57764   0.48275    0.005
 6084.00    0.60119   0.48258    0.005
 6085.00    0.56799   0.48194    0.005
 6086.00    0.52982   0.48393    0.005
 6087.00    0.50026   0.48686    0.005
 6088.00    0.47115   0.48583    0.005
 6089.00    0.47372   0.48080    0.005
 6090.00    0.47602   0.47792    0.005
 6091.00    0.41687   0.47864    0.005
 6092.00    0.35626   0.47988    0.005
 6093.00    0.26455   0.48259    0.005
 6094.00    0.18515   0.48761    0.005
 6095.00    0.25487   0.48985    0.005
 6096.00    0.32521   0.48790    0.005
 6097.00    0.40076   0.48709    0.005
 6098.00    0.46728   0.48988    0.005
 6099.00    0.47791   0.49232    0.005
 6100.00    0.48067   0.48655    0.005
 6101.00    0.44507   0.46793    0.005
 6102.00    0.40762   0.45242    0.005
 6103.00    0.36286   0.45868    0.005
 6104.00    0.33798   0.47612    0.005
 6105.00    0.37853   0.48565    0.005
 6106.00    0.42247   0.48525    0.005
 6107.00    0.47584   0.48283    0.005
 6108.00    0.50985   0.48456    0.005
 6109.00    0.49775   0.48725    0.005
 6110.00    0.49639   0.48531    0.005
 6111.00    0.51711   0.48272    0.005
 6112.00    0.53453   0.48464    0.005
 6113.00    0.54603   0.48835    0.005
 6114.00    0.54920   0.48894    0.005
 6115.00    0.53935   0.48484    0.005
 6116.00    0.53751   0.48251    0.005
 6117.00    0.54669   0.48475    0.005
 6118.00    0.55452   0.48467    0.005
 6119.00    0.56073   0.47890    0.005
 6120.00    0.53151   0.46817    0.005
 6121.00    0.46448   0.45631    0.005
 6122.00    0.42125   0.45646    0.005
 6123.00    0.40041   0.46942    0.005
 6124.00    0.39963   0.47850    0.005
 6125.00    0.41549   0.47902    0.005
 6126.00    0.43040   0.47697    0.005
 6127.00    0.44462   0.47471    0.005
 6128.00    0.43319   0.47462    0.005
 6129.00    0.40531   0.47842    0.005
 6130.00    0.39493   0.48238    0.005
 6131.00    0.39437   0.48357    0.005
 6132.00    0.43035   0.48402    0.005
 6133.00    0.48416   0.48230    0.005
 6134.00    0.51647   0.47354    0.005
 6135.00    0.53971   0.45525    0.005
 6136.00    0.52046   0.43623    0.005
 6137.00    0.48587   0.43647    0.005
 6138.00    0.44862   0.45701    0.005
 6139.00    0.41056   0.47347    0.005
 6140.00    0.37306   0.47065    0.005
 6141.00    0.33571   0.46189    0.005
 6142.00    0.34307   0.46557    0.005
 6143.00    0.35966   0.47675    0.005
 6144.00    0.44444   0.48270    0.005
 6145.00    0.54029   0.48261    0.005
 6146.00    0.57426   0.47937    0.005
 6147.00    0.60071   0.47283    0.005
 6148.00    0.55284   0.46637    0.005
 6149.00    0.49875   0.46426    0.005
 6150.00    0.42034   0.46734    0.005
 6151.00    0.34076   0.47263    0.005
 6152.00    0.32857   0.47584    0.005
 6153.00    0.31840   0.47315    0.005
 6154.00    0.36847   0.46749    0.005
 6155.00    0.41877   0.46570    0.005
 6156.00    0.47357   0.46636    0.005
 6157.00    0.51942   0.46601    0.005
 6158.00    0.46191   0.46516    0.005
 6159.00    0.40858   0.45877    0.005
 6160.00    0.38867   0.44048    0.005
 6161.00    0.37945   0.42058    0.005
 6162.00    0.43457   0.41646    0.005
 6163.00    0.47505   0.42881    0.005
 6164.00    0.44596   0.44332    0.005
 6165.00    0.41372   0.45119    0.005
 6166.00    0.36933   0.45545    0.005
 6167.00    0.33878   0.45421    0.005
 6168.00    0.35291   0.44198    0.005
 6169.00    0.35725   0.43175    0.005
 6170.00    0.33484   0.43871    0.005
 6171.00    0.32210   0.45274    0.005
 6172.00    0.33197   0.45838    0.005
 6173.00    0.34282   0.45828    0.005
 6174.00    0.35562   0.45801    0.005
 6175.00    0.36141   0.45669    0.005
 6176.00    0.35487   0.45584    0.005
 6177.00    0.34681   0.45880    0.005
 6178.00    0.33640   0.46183    0.005
 6179.00    0.30532   0.46110    0.005
 6180.00    0.24620   0.46152    0.005
 6181.00    0.21659   0.46483    0.005
 6182.00    0.22217   0.46633    0.005
 6183.00    0.21085   0.46577    0.005
 6184.00    0.18177   0.46476    0.005
 6185.00    0.16101   0.46088    0.005
 6186.00    0.14798   0.45560    0.005
 6187.00    0.19708   0.45321    0.005
 6188.00    0.29699   0.45348    0.005
 6189.00    0.35443   0.44989    0.005
 6190.00    0.38130   0.43847    0.005
 6191.00    0.37473   0.43262    0.005
 6192.00    0.34704   0.44209    0.005
 6193.00    0.30636   0.45409    0.005
 6194.00    0.25851   0.45873    0.005
 6195.00    0.41837   0.46063    0.005
 6196.00    0.67797   0.46341   -2.000
 6197.00    1.19274   0.46311   -2.000
 6198.00    1.81329   0.45601   -2.000
 6199.00    2.02175   0.44860   -2.000
 6200.00    2.08416   0.44974   -2.000
 6201.00    1.56073   0.45717   -2.000
 6202.00    0.86200   0.46293   -2.000
 6203.00    0.47974   0.46400   -2.000
 6204.00    0.17610   0.46322   -2.000
 6205.00    0.13324   0.46354   -2.000
 6206.00    0.14289   0.46413   -2.000
 6207.00    0.18863   0.46393   -2.000
 6208.00    0.24006   0.46329    0.005
 6209.00    0.23445   0.46172    0.005
 6210.00    0.22216   0.45963    0.005
 6211.00    0.26314   0.45663    0.005
 6212.00    0.30835   0.44916    0.005
 6213.00    0.28700   0.43970    0.005
 6214.00    0.26271   0.43471    0.005
 6215.00    0.29584   0.43576    0.005
 6216.00    0.32944   0.44196    0.005
 6217.00    0.35542   0.44677    0.005
 6218.00    0.37894   0.44401    0.005
 6219.00    0.35741   0.43898    0.005
 6220.00    0.33937   0.43931    0.005
 6221.00    0.35978   0.44413    0.005
 6222.00    0.38021   0.44772    0.005
 6223.00    0.40080   0.44738    0.005
 6224.00    0.41341   0.44698    0.005
 6225.00    0.37935   0.44847    0.005
 6226.00    0.35365   0.44948    0.005
 6227.00    0.36668   0.44907    0.005
 6228.00    0.37844   0.44392    0.005
 6229.00    0.38536   0.43187    0.005
 6230.00    0.39683   0.42259    0.005
 6231.00    0.42272   0.42472    0.005
 6232.00    0.45479   0.43281    0.005
 6233.00    0.50343   0.44279    0.005
 6234.00    0.50651   0.45164    0.005
 6235.00    0.40468   0.45410    0.005
 6236.00    0.32242   0.44958    0.005
 6237.00    0.27914   0.44241    0.005
 6238.00    0.24786   0.43653    0.005
 6239.00    0.23743   0.43338    0.005
 6240.00    0.22868   0.43527    0.005
 6241.00    0.22250   0.43738    0.005
 6242.00    0.23504   0.43299    0.005
 6243.00    0.27257   0.42833    0.005
 6244.00    0.32021   0.42765    0.005
 6245.00    0.37973   0.42684    0.005
 6246.00    0.41543   0.42860    0.005
 6247.00    0.42643   0.43586    0.005
 6248.00    0.41937   0.44349    0.005
 6249.00    0.39580   0.44698    0.005
 6250.00    0.37430   0.44404    0.005
 6251.00    0.35448   0.43441    0.005
 6252.00    0.37401   0.42554    0.005
 6253.00    0.42145   0.42336    0.005
 6254.00    0.46953   0.42536    0.005
 6255.00    0.51802   0.42615    0.005
 6256.00    0.49492   0.42366    0.005
 6257.00    0.43288   0.42016    0.005
 6258.00    0.40233   0.42139    0.005
 6259.00    0.38666   0.42878    0.005
 6260.00    0.53930   0.43508    0.006
 6261.00    0.76054   0.44000    0.006
 6262.00    0.79587   0.44582    0.006
 6263.00    0.76649   0.44672    0.007
 6264.00    0.68096   0.44108    0.006
 6265.00    0.57895   0.43845    0.006
 6266.00    0.48752   0.44226    0.006
 6267.00    0.39866   0.44482    0.005
 6268.00    0.38861   0.44295    0.005
 6269.00    0.39403   0.44066    0.005
 6270.00    0.36649   0.44076    0.005
 6271.00    0.33392   0.44319    0.005
 6272.00    0.31101   0.44566    0.005
 6273.00    0.28919   0.44587    0.005
 6274.00    0.33847   0.44549    0.005
 6275.00    0.39310   0.44585    0.005
 6276.00    0.43095   0.44543    0.005
 6277.00    0.46812   0.44387    0.005
 6278.00    0.45874   0.44026    0.005
 6279.00    0.44901   0.43464    0.005
 6280.00    0.43895   0.43235    0.000
 6281.00    0.43170   0.43536    0.000
 6282.00    0.47207   0.44019    0.000
 6283.00    0.50959   0.44428    0.000
 6284.00    0.51716   0.44559    0.000
 6285.00    0.52036   0.44596    0.000
 6286.00    0.49104   0.44836    0.000
 6287.00    0.46306   0.45126    0.000
 6288.00    0.44271   0.45201    0.000
 6289.00    0.41077   0.44888    0.000
 6290.00    0.32635   0.44408    0.000
 6291.00    0.26048   0.44111    0.000
 6292.00    0.26344   0.44064    0.000
 6293.00    0.28115   0.44268    0.000
 6294.00    0.34464   0.44377    0.000
 6295.00    0.40560   0.43976    0.000
 6296.00    0.45986   0.43349    0.000
 6297.00    0.50470   0.43133    0.000
 6298.00    0.52822   0.43421    0.000
 6299.00    0.53393   0.43580    0.000
 6300.00    0.50470   0.43103    0.000
 6301.00    0.46175   0.42546    0.000
 6302.00    0.39533   0.42778    0.000
 6303.00    0.33670   0.43509    0.000
 6304.00    0.28975   0.43870    0.000
 6305.00    0.28226   0.43979    0.000
 6306.00    0.32669   0.44377    0.000
 6307.00    0.38102   0.44821    0.000
 6308.00    0.44682   0.44849    0.000
 6309.00    0.49312   0.44453    0.000
 6310.00    0.51946   0.44021    0.000
 6311.00    0.52620   0.43900    0.000
 6312.00    0.51525   0.44011    0.000
 6313.00    0.45633   0.43743    0.000
 6314.00    0.35928   0.43114    0.000
 6315.00    0.27670   0.42927    0.000
 6316.00    0.20423   0.42942    0.000
 6317.00    0.20814   0.42431    0.000
 6318.00    0.25888   0.42188    0.000
 6319.00    0.33336   0.42822    0.000
 6320.00    0.42054   0.43510    0.000
 6321.00    0.45626   0.43640    0.005
 6322.00    0.46805   0.43679    0.005
 6323.00    0.44816   0.44050    0.005
 6324.00    0.41559   0.44440    0.005
 6325.00    0.37044   0.44537    0.005
 6326.00    0.32099   0.44375    0.005
 6327.00    0.29448   0.44293    0.005
 6328.00    0.27457   0.44374    0.005
 6329.00    0.26348   0.44240    0.005
 6330.00    0.25448   0.44069    0.005
 6331.00    0.29538   0.44266    0.005
 6332.00    0.34582   0.44607    0.005
 6333.00    0.39318   0.44392    0.005
 6334.00    0.44008   0.43356    0.005
 6335.00    0.44067   0.42369    0.005
 6336.00    0.43623   0.42341    0.005
 6337.00    0.44189   0.42913    0.005
 6338.00    0.44827   0.43357    0.005
 6339.00    0.42832   0.43798    0.005
 6340.00    0.40741   0.44222    0.005
 6341.00    0.37900   0.44171    0.005
 6342.00    0.35262   0.43556    0.005
 6343.00    0.39834   0.42898    0.005
 6344.00    0.44346   0.42774    0.005
 6345.00    0.47883   0.42864    0.005
 6346.00    0.51004   0.42836    0.005
 6347.00    0.49945   0.43100    0.005
 6348.00    0.48700   0.43728    0.005
 6349.00    0.46119   0.44124    0.005
 6350.00    0.43928   0.44209    0.005
 6351.00    0.43896   0.44209    0.005
 6352.00    0.44810   0.44046    0.005
 6353.00    0.49901   0.43553    0.005
 6354.00    0.54251   0.43047    0.004
 6355.00    0.55909   0.43067    0.005
 6356.00    0.56805   0.43210    0.005
 6357.00    0.55380   0.42792    0.005
 6358.00    0.53888   0.42190    0.005
 6359.00    0.52222   0.41986    0.005
 6360.00    0.49909   0.41863    0.005
 6361.00    0.46157   0.41542    0.005
 6362.00    0.42421   0.41460    0.005
 6363.00    0.38720   0.41825    0.005
 6364.00    0.34216   0.42355    0.005
 6365.00    0.28361   0.42789    0.005
 6366.00    0.24680   0.43184    0.005
 6367.00    0.24206   0.43555    0.005
 6368.00    0.24849   0.43621    0.005
 6369.00    0.26942   0.43215    0.005
 6370.00    0.30004   0.42861    0.005
 6371.00    0.34174   0.43085    0.005
 6372.00    0.38642   0.43709    0.005
 6373.00    0.43410   0.44074    0.005
 6374.00    0.43912   0.44049    0.005
 6375.00    0.40623   0.44022    0.005
 6376.00    0.39244   0.43966    0.005
 6377.00    0.39362   0.43651    0.005
 6378.00    0.41383   0.43286    0.005
 6379.00    0.44716   0.43159    0.005
 6380.00    0.48566   0.43162    0.004
 6381.00    0.52728   0.43314    0.004
 6382.00    0.52395   0.43480    0.004
 6383.00    0.49692   0.43345    0.004
 6384.00    0.46314   0.43178    0.005
 6385.00    0.42627   0.43342    0.005
 6386.00    0.38523   0.43649    0.005
 6387.00    0.34254   0.43768    0.005
 6388.00    0.29789   0.43750    0.005
 6389.00    0.25258   0.43744    0.005
 6390.00    0.24278   0.43644    0.005
 6391.00    0.24299   0.43052    0.005
 6392.00    0.26939   0.41979    0.005
 6393.00    0.30187   0.41513    0.005
 6394.00    0.33851   0.42223    0.005
 6395.00    0.37592   0.43221    0.005
 6396.00    0.38787   0.43787    0.005
 6397.00    0.39617   0.43728    0.005
 6398.00    0.40699   0.42697    0.005
 6399.00    0.41808   0.41334    0.005
 6400.00    0.45025   0.41388    0.005
 6401.00    0.48383   0.42698    0.005
 6402.00    0.47744   0.43706    0.005
 6403.00    0.46974   0.44064    0.005
 6404.00    0.43495   0.44001    0.005
 6405.00    0.40063   0.43604    0.005
 6406.00    0.38146   0.42880    0.005
 6407.00    0.36706   0.42288    0.005
 6408.00    0.42402   0.42531    0.005
 6409.00    0.47904   0.43025    0.005
 6410.00    0.51525   0.42694    0.005
 6411.00    0.54306   0.42231    0.005
 6412.00    0.51213   0.42441    0.005
 6413.00    0.47620   0.42776    0.005
 6414.00    0.41331   0.42856    0.005
 6415.00    0.36511   0.42931    0.005
 6416.00    0.38043   0.42996    0.005
 6417.00    0.39568   0.42959    0.005
 6418.00    0.41067   0.42619    0.005
 6419.00    0.42587   0.41863    0.005
 6420.00    0.44172   0.41329    0.005
 6421.00    0.45485   0.41789    0.005
 6422.00    0.46105   0.42896    0.005
 6423.00    0.46634   0.43558    0.005
 6424.00    0.46965   0.43560    0.005
 6425.00    0.47239   0.43538    0.005
 6426.00    0.47405   0.43718    0.005
 6427.00    0.49675   0.43816    0.005
 6428.00    0.55436   0.43467    0.005
 6429.00    0.59290   0.42510    0.005
 6430.00    0.60370   0.41590    0.005
 6431.00    0.56867   0.41574    0.005
 6432.00    0.47503   0.42211    0.005
 6433.00    0.41313   0.42859    0.005
 6434.00    0.38701   0.43335    0.005
 6435.00    0.38676   0.43576    0.005
 6436.00    0.41223   0.43373    0.005
 6437.00    0.42432   0.42374    0.005
 6438.00    0.42467   0.41281    0.005
 6439.00    0.42172   0.41521    0.005
 6440.00    0.41621   0.42764    0.005
 6441.00    0.41301   0.43629    0.005
 6442.00    0.41138   0.43846    0.005
 6443.00    0.39208   0.43842    0.005
 6444.00    0.36226   0.43857    0.005
 6445.00    0.37015   0.43911    0.005
 6446.00    0.39761   0.43823    0.005
 6447.00    0.41665   0.43184    0.005
 6448.00    0.43189   0.41642    0.005
 6449.00    0.42490   0.40280    0.005
 6450.00    0.40932   0.40556    0.005
 6451.00    0.41375   0.41851    0.005
 6452.00    0.42478   0.42868    0.005
 6453.00    0.38859   0.43080    0.005
 6454.00    0.33938   0.42381    0.004
 6455.00    0.31027   0.41439    0.004
 6456.00    0.28571   0.41422    0.005
 6457.00    0.31209   0.42377    0.005
 6458.00    0.34769   0.43344    0.005
 6459.00    0.33491   0.43670    0.005
 6460.00    0.31538   0.43032    0.005
 6461.00    0.34473   0.41429    0.005
 6462.00    0.37896   0.40372    0.005
 6463.00    0.40395   0.41029    0.005
 6464.00    0.42835   0.42220    0.005
 6465.00    0.45901   0.42902    0.005
 6466.00    0.48972   0.43206    0.005
 6467.00    0.48197   0.43223    0.005
 6468.00    0.47260   0.42933    0.005
 6469.00    0.41829   0.42582    0.005
 6470.00    0.36996   0.42209    0.005
 6471.00    0.40604   0.42010    0.005
 6472.00    0.43889   0.42269    0.005
 6473.00    0.44184   0.42447    0.005
 6474.00    0.43928   0.42231    0.005
 6475.00    0.39941   0.42166    0.005
 6476.00    0.36349   0.42476    0.005
 6477.00    0.34830   0.42680    0.005
 6478.00    0.34533   0.42663    0.005
 6479.00    0.39390   0.42496    0.005
 6480.00    0.43733   0.41900    0.005
 6481.00    0.46277   0.41028    0.005
 6482.00    0.48107   0.40690    0.005
 6483.00    0.47841   0.41110    0.005
 6484.00    0.47300   0.41693    0.005
 6485.00    0.46070   0.42044    0.005
 6486.00    0.44413   0.42207    0.005
 6487.00    0.41840   0.42272    0.005
 6488.00    0.40227   0.42167    0.005
 6489.00    0.40410   0.41812    0.005
 6490.00    0.40464   0.41387    0.005
 6491.00    0.40306   0.40959    0.005
 6492.00    0.39950   0.40049    0.005
 6493.00    0.39308   0.38392    0.005
 6494.00    0.39268   0.37054    0.005
 6495.00    0.39986   0.36849    0.005
 6496.00    0.41643   0.37513    0.005
 6497.00    0.44343   0.38541    0.005
 6498.00    0.47449   0.39262    0.005
 6499.00    0.50953   0.39834    0.005
 6500.00    0.50555   0.40536    0.005
 6501.00    0.46787   0.41126    0.005
 6502.00    0.43507   0.41446    0.005
 6503.00    0.40598   0.41622    0.005
 6504.00    0.40605   0.41783    0.004
 6505.00    0.42562   0.41949    0.004
 6506.00    0.42753   0.41929    0.004
 6507.00    0.41909   0.41673    0.004
 6508.00    0.40165   0.41494    0.005
 6509.00    0.37961   0.41613    0.005
 6510.00    0.38806   0.41779    0.005
 6511.00    0.40999   0.41798    0.005
 6512.00    0.41420   0.41740    0.005
 6513.00    0.41167   0.41581    0.005
 6514.00    0.37637   0.41123    0.005
 6515.00    0.33048   0.40590    0.005
 6516.00    0.32112   0.40306    0.005
 6517.00    0.32163   0.40207    0.005
 6518.00    0.35694   0.40329    0.005
 6519.00    0.39996   0.40825    0.005
 6520.00    0.40284   0.41361    0.005
 6521.00    0.39863   0.41561    0.005
 6522.00    0.37309   0.41536    0.005
 6523.00    0.34468   0.41562    0.005
 6524.00    0.37077   0.41551    0.004
 6525.00    0.40207   0.41207    0.005
 6526.00    0.39609   0.40746    0.005
 6527.00    0.38791   0.40727    0.005
 6528.00    0.32819   0.41091    0.000
 6529.00    0.26736   0.41374    0.000
 6530.00    0.23394   0.41291    0.000
 6531.00    0.20189   0.40908    0.000
 6532.00    0.20406   0.40580    0.000
 6533.00    0.20656   0.40593    0.000
 6534.00    0.21333   0.40935    0.000
 6535.00    0.22503   0.41213    0.000
 6536.00    0.28058   0.41170    0.000
 6537.00    0.33326   0.41065    0.000
 6538.00    0.36709   0.41188    0.000
 6539.00    0.39324   0.41367    0.000
 6540.00    0.38011   0.41283    0.000
 6541.00    0.36535   0.40898    0.000
 6542.00    0.34387   0.40479    0.000
 6543.00    0.34003   0.40166    0.000
 6544.00    0.39649   0.39642    0.000
 6545.00    0.45224   0.38906    0.000
 6546.00    0.50598   0.38644    0.000
 6547.00    0.55345   0.39017    0.000
 6548.00    0.58552   0.39365    0.000
 6549.00    0.60379   0.39292    0.000
 6550.00    0.59280   0.38928    0.000
 6551.00    0.57586   0.38563    0.000
 6552.00    0.54793   0.38217    0.000
 6553.00    0.53413   0.37683    0.000
 6554.00    0.54305   0.36987    0.000
 6555.00    0.56896   0.36489    0.000
 6556.00    0.61885   0.36347    0.000
 6557.00    0.70923   0.36187    0.000
 6558.00    0.84991   0.35644    0.000
 6559.00    1.10519   0.34525    0.000
 6560.00    1.48597   0.31892    0.000
 6561.00    1.83237   0.27217    0.000
 6562.00    2.14556   0.23889    0.000
 6563.00    2.29289   0.25655    0.000
 6564.00    2.29894   0.30296    0.000
 6565.00    2.06975   0.33774    0.000
 6566.00    1.66407   0.35517    0.000
 6567.00    1.26003   0.36234    0.000
 6568.00    0.85708   0.36343    0.000
 6569.00    0.60563   0.36548    0.000
 6570.00    0.44161   0.37023    0.000
 6571.00    0.36962   0.37227    0.000
 6572.00    0.34390   0.37068    0.000
 6573.00    0.34179   0.36943    0.000
 6574.00    0.34997   0.37158    0.000
 6575.00    0.36272   0.37802    0.000
 6576.00    0.37718   0.38554    0.000
 6577.00    0.41300   0.39047    0.000
 6578.00    0.45559   0.39192    0.000
 6579.00    0.55162   0.39027    0.000
 6580.00    0.66179   0.38788    0.000
 6581.00    0.78798   0.38822    0.000
 6582.00    0.91763   0.39145    0.000
 6583.00    0.99358   0.39378    0.000
 6584.00    1.06031   0.39422    0.000
 6585.00    1.00771   0.39298    0.000
 6586.00    0.93960   0.39315    0.000
 6587.00    0.78782   0.39631    0.000
 6588.00    0.62841   0.39960    0.000
 6589.00    0.53581   0.40100    0.000
 6590.00    0.44690   0.39808    0.000
 6591.00    0.39727   0.38797    0.000
 6592.00    0.34892   0.37597    0.000
 6593.00    0.34274   0.37424    0.000
 6594.00    0.33785   0.38355    0.000
 6595.00    0.36250   0.39224    0.000
 6596.00    0.38738   0.39422    0.000
 6597.00    0.41521   0.39197    0.000
 6598.00    0.44129   0.39154    0.000
 6599.00    0.45239   0.39534    0.000
 6600.00    0.46056   0.40006    0.000
 6601.00    0.45009   0.40209    0.000
 6602.00    0.44259   0.40105    0.000
 6603.00    0.44984   0.39769    0.000
 6604.00    0.45859   0.39428    0.000
 6605.00    0.47337   0.39305    0.000
 6606.00    0.48165   0.39247    0.000
 6607.00    0.46818   0.38982    0.000
 6608.00    0.44894   0.38610    0.000
 6609.00    0.41335   0.38759    0.005
 6610.00    0.39403   0.39439    0.005
 6611.00    0.41405   0.39891    0.005
 6612.00    0.43338   0.39779    0.005
 6613.00    0.45129   0.39580    0.005
 6614.00    0.45396   0.39785    0.005
 6615.00    0.42898   0.40065    0.005
 6616.00    0.42210   0.40064    0.005
 6617.00    0.44392   0.39945    0.005
 6618.00    0.45458   0.39950    0.005
 6619.00    0.44967   0.40053    0.005
 6620.00    0.42908   0.40117    0.005
 6621.00    0.38925   0.40057    0.005
 6622.00    0.37275   0.39783    0.005
 6623.00    0.38142   0.39297    0.005
 6624.00    0.39453   0.38933    0.005
 6625.00    0.41187   0.39035    0.005
 6626.00    0.42417   0.39291    0.005
 6627.00    0.43226   0.39387    0.005
 6628.00    0.45445   0.39384    0.005
 6629.00    0.48707   0.39346    0.005
 6630.00    0.47483   0.39249    0.005
 6631.00    0.43345   0.38960    0.005
 6632.00    0.38822   0.38407    0.005
 6633.00    0.34080   0.37968    0.005
 6634.00    0.33195   0.38167    0.005
 6635.00    0.34219   0.38767    0.005
 6636.00    0.37474   0.39242    0.005
 6637.00    0.41684   0.39404    0.005
 6638.00    0.40812   0.39280    0.005
 6639.00    0.38076   0.39153    0.005
 6640.00    0.36917   0.39288    0.005
 6641.00    0.36247   0.39320    0.004
 6642.00    0.34841   0.38802    0.004
 6643.00    0.33244   0.38369    0.004
 6644.00    0.36634   0.38586    0.004
 6645.00    0.41076   0.39014    0.005
 6646.00    0.45757   0.39131    0.005
 6647.00    0.50478   0.39089    0.005
 6648.00    0.47292   0.39141    0.005
 6649.00    0.43113   0.39153    0.005
 6650.00    0.43157   0.39006    0.005
 6651.00    0.43570   0.38870    0.005
 6652.00    0.37207   0.38833    0.005
 6653.00    0.30496   0.38863    0.005
 6654.00    0.30136   0.38918    0.005
 6655.00    0.29895   0.38894    0.005
 6656.00    0.30120   0.38834    0.005
 6657.00    0.30230   0.38883    0.005
 6658.00    0.27940   0.38927    0.005
 6659.00    0.26071   0.38838    0.005
 6660.00    0.29267   0.38641    0.004
 6661.00    0.31869   0.38291    0.004
 6662.00    0.29568   0.37764    0.005
 6663.00    0.27701   0.37579    0.005
 6664.00    0.28506   0.37929    0.005
 6665.00    0.29570   0.38235    0.004
 6666.00    0.31894   0.38248    0.005
 6667.00    0.33228   0.38264    0.005
 6668.00    0.30654   0.38490    0.005
 6669.00    0.29132   0.38818    0.005
 6670.00    0.31062   0.38999    0.005
 6671.00    0.32394   0.38996    0.005
 6672.00    0.32064   0.38958    0.005
 6673.00    0.32961   0.38963    0.005
 6674.00    0.36773   0.38978    0.005
 6675.00    0.39365   0.38689    0.005
 6676.00    0.39451   0.37680    0.005
 6677.00    0.38637   0.36598    0.005
 6678.00    0.36215   0.36587    0.005
 6679.00    0.33063   0.37427    0.005
 6680.00    0.28772   0.37997    0.005
 6681.00    0.26395   0.38168    0.005
 6682.00    0.26644   0.38293    0.005
 6683.00    0.29070   0.38443    0.005
 6684.00    0.34125   0.38532    0.005
 6685.00    0.36366   0.38523    0.005
 6686.00    0.35611   0.38451    0.004
 6687.00    0.35405   0.38373    0.004
 6688.00    0.35714   0.38383    0.005
 6689.00    0.38517   0.38452    0.005
 6690.00    0.43384   0.38500    0.005
 6691.00    0.49981   0.38482    0.005
 6692.00    0.57836   0.38458    0.005
 6693.00    0.59471   0.38406    0.005
 6694.00    0.57125   0.38107    0.005
 6695.00    0.50036   0.37613    0.005
 6696.00    0.40292   0.37399    0.000
 6697.00    0.36765   0.37591    0.000
 6698.00    0.36266   0.37873    0.000
 6699.00    0.37164   0.38189    0.000
 6700.00    0.38651   0.38407    0.000
 6701.00    0.39678   0.38369    0.000
 6702.00    0.40539   0.38084    0.000
 6703.00    0.40218   0.37745    0.000
 6704.00    0.39537   0.37661    0.000
 6705.00    0.41822   0.37870    0.000
 6706.00    0.44858   0.38086    0.000
 6707.00    0.47711   0.38154    0.000
 6708.00    0.50526   0.38129    0.000
 6709.00    0.54747   0.38008    0.000
 6710.00    0.59195   0.37910    0.000
 6711.00    0.57214   0.37865    0.000
 6712.00    0.54454   0.37658    0.000
 6713.00    0.57851   0.37376    0.000
 6714.00    0.61760   0.37118    0.000
 6715.00    0.73572   0.36721    0.000
 6716.00    0.85759   0.36194    0.000
 6717.00    0.89705   0.36023    0.000
 6718.00    0.93297   0.36561    0.000
 6719.00    0.83458   0.37199    0.000
 6720.00    0.73525   0.37393    0.000
 6721.00    0.61779   0.37357    0.000
 6722.00    0.50580   0.37465    0.000
 6723.00    0.45659   0.37684    0.000
 6724.00    0.42435   0.37641    0.000
 6725.00    0.52722   0.37382    0.000
 6726.00    0.63063   0.37274    0.000
 6727.00    0.73734   0.37453    0.000
 6728.00    0.81553   0.37660    0.000
 6729.00    0.75854   0.37783    0.000
 6730.00    0.69711   0.37831    0.000
 6731.00    0.61859   0.37780    0.000
 6732.00    0.55300   0.37638    0.000
 6733.00    0.52907   0.37549    0.000
 6734.00    0.49472   0.37582    0.000
 6735.00    0.43194   0.37661    0.000
 6736.00    0.39305   0.37586    0.000
 6737.00    0.40997   0.37306    0.000
 6738.00    0.42705   0.37046    0.000
 6739.00    0.44447   0.37079    0.000
 6740.00    0.43760   0.37254    0.000
 6741.00    0.38800   0.37223    0.000
 6742.00    0.35781   0.37004    0.000
 6743.00    0.35750   0.36996    0.000
 6744.00    0.35351   0.37165    0.000
 6745.00    0.34452   0.37191    0.000
 6746.00    0.35031   0.37074    0.000
 6747.00    0.37370   0.36898    0.000
 6748.00    0.39275   0.36660    0.000
 6749.00    0.40723   0.36513    0.000
 6750.00    0.44503   0.36611    0.000
 6751.00    0.50442   0.36725    0.000
 6752.00    0.53314   0.36694    0.000
 6753.00    0.53683   0.36801    0.005
 6754.00    0.50300   0.37001    0.005
 6755.00    0.44222   0.37096    0.005
 6756.00    0.38148   0.37187    0.005
 6757.00    0.32075   0.37357    0.005
 6758.00    0.23250   0.37544    0.005
 6759.00    0.12909   0.37658    0.005
 6760.00    0.16272   0.37653    0.005
 6761.00    0.26202   0.37555    0.006
 6762.00    0.35318   0.37536    0.006
 6763.00    0.44097   0.37564    0.006
 6764.00    0.51756   0.37505    0.006
 6765.00    0.59018   0.37240    0.006
 6766.00    0.63159   0.36830    0.006
 6767.00    0.66368   0.36633    0.006
 6768.00    0.67284   0.36825    0.006
 6769.00    0.67633   0.36999    0.005
 6770.00    0.69151   0.36872    0.005
 6771.00    0.70903   0.36811    0.005
 6772.00    0.62829   0.37029    0.005
 6773.00    0.53210   0.37357    0.005
 6774.00    0.43961   0.37615    0.005
 6775.00    0.34755   0.37711    0.005
 6776.00    0.27456   0.37648    0.005
 6777.00    0.20307   0.37579    0.005
 6778.00    0.26731   0.37652    0.005
 6779.00    0.33745   0.37678    0.005
 6780.00    0.44844   0.37463    0.005
 6781.00    0.55721   0.37066    0.005
 6782.00    0.54236   0.36562    0.005
 6783.00    0.52528   0.36156    0.005
 6784.00    0.46791   0.36070    0.005
 6785.00    0.41558   0.36188    0.005
 6786.00    0.41843   0.36402    0.005
 6787.00    0.41928   0.36743    0.005
 6788.00    0.40479   0.36944    0.005
 6789.00    0.39486   0.36934    0.005
 6790.00    0.41146   0.36962    0.005
 6791.00    0.42444   0.37006    0.005
 6792.00    0.42075   0.36827    0.005
 6793.00    0.41993   0.36596    0.005
 6794.00    0.43002   0.36587    0.005
 6795.00    0.44117   0.36662    0.005
 6796.00    0.45565   0.36753    0.005
 6797.00    0.46449   0.36808    0.005
 6798.00    0.45821   0.36829    0.005
 6799.00    0.46242   0.36913    0.005
 6800.00    0.49074   0.37031    0.005
 6801.00    0.52037   0.37085    0.005
 6802.00    0.55261   0.36973    0.005
 6803.00    0.55775   0.36757    0.005
 6804.00    0.51593   0.36741    0.005
 6805.00    0.45441   0.36771    0.005
 6806.00    0.36301   0.36708    0.005
 6807.00    0.35495   0.36771    0.005
 6808.00    0.45797   0.36787    0.005
 6809.00    0.51251   0.36644    0.005
 6810.00    0.51015   0.36606    0.005
 6811.00    0.49320   0.36738    0.005
 6812.00    0.46116   0.36781    0.005
 6813.00    0.45452   0.36577    0.005
 6814.00    0.47108   0.36320    0.005
 6815.00    0.47294   0.36414    0.005
 6816.00    0.46298   0.36787    0.005
 6817.00    0.45154   0.36944    0.005
 6818.00    0.43906   0.36770    0.005
 6819.00    0.41837   0.36503    0.005
 6820.00    0.39260   0.36507    0.005
 6821.00    0.34165   0.36783    0.005
 6822.00    0.27705   0.37011    0.005
 6823.00    0.29461   0.37088    0.005
 6824.00    0.35091   0.37073    0.005
 6825.00    0.38273   0.37058    0.005
 6826.00    0.40459   0.36839    0.005
 6827.00    0.46253   0.36398    0.005
 6828.00    0.53299   0.36240    0.005
 6829.00    0.57238   0.36505    0.005
 6830.00    0.60267   0.36806    0.005
 6831.00    0.59349   0.36829    0.005
 6832.00    0.57476   0.36708    0.005
 6833.00    0.54374   0.36745    0.005
 6834.00    0.51031   0.36892    0.005
 6835.00    0.52020   0.36895    0.005
 6836.00    0.53669   0.36698    0.005
 6837.00    0.57530   0.36410    0.005
 6838.00    0.61639   0.36094    0.005
 6839.00    0.49245   0.35764    0.005
 6840.00    0.35618   0.35361    0.005
 6841.00    0.37334   0.35126    0.005
 6842.00    0.39659   0.35314    0.005
 6843.00    0.40344   0.35830    0.005
 6844.00    0.41328   0.36355    0.005
 6845.00    0.54668   0.36595    0.005
 6846.00    0.66696   0.36601    0.005
 6847.00    0.56570   0.36575    0.005
 6848.00    0.47473   0.36540    0.005
 6849.00    0.49138   0.36472    0.005
 6850.00    0.50051   0.36440    0.005
 6851.00    0.45365   0.36496    0.005
 6852.00    0.42087   0.36526    0.005
 6853.00    0.46795   0.36216    0.005
 6854.00    0.51043   0.35637    0.005
 6855.00    0.53211   0.35419    0.005
 6856.00    0.54645   0.35591    0.005
 6857.00    0.53358   0.35763    0.005
 6858.00    0.52546   0.35935    0.005
 6859.00    0.53201   0.35940    0.005
 6860.00    0.53240   0.35608    0.005
 6861.00    0.51656   0.35421    0.005
 6862.00    0.49918   0.35791    0.005
 6863.00    0.47829   0.36347    0.005
 6864.00    0.44798   0.36588    0.005
 6865.00    0.39920   0.36452    0.005
 6866.00    0.34224   0.36002    0.005
 6867.00    0.27134   0.35487    0.005
 6868.00    0.23832   0.35512    0.005
 6869.00    0.26194   0.35917    0.005
 6870.00    0.27783   0.36051    0.005
 6871.00    0.28356   0.35876    0.005
 6872.00    0.29866   0.35818    0.005
 6873.00    0.32459   0.35928    0.005
 6874.00    0.33494   0.35940    0.005
 6875.00    0.32939   0.35934    0.005
 6876.00    0.31954   0.36071    0.005
 6877.00    0.30583   0.36283    0.005
 6878.00    0.27613   0.36348    0.005
 6879.00    0.23376   0.36256    0.005
 6880.00    0.23303   0.35980    0.005
 6881.00    0.26134   0.35571    0.005
 6882.00    0.36110   0.35354    0.005
 6883.00    0.50457   0.35616    0.005
 6884.00    0.59772   0.35914    0.005
 6885.00    0.66398   0.35889    0.005
 6886.00    0.58391   0.35991    0.005
 6887.00    0.43596   0.36248    0.005
 6888.00    0.33020   0.36320    0.005
 6889.00    0.24129   0.36394    0.005
 6890.00    0.30310   0.36573    0.005
 6891.00    0.41628   0.36540    0.005
 6892.00    0.46690   0.36386    0.005
 6893.00    0.49959   0.36400    0.005
 6894.00    0.43380   0.36327    0.005
 6895.00    0.34469   0.36105    0.005
 6896.00    0.35979   0.36126    0.005
 6897.00    0.39475   0.36380    0.005
 6898.00    0.44379   0.36402    0.005
 6899.00    0.49492   0.36174    0.005
 6900.00    0.52492   0.36159    0.005
 6901.00    0.55265   0.36444    0.005
 6902.00    0.50545   0.36608    0.005
 6903.00    0.45296   0.36455    0.005
 6904.00    0.36191   0.36356    0.005
 6905.00    0.26947   0.36496    0.005
 6906.00    0.33959   0.36706    0.005
 6907.00    0.40823   0.36749    0.005
 6908.00    0.40689   0.36652    0.005
 6909.00    0.40477   0.36586    0.005
 6910.00    0.39024   0.36514    0.005
 6911.00    0.37207   0.36388    0.005
 6912.00    0.31739   0.36119    0.005
 6913.00    0.27050   0.35730    0.005
 6914.00    0.27964   0.35619    0.005
 6915.00    0.29295   0.35775    0.005
 6916.00    0.32921   0.35855    0.005
 6917.00    0.35322   0.35877    0.005
 6918.00    0.32321   0.35990    0.005
 6919.00    0.29547   0.36186    0.005
 6920.00    0.27595   0.36374    0.005
 6921.00    0.26370   0.36431    0.005
 6922.00    0.27358   0.36202    0.005
 6923.00    0.29146   0.35707    0.005
 6924.00    0.33007   0.35323    0.005
 6925.00    0.34045   0.35354    0.005
 6926.00    0.28809   0.35760    0.005
 6927.00    0.28097   0.36146    0.005
 6928.00    0.36101   0.36245    0.005
 6929.00    0.43785   0.36220    0.005
 6930.00    0.50928   0.36173    0.005
 6931.00    0.54970   0.36024    0.005
 6932.00    0.54442   0.35788    0.005
 6933.00    0.50740   0.35774    0.005
 6934.00    0.42926   0.36030    0.005
 6935.00    0.40787   0.36171    0.005
 6936.00    0.45122   0.36122    0.005
 6937.00    0.46405   0.36074    0.005
 6938.00    0.44616   0.36125    0.005
 6939.00    0.46884   0.36246    0.005
 6940.00    0.52752   0.36330    0.005
 6941.00    0.50018   0.36233    0.005
 6942.00    0.40558   0.35980    0.005
 6943.00    0.35423   0.35607    0.005
 6944.00    0.33263   0.35235    0.005
 6945.00    0.37565   0.35316    0.005
 6946.00    0.45761   0.35762    0.005
 6947.00    0.46608   0.36111    0.005
 6948.00    0.43587   0.36248    0.005
 6949.00    0.38142   0.36167    0.005
 6950.00    0.31591   0.35815    0.005
 6951.00    0.32684   0.35548    0.005
 6952.00    0.36781   0.35514    0.005
 6953.00    0.39301   0.35555    0.005
 6954.00    0.41294   0.35667    0.005
 6955.00    0.39559   0.35881    0.005
 6956.00    0.36776   0.36087    0.005
 6957.00    0.29370   0.36115    0.005
 6958.00    0.20893   0.36070    0.005
 6959.00    0.25122   0.36074    0.005
 6960.00    0.31710   0.36150    0.005
 6961.00    0.33890   0.36206    0.005
 6962.00    0.35438   0.36251    0.005
 6963.00    0.40565   0.36284    0.005
 6964.00    0.46062   0.36176    0.005
 6965.00    0.45878   0.36012    0.005
 6966.00    0.45316   0.36090    0.005
 6967.00    0.42510   0.36382    0.005
 6968.00    0.39632   0.36490    0.005
 6969.00    0.34313   0.36337    0.005
 6970.00    0.29189   0.36070    0.005
 6971.00    0.30041   0.36027    0.005
 6972.00    0.30560   0.36229    0.005
 6973.00    0.26139   0.36283    0.005
 6974.00    0.22866   0.35995    0.005
 6975.00    0.30622   0.35547    0.005
 6976.00    0.37154   0.34984    0.005
 6977.00    0.35172   0.34241    0.005
 6978.00    0.33611   0.33865    0.005
 6979.00    0.34314   0.34399    0.005
 6980.00    0.35265   0.35299    0.005
 6981.00    0.37290   0.35918    0.005
 6982.00    0.37775   0.36249    0.005
 6983.00    0.32790   0.36382    0.005
 6984.00    0.30194   0.36420    0.005
 6985.00    0.34722   0.36377    0.005
 6986.00    0.40354   0.36253    0.005
 6987.00    0.48792   0.36007    0.005
 6988.00    0.52573   0.35692    0.005
 6989.00    0.46175   0.35617    0.005
 6990.00    0.39236   0.35846    0.005
 6991.00    0.31273   0.36132    0.005
 6992.00    0.22704   0.36213    0.005
 6993.00    0.13135   0.36073    0.005
 6994.00    0.10823   0.35980    0.005
 6995.00    0.19045   0.36064    0.005
 6996.00    0.29231   0.36190    0.005
 6997.00    0.41924   0.36077    0.005
 6998.00    0.45788   0.35619    0.005
 6999.00    0.39719   0.35238    0.005
 7000.00    0.34233   0.35352    0.005
 7001.00    0.29326   0.35716    0.005
 7002.00    0.31424   0.35772    0.005
 7003.00    0.39651   0.35411    0.005
 7004.00    0.45929   0.35080    0.005
 7005.00    0.50705   0.35033    0.005
 7006.00    0.50536   0.35198    0.005
 7007.00    0.47016   0.35485    0.005
 7008.00    0.38589   0.35821    0.005
 7009.00    0.27249   0.35920    0.005
 7010.00    0.22890   0.35767    0.005
 7011.00    0.22145   0.35675    0.005
 7012.00    0.27071   0.35779    0.005
 7013.00    0.34543   0.35768    0.005
 7014.00    0.35340   0.35217    0.005
 7015.00    0.33560   0.34349    0.005
 7016.00    0.33630   0.34102    0.005
 7017.00    0.34307   0.34773    0.005
 7018.00    0.25549   0.35607    0.005
 7019.00    0.14197   0.36075    0.005
 7020.00    0.17860   0.36182    0.005
 7021.00    0.24917   0.35869    0.005
 7022.00    0.29295   0.35208    0.005
 7023.00    0.33188   0.34707    0.005
 7024.00    0.24214   0.34757    0.005
 7025.00    0.13457   0.35119    0.005
 7026.00    0.23284   0.35338    0.005
 7027.00    0.35155   0.35412    0.005
 7028.00    0.29819   0.35526    0.005
 7029.00    0.23405   0.35662    0.005
 7030.00    0.24418   0.35749    0.005
 7031.00    0.25665   0.35735    0.005
 7032.00    0.33228   0.35643    0.005
 7033.00    0.40497   0.35533    0.005
 7034.00    0.39682   0.35515    0.005
 7035.00    0.38506   0.35636    0.005
 7036.00    0.32252   0.35496    0.005
 7037.00    0.26800   0.34890    0.005
 7038.00    0.28751   0.34695    0.005
 7039.00    0.31033   0.35399    0.005
 7040.00    0.35550   0.36257    0.005
 7041.00    0.39262   0.36691    0.005
 7042.00    0.38767   0.36775    0.005
 7043.00    0.39922   0.36518    0.005
 7044.00    0.48022   0.36140    0.005
 7045.00    0.51106   0.36036    0.005
 7046.00    0.36742   0.36274    0.005
 7047.00    0.26985   0.36609    0.005
 7048.00    0.30711   0.36761    0.005
 7049.00    0.34818   0.36657    0.005
 7050.00    0.39877   0.36321   -2.000
 7051.00    0.43117   0.35647   -2.000
 7052.00    0.42444   0.34758   -2.000
 7053.00    0.41733   0.34038   -2.000
 7054.00    0.40951   0.33737   -2.000
 7055.00    0.38606   0.33914   -2.000
 7056.00    0.33711   0.34270   -2.000
 7057.00    0.30796   0.34395   -2.000
 7058.00    0.30712   0.34106   -2.000
 7059.00    0.33902   0.33637   -2.000
 7060.00    0.41212   0.33491   -2.000
 7061.00    0.39705   0.33679   -2.000
 7062.00    0.28420   0.33935   -2.000
 7063.00    0.23986   0.34214   -2.000
 7064.00    0.26252   0.34387   -2.000
 7065.00    0.31972   0.34174   -2.000
 7066.00    0.40670   0.33674   -2.000
 7067.00    0.38595   0.33176   -2.000
 7068.00    0.28334   0.33072   -2.000
 7069.00    0.30893   0.33538   -2.000
 7070.00    0.42012   0.34068   -2.000
 7071.00    0.52912   0.34278   -2.000
 7072.00    0.63684   0.34311   -2.000
 7073.00    0.61559   0.34328   -2.000
 7074.00    0.52858   0.34276   -2.000
 7075.00    0.41834   0.34173   -2.000
 7076.00    0.29785   0.34126   -2.000
 7077.00    0.28682   0.34201   -2.000
 7078.00    0.31729   0.34298   -2.000
 7079.00    0.33326   0.34378   -2.000
 7080.00    0.34455   0.34442   -2.000
 7081.00    0.37091   0.34290   -2.000
 7082.00    0.40133   0.33738   -2.000
 7083.00    0.41836   0.32960   -2.000
 7084.00    0.43244   0.32510   -2.000
 7085.00    0.45891   0.32583   -2.000
 7086.00    0.48755   0.32584   -2.000
 7087.00    0.52100   0.32357   -2.000
 7088.00    0.55509   0.32178   -2.000
 7089.00    0.49603   0.32043   -2.000
 7090.00    0.42812   0.32033   -2.000
 7091.00    0.36286   0.32138   -2.000
 7092.00    0.29775   0.32121   -2.000
 7093.00    0.43774   0.32089   -2.000
 7094.00    0.58136   0.32088   -2.000
 7095.00    0.53046   0.32059   -2.000
 7096.00    0.47466   0.32072   -2.000
 7097.00    0.29691   0.32241   -2.000
 7098.00    0.14547   0.32673   -2.000
 7099.00    0.34354   0.32915   -2.000
 7100.00    0.50604   0.32869   -2.000
 7101.00    0.35334   0.32711   -2.000
 7102.00    0.23855   0.32653   -2.000
 7103.00    0.37143   0.32808   -2.000
 7104.00    0.46342   0.33042   -2.000
 7105.00    0.34714   0.33062   -2.000
 7106.00    0.27190   0.32884   -2.000
 7107.00    0.36564   0.32816   -2.000
 7108.00    0.42309   0.32866   -2.000
 7109.00    0.35685   0.32731   -2.000
 7110.00    0.35896   0.32383   -2.000
 7111.00    0.55745   0.32227   -2.000
 7112.00    0.68079   0.32413   -2.000
 7113.00    0.61975   0.32647   -2.000
 7114.00    0.54686   0.32744   -2.000
 7115.00    0.44890   0.32870   -2.000
 7116.00    0.38463   0.32996   -2.000
 7117.00    0.38234   0.32996   -2.000
 7118.00    0.36690   0.32947   -2.000
 7119.00    0.33035   0.32919   -2.000
 7120.00    0.29205   0.32822   -2.000
 7121.00    0.25130   0.32625   -2.000
 7122.00    0.32935   0.32675   -2.000
 7123.00    0.55477   0.32887   -2.000
 7124.00    0.71206   0.32721   -2.000
 7125.00    0.79486   0.32320   -2.000
 7126.00    0.71389   0.32173   -2.000
 7127.00    0.47499   0.32268   -2.000
 7128.00    0.30425   0.32234   -2.000
 7129.00    0.19148   0.31837   -2.000
 7130.00    0.19496   0.31460   -2.000
 7131.00    0.28551   0.31582   -2.000
 7132.00    0.31255   0.31984   -2.000
 7133.00    0.29781   0.32341   -2.000
 7134.00    0.27555   0.32559   -2.000
 7135.00    0.24897   0.32614   -2.000
 7136.00    0.23553   0.32711   -2.000
 7137.00    0.22868   0.32724   -2.000
 7138.00    0.36162   0.32544   -2.000
 7139.00    0.55527   0.32449   -2.000
 7140.00    0.59321   0.32598   -2.000
 7141.00    0.57317   0.32679   -2.000
 7142.00    0.46787   0.32631   -2.000
 7143.00    0.33565   0.32601   -2.000
 7144.00    0.34433   0.32578   -2.000
 7145.00    0.39016   0.32529   -2.000
 7146.00    0.46129   0.32167   -2.000
 7147.00    0.53788   0.31535   -2.000
 7148.00    0.32652   0.31382   -2.000
 7149.00    0.06595   0.31800   -2.000
 7150.00    0.13053   0.32224   -2.000
 7151.00    0.23719   0.32587   -2.000
 7152.00    0.42910   0.32938   -2.000
 7153.00    0.62875   0.32998   -2.000
 7154.00    0.46411   0.32783   -2.000
 7155.00    0.27954   0.32756   -2.000
 7156.00    0.26864   0.33043   -2.000
 7157.00    0.26266   0.33118   -2.000
 7158.00    0.37404   0.32860   -2.000
 7159.00    0.50029   0.32586   -2.000
 7160.00    0.96408   0.32584   -2.000
 7161.00    1.37964   0.32743   -2.000
 7162.00    1.18772   0.32551   -2.000
 7163.00    0.98521   0.31800   -2.000
 7164.00    0.69243   0.31160   -2.000
 7165.00    0.41206   0.31336   -2.000
 7166.00    0.21031   0.32067   -2.000
 7167.00    0.06883   0.32678   -2.000
 7168.00    0.22664   0.32831   -2.000
 7169.00    0.37194   0.32739   -2.000
 7170.00    0.46694   0.32760   -2.000
 7171.00    0.52345   0.32938   -2.000
 7172.00    0.45137   0.33053   -2.000
 7173.00    0.36394   0.33074   -2.000
 7174.00    0.23319   0.32841   -2.000
 7175.00    0.17744   0.32417   -2.000
 7176.00    0.30259   0.32327   -2.000
 7177.00    0.41888   0.32664   -2.000
 7178.00    0.51673   0.32713   -2.000
 7179.00    0.53946   0.32172   -2.000
 7180.00    0.42615   0.31587   -2.000
 7181.00    0.32417   0.31625   -2.000
 7182.00    0.24014   0.32226   -2.000
 7183.00    0.18381   0.32699   -2.000
 7184.00    0.16597   0.32777   -2.000
 7185.00    0.24724   0.32459   -2.000
 7186.00    0.44968   0.31789   -2.000
 7187.00    0.54369   0.31388   -2.000
 7188.00    0.52080   0.31424   -2.000
 7189.00    0.43328   0.31696   -2.000
 7190.00    0.28429   0.32047   -2.000
 7191.00    0.35814   0.32147   -2.000
 7192.00    0.61881   0.31999   -2.000
 7193.00    0.61732   0.31961   -2.000
 7194.00    0.42231   0.32227   -2.000
 7195.00    0.24420   0.32288   -2.000
 7196.00    0.07705   0.32008   -2.000
 7197.00    0.16937   0.31964   -2.000
 7198.00    0.40889   0.32299   -2.000
 7199.00    0.61366   0.32474   -2.000
 7200.00    0.80128   0.32271   -2.000
 7201.00    0.64718   0.32019   -2.000
 7202.00    0.34717   0.32066   -2.000
 7203.00    0.21960   0.32438   -2.000
 7204.00    0.15513   0.32700   -2.000
 7205.00    0.09733   0.32265   -2.000
 7206.00    0.04160   0.31372   -2.000
 7207.00    0.13834   0.30972   -2.000
 7208.00    0.27442   0.31246   -2.000
 7209.00    0.28069   0.31869   -2.000
 7210.00    0.25964   0.32492   -2.000
 7211.00    0.38133   0.32654   -2.000
 7212.00    0.52672   0.32425   -2.000
 7213.00    0.61148   0.32163   -2.000
 7214.00    0.68865   0.32045   -2.000
 7215.00    0.55125   0.32118   -2.000
 7216.00    0.39527   0.32398   -2.000
 7217.00    0.20297   0.32660   -2.000
 7218.00    0.00882   0.32675   -2.000
