###################################################################
## OUTPUT of StarlightChains_v04.for    [Cid@UFSC - 01/Apr/2007] ##
###################################################################

## Some input info
KUG0210-078._43_31.txt                   [arq_obs]
Base.CB07.vall.4m                        [arq_base]
Masks.EmLines.NEW.gm                     [arq_masks]
StCv04.C11.config                        [arq_config]
   66                                    [N_base]
    0                                    [N_YAV_components = # of components with extra extinction!]
    0                                    [i_FitPowerLaw (1/0 = Yes/No)]
-9.99                                    [alpha_PowerLaw]
CCM                                      [red_law_option]
 1.458241                                [q_norm = A(l_norm)/A(V)]

## (Re)Sampling Parameters
 3741.00                                 [l_ini (A)]
 7218.00                                 [l_fin (A)]
    1.00                                 [dl    (A)]     (OBS: dl_cushion =    50.00 A)

## Normalization info
 4020.00                                 [l_norm (A) - for base]
 4010.00                                 [llow_norm (A) - window for f_obs]
 4060.00                                 [lupp_norm (A) - window for f_obs]
1.225537E-17                             [fobs_norm (in input units)]

## S/N
 3691.00                                 [llow_SN (A) - window for S/N]
 7268.00                                 [lupp_SN (A) - window for S/N]
   3.457                                 [S/N in S/N window]
   5.431                                 [S/N in norm. window]
   0.010                                 [S/N_err in S/N window]
   0.015                                 [S/N_err in norm. window]
  1.0000                                 [fscale_chi2]

## etc...
    -2007803                             [idum_orig]
  2420                                   [NOl_eff]
  2407                                   [Nl_eff]
    13    NSIGMA                         [Ntot_cliped & clip_method]
  1232420                                [Nglobal_steps]
   7                                     [N_chains]
  28                                     [NEX0s_base = N_base in EX0s-fits]
 0   1   1       14   2.0   1.900E+03    [Clip-Bug, RC-Crash & Burn-In warning-flags, n_censored_weights, wei_nsig_threshold & wei_limit]
    35     35.183     34.579      0.604  [idt_all, wdt_TotTime, wdt_UsrTime & wdt_SysTime (sec)]

## Synthesis Results - Best model ##

 7.13151E-05                             [chi2/Nl_eff]
    74.52037                             [adev (%)]

   123.34998                             [sum-of-x (%)]
 3.95152E-18                             [Flux_tot (units of input spectrum!)]
 1.46244E-15                             [Mini_tot (???)]
 1.03010E-15                             [Mcor_tot (???)]

   0.00                                  [v0_min  (km/s)]
 476.47                                  [vd_min  (km/s)]
-0.9990                                  [AV_min  (mag)]
 0.0000                                  [YAV_min (mag)]

# j     x_j(%)      Mini_j(%)     Mcor_j(%)     age_j(yr)     Z_j      (L/M)_j    YAV?  Mstars   component_j        a/Fe...       SSP_chi2r SSP_adev(%)   SSP_AV   SSP_x(%)
  1      0.7396     1.4808E-01    2.1023E-01    1.000000E+06  0.00400  1.094E-02    0   1.0000   age020_m42            0.0000     2.1084E-05    41.5013   2.3496    87.1750
  2      8.8322     4.8283E-01    6.8541E-01    3.160000E+06  0.00400  4.007E-02    0   0.9999   age045_m42            0.0000     1.9584E-05    39.4322   1.5667    94.8932
  3      0.0000     0.0000E+00    0.0000E+00    5.010000E+06  0.00400  2.539E-02    0   0.9488   age055_m42            0.0000     1.9752E-05    39.8010   1.9262    90.9008
  4     20.6460     1.7262E+00    2.2595E+00    6.610000E+06  0.00400  2.620E-02    0   0.9220   age061_m42            0.0000     1.9102E-05    38.7805   1.5041    94.2976
  5      0.9952     1.6490E-01    2.0746E-01    1.000000E+07  0.00400  1.322E-02    0   0.8862   age070_m42            0.0000     1.9811E-05    40.8036   1.2898    95.0818
  6      0.0000     0.0000E+00    0.0000E+00    1.445000E+07  0.00400  7.883E-03    0   0.8571   age078_m42            0.0000     2.0169E-05    41.2725   1.6247    92.3649
  7      0.0000     0.0000E+00    0.0000E+00    2.512000E+07  0.00400  5.251E-03    0   0.8174   age090_m42            0.0000     1.9681E-05    40.8322   1.1701    95.3136
  8      1.9167     1.1506E+00    1.2825E+00    4.000000E+07  0.00400  3.649E-03    0   0.7851   age104_m42            0.0000     1.9097E-05    39.9543   0.9313    96.1785
  9      0.0000     0.0000E+00    0.0000E+00    5.500000E+07  0.00400  3.098E-03    0   0.7629   age110_m42            0.0000     1.9046E-05    39.0234   1.0337    97.8490
 10     31.6929     3.1160E+01    3.1882E+01    1.015200E+08  0.00400  2.228E-03    0   0.7207   age116_m42            0.0000     1.8721E-05    37.9426   1.0253    98.6584
 11      0.4310     8.6381E-01    8.1528E-01    2.861200E+08  0.00400  1.093E-03    0   0.6648   age125_m42            0.0000     1.7858E-05    37.1261   0.4759   100.3078
 12      0.0000     0.0000E+00    0.0000E+00    5.088000E+08  0.00400  6.597E-04    0   0.6365   age130_m42            0.0000     1.7275E-05    35.3379   0.4205   102.0768
 13      0.0000     0.0000E+00    0.0000E+00    1.434000E+09  0.00400  2.132E-04    0   0.5798   age139_m42            0.0000     1.4198E-05    31.4783  -0.5140    99.4165
 14      0.0000     0.0000E+00    0.0000E+00    4.250000E+09  0.00400  5.895E-05    0   0.5377   age158_m42            0.0000     1.2681E-05    29.1755  -0.8967    90.0661
 15      0.0000     0.0000E+00    0.0000E+00    7.500000E+09  0.00400  3.510E-05    0   0.5212   age171_m42            0.0000     1.2448E-05    28.8359  -1.0000    87.6190
 16      0.0000     0.0000E+00    0.0000E+00    1.300000E+10  0.00400  2.005E-05    0   0.5034   age193_m42            0.0000     1.2846E-05    30.7976  -1.0000    85.2802
 17      0.0000     0.0000E+00    0.0000E+00    1.800000E+10  0.00400  1.525E-05    0   0.4967   age213_m42            0.0000     1.2989E-05    31.3782  -1.0000    84.5809
 18      2.1690     3.8379E-01    5.4486E-01    1.000000E+06  0.00800  1.238E-02    0   1.0000   age020_m52            0.0000     2.1052E-05    41.4567   2.3474    87.2473
 19      3.2246     2.2978E-01    3.2511E-01    3.160000E+06  0.00800  3.074E-02    0   0.9966   age045_m52            0.0000     2.0655E-05    40.9526   2.2720    87.6781
 20      1.3070     1.0731E-01    1.4387E-01    5.010000E+06  0.00800  2.668E-02    0   0.9443   age055_m52            0.0000     1.9824E-05    39.9769   2.0230    89.5143
 21      0.0000     0.0000E+00    0.0000E+00    6.610000E+06  0.00800  2.136E-02    0   0.9177   age061_m52            0.0000     1.8520E-05    39.4055   0.8158    94.0069
 22      3.9566     7.1333E-01    8.9393E-01    1.000000E+07  0.00800  1.215E-02    0   0.8827   age070_m52            0.0000     2.0184E-05    41.6659   1.4968    94.0637
 23      0.0000     0.0000E+00    0.0000E+00    1.445000E+07  0.00800  8.717E-03    0   0.8552   age078_m52            0.0000     1.9951E-05    41.0298   1.5899    93.5560
 24      0.4390     1.7198E-01    1.9928E-01    2.512000E+07  0.00800  5.592E-03    0   0.8162   age090_m52            0.0000     1.9637E-05    40.8236   1.2342    96.4159
 25      0.5965     3.3536E-01    3.7332E-01    4.000000E+07  0.00800  3.896E-03    0   0.7841   age104_m52            0.0000     1.8898E-05    39.5737   1.1267    97.2575
 26      0.0000     0.0000E+00    0.0000E+00    1.015200E+08  0.00800  2.148E-03    0   0.7226   age116_m52            0.0000     1.7887E-05    37.5492   1.0309    97.2753
 27      0.0000     0.0000E+00    0.0000E+00    2.861200E+08  0.00800  9.925E-04    0   0.6683   age125_m52            0.0000     1.6976E-05    34.9549   0.4926   102.5067
 28      0.2072     1.4451E+00    1.2592E+00    9.047900E+08  0.00800  3.141E-04    0   0.6138   age135_m52            0.0000     1.4093E-05    30.6918  -0.3255   103.7557
 29      0.0000     0.0000E+00    0.0000E+00    1.434000E+09  0.00800  1.719E-04    0   0.5853   age139_m52            0.0000     1.2628E-05    29.2673  -0.8192    95.7098
 30      0.0000     0.0000E+00    0.0000E+00    2.500000E+09  0.00800  7.872E-05    0   0.5600   age150_m52            0.0000     1.2085E-05    27.6400  -1.0000    89.6358
 31      0.0000     0.0000E+00    0.0000E+00    4.250000E+09  0.00800  4.336E-05    0   0.5426   age158_m52            0.0000     1.2136E-05    27.5833  -1.0000    88.0848
 32      0.0000     0.0000E+00    0.0000E+00    6.250000E+09  0.00800  3.159E-05    0   0.5319   age166_m52            0.0000     1.2442E-05    28.6507  -1.0000    85.0542
 33      0.0000     0.0000E+00    0.0000E+00    1.300000E+10  0.00800  1.361E-05    0   0.5073   age193_m52            0.0000     1.6293E-05    38.2301  -1.0000    78.4698
 34      0.0000     0.0000E+00    0.0000E+00    1.800000E+10  0.00800  9.886E-06    0   0.4990   age213_m52            0.0000     1.8046E-05    40.5045  -1.0000    76.6471
 35      0.0000     0.0000E+00    0.0000E+00    1.000000E+06  0.02000  1.544E-02    0   1.0000   age020_m62            0.0000     2.1164E-05    41.6303   2.3460    87.4470
 36      0.2495     1.4529E-02    2.0334E-02    3.160000E+06  0.02000  3.762E-02    0   0.9858   age045_m62            0.0000     2.1120E-05    41.4584   2.2816    88.2019
 37      3.7824     2.5138E-01    3.3340E-01    5.010000E+06  0.02000  3.296E-02    0   0.9342   age055_m62            0.0000     1.9516E-05    39.2587   1.8640    92.6862
 38      0.0000     0.0000E+00    0.0000E+00    8.710000E+06  0.02000  1.154E-02    0   0.8861   age067_m62            0.0000     2.3001E-05    47.0049   1.0702    94.8172
 39      5.6110     1.6039E+00    1.9292E+00    1.445000E+07  0.02000  7.663E-03    0   0.8472   age078_m62            0.0000     2.0601E-05    42.9554   1.1789    95.4906
 40      6.4504     3.1178E+00    3.5849E+00    2.512000E+07  0.02000  4.532E-03    0   0.8099   age090_m62            0.0000     2.0219E-05    42.5211   1.1803    94.6256
 41      0.0000     0.0000E+00    0.0000E+00    5.500000E+07  0.02000  2.733E-03    0   0.7595   age110_m62            0.0000     1.8535E-05    39.1357   1.1236    95.5461
 42      0.0000     0.0000E+00    0.0000E+00    1.609000E+08  0.02000  1.369E-03    0   0.6985   age120_m62            0.0000     1.7878E-05    36.6880   0.8838   100.5644
 43      0.0000     0.0000E+00    0.0000E+00    2.861200E+08  0.02000  9.013E-04    0   0.6714   age125_m62            0.0000     1.7606E-05    35.0802   0.5809   105.2659
 44      7.9725     3.4733E+01    3.1801E+01    5.088000E+08  0.02000  5.028E-04    0   0.6449   age130_m62            0.0000     1.6121E-05    32.2871   0.1447   108.3992
 45      0.0000     0.0000E+00    0.0000E+00    9.047900E+08  0.02000  2.428E-04    0   0.6179   age135_m62            0.0000     1.2899E-05    28.9598  -0.3561    99.5661
 46      0.0000     0.0000E+00    0.0000E+00    1.434000E+09  0.02000  1.263E-04    0   0.5908   age139_m62            0.0000     1.2068E-05    27.3359  -0.7187    92.3727
 47      0.0000     0.0000E+00    0.0000E+00    2.500000E+09  0.02000  5.985E-05    0   0.5673   age150_m62            0.0000     1.1972E-05    25.9644  -1.0000    87.8138
 48      0.0000     0.0000E+00    0.0000E+00    4.250000E+09  0.02000  3.271E-05    0   0.5468   age158_m62            0.0000     1.2933E-05    27.5158  -1.0000    82.8368
 49      0.0000     0.0000E+00    0.0000E+00    1.000000E+10  0.02000  1.360E-05    0   0.5167   age181_m62            0.0000     1.6164E-05    32.8834  -1.0000    77.0090
 50      0.0000     0.0000E+00    0.0000E+00    1.800000E+10  0.02000  7.124E-06    0   0.5013   age213_m62            0.0000     1.9449E-05    37.2232  -1.0000    73.2150
 51      0.6600     5.5780E-02    7.9175E-02    1.000000E+06  0.05000  2.592E-02    0   0.9998   age020_m72            0.0000     2.1139E-05    41.6540   2.3496    86.8778
 52      0.6569     2.9702E-02    4.0384E-02    3.160000E+06  0.05000  4.845E-02    0   0.9577   age045_m72            0.0000     2.0061E-05    40.0251   2.1514    89.1360
 53      0.9541     6.8036E-02    8.8353E-02    5.010000E+06  0.05000  3.072E-02    0   0.9147   age055_m72            0.0000     2.0521E-05    42.0768   1.7376    91.7997
 54      6.8003     1.0238E+00    1.2903E+00    6.610000E+06  0.05000  1.455E-02    0   0.8877   age061_m72            0.0000     2.5555E-05    50.1236   1.1326    96.3498
 55      0.0000     0.0000E+00    0.0000E+00    1.000000E+07  0.05000  9.074E-03    0   0.8524   age070_m72            0.0000     2.1076E-05    42.7153   1.9061    92.1803
 56      0.0000     0.0000E+00    0.0000E+00    2.512000E+07  0.05000  4.250E-03    0   0.7902   age090_m72            0.0000     1.9779E-05    41.1089   1.5995    93.8132
 57      3.1073     2.2049E+00    2.3847E+00    4.000000E+07  0.05000  3.087E-03    0   0.7618   age104_m72            0.0000     1.9674E-05    40.9739   1.3689    95.6914
 58      6.9778     8.9912E+00    9.0579E+00    1.015200E+08  0.05000  1.700E-03    0   0.7096   age116_m72            0.0000     1.8278E-05    37.7839   1.0504    99.6601
 59      2.9741     8.8230E+00    8.3086E+00    2.861200E+08  0.05000  7.384E-04    0   0.6633   age125_m72            0.0000     1.6204E-05    32.7639   0.4342   105.3853
 60      0.0000     0.0000E+00    0.0000E+00    5.088000E+08  0.05000  3.819E-04    0   0.6372   age130_m72            0.0000     1.3679E-05    29.5334  -0.0440   102.7548
 61      0.0000     0.0000E+00    0.0000E+00    9.047900E+08  0.05000  1.676E-04    0   0.6110   age135_m72            0.0000     1.1984E-05    26.2565  -0.6350    91.5638
 62      0.0000     0.0000E+00    0.0000E+00    1.434000E+09  0.05000  8.837E-05    0   0.5874   age139_m72            0.0000     1.2034E-05    25.3959  -1.0000    87.8293
 63      0.0000     0.0000E+00    0.0000E+00    2.500000E+09  0.05000  4.233E-05    0   0.5598   age150_m72            0.0000     1.3010E-05    26.1624  -1.0000    82.3550
 64      0.0000     0.0000E+00    0.0000E+00    6.250000E+09  0.05000  1.435E-05    0   0.5249   age166_m72            0.0000     1.7401E-05    34.5878  -1.0000    74.9384
 65      0.0000     0.0000E+00    0.0000E+00    1.300000E+10  0.05000  6.513E-06    0   0.5036   age193_m72            0.0000     2.2615E-05    41.8622  -1.0000    71.9917
 66      0.0000     0.0000E+00    0.0000E+00    1.800000E+10  0.05000  4.527E-06    0   0.4945   age213_m72            0.0000     2.6488E-05    46.4403  -1.0000    69.6550


## Synthesis Results - Average & Chains ##

# j      x_j: min, <> & last-chain-values for 1 ...  7 chains
  1      0.7396    105.2047    118.1450    111.9396    107.0979    100.0538    109.0223    108.0805    103.6860
  2      8.8322      0.4934      0.3617      0.0639      0.8674      0.0000      0.2123      0.0000      0.3105
  3      0.0000      0.5828      0.0000      0.6915      0.5327      0.5147      0.0058      0.6358      0.0000
  4     20.6460      0.4669      0.2992      0.1645      0.8287      0.8948      0.3445      0.8713      0.3372
  5      0.9952      0.4155      0.0000      0.2837      0.0000      1.2645      0.6270      0.0000      0.4049
  6      0.0000      0.5524      0.0000      0.6242      0.5825      0.4736      0.7956      0.0000      0.0000
  7      0.0000      0.3407      0.1001      0.4159      0.2666      0.2782      0.0000      0.7765      0.0662
  8      1.9167      0.3526      0.1710      0.8766      0.0000      0.0000      0.2678      0.4481      0.4445
  9      0.0000      0.3082      0.1801      0.2871      0.0000      0.7393      0.5727      1.0550      0.2651
 10     31.6929      0.4279      0.2774      0.3075      0.0000      0.0000      0.1985      0.6136      0.6942
 11      0.4310      0.2908      0.0000      0.5060      0.2532      0.0000      0.8521      0.5372      0.7777
 12      0.0000      0.3143      0.0983      0.0000      0.4638      0.4815      0.4084      0.1386      0.0000
 13      0.0000      0.1059      0.0000      0.0604      0.0000      0.1409      0.0089      0.2472      0.0000
 14      0.0000      0.0463      0.1180      0.0000      0.0000      0.0000      0.0000      0.0000      0.1880
 15      0.0000      0.0268      0.0663      0.0000      0.1690      0.0000      0.1509      0.0355      0.0000
 16      0.0000      0.0430      0.0000      0.1288      0.0000      0.0000      0.0000      0.0000      0.0000
 17      0.0000      0.0167      0.0000      0.0000      0.0000      0.0000      0.0000      0.0000      0.0700
 18      2.1690      1.0048      0.7877      0.8189      0.4087      0.7799      0.9932      0.0336      1.4945
 19      3.2246      0.5046      0.6112      0.2189      0.8396      0.0000      0.0000      0.6313      0.3162
 20      1.3070      0.3608      0.0723      0.0000      0.5858      1.1772      0.3851      0.1006      0.5687
 21      0.0000      0.1934      0.0000      0.3446      0.3610      0.7277      0.0000      0.0000      0.0000
 22      3.9566      0.4731      0.4359      0.0692      0.2171      0.5057      0.2386      0.5798      1.6301
 23      0.0000      0.5182      0.0312      0.0243      0.4047      0.2191      0.5131      0.0226      0.1745
 24      0.4390      0.4930      0.3456      0.4908      0.7788      0.0000      0.8737      0.0712      0.7226
 25      0.5965      0.3028      0.0000      0.3053      0.0000      0.8247      0.0451      0.0000      0.3261
 26      0.0000      0.5151      0.0000      0.0911      0.0000      0.7465      0.8267      0.3627      0.0000
 27      0.0000      0.4526      0.2241      0.1740      0.1690      1.3015      0.0000      0.1801      0.1627
 28      0.2072      0.1873      0.0000      0.0000      0.0845      0.0000      0.1279      0.0000      0.5197
 29      0.0000      0.0732      0.0000      0.0000      0.0000      0.1594      0.0000      0.0000      0.0000
 30      0.0000      0.0118      0.0000      0.0000      0.0000      0.0104      0.0021      0.0000      0.0613
 31      0.0000      0.0261      0.0000      0.0000      0.0000      0.0000      0.0000      0.0000      0.0000
 32      0.0000      0.0148      0.0116      0.0000      0.0000      0.0000      0.0000      0.0000      0.0000
 33      0.0000      0.0184      0.0582      0.0109      0.0000      0.0000      0.0000      0.0000      0.0000
 34      0.0000      0.0082      0.0032      0.0000      0.0000      0.0000      0.0000      0.0000      0.0000
 35      0.0000      0.7670      0.0000      0.1376      0.0370      0.6685      0.7369      0.3085      0.2542
 36      0.2495      0.6995      0.0000      0.0204      1.2732      0.1721      0.6188      0.5291      1.7836
 37      3.7824      0.6246      0.0077      0.3459      1.5291      1.3175      0.9523      0.7001      1.0498
 38      0.0000      0.3216      0.0000      0.5129      0.4364      0.4786      0.7265      0.0889      0.0758
 39      5.6110      0.3741      0.1533      0.3640      0.1569      0.7569      0.5095      0.0670      0.6192
 40      6.4504      0.2875      0.1962      0.3737      0.3483      0.6184      0.0000      0.0000      0.4864
 41      0.0000      0.2829      0.0655      0.4592      0.0000      0.0000      0.3332      0.5428      0.1004
 42      0.0000      0.5627      0.1159      0.0000      1.1876      0.0000      0.3033      0.2688      0.9331
 43      0.0000      0.5413      0.3796      0.2107      0.4349      0.8609      0.0000      0.0000      0.0296
 44      7.9725      0.3492      0.0209      0.0000      0.0334      0.5509      0.4655      0.6941      0.3378
 45      0.0000      0.1000      0.0808      0.1119      0.0341      0.0000      0.1228      0.0000      0.2354
 46      0.0000      0.0577      0.0000      0.2382      0.0000      0.0245      0.0312      0.0000      0.0000
 47      0.0000      0.0186      0.0000      0.0000      0.0000      0.0000      0.0000      0.0020      0.0000
 48      0.0000      0.0172      0.0000      0.0000      0.0000      0.0000      0.0000      0.0000      0.0000
 49      0.0000      0.0141      0.0000      0.0000      0.0000      0.0000      0.0000      0.0000      0.0377
 50      0.0000      0.0104      0.0059      0.0000      0.0000      0.0000      0.0000      0.0000      0.0000
 51      0.6600      0.5507      0.1828      0.0000      0.2067      0.3176      0.3311      1.2971      0.2851
 52      0.6569      0.5042      0.4237      0.3108      0.0000      0.9178      0.2882      0.2672      1.0231
 53      0.9541      0.5477      0.2358      0.6171      1.0074      2.7496      0.0000      0.2828      1.0899
 54      6.8003      0.3823      0.0993      0.0000      0.7046      0.0361      0.5837      0.7054      0.3290
 55      0.0000      0.4367      0.2235      0.3528      0.0000      0.0000      0.4438      0.6256      0.5390
 56      0.0000      0.7131      0.1448      0.0445      0.8698      1.4045      0.2803      1.1136      0.0000
 57      3.1073      0.4223      0.0000      0.1154      0.0000      0.3297      0.2498      1.8417      0.3564
 58      6.9778      0.5871      0.0000      0.0000      0.4489      1.7695      0.0000      0.2701      1.1421
 59      2.9741      0.4932      0.5694      0.8799      1.4025      0.5456      0.0000      0.3169      0.4136
 60      0.0000      0.2308      0.0000      0.3870      0.1006      0.2539      0.6470      0.0000      0.2703
 61      0.0000      0.0476      0.0000      0.4356      0.1615      0.0000      0.0940      0.0000      0.0000
 62      0.0000      0.0400      0.0000      0.1017      0.0000      0.0000      0.0000      0.0000      0.0310
 63      0.0000      0.0144      0.0084      0.0000      0.0000      0.0000      0.0000      0.0000      0.2462
 64      0.0000      0.0060      0.0000      0.0576      0.0000      0.0000      0.0000      0.0000      0.0234
 65      0.0000      0.0137      0.0959      0.0000      0.0000      0.0000      0.0000      0.0000      0.0000
 66      0.0000      0.0125      0.0000      0.0000      0.0000      0.0185      0.0000      0.0000      0.0000

# j      m_j: min, <> & last-chain-values for 1 ...  7 chains
  1  2.1023E-01  3.8661E+01  4.2881E+01  4.4457E+01  5.6523E+01  4.9651E+01  5.6848E+01  6.5497E+01  3.7177E+01
  2  6.8541E-01  4.9500E-02  3.5839E-02  6.9233E-03  1.2497E-01  0.0000E+00  3.0217E-02  0.0000E+00  3.0390E-02
  3  0.0000E+00  8.7563E-02  0.0000E+00  1.1228E-01  1.1492E-01  1.0442E-01  1.2467E-03  1.5751E-01  0.0000E+00
  4  2.2595E+00  6.6057E-02  4.1809E-02  2.5158E-02  1.6839E-01  1.7096E-01  6.9165E-02  2.0327E-01  4.6545E-02
  5  2.0746E-01  1.1197E-01  0.0000E+00  8.2626E-02  0.0000E+00  4.6017E-01  2.3976E-01  0.0000E+00  1.0647E-01
  6  0.0000E+00  2.4148E-01  0.0000E+00  2.9488E-01  3.6565E-01  2.7954E-01  4.9345E-01  0.0000E+00  0.0000E+00
  7  0.0000E+00  2.1322E-01  6.1867E-02  2.8131E-01  2.3960E-01  2.3510E-01  0.0000E+00  8.0135E-01  4.0400E-02
  8  1.2825E+00  3.0495E-01  1.4608E-01  8.1948E-01  0.0000E+00  0.0000E+00  3.2871E-01  6.3919E-01  3.7514E-01
  9  0.0000E+00  3.0508E-01  1.7607E-01  3.0713E-01  0.0000E+00  9.8843E-01  8.0445E-01  1.7224E+00  2.5605E-01
 10  3.1882E+01  5.5648E-01  3.5629E-01  4.3216E-01  0.0000E+00  0.0000E+00  3.6635E-01  1.3159E+00  8.8090E-01
 11  8.1528E-01  7.1112E-01  0.0000E+00  1.3373E+00  8.8907E-01  0.0000E+00  2.9564E+00  2.1660E+00  1.8555E+00
 12  0.0000E+00  1.2192E+00  3.7642E-01  0.0000E+00  2.5839E+00  2.5222E+00  2.2477E+00  8.8645E-01  0.0000E+00
 13  0.0000E+00  1.1581E+00  0.0000E+00  7.1326E-01  0.0000E+00  2.0803E+00  1.3834E-01  4.4572E+00  0.0000E+00
 14  0.0000E+00  1.6996E+00  4.2722E+00  0.0000E+00  0.0000E+00  0.0000E+00  0.0000E+00  0.0000E+00  6.7267E+00
 15  0.0000E+00  1.6005E+00  3.9075E+00  0.0000E+00  1.4492E+01  0.0000E+00  1.2782E+01  3.4964E+00  0.0000E+00
 16  0.0000E+00  4.3378E+00  0.0000E+00  1.4047E+01  0.0000E+00  0.0000E+00  0.0000E+00  0.0000E+00  0.0000E+00
 17  0.0000E+00  2.1931E+00  0.0000E+00  0.0000E+00  0.0000E+00  0.0000E+00  0.0000E+00  0.0000E+00  8.9466E+00
 18  5.4486E-01  3.2631E-01  2.5265E-01  2.8741E-01  1.9060E-01  3.4200E-01  4.5765E-01  1.8015E-02  4.7352E-01
 19  3.2511E-01  6.5772E-02  7.8681E-02  3.0840E-02  1.5715E-01  0.0000E+00  0.0000E+00  1.3569E-01  4.0213E-02
 20  1.4387E-01  5.1335E-02  1.0161E-02  0.0000E+00  1.1970E-01  2.2620E-01  7.7752E-02  2.3616E-02  7.8961E-02
 21  0.0000E+00  3.3403E-02  0.0000E+00  6.4326E-02  8.9551E-02  1.6972E-01  0.0000E+00  0.0000E+00  0.0000E+00
 22  8.9393E-01  1.3817E-01  1.2575E-01  2.1841E-02  9.1078E-02  1.9947E-01  9.8864E-02  2.7926E-01  4.6455E-01
 23  0.0000E+00  2.0437E-01  1.2154E-02  1.0372E-02  2.2926E-01  1.1669E-01  2.8718E-01  1.4708E-02  6.7148E-02
 24  1.9928E-01  2.8932E-01  2.0028E-01  3.1122E-01  6.5630E-01  0.0000E+00  7.2744E-01  6.8877E-02  4.1370E-01
 25  3.7332E-01  2.4497E-01  0.0000E+00  2.6696E-01  0.0000E+00  9.0104E-01  5.1822E-02  0.0000E+00  2.5743E-01
 26  0.0000E+00  6.9666E-01  0.0000E+00  1.3309E-01  0.0000E+00  1.3634E+00  1.5865E+00  8.0897E-01  0.0000E+00
 27  0.0000E+00  1.2253E+00  5.9922E-01  5.0905E-01  6.5698E-01  4.7578E+00  0.0000E+00  8.0383E-01  4.2979E-01
 28  1.2592E+00  1.4715E+00  0.0000E+00  0.0000E+00  9.5391E-01  0.0000E+00  1.4257E+00  0.0000E+00  3.9839E+00
 29  0.0000E+00  1.0024E+00  0.0000E+00  0.0000E+00  0.0000E+00  2.9460E+00  0.0000E+00  0.0000E+00  0.0000E+00
 30  0.0000E+00  3.3697E-01  0.0000E+00  0.0000E+00  0.0000E+00  4.0159E-01  8.4273E-02  0.0000E+00  1.7112E+00
 31  0.0000E+00  1.3124E+00  0.0000E+00  0.0000E+00  0.0000E+00  0.0000E+00  0.0000E+00  0.0000E+00  0.0000E+00
 32  0.0000E+00  1.0022E+00  7.7789E-01  0.0000E+00  0.0000E+00  0.0000E+00  0.0000E+00  0.0000E+00  0.0000E+00
 33  0.0000E+00  2.7543E+00  8.6151E+00  1.7728E+00  0.0000E+00  0.0000E+00  0.0000E+00  0.0000E+00  0.0000E+00
 34  0.0000E+00  1.6670E+00  6.4485E-01  0.0000E+00  0.0000E+00  0.0000E+00  0.0000E+00  0.0000E+00  0.0000E+00
 35  0.0000E+00  1.9971E-01  0.0000E+00  3.8731E-02  1.3831E-02  2.3504E-01  2.7227E-01  1.3246E-01  6.4584E-02
 36  2.0334E-02  7.3687E-02  0.0000E+00  2.3253E-03  1.9263E-01  2.4481E-02  9.2502E-02  9.1924E-02  1.8333E-01
 37  3.3340E-01  7.1168E-02  8.6667E-04  4.2595E-02  2.5024E-01  2.0273E-01  1.5398E-01  1.3155E-01  1.1672E-01
 38  0.0000E+00  9.9267E-02  0.0000E+00  1.7111E-01  1.9349E-01  1.9949E-01  3.1823E-01  4.5246E-02  2.2816E-02
 39  1.9292E+00  1.6627E-01  6.7292E-02  1.7485E-01  1.0016E-01  4.5430E-01  3.2134E-01  4.9096E-02  2.6853E-01
 40  3.5849E+00  2.0652E-01  1.3926E-01  2.9018E-01  3.5942E-01  6.0000E-01  0.0000E+00  0.0000E+00  3.4099E-01
 41  0.0000E+00  3.1609E-01  7.2324E-02  5.5442E-01  0.0000E+00  0.0000E+00  5.2819E-01  1.0000E+00  1.0944E-01
 42  0.0000E+00  1.1543E+00  2.3485E-01  0.0000E+00  3.4985E+00  0.0000E+00  8.8268E-01  9.0930E-01  1.8675E+00
 43  0.0000E+00  1.6211E+00  1.1228E+00  6.8205E-01  1.8704E+00  3.4816E+00  0.0000E+00  0.0000E+00  8.6486E-02
 44  3.1801E+01  1.8008E+00  1.0625E-01  0.0000E+00  2.4756E-01  3.8357E+00  3.4059E+00  5.9021E+00  1.6995E+00
 45  0.0000E+00  1.0231E+00  8.1692E-01  1.2375E+00  5.0130E-01  0.0000E+00  1.7823E+00  0.0000E+00  2.3499E+00
 46  0.0000E+00  1.0848E+00  0.0000E+00  4.8418E+00  0.0000E+00  6.2287E-01  8.3140E-01  0.0000E+00  0.0000E+00
 47  0.0000E+00  7.0769E-01  0.0000E+00  0.0000E+00  0.0000E+00  0.0000E+00  0.0000E+00  1.2526E-01  0.0000E+00
 48  0.0000E+00  1.1547E+00  0.0000E+00  0.0000E+00  0.0000E+00  0.0000E+00  0.0000E+00  0.0000E+00  0.0000E+00
 49  0.0000E+00  2.1539E+00  0.0000E+00  0.0000E+00  0.0000E+00  0.0000E+00  0.0000E+00  0.0000E+00  5.6250E+00
 50  0.0000E+00  2.9441E+00  1.6534E+00  0.0000E+00  0.0000E+00  0.0000E+00  0.0000E+00  0.0000E+00  0.0000E+00
 51  7.9175E-02  8.5398E-02  2.8001E-02  0.0000E+00  4.6023E-02  6.6502E-02  7.2856E-02  3.3171E-01  4.3130E-02
 52  4.0384E-02  4.0064E-02  3.3253E-02  2.6690E-02  0.0000E+00  9.8495E-02  3.2495E-02  3.5013E-02  7.9325E-02
 53  8.8353E-02  6.5566E-02  2.7879E-02  7.9829E-02  1.7319E-01  4.4447E-01  0.0000E+00  5.5831E-02  1.2730E-01
 54  1.2903E+00  9.3775E-02  2.4049E-02  0.0000E+00  2.4821E-01  1.1952E-02  2.0313E-01  2.8531E-01  7.8746E-02
 55  0.0000E+00  1.6493E-01  8.3376E-02  1.4398E-01  0.0000E+00  0.0000E+00  2.3780E-01  3.8963E-01  1.9860E-01
 56  0.0000E+00  5.3305E-01  1.0690E-01  3.5957E-02  9.3373E-01  1.4177E+00  2.9731E-01  1.3727E+00  0.0000E+00
 57  2.3847E+00  4.1901E-01  0.0000E+00  1.2378E-01  0.0000E+00  4.4172E-01  3.5162E-01  3.0131E+00  3.4503E-01
 58  9.0579E+00  9.8528E-01  0.0000E+00  0.0000E+00  1.0818E+00  4.0099E+00  0.0000E+00  7.4751E-01  1.8699E+00
 59  8.3086E+00  1.7810E+00  2.0311E+00  3.4341E+00  7.2741E+00  2.6606E+00  0.0000E+00  1.8870E+00  1.4573E+00
 60  0.0000E+00  1.5483E+00  0.0000E+00  2.8053E+00  9.6956E-01  2.2996E+00  6.1585E+00  0.0000E+00  1.7691E+00
 61  0.0000E+00  6.9755E-01  0.0000E+00  6.8991E+00  3.4003E+00  0.0000E+00  1.9539E+00  0.0000E+00  0.0000E+00
 62  0.0000E+00  1.0701E+00  0.0000E+00  2.9367E+00  0.0000E+00  0.0000E+00  0.0000E+00  0.0000E+00  8.0867E-01
 63  0.0000E+00  7.6437E-01  4.4023E-01  0.0000E+00  0.0000E+00  0.0000E+00  0.0000E+00  0.0000E+00  1.2770E+01
 64  0.0000E+00  8.7640E-01  0.0000E+00  9.1545E+00  0.0000E+00  0.0000E+00  0.0000E+00  0.0000E+00  3.3555E+00
 65  0.0000E+00  4.2527E+00  2.9439E+01  0.0000E+00  0.0000E+00  0.0000E+00  0.0000E+00  0.0000E+00  0.0000E+00
 66  0.0000E+00  5.5059E+00  0.0000E+00  0.0000E+00  0.0000E+00  1.0977E+01  0.0000E+00  0.0000E+00  0.0000E+00

# AV, chi2 & Mass for <> & i_chain = 1 ...  7 solutions
AV      -0.9990     -0.9989     -1.0000     -1.0000     -1.0000     -0.9984     -1.0000     -1.0000     -0.9955
chi2 7.1315E-05  1.1166E-03  8.8383E-05  8.6828E-05  8.6040E-05  8.2476E-05  8.6521E-05  8.4502E-05  8.2245E-05
Mass 1.0301E-15  7.9687E-16  8.0568E-16  7.3630E-16  5.5408E-16  5.9053E-16  5.6080E-16  4.8255E-16  8.2053E-16
   0.00                                  [v0_min (km/s) before EX0s...]
 476.47                                  [vd_min (km/s) before EX0s...]


## Synthetic spectrum (Best Model) ##l_obs f_obs f_syn wei
 3478    [Nl_obs]
 3741.00   -0.23826   1.00255    0.000
 3742.00   -0.02512   1.00303    0.000
 3743.00    0.16207   1.00169    0.000
 3744.00    0.27277   0.99938    0.000
 3745.00    0.33892   0.99554    0.033
 3746.00    0.45666   0.99139    0.033
 3747.00    0.60061   0.98833    0.033
 3748.00    0.67085   0.98514    0.033
 3749.00    0.70867   0.98368    0.033
 3750.00    0.85722   0.98482    0.033
 3751.00    1.04759   0.99050    0.033
 3752.00    0.68838   0.99928    0.033
 3753.00    0.15304   1.00921    0.032
 3754.00    0.16506   1.02101    0.032
 3755.00    0.32376   1.03322    0.031
 3756.00    0.41122   1.04564    0.031
 3757.00    0.48306   1.05676    0.031
 3758.00    0.30855   1.06588    0.030
 3759.00    0.09104   1.07234    0.030
 3760.00    0.29005   1.07575    0.031
 3761.00    0.54439   1.07532    0.033
 3762.00    0.54278   1.07122    0.031
 3763.00    0.51712   1.06396    0.030
 3764.00    0.37137   1.05385    0.029
 3765.00    0.21869   1.04313    0.029
 3766.00    0.51103   1.03185    0.029
 3767.00    0.81124   1.02187    0.029
 3768.00    0.78521   1.01384    0.029
 3769.00    0.75956   1.00778    0.028
 3770.00    0.74353   1.00516    0.029
 3771.00    0.74325   1.00762    0.029
 3772.00    0.94946   1.01660    0.029
 3773.00    1.12911   1.02941    0.029
 3774.00    1.07555   1.04512    0.029
 3775.00    0.98080   1.06357    0.029
 3776.00    0.61900   1.08370    0.028
 3777.00    0.28147   1.10576    0.028
 3778.00    0.06680   1.12723    0.028
 3779.00   -0.08387   1.14761    0.000
 3780.00    0.02742   1.16554    0.029
 3781.00    0.11217   1.17962    0.029
 3782.00    0.10687   1.19003    0.030
 3783.00    0.10818   1.19591    0.030
 3784.00    0.12837   1.19776    0.030
 3785.00    0.17527   1.19420    0.030
 3786.00    0.28741   1.18593    0.030
 3787.00    0.24079   1.17354    0.030
 3788.00   -0.14045   1.15723    0.000
 3789.00   -0.20837   1.13789    0.000
 3790.00    0.29762   1.11568    0.030
 3791.00    0.54758   1.09222    0.029
 3792.00    0.38771   1.06853    0.029
 3793.00    0.31501   1.04609    0.029
 3794.00    0.36475   1.02592    0.029
 3795.00    0.37616   1.00920    0.028
 3796.00    0.34020   0.99649    0.028
 3797.00    0.33654   0.98771    0.028
 3798.00    0.36807   0.98515    0.028
 3799.00    0.34286   0.98965    0.028
 3800.00    0.26313   1.00020    0.028
 3801.00    0.27620   1.01478    0.028
 3802.00    0.36791   1.03280    0.029
 3803.00    0.44100   1.05468    0.029
 3804.00    0.50017   1.07884    0.028
 3805.00    0.34597   1.10446    0.028
 3806.00    0.05189   1.12940    0.028
 3807.00    0.10401   1.15346    0.028
 3808.00    0.35479   1.17616    0.027
 3809.00    0.52735   1.19579    0.027
 3810.00    0.66081   1.21330    0.028
 3811.00    0.48592   1.22757    0.028
 3812.00    0.17769   1.23797    0.028
 3813.00    0.26378   1.24543    0.028
 3814.00    0.49611   1.24893    0.028
 3815.00    0.36206   1.25059    0.028
 3816.00    0.11282   1.25082    0.028
 3817.00   -0.07873   1.24745    0.000
 3818.00   -0.25515   1.24183    0.000
 3819.00   -0.10481   1.23153    0.000
 3820.00    0.11554   1.22045    0.028
 3821.00    0.19258   1.21058    0.028
 3822.00    0.24530   1.19653    0.028
 3823.00    0.12389   1.18018    0.028
 3824.00   -0.01988   1.15991    0.000
 3825.00   -0.21152   1.13798    0.000
 3826.00   -0.40747   1.11662    0.000
 3827.00   -0.02027   1.09234    0.000
 3828.00    0.39827   1.06767    0.028
 3829.00    0.63889   1.04220    0.028
 3830.00    0.86799   1.01733    0.028
 3831.00    0.42546   0.99621    0.028
 3832.00    0.00570   0.97729    0.028
 3833.00    0.09179   0.96247    0.028
 3834.00    0.17686   0.95197    0.028
 3835.00    0.24939   0.94563    0.028
 3836.00    0.30184   0.94750    0.028
 3837.00    0.18469   0.95556    0.028
 3838.00    0.09479   0.96832    0.028
 3839.00    0.17637   0.98605    0.027
 3840.00    0.23925   1.00622    0.027
 3841.00    0.20989   1.03098    0.027
 3842.00    0.17835   1.05826    0.027
 3843.00    0.13808   1.08612    0.027
 3844.00    0.10781   1.11435    0.027
 3845.00    0.11079   1.14047    0.027
 3846.00    0.15748   1.16618    0.028
 3847.00    0.32695   1.19004    0.000
 3848.00    0.49160   1.21153    0.000
 3849.00    0.64469   1.23062    0.000
 3850.00    0.65643   1.24635    0.000
 3851.00    0.37504   1.26066    0.000
 3852.00    0.02957   1.27287    0.000
 3853.00   -0.43146   1.28290    0.000
 3854.00   -0.59389   1.29093    0.000
 3855.00   -0.28541   1.29657    0.000
 3856.00    0.05518   1.30159    0.000
 3857.00    0.44024   1.30568    0.000
 3858.00    0.48895   1.30868    0.000
 3859.00    0.12784   1.31057    0.000
 3860.00   -0.09435   1.31050    0.000
 3861.00   -0.16732   1.31084    0.000
 3862.00   -0.05410   1.30970    0.000
 3863.00    0.23554   1.30812    0.000
 3864.00    0.23893   1.30653    0.000
 3865.00    0.00319   1.30260    0.000
 3866.00   -0.02076   1.29833    0.000
 3867.00    0.11107   1.29212    0.000
 3868.00    0.40345   1.28605    0.000
 3869.00    0.79954   1.27992    0.000
 3870.00    0.80350   1.27102    0.000
 3871.00    0.58585   1.26038    0.000
 3872.00    0.51577   1.24767    0.000
 3873.00    0.51828   1.23458    0.000
 3874.00    0.44910   1.22041    0.000
 3875.00    0.34944   1.20353    0.000
 3876.00    0.30607   1.18409    0.000
 3877.00    0.28320   1.16221    0.000
 3878.00    0.15782   1.13883    0.000
 3879.00    0.00084   1.11460    0.000
 3880.00   -0.01298   1.08938    0.000
 3881.00    0.00994   1.06272    0.025
 3882.00    0.18156   1.03548    0.025
 3883.00    0.38426   1.00863    0.026
 3884.00    0.36280   0.98416    0.026
 3885.00    0.30437   0.96358    0.026
 3886.00    0.50152   0.94596    0.027
 3887.00    0.73031   0.93218    0.028
 3888.00    0.76683   0.92220    0.027
 3889.00    0.78688   0.91773    0.027
 3890.00    0.52761   0.92109    0.027
 3891.00    0.25441   0.92978    0.027
 3892.00    0.22104   0.94286    0.028
 3893.00    0.19430   0.95902    0.028
 3894.00    0.34150   0.97854    0.028
 3895.00    0.48186   1.00214    0.028
 3896.00    0.48227   1.02778    0.028
 3897.00    0.50151   1.05420    0.027
 3898.00    0.74350   1.07963    0.027
 3899.00    0.91272   1.10430    0.027
 3900.00    0.48903   1.12808    0.026
 3901.00    0.16323   1.15071    0.026
 3902.00    0.43533   1.17182    0.025
 3903.00    0.63892   1.19022    0.025
 3904.00    0.51281   1.20681    0.024
 3905.00    0.45021   1.22113    0.024
 3906.00    0.63631   1.23363    0.024
 3907.00    0.71787   1.24501    0.024
 3908.00    0.45864   1.25407    0.024
 3909.00    0.30002   1.26169    0.024
 3910.00    0.41882   1.26788    0.025
 3911.00    0.56147   1.27226    0.026
 3912.00    0.76044   1.27634    0.026
 3913.00    0.85475   1.27837    0.027
 3914.00    0.73546   1.27944    0.027
 3915.00    0.58801   1.28021    0.027
 3916.00    0.39055   1.27911    0.027
 3917.00    0.35210   1.27868    0.027
 3918.00    0.56074   1.27622    0.027
 3919.00    0.71319   1.27303    0.027
 3920.00    0.78899   1.27042    0.027
 3921.00    0.78799   1.26581    0.027
 3922.00    0.69474   1.26248    0.027
 3923.00    0.64987   1.25745    0.027
 3924.00    0.65623   1.25158    0.027
 3925.00    0.62755   1.24740    0.027
 3926.00    0.56612   1.24132    0.027
 3927.00    0.45064   1.23632    0.027
 3928.00    0.29065   1.23069    0.027
 3929.00    0.22274   1.22488    0.027
 3930.00    0.22156   1.22237    0.027
 3931.00    0.20755   1.21918    0.027
 3932.00    0.18535   1.21656    0.027
 3933.00    0.46159   1.21420    0.028
 3934.00    0.90392   1.21276    0.028
 3935.00    0.85744   1.21532    0.028
 3936.00    0.57434   1.21773    0.028
 3937.00    0.53655   1.21966    0.028
 3938.00    0.60132   1.22154    0.028
 3939.00    0.58181   1.22358    0.028
 3940.00    0.53215   1.22807    0.028
 3941.00    0.50421   1.23168    0.028
 3942.00    0.48284   1.23341    0.028
 3943.00    0.52761   1.23433    0.028
 3944.00    0.58898   1.23421    0.028
 3945.00    0.47759   1.23449    0.028
 3946.00    0.33096   1.23339    0.029
 3947.00    0.58142   1.23005    0.029
 3948.00    0.89545   1.22542    0.029
 3949.00    0.73327   1.21964    0.029
 3950.00    0.51423   1.21293    0.029
 3951.00    0.51105   1.20408    0.028
 3952.00    0.52544   1.19337    0.028
 3953.00    0.76724   1.18084    0.028
 3954.00    1.01950   1.16665    0.028
 3955.00    1.06173   1.15072    0.028
 3956.00    1.09571   1.13163    0.028
 3957.00    0.83834   1.11089    0.028
 3958.00    0.57996   1.08863    0.028
 3959.00    0.30242   1.06384    0.028
 3960.00    0.04960   1.03801    0.000
 3961.00    0.07538   1.01069    0.000
 3962.00    0.11332   0.98296    0.000
 3963.00    0.24686   0.95633    0.000
 3964.00    0.36704   0.92917    0.000
 3965.00    0.40796   0.90440    0.000
 3966.00    0.48453   0.88412    0.000
 3967.00    0.72845   0.86676    0.000
 3968.00    0.89329   0.85373    0.000
 3969.00    0.75512   0.84466    0.000
 3970.00    0.65197   0.84103    0.000
 3971.00    0.66079   0.84522    0.000
 3972.00    0.69242   0.85414    0.000
 3973.00    0.78584   0.86680    0.000
 3974.00    0.78457   0.88339    0.000
 3975.00    0.56342   0.90371    0.000
 3976.00    0.51154   0.92743    0.000
 3977.00    0.79967   0.95269    0.000
 3978.00    0.93203   0.97829    0.000
 3979.00    0.79193   1.00367    0.000
 3980.00    0.54051   1.02896    0.000
 3981.00    0.11870   1.05283    0.028
 3982.00    0.22033   1.07492    0.028
 3983.00    1.02590   1.09566    0.029
 3984.00    1.32320   1.11404    0.030
 3985.00    1.01860   1.13078    0.029
 3986.00    0.57308   1.14537    0.029
 3987.00   -0.01958   1.15787    0.000
 3988.00   -0.03612   1.16934    0.000
 3989.00    0.47798   1.17863    0.028
 3990.00    0.84454   1.18651    0.028
 3991.00    1.09132   1.19343    0.027
 3992.00    1.17238   1.19890    0.027
 3993.00    1.13505   1.20369    0.027
 3994.00    0.99635   1.20726    0.027
 3995.00    0.79410   1.20991    0.027
 3996.00    0.66363   1.21225    0.026
 3997.00    0.57251   1.21364    0.026
 3998.00    0.57042   1.21456    0.026
 3999.00    0.61075   1.21517    0.027
 4000.00    0.82227   1.21517    0.026
 4001.00    1.10414   1.21503    0.026
 4002.00    0.94913   1.21465    0.026
 4003.00    0.64067   1.21411    0.026
 4004.00    0.75042   1.21321    0.026
 4005.00    0.98408   1.21233    0.026
 4006.00    1.08096   1.21211    0.026
 4007.00    1.14425   1.21199    0.026
 4008.00    0.84790   1.21151    0.026
 4009.00    0.48005   1.21059    0.026
 4010.00    0.30462   1.21055    0.026
 4011.00    0.15909   1.21120    0.026
 4012.00    0.37725   1.21100    0.026
 4013.00    0.63724   1.21026    0.026
 4014.00    0.63347   1.20954    0.026
 4015.00    0.60930   1.20880    0.026
 4016.00    0.68803   1.20737    0.026
 4017.00    0.77110   1.20530    0.026
 4018.00    0.92068   1.20266    0.026
 4019.00    1.06674   1.20025    0.026
 4020.00    1.03137   1.19708    0.027
 4021.00    1.00199   1.19252    0.027
 4022.00    1.07796   1.18972    0.027
 4023.00    1.14510   1.18724    0.027
 4024.00    1.11724   1.18448    0.027
 4025.00    1.05933   1.18156    0.027
 4026.00    0.77325   1.17815    0.027
 4027.00    0.50689   1.17862    0.027
 4028.00    0.35422   1.18013    0.026
 4029.00    0.26122   1.18036    0.026
 4030.00    0.44171   1.18124    0.027
 4031.00    0.59387   1.18233    0.027
 4032.00    0.63972   1.18545    0.026
 4033.00    0.68602   1.18871    0.026
 4034.00    0.73374   1.19075    0.026
 4035.00    0.82410   1.19308    0.026
 4036.00    1.02788   1.19507    0.026
 4037.00    1.15332   1.19747    0.027
 4038.00    1.09985   1.19908    0.027
 4039.00    1.03100   1.19950    0.026
 4040.00    0.93171   1.19995    0.026
 4041.00    0.88458   1.19980    0.026
 4042.00    0.92732   1.20000    0.026
 4043.00    1.01672   1.19979    0.026
 4044.00    1.17652   1.19830    0.026
 4045.00    1.18713   1.19701    0.027
 4046.00    1.00000   1.19571    0.027
 4047.00    0.96356   1.19495    0.026
 4048.00    1.10305   1.19403    0.026
 4049.00    1.15350   1.19197    0.026
 4050.00    1.11228   1.19046    0.026
 4051.00    1.11664   1.18913    0.026
 4052.00    1.16241   1.18760    0.026
 4053.00    1.19857   1.18597    0.026
 4054.00    1.22704   1.18363    0.026
 4055.00    1.05890   1.18188    0.026
 4056.00    0.75233   1.18020    0.026
 4057.00    0.83226   1.17782    0.026
 4058.00    1.15092   1.17524    0.026
 4059.00    1.32123   1.17252    0.026
 4060.00    1.41149   1.17053    0.026
 4061.00    1.27641   1.16820    0.026
 4062.00    1.03571   1.16494    0.026
 4063.00    0.96376   1.16172    0.026
 4064.00    0.95999   1.15866    0.026
 4065.00    1.03687   1.15646    0.026
 4066.00    1.14157   1.15358    0.026
 4067.00    1.08112   1.14942    0.026
 4068.00    0.97271   1.14664    0.026
 4069.00    0.75175   1.14384    0.026
 4070.00    0.50375   1.14039    0.025
 4071.00    0.62761   1.13685    0.026
 4072.00    0.82353   1.13277    0.026
 4073.00    0.88895   1.13019    0.026
 4074.00    0.93471   1.12729    0.027
 4075.00    1.17186   1.12276    0.026
 4076.00    1.43018   1.11869    0.026
 4077.00    0.99397   1.11450    0.026
 4078.00    0.50690   1.11026    0.026
 4079.00    0.53776   1.10564    0.026
 4080.00    0.58845   1.09979    0.026
 4081.00    0.76117   1.09367    0.026
 4082.00    0.93094   1.08676    0.026
 4083.00    0.96434   1.07848    0.026
 4084.00    1.00464   1.06897    0.026
 4085.00    1.15855   1.05831    0.026
 4086.00    1.26321   1.04659    0.027
 4087.00    0.86111   1.03318    0.026
 4088.00    0.50442   1.01759    0.026
 4089.00    0.48100   1.00044    0.026
 4090.00    0.47576   0.98250    0.026
 4091.00    0.57255   0.96318    0.026
 4092.00    0.68589   0.94212    0.000
 4093.00    0.87330   0.92016    0.000
 4094.00    0.98051   0.89865    0.000
 4095.00    0.79319   0.87778    0.000
 4096.00    0.65421   0.85675    0.000
 4097.00    0.66392   0.83764    0.000
 4098.00    0.63049   0.82168    0.000
 4099.00    0.48432   0.80846    0.000
 4100.00    0.38370   0.79850    0.000
 4101.00    0.38539   0.79073    0.000
 4102.00    0.41129   0.78776    0.000
 4103.00    0.48434   0.79158    0.000
 4104.00    0.59129   0.79806    0.000
 4105.00    0.75580   0.80726    0.000
 4106.00    0.90861   0.81998    0.000
 4107.00    1.04402   0.83487    0.000
 4108.00    1.03476   0.85249    0.000
 4109.00    0.83645   0.87099    0.000
 4110.00    0.75308   0.88932    0.000
 4111.00    0.80200   0.90861    0.000
 4112.00    0.89329   0.92725    0.000
 4113.00    1.02759   0.94462    0.025
 4114.00    1.10994   0.96104    0.025
 4115.00    1.14576   0.97543    0.025
 4116.00    1.10613   0.98890    0.025
 4117.00    1.00697   1.00137    0.025
 4118.00    1.00246   1.01165    0.035
 4119.00    1.06364   1.02072    0.128
 4120.00    1.12829   1.02799   -1.000
 4121.00    1.19504   1.03477   -1.000
 4122.00    1.23572   1.04126   -1.000
 4123.00    1.26254   1.04572   -1.000
 4124.00    1.20238   1.05007   -1.000
 4125.00    1.10211   1.05376   -1.000
 4126.00    0.99865   1.05680   -1.000
 4127.00    0.89393   1.05942   -1.000
 4128.00    0.87585   1.06081    0.065
 4129.00    0.88708   1.06333    0.028
 4130.00    0.95951   1.06514    0.025
 4131.00    1.04934   1.06570    0.025
 4132.00    0.97641   1.06709    0.025
 4133.00    0.86526   1.06799    0.025
 4134.00    0.81078   1.06857    0.025
 4135.00    0.76700   1.06858    0.025
 4136.00    0.83859   1.06835    0.025
 4137.00    0.92703   1.06876    0.025
 4138.00    0.87100   1.06819    0.025
 4139.00    0.79961   1.06753    0.025
 4140.00    0.71574   1.06719    0.025
 4141.00    0.63100   1.06673    0.024
 4142.00    0.89196   1.06653    0.025
 4143.00    1.16485   1.06489    0.026
 4144.00    0.92349   1.06400    0.026
 4145.00    0.68748   1.06545    0.026
 4146.00    0.66133   1.06566    0.026
 4147.00    0.64105   1.06558    0.026
 4148.00    0.71168   1.06623    0.026
 4149.00    0.77827   1.06651    0.026
 4150.00    0.80500   1.06745    0.026
 4151.00    0.82721   1.06827    0.025
 4152.00    0.81732   1.06858    0.025
 4153.00    0.80883   1.06956    0.025
 4154.00    0.80794   1.07032    0.025
 4155.00    0.81761   1.07068    0.025
 4156.00    0.87345   1.07103    0.025
 4157.00    0.97694   1.07098    0.025
 4158.00    1.25179   1.07099    0.025
 4159.00    1.33905   1.07103    0.025
 4160.00    0.86021   1.07038    0.024
 4161.00    0.56036   1.06962    0.023
 4162.00    0.72013   1.06893    0.024
 4163.00    0.87357   1.06780    0.024
 4164.00    1.01303   1.06651    0.024
 4165.00    1.03001   1.06514    0.024
 4166.00    0.81237   1.06368    0.025
 4167.00    0.71861   1.06231    0.024
 4168.00    0.83192   1.06046    0.024
 4169.00    0.87438   1.05860    0.024
 4170.00    0.81306   1.05738    0.024
 4171.00    0.78190   1.05584    0.024
 4172.00    0.78959   1.05405    0.024
 4173.00    0.75244   1.05277    0.024
 4174.00    0.66441   1.05164    0.024
 4175.00    0.60762   1.05085    0.024
 4176.00    0.58208   1.05008    0.024
 4177.00    0.68062   1.04917    0.023
 4178.00    0.88869   1.04849    0.023
 4179.00    0.86510   1.04788    0.023
 4180.00    0.66134   1.04775    0.023
 4181.00    0.50218   1.04737    0.023
 4182.00    0.37351   1.04668    0.023
 4183.00    0.45791   1.04658    0.023
 4184.00    0.67002   1.04611    0.024
 4185.00    0.81113   1.04572    0.024
 4186.00    0.91511   1.04528    0.024
 4187.00    0.95238   1.04398    0.024
 4188.00    0.95940   1.04357    0.023
 4189.00    0.87063   1.04302    0.023
 4190.00    0.74446   1.04154    0.024
 4191.00    0.69388   1.04056    0.023
 4192.00    0.66841   1.03945    0.023
 4193.00    0.69605   1.03821    0.023
 4194.00    0.73851   1.03712    0.023
 4195.00    0.78579   1.03539    0.023
 4196.00    0.83417   1.03400    0.024
 4197.00    0.67318   1.03315    0.024
 4198.00    0.47370   1.03166    0.024
 4199.00    0.53708   1.03027    0.024
 4200.00    0.63763   1.02986    0.024
 4201.00    0.86524   1.02910    0.024
 4202.00    1.10581   1.02816    0.023
 4203.00    0.88285   1.02808    0.023
 4204.00    0.62968   1.02759    0.023
 4205.00    0.59462   1.02725    0.023
 4206.00    0.56645   1.02738    0.023
 4207.00    0.67102   1.02666    0.024
 4208.00    0.76700   1.02665    0.024
 4209.00    0.61082   1.02676    0.024
 4210.00    0.47290   1.02580    0.024
 4211.00    0.60075   1.02569    0.024
 4212.00    0.69407   1.02513    0.024
 4213.00    0.46091   1.02409    0.024
 4214.00    0.28124   1.02360    0.025
 4215.00    0.46926   1.02195    0.024
 4216.00    0.65186   1.02053    0.024
 4217.00    0.80562   1.01977    0.024
 4218.00    0.87380   1.01793    0.024
 4219.00    0.57649   1.01618    0.024
 4220.00    0.37191   1.01480    0.024
 4221.00    0.49399   1.01307    0.024
 4222.00    0.60680   1.01111    0.024
 4223.00    0.69214   1.00942    0.024
 4224.00    0.79631   1.00758    0.024
 4225.00    0.94797   1.00575    0.024
 4226.00    0.97693   1.00431    0.024
 4227.00    0.73923   1.00258    0.023
 4228.00    0.65404   1.00154    0.023
 4229.00    0.85645   1.00113    0.023
 4230.00    0.91974   0.99968    0.023
 4231.00    0.75400   0.99901    0.023
 4232.00    0.69028   0.99883    0.022
 4233.00    0.77384   0.99732    0.022
 4234.00    0.77063   0.99702    0.022
 4235.00    0.65727   0.99731    0.022
 4236.00    0.62764   0.99626    0.021
 4237.00    0.69169   0.99629    0.022
 4238.00    0.68509   0.99618    0.022
 4239.00    0.60876   0.99498    0.021
 4240.00    0.65301   0.99504    0.022
 4241.00    0.80221   0.99448    0.022
 4242.00    0.90872   0.99302    0.022
 4243.00    0.98250   0.99262    0.022
 4244.00    0.94817   0.99188    0.022
 4245.00    0.84100   0.99075    0.022
 4246.00    0.87233   0.98962    0.022
 4247.00    0.98544   0.98788    0.023
 4248.00    1.14786   0.98701    0.023
 4249.00    1.33567   0.98630    0.023
 4250.00    1.23643   0.98413    0.023
 4251.00    1.00913   0.98292    0.023
 4252.00    0.74587   0.98249    0.023
 4253.00    0.46883   0.98089    0.023
 4254.00    0.40599   0.97957    0.022
 4255.00    0.41294   0.97855    0.022
 4256.00    0.64587   0.97744    0.022
 4257.00    0.94049   0.97691    0.022
 4258.00    1.03932   0.97529    0.022
 4259.00    1.09427   0.97377    0.022
 4260.00    1.05487   0.97314    0.022
 4261.00    0.99858   0.97137    0.023
 4262.00    1.15863   0.97014    0.023
 4263.00    1.34827   0.96912    0.023
 4264.00    1.20480   0.96694    0.023
 4265.00    1.02880   0.96608    0.023
 4266.00    0.66080   0.96456    0.023
 4267.00    0.28107   0.96178    0.022
 4268.00    0.39310   0.96086    0.022
 4269.00    0.51789   0.95979    0.021
 4270.00    0.54479   0.95811    0.022
 4271.00    0.57348   0.95663    0.022
 4272.00    0.64931   0.95506    0.022
 4273.00    0.71117   0.95469    0.022
 4274.00    0.58092   0.95361    0.022
 4275.00    0.47482   0.95192    0.023
 4276.00    0.58820   0.95159    0.023
 4277.00    0.70519   0.95086    0.023
 4278.00    0.84626   0.94978    0.023
 4279.00    1.01001   0.94873    0.023
 4280.00    1.29108   0.94750    0.024
 4281.00    1.47136   0.94682    0.024
 4282.00    1.23089   0.94515   -2.000
 4283.00    0.98567   0.94334   -2.000
 4284.00    0.72403   0.94254   -2.000
 4285.00    0.61327   0.94054   -2.000
 4286.00    0.94108   0.93845   -2.000
 4287.00    1.11431   0.93704   -2.000
 4288.00    0.90416   0.93476   -2.000
 4289.00    0.79739   0.93254   -2.000
 4290.00    0.91163   0.93043   -2.000
 4291.00    1.02453   0.92779   -2.000
 4292.00    1.13490   0.92604   -2.000
 4293.00    1.14452   0.92403   -2.000
 4294.00    0.99073   0.92075   -2.000
 4295.00    0.84527   0.91876   -2.000
 4296.00    0.71168   0.91662   -2.000
 4297.00    0.75815   0.91348   -2.000
 4298.00    1.03000   0.91178    0.024
 4299.00    1.10516   0.90912    0.024
 4300.00    0.96335   0.90608    0.024
 4301.00    0.79377   0.90510    0.024
 4302.00    0.59719   0.90264    0.024
 4303.00    0.38930   0.90005    0.024
 4304.00    0.17172   0.89932    0.024
 4305.00    0.22224   0.89740    0.023
 4306.00    0.47535   0.89585    0.023
 4307.00    0.54461   0.89486    0.023
 4308.00    0.49176   0.89300    0.023
 4309.00    0.57855   0.89223    0.023
 4310.00    0.74654   0.89138    0.023
 4311.00    0.84096   0.88971    0.023
 4312.00    0.89810   0.88881    0.023
 4313.00    0.80712   0.88747    0.023
 4314.00    0.65114   0.88509    0.022
 4315.00    0.65425   0.88311    0.022
 4316.00    0.71729   0.88109    0.022
 4317.00    0.80741   0.87787    0.022
 4318.00    0.90619   0.87403    0.022
 4319.00    0.88671   0.86987    0.022
 4320.00    0.83562   0.86460    0.023
 4321.00    0.75916   0.85874    0.023
 4322.00    0.67714   0.85216    0.023
 4323.00    0.70166   0.84418    0.023
 4324.00    0.74472   0.83581    0.023
 4325.00    0.76086   0.82598    0.023
 4326.00    0.77345   0.81457    0.022
 4327.00    0.72019   0.80361    0.023
 4328.00    0.66078   0.79132    0.023
 4329.00    0.73459   0.77693    0.023
 4330.00    0.81601   0.76294    0.000
 4331.00    0.93978   0.74850    0.000
 4332.00    1.06268   0.73319    0.000
 4333.00    0.97195   0.71856    0.000
 4334.00    0.87756   0.70383    0.000
 4335.00    0.69514   0.69026    0.000
 4336.00    0.53987   0.67850    0.000
 4337.00    0.73796   0.66657    0.000
 4338.00    0.93379   0.65797    0.000
 4339.00    1.10990   0.65292    0.000
 4340.00    1.24043   0.64737    0.000
 4341.00    1.07658   0.64612    0.000
 4342.00    0.94153   0.65019    0.000
 4343.00    0.95180   0.65420    0.000
 4344.00    0.92376   0.66062    0.000
 4345.00    0.73934   0.67067    0.000
 4346.00    0.62115   0.68129    0.000
 4347.00    0.72709   0.69338    0.000
 4348.00    0.84992   0.70657    0.000
 4349.00    1.02097   0.72003    0.000
 4350.00    1.09195   0.73449    0.000
 4351.00    0.91894   0.74781    0.022
 4352.00    0.78644   0.76034    0.022
 4353.00    0.73915   0.77415    0.021
 4354.00    0.72951   0.78643    0.021
 4355.00    0.78869   0.79662    0.021
 4356.00    0.80820   0.80715    0.026
 4357.00    0.76433   0.81660    0.071
 4358.00    0.76600   0.82419   -1.000
 4359.00    0.83154   0.83142 1899.912
 4360.00    0.83761   0.83781   -1.000
 4361.00    0.77031   0.84308   -1.000
 4362.00    0.76088   0.84788   -1.000
 4363.00    0.81438   0.85157   -1.000
 4364.00    0.88119   0.85462    0.085
 4365.00    0.96076   0.85768    0.029
 4366.00    1.01028   0.85958    0.022
 4367.00    1.03436   0.86082    0.022
 4368.00    0.86303   0.86219    0.022
 4369.00    0.54613   0.86294    0.022
 4370.00    0.55067   0.86324    0.022
 4371.00    0.76552   0.86347    0.022
 4372.00    0.94854   0.86321    0.022
 4373.00    1.11334   0.86276    0.022
 4374.00    1.05188   0.86206    0.022
 4375.00    0.87756   0.86101    0.022
 4376.00    0.87811   0.85992    0.022
 4377.00    0.95413   0.85880    0.022
 4378.00    0.84820   0.85745    0.022
 4379.00    0.67493   0.85566    0.022
 4380.00    0.62897   0.85404    0.022
 4381.00    0.62293   0.85249    0.022
 4382.00    0.69951   0.85070    0.022
 4383.00    0.79769   0.84934    0.022
 4384.00    0.73697   0.84752    0.022
 4385.00    0.64231   0.84617    0.021
 4386.00    0.67972   0.84655    0.021
 4387.00    0.73945   0.84528    0.021
 4388.00    0.71641   0.84404    0.022
 4389.00    0.68280   0.84560    0.022
 4390.00    0.58449   0.84578    0.022
 4391.00    0.48041   0.84547    0.022
 4392.00    0.41882   0.84702    0.022
 4393.00    0.35949   0.84788    0.022
 4394.00    0.63912   0.84837    0.022
 4395.00    0.92262   0.84919    0.022
 4396.00    0.98075   0.85006    0.022
 4397.00    1.03475   0.85113    0.022
 4398.00    0.99809   0.85149    0.022
 4399.00    0.95510   0.85181    0.022
 4400.00    0.83397   0.85230    0.022
 4401.00    0.73182   0.85206    0.022
 4402.00    0.78937   0.85215    0.022
 4403.00    0.85686   0.85244    0.022
 4404.00    0.98663   0.85176    0.022
 4405.00    1.06823   0.85100    0.022
 4406.00    0.91288   0.85116    0.022
 4407.00    0.79627   0.85096    0.022
 4408.00    0.83436   0.84968    0.022
 4409.00    0.89289   0.84932    0.022
 4410.00    1.01920   0.84953    0.023
 4411.00    1.08578   0.84820    0.023
 4412.00    0.98500   0.84760    0.023
 4413.00    0.89581   0.84793    0.023
 4414.00    0.83439   0.84664    0.023
 4415.00    0.75654   0.84585    0.023
 4416.00    0.64467   0.84596    0.023
 4417.00    0.63078   0.84515    0.023
 4418.00    0.79327   0.84480    0.023
 4419.00    0.80092   0.84446    0.022
 4420.00    0.56486   0.84388    0.022
 4421.00    0.57869   0.84378    0.022
 4422.00    0.93781   0.84288    0.022
 4423.00    1.02551   0.84228    0.022
 4424.00    0.78307   0.84208    0.022
 4425.00    0.73103   0.84111    0.022
 4426.00    0.88315   0.84053    0.023
 4427.00    0.92392   0.83963    0.023
 4428.00    0.85937   0.83861    0.023
 4429.00    0.73448   0.83822    0.023
 4430.00    0.55926   0.83686    0.023
 4431.00    0.51913   0.83570    0.023
 4432.00    0.57817   0.83537    0.022
 4433.00    0.66541   0.83416    0.022
 4434.00    0.77081   0.83296    0.022
 4435.00    0.83036   0.83234    0.022
 4436.00    0.86405   0.83157    0.023
 4437.00    0.84568   0.83066    0.023
 4438.00    0.80175   0.82987    0.023
 4439.00    0.76930   0.82959    0.023
 4440.00    0.74172   0.82897    0.022
 4441.00    0.63597   0.82785    0.023
 4442.00    0.50182   0.82766    0.023
 4443.00    0.52940   0.82713    0.023
 4444.00    0.60673   0.82590    0.023
 4445.00    0.81620   0.82587    0.023
 4446.00    1.05951   0.82546    0.023
 4447.00    0.99344   0.82396    0.022
 4448.00    0.86289   0.82351    0.022
 4449.00    0.79447   0.82298    0.022
 4450.00    0.73626   0.82146    0.022
 4451.00    0.80504   0.82054    0.022
 4452.00    0.88947   0.81960    0.022
 4453.00    0.76511   0.81817    0.022
 4454.00    0.62300   0.81689    0.022
 4455.00    0.50806   0.81527    0.021
 4456.00    0.39447   0.81375    0.021
 4457.00    0.53817   0.81242    0.021
 4458.00    0.68534   0.81053    0.022
 4459.00    0.79313   0.80851    0.022
 4460.00    0.89172   0.80698    0.021
 4461.00    0.80378   0.80508    0.000
 4462.00    0.72376   0.80259    0.000
 4463.00    0.73694   0.80093    0.000
 4464.00    0.75948   0.79941    0.000
 4465.00    0.85796   0.79670    0.000
 4466.00    0.92192   0.79499    0.000
 4467.00    0.77576   0.79413    0.000
 4468.00    0.66178   0.79152    0.000
 4469.00    0.70212   0.79017    0.000
 4470.00    0.78378   0.79033    0.000
 4471.00    1.02675   0.78812    0.000
 4472.00    1.17122   0.78713    0.000
 4473.00    0.99539   0.78868    0.000
 4474.00    0.82541   0.78797    0.000
 4475.00    0.67150   0.78720    0.000
 4476.00    0.56915   0.78886    0.000
 4477.00    0.58830   0.78911    0.000
 4478.00    0.58567   0.78864    0.000
 4479.00    0.53867   0.79038    0.000
 4480.00    0.53415   0.79108    0.000
 4481.00    0.60496   0.79040    0.000
 4482.00    0.65011   0.79190    0.021
 4483.00    0.65544   0.79327    0.021
 4484.00    0.68491   0.79308    0.021
 4485.00    0.74728   0.79393    0.020
 4486.00    0.74149   0.79482    0.020
 4487.00    0.65397   0.79497    0.020
 4488.00    0.60182   0.79537    0.020
 4489.00    0.58705   0.79576    0.021
 4490.00    0.63772   0.79605    0.021
 4491.00    0.74942   0.79626    0.020
 4492.00    0.79876   0.79641    0.020
 4493.00    0.79683   0.79672    0.021
 4494.00    0.75205   0.79671    0.021
 4495.00    0.67625   0.79654    0.020
 4496.00    0.69696   0.79683    0.020
 4497.00    0.77898   0.79684    0.021
 4498.00    0.78995   0.79650    0.021
 4499.00    0.76145   0.79667    0.021
 4500.00    0.79126   0.79670    0.021
 4501.00    0.84923   0.79610    0.020
 4502.00    0.83954   0.79590    0.021
 4503.00    0.80162   0.79590    0.021
 4504.00    0.77549   0.79532    0.021
 4505.00    0.75357   0.79473    0.021
 4506.00    0.88486   0.79419    0.020
 4507.00    1.06233   0.79349    0.020
 4508.00    1.00084   0.79259    0.020
 4509.00    0.87949   0.79150    0.020
 4510.00    0.78455   0.79076    0.020
 4511.00    0.69497   0.78969    0.020
 4512.00    0.68465   0.78807    0.020
 4513.00    0.68696   0.78711    0.020
 4514.00    0.70540   0.78584    0.020
 4515.00    0.72575   0.78404    0.021
 4516.00    0.81883   0.78286    0.021
 4517.00    0.91780   0.78142    0.021
 4518.00    0.81695   0.77978    0.020
 4519.00    0.70702   0.77827    0.020
 4520.00    0.64132   0.77660    0.020
 4521.00    0.57757   0.77538    0.020
 4522.00    0.58595   0.77363    0.020
 4523.00    0.59617   0.77182    0.020
 4524.00    0.64089   0.77095    0.020
 4525.00    0.67908   0.76927    0.020
 4526.00    0.64426   0.76769    0.020
 4527.00    0.61230   0.76703    0.020
 4528.00    0.60273   0.76554    0.020
 4529.00    0.59486   0.76437    0.020
 4530.00    0.59709   0.76395    0.020
 4531.00    0.62964   0.76288    0.020
 4532.00    0.80408   0.76215    0.020
 4533.00    0.95457   0.76190    0.020
 4534.00    1.01351   0.76113    0.020
 4535.00    1.00274   0.76044    0.020
 4536.00    0.76967   0.76041    0.020
 4537.00    0.63602   0.76009    0.020
 4538.00    0.77101   0.75922    0.020
 4539.00    0.91991   0.75910    0.020
 4540.00    1.10101   0.75871    0.020
 4541.00    1.18410   0.75753    0.020
 4542.00    1.07071   0.75741    0.020
 4543.00    0.99396   0.75683    0.020
 4544.00    0.98120   0.75552    0.020
 4545.00    0.95281   0.75545    0.020
 4546.00    0.90051   0.75434    0.020
 4547.00    0.87488   0.75312    0.020
 4548.00    0.88504   0.75353    0.020
 4549.00    0.88518   0.75186    0.020
 4550.00    0.87348   0.75073    0.000
 4551.00    0.84099   0.75186    0.000
 4552.00    0.78682   0.75024    0.000
 4553.00    0.82345   0.74926    0.000
 4554.00    0.94357   0.75061    0.000
 4555.00    0.96057   0.74928    0.000
 4556.00    0.89401   0.74862    0.000
 4557.00    0.81778   0.74994    0.000
 4558.00    0.73466   0.74898    0.000
 4559.00    0.77849   0.74854    0.000
 4560.00    0.90177   0.74938    0.000
 4561.00    0.97392   0.74870    0.000
 4562.00    1.01809   0.74842    0.000
 4563.00    0.89380   0.74863    0.000
 4564.00    0.68942   0.74803    0.000
 4565.00    0.66236   0.74767    0.000
 4566.00    0.70803   0.74742    0.000
 4567.00    0.78685   0.74706    0.000
 4568.00    0.87729   0.74640    0.000
 4569.00    0.76744   0.74567    0.000
 4570.00    0.59841   0.74552    0.000
 4571.00    0.63761   0.74458    0.000
 4572.00    0.72783   0.74341    0.000
 4573.00    0.71828   0.74336    0.000
 4574.00    0.68895   0.74240    0.000
 4575.00    0.68143   0.74102    0.000
 4576.00    0.67730   0.74078    0.000
 4577.00    0.62485   0.73977    0.000
 4578.00    0.56687   0.73846    0.000
 4579.00    0.79136   0.73806    0.000
 4580.00    1.03753   0.73701    0.000
 4581.00    1.00567   0.73581    0.000
 4582.00    0.96224   0.73544    0.000
 4583.00    0.83224   0.73446    0.000
 4584.00    0.70686   0.73340    0.000
 4585.00    0.81180   0.73303    0.000
 4586.00    0.90576   0.73225    0.000
 4587.00    0.80787   0.73145    0.000
 4588.00    0.71680   0.73105    0.000
 4589.00    0.69873   0.73039    0.000
 4590.00    0.68545   0.72983    0.000
 4591.00    0.70841   0.72947    0.000
 4592.00    0.71052   0.72884    0.000
 4593.00    0.59280   0.72846    0.000
 4594.00    0.50984   0.72825    0.000
 4595.00    0.58567   0.72766    0.000
 4596.00    0.64887   0.72735    0.000
 4597.00    0.66484   0.72723    0.000
 4598.00    0.70030   0.72677    0.000
 4599.00    0.79670   0.72655    0.000
 4600.00    0.86537   0.72646    0.000
 4601.00    0.86044   0.72607    0.000
 4602.00    0.80605   0.72590    0.000
 4603.00    0.63892   0.72585    0.000
 4604.00    0.57571   0.72552    0.000
 4605.00    0.71750   0.72532    0.000
 4606.00    0.82522   0.72524    0.000
 4607.00    0.87436   0.72479    0.000
 4608.00    0.92272   0.72456    0.000
 4609.00    0.96992   0.72448    0.000
 4610.00    0.95311   0.72374    0.000
 4611.00    0.85161   0.72340    0.000
 4612.00    0.78719   0.72333    0.000
 4613.00    0.76598   0.72222    0.000
 4614.00    0.78547   0.72180    0.000
 4615.00    0.84678   0.72178    0.000
 4616.00    0.79999   0.72036    0.000
 4617.00    0.65523   0.71985    0.000
 4618.00    0.55059   0.71986    0.000
 4619.00    0.47800   0.71827    0.000
 4620.00    0.52218   0.71762    0.000
 4621.00    0.64843   0.71765    0.000
 4622.00    0.81814   0.71614    0.000
 4623.00    1.01463   0.71527    0.000
 4624.00    0.97859   0.71515    0.000
 4625.00    0.81731   0.71381    0.000
 4626.00    0.77282   0.71271    0.000
 4627.00    0.78294   0.71235    0.000
 4628.00    0.88232   0.71117    0.000
 4629.00    1.01769   0.70992    0.000
 4630.00    1.04055   0.70929    0.000
 4631.00    1.02472   0.70816    0.000
 4632.00    0.98950   0.70694    0.000
 4633.00    0.94867   0.70616    0.000
 4634.00    0.80569   0.70488    0.000
 4635.00    0.63825   0.70371    0.000
 4636.00    0.63467   0.70297    0.000
 4637.00    0.66274   0.70159    0.000
 4638.00    0.64066   0.70047    0.000
 4639.00    0.61105   0.69982    0.000
 4640.00    0.77267   0.69839    0.000
 4641.00    0.95534   0.69742    0.000
 4642.00    0.83199   0.69690    0.000
 4643.00    0.68638   0.69556    0.000
 4644.00    0.65674   0.69479    0.000
 4645.00    0.63149   0.69441    0.000
 4646.00    0.51762   0.69331    0.000
 4647.00    0.41013   0.69278    0.000
 4648.00    0.55526   0.69251    0.000
 4649.00    0.69144   0.69177    0.000
 4650.00    0.68109   0.69155    0.000
 4651.00    0.67562   0.69130    0.000
 4652.00    0.72008   0.69080    0.000
 4653.00    0.76339   0.69085    0.000
 4654.00    0.79830   0.69053    0.000
 4655.00    0.81816   0.69003    0.000
 4656.00    0.75391   0.69015    0.000
 4657.00    0.68383   0.68972    0.000
 4658.00    0.58771   0.68900    0.000
 4659.00    0.56579   0.68908    0.000
 4660.00    0.81566   0.68849    0.000
 4661.00    0.97160   0.68742    0.000
 4662.00    0.83935   0.68737    0.000
 4663.00    0.73020   0.68667    0.000
 4664.00    0.68127   0.68534    0.000
 4665.00    0.69292   0.68528    0.000
 4666.00    0.84032   0.68458    0.000
 4667.00    0.86906   0.68314    0.000
 4668.00    0.66732   0.68310    0.000
 4669.00    0.56536   0.68253    0.000
 4670.00    0.63239   0.68118    0.000
 4671.00    0.71587   0.68119    0.000
 4672.00    0.82375   0.68072    0.000
 4673.00    0.88940   0.67949    0.000
 4674.00    0.89997   0.67948    0.000
 4675.00    0.88300   0.67904    0.000
 4676.00    0.83438   0.67794    0.000
 4677.00    0.79305   0.67786    0.000
 4678.00    0.75910   0.67739    0.000
 4679.00    0.74478   0.67633    0.000
 4680.00    0.74799   0.67617    0.000
 4681.00    0.79802   0.67571    0.000
 4682.00    0.88492   0.67469    0.000
 4683.00    0.93855   0.67450    0.000
 4684.00    0.96914   0.67411    0.000
 4685.00    0.88608   0.67317    0.000
 4686.00    0.73401   0.67292    0.000
 4687.00    0.66967   0.67263    0.000
 4688.00    0.65185   0.67181    0.000
 4689.00    0.63597   0.67149    0.000
 4690.00    0.62098   0.67121    0.000
 4691.00    0.55372   0.67045    0.000
 4692.00    0.46575   0.66998    0.000
 4693.00    0.50320   0.66962    0.000
 4694.00    0.58301   0.66886    0.000
 4695.00    0.75641   0.66816    0.000
 4696.00    0.95637   0.66768    0.000
 4697.00    0.96801   0.66683    0.000
 4698.00    0.93557   0.66590    0.000
 4699.00    0.86117   0.66539    0.000
 4700.00    0.77888   0.66440    0.000
 4701.00    0.78203   0.66330    0.000
 4702.00    0.79760   0.66295    0.000
 4703.00    0.67718   0.66188    0.000
 4704.00    0.54239   0.66063    0.000
 4705.00    0.65736   0.66066    0.000
 4706.00    0.78948   0.65967    0.000
 4707.00    0.77930   0.65829    0.000
 4708.00    0.76429   0.65880    0.000
 4709.00    0.67017   0.65807    0.000
 4710.00    0.58240   0.65663    0.000
 4711.00    0.70498   0.65756    0.000
 4712.00    0.83111   0.65721    0.000
 4713.00    1.01167   0.65580    0.000
 4714.00    1.15200   0.65694    0.000
 4715.00    0.89788   0.65692    0.000
 4716.00    0.68074   0.65561    0.000
 4717.00    0.72509   0.65670    0.000
 4718.00    0.76419   0.65680    0.000
 4719.00    0.77473   0.65558    0.000
 4720.00    0.74531   0.65643    0.000
 4721.00    0.54180   0.65639    0.000
 4722.00    0.41401   0.65516    0.000
 4723.00    0.55788   0.65572    0.000
 4724.00    0.69505   0.65539    0.000
 4725.00    0.81210   0.65411    0.000
 4726.00    0.88049   0.65447    0.000
 4727.00    0.82419   0.65387    0.000
 4728.00    0.78458   0.65256    0.000
 4729.00    0.78177   0.65288    0.000
 4730.00    0.78403   0.65215    0.000
 4731.00    0.79600   0.65090    0.000
 4732.00    0.80999   0.65129    0.000
 4733.00    0.82734   0.65058    0.000
 4734.00    0.82926   0.64950    0.000
 4735.00    0.80860   0.64996    0.000
 4736.00    0.80561   0.64930    0.000
 4737.00    0.82536   0.64845    0.000
 4738.00    0.89767   0.64889    0.000
 4739.00    1.02953   0.64826    0.000
 4740.00    1.09609   0.64764    0.000
 4741.00    1.09744   0.64794    0.000
 4742.00    1.02654   0.64724    0.000
 4743.00    0.89200   0.64677    0.000
 4744.00    0.87855   0.64685    0.000
 4745.00    0.95911   0.64600    0.000
 4746.00    0.97403   0.64555    0.000
 4747.00    0.94413   0.64537    0.000
 4748.00    0.90553   0.64437    0.000
 4749.00    0.86172   0.64381    0.000
 4750.00    0.82730   0.64332    0.000
 4751.00    0.79780   0.64223    0.000
 4752.00    0.87683   0.64152    0.000
 4753.00    1.00498   0.64071    0.000
 4754.00    1.00456   0.63958    0.000
 4755.00    0.95407   0.63879    0.000
 4756.00    0.91303   0.63770    0.000
 4757.00    0.87512   0.63663    0.000
 4758.00    0.86182   0.63586    0.000
 4759.00    0.85536   0.63460    0.000
 4760.00    0.80147   0.63368    0.000
 4761.00    0.73673   0.63304    0.019
 4762.00    0.72118   0.63174    0.019
 4763.00    0.71464   0.63103    0.018
 4764.00    0.69111   0.63058    0.018
 4765.00    0.66518   0.62942    0.018
 4766.00    0.68210   0.62892    0.018
 4767.00    0.70337   0.62864    0.018
 4768.00    0.77789   0.62771    0.019
 4769.00    0.85586   0.62738    0.019
 4770.00    0.73730   0.62717    0.019
 4771.00    0.61303   0.62643    0.018
 4772.00    0.60439   0.62619    0.018
 4773.00    0.60418   0.62593    0.019
 4774.00    0.84825   0.62529    0.019
 4775.00    1.06922   0.62511    0.019
 4776.00    0.95655   0.62472    0.019
 4777.00    0.85049   0.62400    0.019
 4778.00    0.80651   0.62384    0.018
 4779.00    0.76855   0.62343    0.018
 4780.00    0.77176   0.62250    0.019
 4781.00    0.77843   0.62236    0.019
 4782.00    0.80349   0.62208    0.018
 4783.00    0.80599   0.62098    0.018
 4784.00    0.71245   0.62079    0.018
 4785.00    0.65554   0.62073    0.018
 4786.00    0.72732   0.61959    0.018
 4787.00    0.78757   0.61934    0.018
 4788.00    0.81373   0.61944    0.019
 4789.00    0.83135   0.61842    0.019
 4790.00    0.82744   0.61807    0.018
 4791.00    0.82247   0.61819    0.018
 4792.00    0.81517   0.61733    0.018
 4793.00    0.77613   0.61687    0.018
 4794.00    0.67735   0.61682    0.018
 4795.00    0.63405   0.61611    0.018
 4796.00    0.68193   0.61549    0.018
 4797.00    0.75154   0.61518    0.018
 4798.00    0.85247   0.61455    0.018
 4799.00    0.82143   0.61378    0.019
 4800.00    0.62314   0.61322    0.019
 4801.00    0.55584   0.61264    0.019
 4802.00    0.63483   0.61178    0.019
 4803.00    0.64821   0.61104    0.019
 4804.00    0.59698   0.61049    0.019
 4805.00    0.63373   0.60957    0.019
 4806.00    0.74691   0.60875    0.019
 4807.00    0.77587   0.60825    0.019
 4808.00    0.74037   0.60735    0.019
 4809.00    0.72912   0.60650    0.019
 4810.00    0.73417   0.60601    0.019
 4811.00    0.85105   0.60513    0.019
 4812.00    1.03383   0.60430    0.019
 4813.00    0.95598   0.60375    0.019
 4814.00    0.74420   0.60281    0.019
 4815.00    0.70324   0.60203    0.018
 4816.00    0.73834   0.60140    0.019
 4817.00    0.73057   0.60026    0.019
 4818.00    0.70639   0.59950    0.019
 4819.00    0.78632   0.59882    0.019
 4820.00    0.90010   0.59735    0.019
 4821.00    1.01145   0.59653    0.019
 4822.00    1.12214   0.59587    0.019
 4823.00    1.03434   0.59411    0.019
 4824.00    0.90219   0.59309    0.020
 4825.00    0.91507   0.59240    0.020
 4826.00    0.95379   0.59050    0.020
 4827.00    0.89291   0.58931    0.019
 4828.00    0.81846   0.58839    0.019
 4829.00    0.85343   0.58631    0.019
 4830.00    0.89902   0.58488    0.019
 4831.00    0.75605   0.58365    0.019
 4832.00    0.60165   0.58137    0.019
 4833.00    0.73335   0.57952    0.019
 4834.00    0.87152   0.57778    0.020
 4835.00    0.80857   0.57526    0.020
 4836.00    0.74766   0.57277    0.020
 4837.00    0.74009   0.57020    0.019
 4838.00    0.74218   0.56723    0.019
 4839.00    0.87612   0.56390    0.019
 4840.00    0.99846   0.56022    0.019
 4841.00    1.01587   0.55645    0.019
 4842.00    1.00197   0.55204    0.019
 4843.00    0.78026   0.54702    0.019
 4844.00    0.60984   0.54211    0.019
 4845.00    0.70412   0.53635    0.019
 4846.00    0.77669   0.52981    0.019
 4847.00    0.75888   0.52370    0.019
 4848.00    0.75265   0.51656    0.000
 4849.00    0.78631   0.50849    0.000
 4850.00    0.80333   0.50153    0.000
 4851.00    0.77211   0.49369    0.000
 4852.00    0.77820   0.48460    0.000
 4853.00    0.87666   0.47755    0.000
 4854.00    0.93106   0.47028    0.000
 4855.00    0.89149   0.46136    0.000
 4856.00    0.80903   0.45543    0.000
 4857.00    0.64708   0.45042    0.000
 4858.00    0.58119   0.44340    0.000
 4859.00    0.67081   0.43990    0.000
 4860.00    0.76227   0.43847    0.000
 4861.00    0.85637   0.43474    0.000
 4862.00    0.85522   0.43445    0.000
 4863.00    0.73508   0.43747    0.000
 4864.00    0.70461   0.43820    0.000
 4865.00    0.77288   0.44085    0.000
 4866.00    0.83957   0.44695    0.000
 4867.00    0.90472   0.45147    0.000
 4868.00    0.89338   0.45633    0.000
 4869.00    0.81653   0.46389    0.000
 4870.00    0.71345   0.47071    0.000
 4871.00    0.59058   0.47661    0.000
 4872.00    0.53458   0.48393    0.000
 4873.00    0.52291   0.49133    0.000
 4874.00    0.55431   0.49736    0.000
 4875.00    0.61071   0.50338    0.020
 4876.00    0.57510   0.50989    0.019
 4877.00    0.49294   0.51527    0.019
 4878.00    0.57012   0.51973    0.019
 4879.00    0.71706   0.52473    0.019
 4880.00    0.78357   0.52913    0.019
 4881.00    0.81985   0.53222    0.019
 4882.00    0.77199   0.53560    0.019
 4883.00    0.69729   0.53906    0.019
 4884.00    0.62143   0.54127    0.019
 4885.00    0.54526   0.54332    0.019
 4886.00    0.61467   0.54602    0.019
 4887.00    0.71584   0.54770    0.019
 4888.00    0.62296   0.54887    0.019
 4889.00    0.49644   0.55109    0.019
 4890.00    0.47982   0.55245    0.019
 4891.00    0.47766   0.55292    0.019
 4892.00    0.46100   0.55480    0.019
 4893.00    0.44300   0.55606    0.019
 4894.00    0.55830   0.55615    0.019
 4895.00    0.68117   0.55761    0.019
 4896.00    0.69412   0.55860    0.019
 4897.00    0.70409   0.55838    0.020
 4898.00    0.66158   0.55936    0.019
 4899.00    0.62316   0.56005    0.019
 4900.00    0.68194   0.55956    0.019
 4901.00    0.73773   0.55998    0.019
 4902.00    0.75485   0.56037    0.019
 4903.00    0.76176   0.55972    0.019
 4904.00    0.67991   0.55951    0.019
 4905.00    0.63031   0.55949    0.019
 4906.00    0.78829   0.55880    0.019
 4907.00    0.91745   0.55810    0.019
 4908.00    0.90167   0.55752    0.019
 4909.00    0.89168   0.55669    0.019
 4910.00    0.90525   0.55571    0.019
 4911.00    0.89000   0.55469    0.019
 4912.00    0.77744   0.55372    0.018
 4913.00    0.70766   0.55269    0.018
 4914.00    0.75964   0.55154    0.018
 4915.00    0.76511   0.55030    0.018
 4916.00    0.65743   0.54939    0.018
 4917.00    0.57869   0.54858    0.018
 4918.00    0.56068   0.54716    0.018
 4919.00    0.55109   0.54644    0.018
 4920.00    0.55685   0.54632    0.018
 4921.00    0.56384   0.54508    0.018
 4922.00    0.57277   0.54463    0.018
 4923.00    0.59107   0.54529    0.018
 4924.00    0.62246   0.54472    0.018
 4925.00    0.64797   0.54440    0.017
 4926.00    0.66625   0.54556    0.017
 4927.00    0.71323   0.54551    0.017
 4928.00    0.79135   0.54531    0.018
 4929.00    0.82514   0.54651    0.018
 4930.00    0.81646   0.54669    0.018
 4931.00    0.75885   0.54655    0.018
 4932.00    0.65993   0.54759    0.018
 4933.00    0.60942   0.54771    0.018
 4934.00    0.59489   0.54748    0.017
 4935.00    0.62887   0.54831    0.017
 4936.00    0.69452   0.54843    0.017
 4937.00    0.69097   0.54817    0.017
 4938.00    0.64788   0.54868    0.017
 4939.00    0.64265   0.54854    0.017
 4940.00    0.65628   0.54837    0.000
 4941.00    0.63785   0.54887    0.000
 4942.00    0.60560   0.54852    0.000
 4943.00    0.60762   0.54823    0.000
 4944.00    0.62228   0.54857    0.000
 4945.00    0.69233   0.54812    0.000
 4946.00    0.77971   0.54764    0.000
 4947.00    0.85587   0.54768    0.000
 4948.00    0.92910   0.54719    0.000
 4949.00    0.95798   0.54651    0.000
 4950.00    0.97742   0.54626    0.000
 4951.00    0.94362   0.54565    0.000
 4952.00    0.90085   0.54476    0.000
 4953.00    0.78666   0.54440    0.000
 4954.00    0.66338   0.54361    0.000
 4955.00    0.77204   0.54255    0.000
 4956.00    0.90128   0.54238    0.000
 4957.00    0.88004   0.54148    0.000
 4958.00    0.85085   0.54019    0.000
 4959.00    0.67319   0.54023    0.000
 4960.00    0.49557   0.53978    0.000
 4961.00    0.54413   0.53859    0.000
 4962.00    0.59461   0.53826    0.000
 4963.00    0.68683   0.53805    0.000
 4964.00    0.76513   0.53731    0.000
 4965.00    0.67271   0.53667    0.000
 4966.00    0.59794   0.53644    0.000
 4967.00    0.67095   0.53605    0.000
 4968.00    0.72758   0.53535    0.000
 4969.00    0.68189   0.53496    0.000
 4970.00    0.65674   0.53461    0.000
 4971.00    0.73232   0.53402    0.000
 4972.00    0.79137   0.53340    0.000
 4973.00    0.78464   0.53284    0.000
 4974.00    0.78652   0.53239    0.000
 4975.00    0.81690   0.53159    0.000
 4976.00    0.82714   0.53074    0.000
 4977.00    0.78111   0.53038    0.000
 4978.00    0.70209   0.52955    0.000
 4979.00    0.54418   0.52850    0.000
 4980.00    0.45600   0.52815    0.000
 4981.00    0.51187   0.52755    0.000
 4982.00    0.54736   0.52642    0.000
 4983.00    0.54624   0.52593    0.000
 4984.00    0.57708   0.52564    0.000
 4985.00    0.65812   0.52474    0.000
 4986.00    0.68890   0.52421    0.000
 4987.00    0.65034   0.52406    0.000
 4988.00    0.61692   0.52331    0.000
 4989.00    0.58977   0.52281    0.000
 4990.00    0.61858   0.52253    0.000
 4991.00    0.70729   0.52175    0.000
 4992.00    0.75010   0.52136    0.000
 4993.00    0.74958   0.52091    0.000
 4994.00    0.75131   0.52007    0.000
 4995.00    0.75491   0.51961    0.000
 4996.00    0.75323   0.51891    0.000
 4997.00    0.74769   0.51803    0.000
 4998.00    0.67878   0.51742    0.000
 4999.00    0.56909   0.51639    0.000
 5000.00    0.60777   0.51545    0.000
 5001.00    0.72999   0.51478    0.000
 5002.00    0.85125   0.51354    0.000
 5003.00    0.97206   0.51254    0.000
 5004.00    0.91867   0.51202    0.000
 5005.00    0.79153   0.51077    0.000
 5006.00    0.62181   0.50939    0.000
 5007.00    0.43666   0.50902    0.000
 5008.00    0.45492   0.50822    0.000
 5009.00    0.53559   0.50666    0.000
 5010.00    0.54327   0.50631    0.000
 5011.00    0.53233   0.50596    0.000
 5012.00    0.55439   0.50427    0.000
 5013.00    0.58330   0.50398    0.000
 5014.00    0.58647   0.50429    0.000
 5015.00    0.58543   0.50268    0.000
 5016.00    0.60710   0.50233    0.000
 5017.00    0.63155   0.50335    0.000
 5018.00    0.72842   0.50240    0.000
 5019.00    0.83141   0.50170    0.000
 5020.00    0.69215   0.50298    0.000
 5021.00    0.54105   0.50287    0.000
 5022.00    0.51499   0.50204    0.000
 5023.00    0.49107   0.50304    0.000
 5024.00    0.48053   0.50344    0.000
 5025.00    0.47385   0.50270    0.000
 5026.00    0.54432   0.50331    0.000
 5027.00    0.60994   0.50375    0.000
 5028.00    0.61871   0.50300    0.000
 5029.00    0.62716   0.50319    0.017
 5030.00    0.63299   0.50363    0.018
 5031.00    0.65181   0.50288    0.018
 5032.00    0.74943   0.50243    0.017
 5033.00    0.82390   0.50271    0.017
 5034.00    0.78760   0.50222    0.018
 5035.00    0.74222   0.50124    0.018
 5036.00    0.66146   0.50113    0.017
 5037.00    0.58832   0.50096    0.017
 5038.00    0.53990   0.49988    0.017
 5039.00    0.50552   0.49964    0.018
 5040.00    0.50965   0.49963    0.017
 5041.00    0.51573   0.49843    0.017
 5042.00    0.52636   0.49815    0.017
 5043.00    0.53945   0.49873    0.017
 5044.00    0.55750   0.49788    0.017
 5045.00    0.57272   0.49738    0.017
 5046.00    0.58290   0.49789    0.017
 5047.00    0.57904   0.49762    0.017
 5048.00    0.55344   0.49698    0.017
 5049.00    0.54966   0.49708    0.017
 5050.00    0.57555   0.49747    0.017
 5051.00    0.63742   0.49711    0.017
 5052.00    0.74234   0.49674    0.017
 5053.00    0.75139   0.49710    0.017
 5054.00    0.65926   0.49728    0.017
 5055.00    0.58393   0.49674    0.017
 5056.00    0.52422   0.49652    0.018
 5057.00    0.55750   0.49686    0.018
 5058.00    0.66707   0.49671    0.017
 5059.00    0.71886   0.49603    0.017
 5060.00    0.72892   0.49621    0.018
 5061.00    0.73883   0.49611    0.018
 5062.00    0.74864   0.49521    0.018
 5063.00    0.67244   0.49513    0.018
 5064.00    0.54855   0.49500    0.017
 5065.00    0.51113   0.49395    0.017
 5066.00    0.51540   0.49354    0.018
 5067.00    0.51302   0.49358    0.018
 5068.00    0.50787   0.49272    0.018
 5069.00    0.56802   0.49177    0.018
 5070.00    0.65143   0.49174    0.018
 5071.00    0.55871   0.49136    0.018
 5072.00    0.41303   0.49017    0.017
 5073.00    0.49914   0.48976    0.018
 5074.00    0.64316   0.48974    0.018
 5075.00    0.67688   0.48891    0.018
 5076.00    0.68826   0.48809    0.018
 5077.00    0.63306   0.48807    0.018
 5078.00    0.56729   0.48787    0.018
 5079.00    0.48938   0.48694    0.018
 5080.00    0.41003   0.48659    0.018
 5081.00    0.62249   0.48678    0.018
 5082.00    0.85842   0.48629    0.017
 5083.00    0.67441   0.48578    0.017
 5084.00    0.47152   0.48590    0.017
 5085.00    0.61137   0.48575    0.017
 5086.00    0.75068   0.48526    0.018
 5087.00    0.66092   0.48513    0.018
 5088.00    0.57877   0.48507    0.018
 5089.00    0.63807   0.48471    0.017
 5090.00    0.68436   0.48438    0.017
 5091.00    0.58582   0.48418    0.017
 5092.00    0.50412   0.48385    0.017
 5093.00    0.55368   0.48342    0.017
 5094.00    0.60468   0.48304    0.017
 5095.00    0.66415   0.48268    0.018
 5096.00    0.70649   0.48217    0.018
 5097.00    0.66885   0.48158    0.018
 5098.00    0.66130   0.48122    0.018
 5099.00    0.76847   0.48082    0.018
 5100.00    0.85626   0.48013    0.018
 5101.00    0.88245   0.47974    0.018
 5102.00    0.81825   0.47968    0.018
 5103.00    0.51032   0.47907    0.017
 5104.00    0.33346   0.47841    0.017
 5105.00    0.45963   0.47855    0.017
 5106.00    0.58371   0.47828    0.017
 5107.00    0.70357   0.47742    0.018
 5108.00    0.74985   0.47751    0.017
 5109.00    0.66790   0.47760    0.017
 5110.00    0.60125   0.47672    0.017
 5111.00    0.55794   0.47657    0.017
 5112.00    0.59279   0.47688    0.018
 5113.00    0.73237   0.47614    0.018
 5114.00    0.77093   0.47566    0.018
 5115.00    0.69030   0.47586    0.018
 5116.00    0.73236   0.47530    0.018
 5117.00    0.90209   0.47456    0.018
 5118.00    0.93888   0.47450    0.017
 5119.00    0.85367   0.47410    0.017
 5120.00    0.72935   0.47311    0.017
 5121.00    0.57341   0.47270    0.017
 5122.00    0.55152   0.47253    0.017
 5123.00    0.62506   0.47148    0.017
 5124.00    0.63668   0.47076    0.017
 5125.00    0.60963   0.47078    0.017
 5126.00    0.54836   0.46987    0.017
 5127.00    0.46842   0.46900    0.017
 5128.00    0.49013   0.46906    0.017
 5129.00    0.56007   0.46830    0.017
 5130.00    0.55510   0.46735    0.017
 5131.00    0.51949   0.46749    0.017
 5132.00    0.60041   0.46704    0.017
 5133.00    0.72208   0.46588    0.017
 5134.00    0.78547   0.46582    0.017
 5135.00    0.83168   0.46586    0.017
 5136.00    0.77841   0.46465    0.017
 5137.00    0.70084   0.46431    0.017
 5138.00    0.64508   0.46453    0.017
 5139.00    0.59362   0.46328    0.017
 5140.00    0.62219   0.46279    0.017
 5141.00    0.66311   0.46329    0.017
 5142.00    0.56905   0.46221    0.017
 5143.00    0.45962   0.46135    0.017
 5144.00    0.48441   0.46181    0.016
 5145.00    0.51944   0.46124    0.016
 5146.00    0.54663   0.46034    0.017
 5147.00    0.57349   0.46046    0.017
 5148.00    0.62947   0.46021    0.017
 5149.00    0.68418   0.45943    0.017
 5150.00    0.67552   0.45931    0.017
 5151.00    0.66829   0.45916    0.017
 5152.00    0.68589   0.45836    0.017
 5153.00    0.70522   0.45795    0.018
 5154.00    0.74293   0.45778    0.018
 5155.00    0.77460   0.45697    0.017
 5156.00    0.76083   0.45618    0.018
 5157.00    0.74709   0.45583    0.018
 5158.00    0.73354   0.45501    0.018
 5159.00    0.69914   0.45366    0.018
 5160.00    0.56982   0.45300    0.017
 5161.00    0.49368   0.45231    0.017
 5162.00    0.61600   0.45057    0.018
 5163.00    0.70994   0.44939    0.018
 5164.00    0.71534   0.44894    0.018
 5165.00    0.70759   0.44747    0.018
 5166.00    0.66498   0.44578    0.018
 5167.00    0.60134   0.44520    0.017
 5168.00    0.48989   0.44434    0.018
 5169.00    0.40786   0.44274    0.018
 5170.00    0.38377   0.44230    0.018
 5171.00    0.43934   0.44240    0.018
 5172.00    0.63159   0.44096    0.018
 5173.00    0.68407   0.43987    0.018
 5174.00    0.52649   0.44059    0.018
 5175.00    0.55009   0.44059    0.018
 5176.00    0.81302   0.43949    0.018
 5177.00    0.86313   0.43969    0.018
 5178.00    0.66567   0.44028    0.017
 5179.00    0.57160   0.43970    0.017
 5180.00    0.58359   0.43952    0.017
 5181.00    0.56014   0.44021    0.017
 5182.00    0.50461   0.44015    0.017
 5183.00    0.48531   0.43957    0.017
 5184.00    0.49491   0.43996    0.016
 5185.00    0.49105   0.44047    0.016
 5186.00    0.47774   0.44045    0.017
 5187.00    0.47083   0.44073    0.017
 5188.00    0.46786   0.44073    0.016
 5189.00    0.53889   0.44069    0.017
 5190.00    0.64971   0.44125    0.000
 5191.00    0.72200   0.44111    0.000
 5192.00    0.77631   0.44061    0.000
 5193.00    0.71013   0.44112    0.000
 5194.00    0.59550   0.44130    0.000
 5195.00    0.64469   0.44060    0.000
 5196.00    0.75012   0.44080    0.000
 5197.00    0.75311   0.44125    0.000
 5198.00    0.72651   0.44042    0.000
 5199.00    0.62996   0.44011    0.000
 5200.00    0.51671   0.44071    0.000
 5201.00    0.45437   0.44018    0.000
 5202.00    0.40183   0.43927    0.000
 5203.00    0.43158   0.43972    0.000
 5204.00    0.47364   0.43976    0.000
 5205.00    0.55272   0.43867    0.000
 5206.00    0.63584   0.43860    0.000
 5207.00    0.58288   0.43915    0.000
 5208.00    0.52009   0.43857    0.000
 5209.00    0.42343   0.43811    0.000
 5210.00    0.32550   0.43864    0.000
 5211.00    0.44205   0.43875    0.017
 5212.00    0.55705   0.43822    0.017
 5213.00    0.57928   0.43829    0.017
 5214.00    0.60405   0.43875    0.017
 5215.00    0.67017   0.43845    0.017
 5216.00    0.72247   0.43789    0.016
 5217.00    0.63406   0.43810    0.017
 5218.00    0.58440   0.43848    0.017
 5219.00    0.81669   0.43804    0.017
 5220.00    0.98151   0.43759    0.018
 5221.00    0.77042   0.43806    0.017
 5222.00    0.60286   0.43793    0.017
 5223.00    0.62893   0.43699    0.017
 5224.00    0.64436   0.43697    0.018
 5225.00    0.62095   0.43730    0.018
 5226.00    0.58994   0.43651    0.018
 5227.00    0.53564   0.43582    0.018
 5228.00    0.54626   0.43657    0.018
 5229.00    0.72579   0.43663    0.018
 5230.00    0.80726   0.43565    0.018
 5231.00    0.66943   0.43610    0.018
 5232.00    0.58361   0.43656    0.017
 5233.00    0.59860   0.43567    0.017
 5234.00    0.60449   0.43551    0.018
 5235.00    0.59499   0.43632    0.017
 5236.00    0.62401   0.43609    0.017
 5237.00    0.71008   0.43535    0.018
 5238.00    0.74697   0.43603    0.017
 5239.00    0.71986   0.43636    0.017
 5240.00    0.66608   0.43534    0.017
 5241.00    0.58173   0.43543    0.017
 5242.00    0.56882   0.43599    0.017
 5243.00    0.62819   0.43508    0.017
 5244.00    0.60893   0.43442    0.017
 5245.00    0.51951   0.43495    0.017
 5246.00    0.56823   0.43457    0.017
 5247.00    0.72556   0.43330    0.017
 5248.00    0.75810   0.43334    0.017
 5249.00    0.70436   0.43346    0.017
 5250.00    0.69280   0.43218    0.017
 5251.00    0.70682   0.43153    0.017
 5252.00    0.70138   0.43155    0.017
 5253.00    0.68562   0.43069    0.017
 5254.00    0.74713   0.42973    0.017
 5255.00    0.84411   0.42924    0.017
 5256.00    0.83021   0.42849    0.017
 5257.00    0.77247   0.42770    0.017
 5258.00    0.77441   0.42722    0.017
 5259.00    0.79645   0.42615    0.017
 5260.00    0.78999   0.42511    0.017
 5261.00    0.77545   0.42488    0.017
 5262.00    0.68949   0.42391    0.017
 5263.00    0.58687   0.42260    0.017
 5264.00    0.59664   0.42263    0.017
 5265.00    0.62749   0.42211    0.017
 5266.00    0.60046   0.42055    0.017
 5267.00    0.56505   0.42075    0.017
 5268.00    0.64203   0.42147    0.017
 5269.00    0.73083   0.42002    0.018
 5270.00    0.82388   0.41929    0.018
 5271.00    0.91721   0.42064    0.018
 5272.00    0.71935   0.42068    0.018
 5273.00    0.51173   0.41972    0.017
 5274.00    0.62880   0.42065    0.017
 5275.00    0.74026   0.42149    0.017
 5276.00    0.66018   0.42085    0.017
 5277.00    0.58205   0.42140    0.017
 5278.00    0.53340   0.42278    0.017
 5279.00    0.48937   0.42279    0.017
 5280.00    0.49036   0.42257    0.017
 5281.00    0.51033   0.42342    0.016
 5282.00    0.66403   0.42414    0.017
 5283.00    0.76471   0.42398    0.017
 5284.00    0.57795   0.42410    0.017
 5285.00    0.47076   0.42476    0.017
 5286.00    0.70934   0.42498    0.017
 5287.00    0.87886   0.42481    0.018
 5288.00    0.80124   0.42485    0.017
 5289.00    0.75391   0.42508    0.017
 5290.00    0.79757   0.42489    0.017
 5291.00    0.81247   0.42450    0.018
 5292.00    0.75382   0.42453    0.018
 5293.00    0.72482   0.42448    0.018
 5294.00    0.76103   0.42402    0.018
 5295.00    0.74843   0.42377    0.018
 5296.00    0.64268   0.42379    0.018
 5297.00    0.63282   0.42331    0.018
 5298.00    0.78260   0.42275    0.018
 5299.00    0.82886   0.42278    0.018
 5300.00    0.72403   0.42273    0.018
 5301.00    0.70053   0.42223    0.018
 5302.00    0.78142   0.42196    0.018
 5303.00    0.74482   0.42193    0.018
 5304.00    0.57537   0.42170    0.018
 5305.00    0.60748   0.42144    0.018
 5306.00    0.84058   0.42114    0.018
 5307.00    0.89847   0.42077    0.018
 5308.00    0.80224   0.42055    0.018
 5309.00    0.73476   0.42026    0.017
 5310.00    0.68956   0.41980    0.017
 5311.00    0.59441   0.41948    0.017
 5312.00    0.46522   0.41917    0.017
 5313.00    0.57448   0.41840    0.017
 5314.00    0.82613   0.41781    0.017
 5315.00    0.84982   0.41763    0.017
 5316.00    0.75476   0.41683    0.017
 5317.00    0.76039   0.41575    0.017
 5318.00    0.81151   0.41539    0.016
 5319.00    0.78964   0.41514    0.016
 5320.00    0.73941   0.41411    0.016
 5321.00    0.74261   0.41319    0.016
 5322.00    0.76347   0.41301    0.016
 5323.00    0.71707   0.41246    0.016
 5324.00    0.65202   0.41138    0.016
 5325.00    0.65386   0.41099    0.016
 5326.00    0.67097   0.41100    0.016
 5327.00    0.69652   0.41034    0.016
 5328.00    0.72363   0.40939    0.016
 5329.00    0.64462   0.40934    0.016
 5330.00    0.55074   0.40945    0.016
 5331.00    0.52068   0.40905    0.016
 5332.00    0.49706   0.40880    0.017
 5333.00    0.60668   0.40873    0.016
 5334.00    0.72483   0.40869    0.016
 5335.00    0.70765   0.40856    0.016
 5336.00    0.68654   0.40850    0.016
 5337.00    0.71282   0.40861    0.016
 5338.00    0.73744   0.40862    0.016
 5339.00    0.71455   0.40857    0.016
 5340.00    0.69732   0.40851    0.016
 5341.00    0.76105   0.40871    0.016
 5342.00    0.81696   0.40887    0.016
 5343.00    0.79953   0.40883    0.016
 5344.00    0.76466   0.40915    0.016
 5345.00    0.61079   0.40916    0.016
 5346.00    0.48787   0.40900    0.017
 5347.00    0.52839   0.40933    0.017
 5348.00    0.57247   0.40959    0.017
 5349.00    0.63165   0.40938    0.017
 5350.00    0.68782   0.40940    0.017
 5351.00    0.73340   0.40983    0.017
 5352.00    0.79215   0.40973    0.017
 5353.00    0.88970   0.40937    0.017
 5354.00    0.90836   0.40957    0.017
 5355.00    0.72881   0.40950    0.017
 5356.00    0.60653   0.40904    0.017
 5357.00    0.60816   0.40885    0.017
 5358.00    0.59859   0.40873    0.018
 5359.00    0.56795   0.40830    0.017
 5360.00    0.57784   0.40781    0.017
 5361.00    0.65418   0.40746    0.017
 5362.00    0.70290   0.40694    0.017
 5363.00    0.71190   0.40637    0.017
 5364.00    0.72864   0.40590    0.017
 5365.00    0.75518   0.40548    0.017
 5366.00    0.74608   0.40501    0.017
 5367.00    0.69725   0.40453    0.017
 5368.00    0.63986   0.40419   -2.000
 5369.00    0.57406   0.40383   -2.000
 5370.00    0.55737   0.40328   -2.000
 5371.00    0.58329   0.40287   -2.000
 5372.00    0.71309   0.40274   -2.000
 5373.00    0.92227   0.40255   -2.000
 5374.00    1.03144   0.40228   -2.000
 5375.00    1.07348   0.40226   -2.000
 5376.00    1.01528   0.40197   -2.000
 5377.00    0.89812   0.40152   -2.000
 5378.00    0.81406   0.40154   -2.000
 5379.00    0.74696   0.40140   -2.000
 5380.00    0.71839   0.40084   -2.000
 5381.00    0.70694   0.40070   -2.000
 5382.00    0.69610   0.40067   -2.000
 5383.00    0.68550   0.39992    0.016
 5384.00    0.71616   0.39945    0.016
 5385.00    0.76020   0.39958    0.016
 5386.00    0.73615   0.39891    0.016
 5387.00    0.69361   0.39790    0.016
 5388.00    0.69288   0.39788    0.015
 5389.00    0.70146   0.39751    0.015
 5390.00    0.66772   0.39616    0.015
 5391.00    0.62646   0.39574    0.015
 5392.00    0.65729   0.39586    0.016
 5393.00    0.69790   0.39477    0.016
 5394.00    0.71431   0.39366    0.016
 5395.00    0.72838   0.39382    0.016
 5396.00    0.74715   0.39329    0.016
 5397.00    0.76620   0.39175    0.016
 5398.00    0.74261   0.39151    0.016
 5399.00    0.71831   0.39175    0.016
 5400.00    0.75966   0.39075    0.016
 5401.00    0.79804   0.38994    0.016
 5402.00    0.75990   0.39020    0.016
 5403.00    0.72098   0.38982    0.016
 5404.00    0.67147   0.38885    0.016
 5405.00    0.62999   0.38879    0.017
 5406.00    0.66070   0.38901    0.017
 5407.00    0.67921   0.38859    0.017
 5408.00    0.61704   0.38842    0.017
 5409.00    0.57042   0.38869    0.017
 5410.00    0.60378   0.38849    0.016
 5411.00    0.63421   0.38822    0.016
 5412.00    0.65252   0.38853    0.017
 5413.00    0.68341   0.38875    0.017
 5414.00    0.75749   0.38855    0.017
 5415.00    0.82813   0.38859    0.017
 5416.00    0.88884   0.38889    0.016
 5417.00    0.88020   0.38882    0.016
 5418.00    0.70031   0.38863    0.016
 5419.00    0.56175   0.38874    0.016
 5420.00    0.51120   0.38883    0.016
 5421.00    0.52409   0.38859    0.016
 5422.00    0.65432   0.38826    0.016
 5423.00    0.71732   0.38822    0.016
 5424.00    0.67168   0.38819    0.016
 5425.00    0.64135   0.38776    0.016
 5426.00    0.63273   0.38740    0.016
 5427.00    0.64941   0.38751    0.016
 5428.00    0.69766   0.38735    0.016
 5429.00    0.70867   0.38649    0.016
 5430.00    0.67874   0.38624    0.015
 5431.00    0.66237   0.38666    0.015
 5432.00    0.65914   0.38622    0.015
 5433.00    0.66355   0.38553    0.015
 5434.00    0.67449   0.38571    0.015
 5435.00    0.70318   0.38579    0.015
 5436.00    0.74521   0.38504    0.015
 5437.00    0.76047   0.38480    0.015
 5438.00    0.75800   0.38520    0.015
 5439.00    0.70374   0.38479    0.015
 5440.00    0.61946   0.38409    0.015
 5441.00    0.60942   0.38418    0.015
 5442.00    0.63686   0.38414    0.015
 5443.00    0.66632   0.38354    0.015
 5444.00    0.69666   0.38323    0.015
 5445.00    0.61632   0.38313    0.015
 5446.00    0.49447   0.38256    0.015
 5447.00    0.48918   0.38192    0.015
 5448.00    0.52097   0.38172    0.015
 5449.00    0.54979   0.38137    0.015
 5450.00    0.57781   0.38098    0.015
 5451.00    0.60940   0.38073    0.015
 5452.00    0.64178   0.38018    0.015
 5453.00    0.67286   0.37966    0.015
 5454.00    0.70373   0.37946    0.015
 5455.00    0.74565   0.37897    0.016
 5456.00    0.78903   0.37829    0.016
 5457.00    0.73985   0.37837    0.016
 5458.00    0.68212   0.37851    0.016
 5459.00    0.62554   0.37763    0.016
 5460.00    0.56902   0.37713    0.016
 5461.00    0.66283   0.37751    0.016
 5462.00    0.75988   0.37701    0.016
 5463.00    0.84552   0.37591    0.016
 5464.00    0.92311   0.37625    0.016
 5465.00    0.81191   0.37672    0.016
 5466.00    0.70143   0.37551    0.016
 5467.00    0.60037   0.37488    0.016
 5468.00    0.51805   0.37564    0.016
 5469.00    0.59799   0.37511    0.016
 5470.00    0.66232   0.37371    0.016
 5471.00    0.62660   0.37417    0.016
 5472.00    0.59310   0.37474    0.015
 5473.00    0.57074   0.37340    0.016
 5474.00    0.54999   0.37275    0.016
 5475.00    0.53577   0.37365    0.015
 5476.00    0.53024   0.37316    0.015
 5477.00    0.55397   0.37189    0.015
 5478.00    0.58582   0.37252   -2.000
 5479.00    0.64073   0.37307   -2.000
 5480.00    0.65965   0.37194   -2.000
 5481.00    0.59120   0.37151   -2.000
 5482.00    0.54289   0.37235   -2.000
 5483.00    0.53675   0.37194   -2.000
 5484.00    0.58446   0.37112   -2.000
 5485.00    0.73023   0.37187   -2.000
 5486.00    1.00946   0.37208   -2.000
 5487.00    1.50115   0.37109   -2.000
 5488.00    1.78585   0.37102   -2.000
 5489.00    1.78138   0.37163   -2.000
 5490.00    1.71822   0.37100   -2.000
 5491.00    1.58290   0.37041   -2.000
 5492.00    1.32752   0.37108   -2.000
 5493.00    0.94201   0.37089   -2.000
 5494.00    0.69124   0.36987   -2.000
 5495.00    0.56926   0.36987   -2.000
 5496.00    0.53381   0.37017   -2.000
 5497.00    0.57128   0.36944   -2.000
 5498.00    0.66247   0.36885   -2.000
 5499.00    0.79351   0.36910   -2.000
 5500.00    0.84247   0.36879   -2.000
 5501.00    0.83792   0.36808   -2.000
 5502.00    0.78156   0.36784    0.015
 5503.00    0.69564   0.36778    0.015
 5504.00    0.68547   0.36744    0.015
 5505.00    0.71294   0.36703    0.015
 5506.00    0.76189   0.36672    0.015
 5507.00    0.82006   0.36651    0.015
 5508.00    0.78083   0.36647    0.015
 5509.00    0.70571   0.36616    0.016
 5510.00    0.65024   0.36580    0.015
 5511.00    0.60090   0.36592    0.015
 5512.00    0.66723   0.36590    0.015
 5513.00    0.76367   0.36536    0.015
 5514.00    0.72503   0.36513    0.015
 5515.00    0.65772   0.36550    0.015
 5516.00    0.73507   0.36540    0.015
 5517.00    0.83672   0.36488    0.015
 5518.00    0.74083   0.36499    0.015
 5519.00    0.61993   0.36523    0.015
 5520.00    0.62926   0.36474    0.015
 5521.00    0.65007   0.36422    0.015
 5522.00    0.67526   0.36453    0.015
 5523.00    0.70068   0.36468    0.015
 5524.00    0.75640   0.36406    0.015
 5525.00    0.81061   0.36382    0.015
 5526.00    0.70782   0.36414    0.015
 5527.00    0.61068   0.36382    0.015
 5528.00    0.63507   0.36302    0.014
 5529.00    0.66551   0.36317    0.014
 5530.00    0.76972   0.36359    0.014
 5531.00    0.85714   0.36305    0.015
 5532.00    0.80470   0.36260    0.014
 5533.00    0.75253   0.36297    0.014
 5534.00    0.70207   0.36295    0.014
 5535.00    0.65999   0.36222    0.014
 5536.00    0.65883   0.36223    0.014
 5537.00    0.65689   0.36277    0.014
 5538.00    0.65186   0.36245    0.014
 5539.00    0.64258   0.36197    0.014
 5540.00    0.61927   0.36226    0.014
 5541.00    0.61948   0.36245    0.014
 5542.00    0.68534   0.36194    0.014
 5543.00    0.73576   0.36172    0.015
 5544.00    0.74932   0.36204    0.015
 5545.00    0.76095   0.36192    0.015
 5546.00    0.76862   0.36142    0.015
 5547.00    0.76471   0.36136    0.015
 5548.00    0.74005   0.36148    0.015
 5549.00    0.75938   0.36115    0.014
 5550.00    0.84773   0.36071    0.015
 5551.00    0.88507   0.36062    0.015
 5552.00    0.85217   0.36048    0.015
 5553.00    0.81954   0.36005    0.015
 5554.00    0.78725   0.35964    0.015
 5555.00    0.76533   0.35942    0.015
 5556.00    0.75451   0.35917    0.015
 5557.00    0.72008   0.35879    0.015
 5558.00    0.66341   0.35831    0.015
 5559.00    0.66523   0.35794    0.015
 5560.00    0.71565   0.35775    0.015
 5561.00    0.75354   0.35735    0.015
 5562.00    0.78225   0.35672    0.015
 5563.00    0.80744   0.35646    0.015
 5564.00    0.83037   0.35644    0.015
 5565.00    0.80504   0.35585    0.015
 5566.00    0.75260   0.35520    0.015
 5567.00    0.75852   0.35529    0.015
 5568.00    0.79297   0.35514    0.015
 5569.00    0.83291   0.35433    0.015
 5570.00    0.87516   0.35406    0.014
 5571.00    0.82088   0.35430    0.014
 5572.00    0.73167   0.35375    0.014
 5573.00    0.65688   0.35304    0.014
 5574.00    0.58650   0.35315    0.014
 5575.00    0.56502   0.35303    0.014
 5576.00    0.55598   0.35231    0.014
 5577.00    0.58812   0.35204    0.014
 5578.00    0.62880   0.35206    0.014
 5579.00    0.62483   0.35149    0.014
 5580.00    0.61358   0.35089    0.014
 5581.00    0.70894   0.35079    0.014
 5582.00    0.81732   0.35046    0.014
 5583.00    0.80982   0.34988    0.014
 5584.00    0.79258   0.34958    0.014
 5585.00    0.67076   0.34942    0.014
 5586.00    0.54389   0.34890    0.014
 5587.00    0.52227   0.34829    0.014
 5588.00    0.50443   0.34810    0.014
 5589.00    0.61765   0.34798    0.014
 5590.00    0.72641   0.34761    0.014
 5591.00    0.74651   0.34719    0.014
 5592.00    0.76765   0.34715    0.015
 5593.00    0.80088   0.34707    0.015
 5594.00    0.82662   0.34655    0.015
 5595.00    0.79215   0.34635    0.015
 5596.00    0.76718   0.34665    0.015
 5597.00    0.79962   0.34659    0.015
 5598.00    0.82849   0.34609    0.016
 5599.00    0.84031   0.34614    0.016
 5600.00    0.82164   0.34644    0.016
 5601.00    0.68452   0.34617    0.015
 5602.00    0.59110   0.34591    0.015
 5603.00    0.63908   0.34614    0.015
 5604.00    0.66459   0.34624    0.015
 5605.00    0.62856   0.34591    0.015
 5606.00    0.61862   0.34594    0.015
 5607.00    0.66989   0.34606    0.014
 5608.00    0.71288   0.34573    0.014
 5609.00    0.73907   0.34545    0.014
 5610.00    0.74065   0.34556    0.014
 5611.00    0.69875   0.34543    0.014
 5612.00    0.68039   0.34504    0.014
 5613.00    0.69842   0.34499    0.014
 5614.00    0.71739   0.34492    0.014
 5615.00    0.73762   0.34435    0.014
 5616.00    0.73692   0.34400    0.014
 5617.00    0.71118   0.34409    0.014
 5618.00    0.69146   0.34391    0.014
 5619.00    0.67806   0.34345    0.014
 5620.00    0.65450   0.34321    0.014
 5621.00    0.62151   0.34316    0.013
 5622.00    0.60219   0.34290    0.013
 5623.00    0.59408   0.34257    0.013
 5624.00    0.62153   0.34237    0.013
 5625.00    0.67462   0.34222    0.013
 5626.00    0.71947   0.34203    0.013
 5627.00    0.75912   0.34180    0.014
 5628.00    0.76859   0.34164    0.014
 5629.00    0.76136   0.34152    0.013
 5630.00    0.70630   0.34122    0.014
 5631.00    0.62823   0.34102    0.014
 5632.00    0.59946   0.34087    0.014
 5633.00    0.59117   0.34063    0.014
 5634.00    0.63242   0.34035    0.014
 5635.00    0.69126   0.34025    0.014
 5636.00    0.72941   0.34002    0.014
 5637.00    0.76136   0.33959    0.014
 5638.00    0.73714   0.33950    0.014
 5639.00    0.69892   0.33940    0.014
 5640.00    0.70207   0.33900    0.014
 5641.00    0.71356   0.33859    0.014
 5642.00    0.67244   0.33870    0.014
 5643.00    0.62299   0.33845    0.014
 5644.00    0.59668   0.33789    0.014
 5645.00    0.57310   0.33785    0.014
 5646.00    0.67373   0.33791    0.014
 5647.00    0.78429   0.33734    0.014
 5648.00    0.82226   0.33685    0.014
 5649.00    0.85699   0.33715    0.014
 5650.00    0.82848   0.33695    0.014
 5651.00    0.79776   0.33610    0.014
 5652.00    0.69419   0.33599    0.014
 5653.00    0.59797   0.33639    0.014
 5654.00    0.63727   0.33579    0.014
 5655.00    0.67274   0.33497    0.014
 5656.00    0.66586   0.33531    0.014
 5657.00    0.65015   0.33548    0.014
 5658.00    0.56599   0.33451    0.013
 5659.00    0.49342   0.33406    0.013
 5660.00    0.48891   0.33469    0.013
 5661.00    0.49520   0.33455    0.013
 5662.00    0.55165   0.33374    0.013
 5663.00    0.59426   0.33369    0.013
 5664.00    0.58421   0.33408    0.013
 5665.00    0.56596   0.33379    0.013
 5666.00    0.52165   0.33343    0.013
 5667.00    0.49832   0.33358    0.013
 5668.00    0.53143   0.33358    0.013
 5669.00    0.57149   0.33339    0.013
 5670.00    0.62760   0.33336    0.013
 5671.00    0.66254   0.33333    0.014
 5672.00    0.65523   0.33319    0.013
 5673.00    0.67700   0.33331    0.014
 5674.00    0.74936   0.33330    0.014
 5675.00    0.78274   0.33289    0.014
 5676.00    0.75675   0.33275    0.015
 5677.00    0.72993   0.33303    0.015
 5678.00    0.70197   0.33284    0.014
 5679.00    0.68825   0.33229    0.014
 5680.00    0.69130   0.33231    0.014
 5681.00    0.69213   0.33251    0.014
 5682.00    0.69065   0.33206    0.014
 5683.00    0.72541   0.33155    0.014
 5684.00    0.79338   0.33170    0.014
 5685.00    0.80460   0.33176    0.014
 5686.00    0.76998   0.33124    0.014
 5687.00    0.72233   0.33076    0.014
 5688.00    0.66544   0.33085    0.014
 5689.00    0.64077   0.33078    0.014
 5690.00    0.63620   0.33029    0.014
 5691.00    0.63769   0.32989    0.014
 5692.00    0.64248   0.32995    0.014
 5693.00    0.65776   0.32980    0.014
 5694.00    0.67801   0.32918    0.014
 5695.00    0.65147   0.32880    0.014
 5696.00    0.60581   0.32885    0.014
 5697.00    0.63456   0.32859    0.014
 5698.00    0.68927   0.32786    0.014
 5699.00    0.70328   0.32767    0.014
 5700.00    0.70531   0.32770    0.014
 5701.00    0.70990   0.32717    0.014
 5702.00    0.71511   0.32659    0.013
 5703.00    0.75802   0.32662    0.013
 5704.00    0.80836   0.32659    0.013
 5705.00    0.80785   0.32601    0.013
 5706.00    0.79952   0.32573    0.013
 5707.00    0.74258   0.32585    0.013
 5708.00    0.68014   0.32564    0.013
 5709.00    0.67786   0.32522    0.013
 5710.00    0.68014   0.32534    0.013
 5711.00    0.67714   0.32551    0.013
 5712.00    0.67393   0.32520    0.013
 5713.00    0.68953   0.32513    0.013
 5714.00    0.70447   0.32543    0.013
 5715.00    0.68640   0.32549    0.013
 5716.00    0.67242   0.32524    0.013
 5717.00    0.72857   0.32533    0.014
 5718.00    0.77661   0.32563    0.014
 5719.00    0.73892   0.32559    0.014
 5720.00    0.70686   0.32537    0.014
 5721.00    0.71696   0.32553    0.014
 5722.00    0.72268   0.32580    0.014
 5723.00    0.70343   0.32559    0.014
 5724.00    0.67463   0.32539    0.014
 5725.00    0.60248   0.32560    0.014
 5726.00    0.56226   0.32564    0.014
 5727.00    0.64084   0.32524    0.014
 5728.00    0.69916   0.32508    0.014
 5729.00    0.69440   0.32532    0.014
 5730.00    0.68021   0.32523    0.014
 5731.00    0.64107   0.32478    0.014
 5732.00    0.62440   0.32459    0.014
 5733.00    0.65871   0.32472    0.014
 5734.00    0.69133   0.32456    0.014
 5735.00    0.72061   0.32424    0.014
 5736.00    0.75300   0.32407    0.013
 5737.00    0.79070   0.32395    0.013
 5738.00    0.80367   0.32376    0.013
 5739.00    0.77953   0.32350    0.013
 5740.00    0.75633   0.32333    0.000
 5741.00    0.73436   0.32320    0.000
 5742.00    0.71621   0.32305    0.000
 5743.00    0.70250   0.32266    0.000
 5744.00    0.68492   0.32242    0.000
 5745.00    0.66338   0.32241    0.000
 5746.00    0.68055   0.32232    0.000
 5747.00    0.73267   0.32189    0.000
 5748.00    0.73388   0.32151    0.000
 5749.00    0.69454   0.32153    0.000
 5750.00    0.66421   0.32140    0.000
 5751.00    0.64018   0.32102    0.000
 5752.00    0.63345   0.32077    0.000
 5753.00    0.63735   0.32075    0.000
 5754.00    0.66007   0.32045    0.000
 5755.00    0.69290   0.32010    0.000
 5756.00    0.70537   0.32008    0.000
 5757.00    0.70837   0.32006    0.000
 5758.00    0.74415   0.31972    0.000
 5759.00    0.79309   0.31934    0.000
 5760.00    0.82306   0.31935    0.000
 5761.00    0.84652   0.31927    0.000
 5762.00    0.81016   0.31889    0.000
 5763.00    0.75654   0.31859    0.000
 5764.00    0.73062   0.31864    0.000
 5765.00    0.71129   0.31848    0.000
 5766.00    0.72058   0.31804    0.000
 5767.00    0.73537   0.31786    0.000
 5768.00    0.74058   0.31783    0.000
 5769.00    0.74438   0.31751    0.000
 5770.00    0.72230   0.31698    0.000
 5771.00    0.69740   0.31684    0.000
 5772.00    0.70197   0.31675    0.000
 5773.00    0.70866   0.31628    0.000
 5774.00    0.72370   0.31577    0.000
 5775.00    0.73905   0.31565    0.000
 5776.00    0.75052   0.31551    0.000
 5777.00    0.76074   0.31495    0.000
 5778.00    0.72696   0.31461    0.000
 5779.00    0.69320   0.31454    0.000
 5780.00    0.65976   0.31424    0.000
 5781.00    0.63236   0.31366    0.000
 5782.00    0.66612   0.31350    0.000
 5783.00    0.69763   0.31357    0.000
 5784.00    0.71278   0.31332    0.000
 5785.00    0.71621   0.31295    0.000
 5786.00    0.65458   0.31285    0.000
 5787.00    0.61526   0.31292    0.000
 5788.00    0.67486   0.31284    0.000
 5789.00    0.72086   0.31279    0.000
 5790.00    0.71725   0.31271    0.000
 5791.00    0.71756   0.31270   -2.000
 5792.00    0.72983   0.31278   -2.000
 5793.00    0.75945   0.31276   -2.000
 5794.00    0.83410   0.31269   -2.000
 5795.00    0.89473   0.31287   -2.000
 5796.00    0.92405   0.31305   -2.000
 5797.00    0.91513   0.31280   -2.000
 5798.00    0.83222   0.31266   -2.000
 5799.00    0.77302   0.31299   -2.000
 5800.00    0.75380   0.31313   -2.000
 5801.00    0.74818   0.31275   -2.000
 5802.00    0.76266   0.31268   -2.000
 5803.00    0.75418   0.31301   -2.000
 5804.00    0.71587   0.31283   -2.000
 5805.00    0.69460   0.31242   -2.000
 5806.00    0.69284   0.31252   -2.000
 5807.00    0.69478   0.31276   -2.000
 5808.00    0.70047   0.31238   -2.000
 5809.00    0.71160   0.31202   -2.000
 5810.00    0.72759   0.31224   -2.000
 5811.00    0.73290   0.31228    0.000
 5812.00    0.72984   0.31182    0.000
 5813.00    0.72031   0.31163    0.000
 5814.00    0.70631   0.31190    0.000
 5815.00    0.71708   0.31170    0.000
 5816.00    0.74284   0.31125    0.000
 5817.00    0.75233   0.31127    0.000
 5818.00    0.75322   0.31150    0.000
 5819.00    0.74234   0.31119    0.000
 5820.00    0.72607   0.31084    0.000
 5821.00    0.73935   0.31102    0.000
 5822.00    0.76429   0.31106    0.000
 5823.00    0.78307   0.31064    0.000
 5824.00    0.79978   0.31043    0.000
 5825.00    0.78121   0.31068    0.000
 5826.00    0.75268   0.31055    0.000
 5827.00    0.74469   0.31008    0.000
 5828.00    0.74148   0.31002    0.000
 5829.00    0.74154   0.31020    0.000
 5830.00    0.74221   0.30989    0.000
 5831.00    0.72794   0.30944    0.000
 5832.00    0.71152   0.30950    0.000
 5833.00    0.73018   0.30950    0.000
 5834.00    0.75251   0.30902    0.000
 5835.00    0.72946   0.30861    0.000
 5836.00    0.70333   0.30870    0.000
 5837.00    0.70088   0.30856    0.000
 5838.00    0.69922   0.30794    0.000
 5839.00    0.71107   0.30757    0.000
 5840.00    0.72318   0.30760    0.000
 5841.00    0.74283   0.30731    0.000
 5842.00    0.76027   0.30663    0.000
 5843.00    0.74427   0.30630    0.000
 5844.00    0.72427   0.30624    0.000
 5845.00    0.66556   0.30578    0.000
 5846.00    0.61484   0.30507    0.000
 5847.00    0.62021   0.30478    0.000
 5848.00    0.62741   0.30466    0.000
 5849.00    0.64451   0.30405    0.000
 5850.00    0.65623   0.30343    0.000
 5851.00    0.64462   0.30327    0.000
 5852.00    0.63546   0.30303    0.000
 5853.00    0.63509   0.30229    0.000
 5854.00    0.64824   0.30182    0.000
 5855.00    0.70193   0.30179    0.000
 5856.00    0.74321   0.30148    0.000
 5857.00    0.75284   0.30076    0.000
 5858.00    0.75141   0.30041    0.000
 5859.00    0.72570   0.30036    0.000
 5860.00    0.69939   0.29990    0.000
 5861.00    0.67193   0.29940    0.000
 5862.00    0.66471   0.29920    0.000
 5863.00    0.69115   0.29898    0.000
 5864.00    0.72024   0.29833    0.000
 5865.00    0.75321   0.29801    0.000
 5866.00    0.76794   0.29789    0.000
 5867.00    0.75929   0.29744    0.000
 5868.00    0.75153   0.29665    0.000
 5869.00    0.74478   0.29649    0.000
 5870.00    0.74852   0.29635    0.000
 5871.00    0.76271   0.29557    0.000
 5872.00    0.76600   0.29474    0.000
 5873.00    0.75972   0.29477    0.000
 5874.00    0.73773   0.29447    0.000
 5875.00    0.70359   0.29314    0.000
 5876.00    0.69139   0.29242    0.000
 5877.00    0.69411   0.29246    0.000
 5878.00    0.69649   0.29224    0.000
 5879.00    0.69868   0.29087    0.000
 5880.00    0.68294   0.29019    0.000
 5881.00    0.65789   0.28987    0.000
 5882.00    0.64257   0.28937    0.000
 5883.00    0.63164   0.28848    0.000
 5884.00    0.61845   0.28796    0.000
 5885.00    0.60440   0.28731    0.000
 5886.00    0.60113   0.28661    0.000
 5887.00    0.60142   0.28627    0.000
 5888.00    0.59823   0.28597    0.000
 5889.00    0.59408   0.28520    0.000
 5890.00    0.61125   0.28454    0.000
 5891.00    0.63326   0.28453    0.000
 5892.00    0.63989   0.28439    0.000
 5893.00    0.64373   0.28425    0.000
 5894.00    0.60727   0.28440    0.000
 5895.00    0.56519   0.28416    0.000
 5896.00    0.51564   0.28373    0.000
 5897.00    0.46535   0.28425    0.000
 5898.00    0.47202   0.28503    0.000
 5899.00    0.48231   0.28489    0.000
 5900.00    0.53847   0.28476    0.000
 5901.00    0.59574   0.28547    0.013
 5902.00    0.57547   0.28608    0.013
 5903.00    0.55825   0.28610    0.013
 5904.00    0.62681   0.28638    0.013
 5905.00    0.69172   0.28703    0.013
 5906.00    0.70458   0.28722    0.013
 5907.00    0.71285   0.28731    0.013
 5908.00    0.67852   0.28786    0.013
 5909.00    0.64748   0.28834    0.013
 5910.00    0.63879   0.28815    0.013
 5911.00    0.62900   0.28820    0.012
 5912.00    0.61342   0.28871    0.012
 5913.00    0.60266   0.28892    0.013
 5914.00    0.61234   0.28862    0.012
 5915.00    0.62518   0.28867    0.012
 5916.00    0.64909   0.28898    0.012
 5917.00    0.65672   0.28899    0.012
 5918.00    0.61649   0.28872    0.012
 5919.00    0.57702   0.28869    0.012
 5920.00    0.53942   0.28890    0.012
 5921.00    0.53131   0.28881    0.012
 5922.00    0.58685   0.28849    0.012
 5923.00    0.62800   0.28845    0.012
 5924.00    0.64217   0.28864    0.012
 5925.00    0.65152   0.28849    0.012
 5926.00    0.65297   0.28812    0.012
 5927.00    0.64275   0.28810    0.012
 5928.00    0.61576   0.28832    0.012
 5929.00    0.60115   0.28807    0.012
 5930.00    0.60218   0.28760    0.013
 5931.00    0.60659   0.28765    0.013
 5932.00    0.61476   0.28794    0.013
 5933.00    0.61430   0.28759    0.013
 5934.00    0.60539   0.28707    0.013
 5935.00    0.60016   0.28720    0.013
 5936.00    0.59812   0.28742    0.013
 5937.00    0.61560   0.28691    0.013
 5938.00    0.64798   0.28652    0.013
 5939.00    0.62945   0.28679    0.013
 5940.00    0.57680   0.28680    0.013
 5941.00    0.55744   0.28611    0.013
 5942.00    0.55763   0.28590    0.013
 5943.00    0.57977   0.28630    0.013
 5944.00    0.61316   0.28607    0.012
 5945.00    0.62741   0.28535    0.012
 5946.00    0.63318   0.28536    0.012
 5947.00    0.63753   0.28579    0.012
 5948.00    0.64134   0.28535    0.012
 5949.00    0.64476   0.28463    0.012
 5950.00    0.64804   0.28485    0.012
 5951.00    0.64321   0.28529    0.012
 5952.00    0.63619   0.28476    0.012
 5953.00    0.64687   0.28414    0.012
 5954.00    0.66150   0.28447    0.012
 5955.00    0.63582   0.28482    0.012
 5956.00    0.60301   0.28433    0.012
 5957.00    0.53900   0.28387    0.012
 5958.00    0.47078   0.28417    0.012
 5959.00    0.45993   0.28438    0.012
 5960.00    0.45460   0.28406    0.012
 5961.00    0.49407   0.28377    0.012
 5962.00    0.53622   0.28394    0.012
 5963.00    0.59280   0.28402    0.012
 5964.00    0.64935   0.28379    0.012
 5965.00    0.64358   0.28356    0.012
 5966.00    0.63800   0.28359    0.012
 5967.00    0.63746   0.28360    0.013
 5968.00    0.63541   0.28337    0.013
 5969.00    0.61318   0.28316    0.013
 5970.00    0.59463   0.28310    0.012
 5971.00    0.60907   0.28303    0.012
 5972.00    0.61441   0.28275    0.012
 5973.00    0.55980   0.28254    0.013
 5974.00    0.51111   0.28243    0.013
 5975.00    0.49284   0.28230    0.013
 5976.00    0.49409   0.28197    0.012
 5977.00    0.57618   0.28178    0.012
 5978.00    0.65532   0.28168    0.012
 5979.00    0.72434   0.28150    0.012
 5980.00    0.76542   0.28115    0.012
 5981.00    0.72582   0.28107    0.012
 5982.00    0.68250   0.28109    0.012
 5983.00    0.63003   0.28083    0.012
 5984.00    0.60637   0.28038    0.012
 5985.00    0.64393   0.28042    0.012
 5986.00    0.65902   0.28058    0.012
 5987.00    0.63264   0.28024    0.012
 5988.00    0.60402   0.27982    0.012
 5989.00    0.57178   0.27997    0.012
 5990.00    0.56661   0.28010    0.012
 5991.00    0.59976   0.27967    0.012
 5992.00    0.63805   0.27933    0.012
 5993.00    0.68274   0.27951    0.012
 5994.00    0.70059   0.27954    0.012
 5995.00    0.68897   0.27910    0.012
 5996.00    0.68374   0.27885    0.012
 5997.00    0.68469   0.27895    0.012
 5998.00    0.66448   0.27882    0.012
 5999.00    0.62621   0.27842    0.012
 6000.00    0.59877   0.27825    0.012
 6001.00    0.57945   0.27826    0.012
 6002.00    0.60479   0.27806    0.012
 6003.00    0.65962   0.27772    0.012
 6004.00    0.68238   0.27752    0.012
 6005.00    0.68660   0.27743    0.012
 6006.00    0.65960   0.27733    0.012
 6007.00    0.61688   0.27713    0.012
 6008.00    0.61139   0.27677    0.012
 6009.00    0.62214   0.27655    0.012
 6010.00    0.62933   0.27668    0.012
 6011.00    0.63518   0.27667    0.012
 6012.00    0.64853   0.27617    0.012
 6013.00    0.66425   0.27588    0.012
 6014.00    0.66571   0.27617    0.012
 6015.00    0.66340   0.27625    0.012
 6016.00    0.69687   0.27571    0.012
 6017.00    0.73811   0.27551    0.012
 6018.00    0.72052   0.27592    0.012
 6019.00    0.69281   0.27592    0.012
 6020.00    0.64169   0.27543    0.012
 6021.00    0.58750   0.27545    0.011
 6022.00    0.61937   0.27585    0.012
 6023.00    0.65913   0.27572    0.012
 6024.00    0.69568   0.27537    0.012
 6025.00    0.73205   0.27559    0.012
 6026.00    0.70508   0.27589    0.012
 6027.00    0.67623   0.27564    0.012
 6028.00    0.59871   0.27547    0.012
 6029.00    0.52584   0.27578    0.012
 6030.00    0.56134   0.27592    0.012
 6031.00    0.59850   0.27565    0.012
 6032.00    0.65696   0.27562    0.012
 6033.00    0.70649   0.27587    0.013
 6034.00    0.67913   0.27585    0.012
 6035.00    0.65445   0.27566    0.012
 6036.00    0.64691   0.27570    0.012
 6037.00    0.63833   0.27580    0.012
 6038.00    0.62462   0.27565    0.012
 6039.00    0.60988   0.27556    0.012
 6040.00    0.59097   0.27562    0.012
 6041.00    0.56981   0.27553    0.012
 6042.00    0.54107   0.27530    0.012
 6043.00    0.51816   0.27531    0.012
 6044.00    0.51175   0.27535    0.012
 6045.00    0.52832   0.27509    0.011
 6046.00    0.60051   0.27482    0.012
 6047.00    0.65742   0.27489    0.012
 6048.00    0.68240   0.27486    0.011
 6049.00    0.68646   0.27447    0.011
 6050.00    0.65254   0.27422    0.011
 6051.00    0.62039   0.27433    0.011
 6052.00    0.59108   0.27422    0.012
 6053.00    0.56514   0.27376    0.012
 6054.00    0.54390   0.27352    0.012
 6055.00    0.52162   0.27367    0.012
 6056.00    0.49805   0.27353    0.012
 6057.00    0.49251   0.27304    0.012
 6058.00    0.50648   0.27282    0.012
 6059.00    0.49987   0.27302    0.012
 6060.00    0.47362   0.27291    0.012
 6061.00    0.48228   0.27239    0.012
 6062.00    0.52031   0.27219    0.012
 6063.00    0.55467   0.27244    0.012
 6064.00    0.58630   0.27236    0.012
 6065.00    0.60946   0.27184    0.012
 6066.00    0.62709   0.27161    0.012
 6067.00    0.62240   0.27188    0.012
 6068.00    0.60499   0.27186    0.012
 6069.00    0.60919   0.27140    0.012
 6070.00    0.62410   0.27110    0.012
 6071.00    0.66102   0.27124    0.012
 6072.00    0.70737   0.27129    0.012
 6073.00    0.71241   0.27089    0.012
 6074.00    0.70225   0.27046    0.012
 6075.00    0.67231   0.27050    0.012
 6076.00    0.63620   0.27062    0.011
 6077.00    0.61243   0.27024    0.011
 6078.00    0.59185   0.26967    0.011
 6079.00    0.60635   0.26965    0.011
 6080.00    0.62826   0.26987    0.011
 6081.00    0.63693   0.26946    0.011
 6082.00    0.64338   0.26880    0.011
 6083.00    0.65633   0.26881    0.012
 6084.00    0.67010   0.26908    0.012
 6085.00    0.68413   0.26863    0.012
 6086.00    0.69818   0.26798    0.012
 6087.00    0.66840   0.26804    0.012
 6088.00    0.63635   0.26832    0.012
 6089.00    0.61040   0.26787    0.012
 6090.00    0.58531   0.26727    0.012
 6091.00    0.61428   0.26735    0.012
 6092.00    0.64321   0.26760    0.012
 6093.00    0.67141   0.26722    0.012
 6094.00    0.69669   0.26670    0.012
 6095.00    0.68655   0.26673    0.012
 6096.00    0.67445   0.26694    0.012
 6097.00    0.64612   0.26669    0.012
 6098.00    0.62225   0.26622    0.012
 6099.00    0.62604   0.26610    0.012
 6100.00    0.63798   0.26629    0.012
 6101.00    0.68967   0.26626    0.012
 6102.00    0.73283   0.26581    0.012
 6103.00    0.74220   0.26549    0.012
 6104.00    0.74276   0.26563    0.012
 6105.00    0.71430   0.26577    0.012
 6106.00    0.68473   0.26546    0.012
 6107.00    0.65204   0.26504    0.011
 6108.00    0.62714   0.26499    0.011
 6109.00    0.62078   0.26517    0.011
 6110.00    0.61769   0.26498    0.011
 6111.00    0.62132   0.26456    0.011
 6112.00    0.61009   0.26440    0.011
 6113.00    0.57228   0.26447    0.011
 6114.00    0.55490   0.26431    0.012
 6115.00    0.56949   0.26400    0.012
 6116.00    0.58403   0.26380    0.012
 6117.00    0.59848   0.26368    0.012
 6118.00    0.60989   0.26346    0.012
 6119.00    0.61760   0.26329    0.012
 6120.00    0.63557   0.26316    0.012
 6121.00    0.66450   0.26282    0.012
 6122.00    0.66356   0.26248    0.012
 6123.00    0.63454   0.26249    0.012
 6124.00    0.59851   0.26244    0.012
 6125.00    0.55667   0.26192    0.012
 6126.00    0.52810   0.26156    0.012
 6127.00    0.50922   0.26175    0.012
 6128.00    0.51581   0.26168    0.012
 6129.00    0.53873   0.26098    0.012
 6130.00    0.55360   0.26068    0.012
 6131.00    0.56396   0.26109    0.011
 6132.00    0.58859   0.26100    0.011
 6133.00    0.62018   0.26012    0.011
 6134.00    0.67795   0.25986    0.012
 6135.00    0.74678   0.26047    0.012
 6136.00    0.75558   0.26040    0.012
 6137.00    0.74271   0.25937    0.012
 6138.00    0.67368   0.25907    0.012
 6139.00    0.58751   0.25983    0.011
 6140.00    0.56268   0.25988    0.011
 6141.00    0.55343   0.25882    0.011
 6142.00    0.59580   0.25837    0.012
 6143.00    0.64883   0.25905    0.012
 6144.00    0.65035   0.25917    0.012
 6145.00    0.64350   0.25821    0.012
 6146.00    0.64962   0.25761    0.012
 6147.00    0.65731   0.25808    0.012
 6148.00    0.68822   0.25820    0.012
 6149.00    0.72106   0.25731    0.012
 6150.00    0.72460   0.25655    0.012
 6151.00    0.72673   0.25679    0.012
 6152.00    0.71248   0.25694    0.012
 6153.00    0.69731   0.25608    0.012
 6154.00    0.64310   0.25516    0.012
 6155.00    0.58942   0.25527    0.012
 6156.00    0.54634   0.25547    0.012
 6157.00    0.50586   0.25457    0.012
 6158.00    0.49529   0.25355    0.012
 6159.00    0.49062   0.25373    0.012
 6160.00    0.53308   0.25402    0.012
 6161.00    0.57671   0.25306    0.012
 6162.00    0.62738   0.25205    0.012
 6163.00    0.66155   0.25239    0.011
 6164.00    0.61730   0.25279    0.011
 6165.00    0.58599   0.25185    0.011
 6166.00    0.60482   0.25101    0.011
 6167.00    0.62640   0.25152    0.011
 6168.00    0.65685   0.25192    0.011
 6169.00    0.66875   0.25105    0.011
 6170.00    0.62992   0.25045    0.011
 6171.00    0.59995   0.25103    0.011
 6172.00    0.59072   0.25134    0.012
 6173.00    0.59018   0.25067    0.012
 6174.00    0.60720   0.25034    0.011
 6175.00    0.61733   0.25075    0.011
 6176.00    0.61530   0.25087    0.012
 6177.00    0.60860   0.25049    0.012
 6178.00    0.59473   0.25035    0.012
 6179.00    0.57639   0.25044    0.012
 6180.00    0.55200   0.25037    0.012
 6181.00    0.55007   0.25030    0.012
 6182.00    0.57490   0.25026    0.012
 6183.00    0.58304   0.24998    0.012
 6184.00    0.57362   0.24977    0.012
 6185.00    0.56914   0.25000    0.012
 6186.00    0.56926   0.24999    0.012
 6187.00    0.58633   0.24938    0.012
 6188.00    0.61727   0.24911    0.012
 6189.00    0.61857   0.24957    0.012
 6190.00    0.59854   0.24959    0.012
 6191.00    0.56798   0.24878    0.012
 6192.00    0.53077   0.24850    0.011
 6193.00    0.52496   0.24908    0.011
 6194.00    0.53648   0.24913    0.011
 6195.00    0.66985   0.24831    0.012
 6196.00    0.86174   0.24802   -2.000
 6197.00    1.09659   0.24858   -2.000
 6198.00    1.34925   0.24862   -2.000
 6199.00    1.47621   0.24788   -2.000
 6200.00    1.55861   0.24759   -2.000
 6201.00    1.34689   0.24799   -2.000
 6202.00    1.04715   0.24800   -2.000
 6203.00    0.81045   0.24738   -2.000
 6204.00    0.58941   0.24708   -2.000
 6205.00    0.52405   0.24727   -2.000
 6206.00    0.49005   0.24719   -2.000
 6207.00    0.48078   0.24666   -2.000
 6208.00    0.47542   0.24634    0.012
 6209.00    0.48214   0.24634    0.012
 6210.00    0.49027   0.24619    0.012
 6211.00    0.45889   0.24571    0.012
 6212.00    0.42438   0.24535    0.012
 6213.00    0.44123   0.24525    0.012
 6214.00    0.46035   0.24507    0.011
 6215.00    0.50513   0.24460    0.011
 6216.00    0.54981   0.24422    0.011
 6217.00    0.57694   0.24413    0.011
 6218.00    0.60328   0.24396    0.011
 6219.00    0.61530   0.24350    0.011
 6220.00    0.62806   0.24314    0.011
 6221.00    0.64897   0.24308    0.011
 6222.00    0.66517   0.24292    0.011
 6223.00    0.64505   0.24249    0.011
 6224.00    0.62447   0.24221    0.011
 6225.00    0.60121   0.24220    0.011
 6226.00    0.57907   0.24200    0.011
 6227.00    0.56215   0.24159    0.011
 6228.00    0.54667   0.24142    0.011
 6229.00    0.53661   0.24147    0.012
 6230.00    0.53701   0.24121    0.012
 6231.00    0.57047   0.24080    0.012
 6232.00    0.60162   0.24072    0.012
 6233.00    0.62656   0.24081    0.012
 6234.00    0.64232   0.24055    0.012
 6235.00    0.63697   0.24012    0.012
 6236.00    0.63546   0.24006    0.012
 6237.00    0.64160   0.24019    0.012
 6238.00    0.64227   0.23994    0.012
 6239.00    0.63343   0.23950    0.012
 6240.00    0.61999   0.23943    0.012
 6241.00    0.59958   0.23958    0.011
 6242.00    0.59481   0.23936    0.011
 6243.00    0.61094   0.23896    0.011
 6244.00    0.61511   0.23887    0.011
 6245.00    0.60520   0.23896    0.011
 6246.00    0.58206   0.23878    0.011
 6247.00    0.54518   0.23853    0.011
 6248.00    0.52468   0.23844    0.011
 6249.00    0.51917   0.23839    0.011
 6250.00    0.52810   0.23825    0.011
 6251.00    0.54869   0.23824    0.011
 6252.00    0.55172   0.23818    0.011
 6253.00    0.54229   0.23795    0.011
 6254.00    0.51804   0.23785    0.011
 6255.00    0.48456   0.23810    0.011
 6256.00    0.47582   0.23813    0.011
 6257.00    0.48053   0.23772    0.012
 6258.00    0.51384   0.23763    0.012
 6259.00    0.56067   0.23812    0.012
 6260.00    0.65607   0.23824    0.013
 6261.00    0.77126   0.23771    0.014
 6262.00    0.79249   0.23762    0.015
 6263.00    0.78102   0.23827    0.016
 6264.00    0.75031   0.23843    0.015
 6265.00    0.71396   0.23784    0.015
 6266.00    0.63420   0.23777    0.014
 6267.00    0.54389   0.23844    0.013
 6268.00    0.49541   0.23859    0.012
 6269.00    0.45515   0.23803    0.012
 6270.00    0.50429   0.23797    0.011
 6271.00    0.56713   0.23856    0.011
 6272.00    0.60500   0.23866    0.011
 6273.00    0.64005   0.23816    0.011
 6274.00    0.62700   0.23812    0.011
 6275.00    0.61033   0.23859    0.011
 6276.00    0.60134   0.23861    0.011
 6277.00    0.59267   0.23818    0.011
 6278.00    0.56619   0.23816    0.011
 6279.00    0.54017   0.23853    0.011
 6280.00    0.53760   0.23847    0.000
 6281.00    0.53629   0.23806    0.000
 6282.00    0.55645   0.23806    0.000
 6283.00    0.57690   0.23838    0.000
 6284.00    0.60043   0.23825    0.000
 6285.00    0.62071   0.23781    0.000
 6286.00    0.61676   0.23781    0.000
 6287.00    0.60990   0.23813    0.000
 6288.00    0.58651   0.23795    0.000
 6289.00    0.56613   0.23745    0.000
 6290.00    0.55933   0.23742    0.000
 6291.00    0.55561   0.23778    0.000
 6292.00    0.56326   0.23760    0.000
 6293.00    0.56979   0.23702    0.000
 6294.00    0.57283   0.23693    0.000
 6295.00    0.57243   0.23734    0.000
 6296.00    0.56296   0.23722    0.000
 6297.00    0.56019   0.23662    0.000
 6298.00    0.57261   0.23643    0.000
 6299.00    0.59034   0.23686    0.000
 6300.00    0.61848   0.23686    0.000
 6301.00    0.64028   0.23630    0.000
 6302.00    0.65124   0.23599    0.000
 6303.00    0.64231   0.23636    0.000
 6304.00    0.60362   0.23653    0.000
 6305.00    0.56919   0.23610    0.000
 6306.00    0.54034   0.23565    0.000
 6307.00    0.51286   0.23589    0.000
 6308.00    0.48696   0.23622    0.000
 6309.00    0.46532   0.23598    0.000
 6310.00    0.44802   0.23541    0.000
 6311.00    0.43867   0.23546    0.000
 6312.00    0.43650   0.23592    0.000
 6313.00    0.46095   0.23588    0.000
 6314.00    0.50656   0.23523    0.000
 6315.00    0.54328   0.23508    0.000
 6316.00    0.57380   0.23562    0.000
 6317.00    0.57852   0.23577    0.000
 6318.00    0.56744   0.23509    0.000
 6319.00    0.55942   0.23477    0.000
 6320.00    0.55305   0.23533    0.000
 6321.00    0.56385   0.23563    0.011
 6322.00    0.58264   0.23499    0.011
 6323.00    0.60790   0.23450    0.011
 6324.00    0.63577   0.23499    0.011
 6325.00    0.64999   0.23542    0.011
 6326.00    0.65955   0.23485    0.011
 6327.00    0.65203   0.23420    0.011
 6328.00    0.63960   0.23456    0.011
 6329.00    0.63883   0.23509    0.011
 6330.00    0.64083   0.23460    0.011
 6331.00    0.62853   0.23381    0.011
 6332.00    0.61350   0.23401    0.011
 6333.00    0.57833   0.23460    0.011
 6334.00    0.54018   0.23419    0.011
 6335.00    0.54042   0.23331    0.011
 6336.00    0.54482   0.23335    0.011
 6337.00    0.56581   0.23397    0.011
 6338.00    0.58799   0.23359    0.011
 6339.00    0.59255   0.23269    0.011
 6340.00    0.59646   0.23266    0.012
 6341.00    0.60287   0.23327    0.011
 6342.00    0.60798   0.23286    0.011
 6343.00    0.56688   0.23201    0.011
 6344.00    0.52732   0.23199    0.011
 6345.00    0.51234   0.23256    0.011
 6346.00    0.50038   0.23205    0.011
 6347.00    0.51886   0.23128    0.011
 6348.00    0.53611   0.23137    0.011
 6349.00    0.54451   0.23187    0.011
 6350.00    0.54930   0.23125    0.011
 6351.00    0.53410   0.23057    0.011
 6352.00    0.51903   0.23082    0.011
 6353.00    0.50456   0.23124    0.011
 6354.00    0.50033   0.23050    0.011
 6355.00    0.53332   0.22991    0.011
 6356.00    0.56840   0.23033    0.010
 6357.00    0.60987   0.23071    0.011
 6358.00    0.64466   0.22991    0.011
 6359.00    0.66216   0.22940    0.011
 6360.00    0.67904   0.22996    0.011
 6361.00    0.69454   0.23035    0.011
 6362.00    0.69279   0.22956    0.011
 6363.00    0.65773   0.22911    0.011
 6364.00    0.61204   0.22973    0.011
 6365.00    0.54845   0.23018    0.011
 6366.00    0.51151   0.22948    0.012
 6367.00    0.51389   0.22906    0.012
 6368.00    0.51983   0.22965    0.011
 6369.00    0.53040   0.23016    0.011
 6370.00    0.54366   0.22960    0.011
 6371.00    0.56000   0.22917    0.011
 6372.00    0.56679   0.22964    0.011
 6373.00    0.56395   0.23014    0.011
 6374.00    0.55304   0.22979    0.011
 6375.00    0.53496   0.22937    0.011
 6376.00    0.53595   0.22962    0.011
 6377.00    0.55189   0.23002    0.011
 6378.00    0.56209   0.22986    0.011
 6379.00    0.56832   0.22951    0.011
 6380.00    0.56222   0.22951    0.011
 6381.00    0.54867   0.22973    0.010
 6382.00    0.53922   0.22974    0.010
 6383.00    0.53192   0.22951    0.010
 6384.00    0.53248   0.22929    0.010
 6385.00    0.53664   0.22932    0.011
 6386.00    0.52368   0.22945    0.011
 6387.00    0.50397   0.22933    0.011
 6388.00    0.48756   0.22897    0.011
 6389.00    0.47224   0.22886    0.011
 6390.00    0.49474   0.22907    0.011
 6391.00    0.52790   0.22901    0.011
 6392.00    0.53130   0.22856    0.011
 6393.00    0.52780   0.22841    0.011
 6394.00    0.51563   0.22870    0.012
 6395.00    0.50186   0.22860    0.012
 6396.00    0.52096   0.22808    0.012
 6397.00    0.54479   0.22803    0.012
 6398.00    0.53124   0.22841    0.012
 6399.00    0.51380   0.22818    0.012
 6400.00    0.50047   0.22758    0.011
 6401.00    0.48742   0.22767    0.011
 6402.00    0.54085   0.22813    0.011
 6403.00    0.59645   0.22780    0.011
 6404.00    0.60366   0.22716    0.011
 6405.00    0.61020   0.22733    0.011
 6406.00    0.59632   0.22782    0.011
 6407.00    0.58119   0.22744    0.011
 6408.00    0.54744   0.22678    0.011
 6409.00    0.51600   0.22695    0.010
 6410.00    0.50684   0.22745    0.010
 6411.00    0.50390   0.22713    0.011
 6412.00    0.54435   0.22648    0.011
 6413.00    0.57800   0.22655    0.011
 6414.00    0.57496   0.22699    0.011
 6415.00    0.56455   0.22683    0.011
 6416.00    0.52226   0.22629    0.011
 6417.00    0.48651   0.22618    0.011
 6418.00    0.47402   0.22648    0.011
 6419.00    0.46686   0.22652    0.011
 6420.00    0.47567   0.22613    0.011
 6421.00    0.48842   0.22589    0.011
 6422.00    0.51121   0.22599    0.011
 6423.00    0.53401   0.22612    0.011
 6424.00    0.55681   0.22600    0.011
 6425.00    0.57969   0.22574    0.011
 6426.00    0.60274   0.22558    0.011
 6427.00    0.61528   0.22564    0.011
 6428.00    0.61041   0.22578    0.011
 6429.00    0.60653   0.22565    0.011
 6430.00    0.60408   0.22525    0.011
 6431.00    0.59614   0.22514    0.011
 6432.00    0.58118   0.22545    0.011
 6433.00    0.55244   0.22549    0.011
 6434.00    0.50815   0.22498    0.011
 6435.00    0.48800   0.22471    0.011
 6436.00    0.49185   0.22507    0.011
 6437.00    0.51432   0.22519    0.011
 6438.00    0.55311   0.22463    0.011
 6439.00    0.56362   0.22429    0.011
 6440.00    0.55231   0.22462    0.011
 6441.00    0.52221   0.22471    0.011
 6442.00    0.47935   0.22418    0.011
 6443.00    0.45088   0.22392    0.011
 6444.00    0.43096   0.22417    0.011
 6445.00    0.42858   0.22410    0.011
 6446.00    0.43531   0.22359    0.011
 6447.00    0.45350   0.22346    0.011
 6448.00    0.47685   0.22370    0.011
 6449.00    0.48468   0.22349    0.011
 6450.00    0.48650   0.22293    0.011
 6451.00    0.47042   0.22287    0.011
 6452.00    0.44845   0.22317    0.011
 6453.00    0.48556   0.22299    0.011
 6454.00    0.53897   0.22241    0.011
 6455.00    0.56824   0.22230    0.011
 6456.00    0.59205   0.22263    0.011
 6457.00    0.57447   0.22255    0.011
 6458.00    0.54940   0.22195    0.011
 6459.00    0.54913   0.22176    0.011
 6460.00    0.55230   0.22218    0.011
 6461.00    0.56306   0.22220    0.011
 6462.00    0.57457   0.22154    0.011
 6463.00    0.54974   0.22123    0.011
 6464.00    0.52261   0.22167    0.011
 6465.00    0.51594   0.22179    0.011
 6466.00    0.50997   0.22117    0.011
 6467.00    0.53405   0.22076    0.011
 6468.00    0.55700   0.22108    0.012
 6469.00    0.54819   0.22123    0.011
 6470.00    0.54085   0.22067    0.011
 6471.00    0.55442   0.22016    0.011
 6472.00    0.56695   0.22035    0.012
 6473.00    0.56990   0.22049    0.012
 6474.00    0.57089   0.21994    0.012
 6475.00    0.55859   0.21940    0.011
 6476.00    0.54485   0.21949    0.011
 6477.00    0.52349   0.21953    0.011
 6478.00    0.50388   0.21893    0.011
 6479.00    0.49167   0.21842    0.011
 6480.00    0.48368   0.21851    0.010
 6481.00    0.49042   0.21839    0.010
 6482.00    0.49704   0.21769    0.010
 6483.00    0.50331   0.21722    0.011
 6484.00    0.50668   0.21734    0.011
 6485.00    0.50278   0.21718    0.010
 6486.00    0.50395   0.21643    0.010
 6487.00    0.51604   0.21596    0.010
 6488.00    0.51959   0.21612    0.010
 6489.00    0.50715   0.21601    0.010
 6490.00    0.49831   0.21528    0.011
 6491.00    0.49536   0.21480    0.011
 6492.00    0.49843   0.21501    0.011
 6493.00    0.51011   0.21505    0.011
 6494.00    0.51135   0.21445    0.011
 6495.00    0.49944   0.21397    0.011
 6496.00    0.48242   0.21416    0.011
 6497.00    0.45974   0.21436    0.011
 6498.00    0.44512   0.21406    0.011
 6499.00    0.43838   0.21364    0.011
 6500.00    0.43352   0.21373    0.011
 6501.00    0.43028   0.21402    0.011
 6502.00    0.42733   0.21396    0.011
 6503.00    0.42462   0.21366    0.011
 6504.00    0.42828   0.21363    0.010
 6505.00    0.43621   0.21389    0.010
 6506.00    0.46330   0.21399    0.010
 6507.00    0.50163   0.21379    0.010
 6508.00    0.53957   0.21368    0.010
 6509.00    0.57732   0.21384    0.010
 6510.00    0.57967   0.21394    0.010
 6511.00    0.56636   0.21379    0.010
 6512.00    0.53676   0.21365    0.011
 6513.00    0.50097   0.21373    0.011
 6514.00    0.48297   0.21374    0.011
 6515.00    0.47072   0.21354    0.011
 6516.00    0.47408   0.21341    0.011
 6517.00    0.48165   0.21343    0.011
 6518.00    0.48542   0.21332    0.011
 6519.00    0.48834   0.21305    0.011
 6520.00    0.49026   0.21291    0.011
 6521.00    0.49201   0.21289    0.011
 6522.00    0.50381   0.21270    0.011
 6523.00    0.51697   0.21235    0.011
 6524.00    0.54998   0.21214    0.011
 6525.00    0.58489   0.21201    0.011
 6526.00    0.61071   0.21177    0.011
 6527.00    0.63599   0.21140    0.010
 6528.00    0.63948   0.21107    0.000
 6529.00    0.64218   0.21073    0.000
 6530.00    0.61095   0.21039    0.000
 6531.00    0.58142   0.21004    0.000
 6532.00    0.59454   0.20958    0.000
 6533.00    0.60670   0.20891    0.000
 6534.00    0.60594   0.20833    0.000
 6535.00    0.60571   0.20796    0.000
 6536.00    0.61028   0.20743    0.000
 6537.00    0.61216   0.20638    0.000
 6538.00    0.59633   0.20537    0.000
 6539.00    0.58172   0.20488    0.000
 6540.00    0.57329   0.20430    0.000
 6541.00    0.56618   0.20291    0.000
 6542.00    0.56456   0.20138    0.000
 6543.00    0.57029   0.20062    0.000
 6544.00    0.60110   0.20000    0.000
 6545.00    0.63252   0.19835    0.000
 6546.00    0.66569   0.19631    0.000
 6547.00    0.68878   0.19525    0.000
 6548.00    0.68707   0.19466    0.000
 6549.00    0.67806   0.19294    0.000
 6550.00    0.65361   0.19052    0.000
 6551.00    0.61747   0.18921    0.000
 6552.00    0.55979   0.18883    0.000
 6553.00    0.51672   0.18736    0.000
 6554.00    0.49720   0.18475    0.000
 6555.00    0.49022   0.18332    0.000
 6556.00    0.50095   0.18347    0.000
 6557.00    0.53798   0.18268    0.000
 6558.00    0.60768   0.18019    0.000
 6559.00    0.70323   0.17879    0.000
 6560.00    0.82709   0.17969    0.000
 6561.00    0.92824   0.17994    0.000
 6562.00    1.00742   0.17791    0.000
 6563.00    1.00000   0.17670    0.000
 6564.00    0.91879   0.17820    0.000
 6565.00    0.83089   0.17958    0.000
 6566.00    0.73797   0.17878    0.000
 6567.00    0.67349   0.17817    0.000
 6568.00    0.62776   0.17967    0.000
 6569.00    0.59536   0.18148    0.000
 6570.00    0.57064   0.18184    0.000
 6571.00    0.56457   0.18195    0.000
 6572.00    0.56789   0.18331    0.000
 6573.00    0.54663   0.18518    0.000
 6574.00    0.51467   0.18626    0.000
 6575.00    0.49423   0.18687    0.000
 6576.00    0.47810   0.18802    0.000
 6577.00    0.49125   0.18965    0.000
 6578.00    0.51367   0.19096    0.000
 6579.00    0.54582   0.19180    0.000
 6580.00    0.58053   0.19268    0.000
 6581.00    0.62612   0.19388    0.000
 6582.00    0.67407   0.19505    0.000
 6583.00    0.68941   0.19594    0.000
 6584.00    0.69916   0.19655    0.000
 6585.00    0.64798   0.19730    0.000
 6586.00    0.58889   0.19818    0.000
 6587.00    0.53722   0.19898    0.000
 6588.00    0.48622   0.19938    0.000
 6589.00    0.51452   0.19970    0.000
 6590.00    0.54719   0.20032    0.000
 6591.00    0.57178   0.20104    0.000
 6592.00    0.59577   0.20126    0.000
 6593.00    0.57899   0.20124    0.000
 6594.00    0.56222   0.20160    0.000
 6595.00    0.54583   0.20223    0.000
 6596.00    0.52790   0.20242    0.000
 6597.00    0.49061   0.20229    0.000
 6598.00    0.45782   0.20244    0.000
 6599.00    0.46359   0.20288    0.000
 6600.00    0.47187   0.20305    0.000
 6601.00    0.49616   0.20290    0.000
 6602.00    0.51742   0.20296    0.000
 6603.00    0.52368   0.20330    0.000
 6604.00    0.52300   0.20340    0.000
 6605.00    0.49432   0.20317    0.000
 6606.00    0.47089   0.20319    0.000
 6607.00    0.46505   0.20354    0.000
 6608.00    0.47246   0.20362    0.000
 6609.00    0.51728   0.20327    0.011
 6610.00    0.54727   0.20323    0.011
 6611.00    0.54140   0.20361    0.011
 6612.00    0.53631   0.20370    0.011
 6613.00    0.53284   0.20331    0.011
 6614.00    0.53162   0.20317    0.011
 6615.00    0.53447   0.20348    0.011
 6616.00    0.53395   0.20355    0.011
 6617.00    0.52808   0.20321    0.011
 6618.00    0.51674   0.20303    0.011
 6619.00    0.49781   0.20321    0.011
 6620.00    0.48591   0.20323    0.011
 6621.00    0.48263   0.20294    0.011
 6622.00    0.48281   0.20274    0.010
 6623.00    0.48675   0.20283    0.010
 6624.00    0.48670   0.20282    0.010
 6625.00    0.48285   0.20252    0.010
 6626.00    0.49507   0.20227    0.010
 6627.00    0.52080   0.20233    0.010
 6628.00    0.52165   0.20238    0.010
 6629.00    0.50410   0.20212    0.010
 6630.00    0.47349   0.20178    0.010
 6631.00    0.43439   0.20177    0.010
 6632.00    0.43490   0.20189    0.010
 6633.00    0.45792   0.20172    0.011
 6634.00    0.49442   0.20134    0.011
 6635.00    0.53759   0.20121    0.011
 6636.00    0.54771   0.20134    0.011
 6637.00    0.54369   0.20136    0.011
 6638.00    0.51650   0.20107    0.011
 6639.00    0.48081   0.20073    0.011
 6640.00    0.47954   0.20073    0.011
 6641.00    0.48896   0.20095    0.011
 6642.00    0.49996   0.20081    0.011
 6643.00    0.51138   0.20032    0.011
 6644.00    0.49892   0.20019    0.011
 6645.00    0.48142   0.20045    0.011
 6646.00    0.45809   0.20042    0.010
 6647.00    0.43380   0.19998    0.010
 6648.00    0.42700   0.19973    0.010
 6649.00    0.42240   0.19988    0.010
 6650.00    0.45065   0.19991    0.010
 6651.00    0.48175   0.19957    0.010
 6652.00    0.50258   0.19925    0.010
 6653.00    0.52289   0.19927    0.010
 6654.00    0.50865   0.19932    0.010
 6655.00    0.49388   0.19908    0.010
 6656.00    0.48413   0.19873    0.010
 6657.00    0.47451   0.19866    0.011
 6658.00    0.46759   0.19871    0.011
 6659.00    0.46110   0.19851    0.010
 6660.00    0.45971   0.19812    0.011
 6661.00    0.46089   0.19799    0.011
 6662.00    0.48335   0.19805    0.011
 6663.00    0.49751   0.19789    0.011
 6664.00    0.46040   0.19752    0.011
 6665.00    0.42257   0.19731    0.011
 6666.00    0.38119   0.19734    0.010
 6667.00    0.35249   0.19732    0.010
 6668.00    0.37385   0.19700    0.010
 6669.00    0.41090   0.19662    0.010
 6670.00    0.49945   0.19657    0.010
 6671.00    0.56806   0.19675    0.010
 6672.00    0.58132   0.19662    0.010
 6673.00    0.59061   0.19606    0.010
 6674.00    0.59048   0.19581    0.010
 6675.00    0.58478   0.19612    0.010
 6676.00    0.56767   0.19631    0.010
 6677.00    0.54250   0.19571    0.011
 6678.00    0.50293   0.19520    0.011
 6679.00    0.48742   0.19542    0.011
 6680.00    0.50951   0.19589    0.011
 6681.00    0.51060   0.19562    0.011
 6682.00    0.48289   0.19503    0.011
 6683.00    0.45543   0.19502    0.011
 6684.00    0.42827   0.19544    0.011
 6685.00    0.41459   0.19548    0.011
 6686.00    0.41527   0.19502    0.011
 6687.00    0.41481   0.19481    0.011
 6688.00    0.41328   0.19504    0.010
 6689.00    0.42688   0.19527    0.010
 6690.00    0.45299   0.19501    0.010
 6691.00    0.47647   0.19472    0.010
 6692.00    0.49803   0.19473    0.010
 6693.00    0.49182   0.19496    0.010
 6694.00    0.46783   0.19488    0.010
 6695.00    0.45369   0.19460    0.010
 6696.00    0.44505   0.19444    0.000
 6697.00    0.46112   0.19453    0.000
 6698.00    0.48921   0.19459    0.000
 6699.00    0.48769   0.19439    0.000
 6700.00    0.47372   0.19414    0.000
 6701.00    0.47559   0.19405    0.000
 6702.00    0.48316   0.19412    0.000
 6703.00    0.50649   0.19402    0.000
 6704.00    0.53461   0.19370    0.000
 6705.00    0.54654   0.19348    0.000
 6706.00    0.55436   0.19354    0.000
 6707.00    0.53341   0.19352    0.000
 6708.00    0.50654   0.19322    0.000
 6709.00    0.48788   0.19289    0.000
 6710.00    0.47055   0.19286    0.000
 6711.00    0.49823   0.19294    0.000
 6712.00    0.53136   0.19273    0.000
 6713.00    0.57574   0.19231    0.000
 6714.00    0.62105   0.19219    0.000
 6715.00    0.64137   0.19237    0.000
 6716.00    0.66051   0.19226    0.000
 6717.00    0.58685   0.19177    0.000
 6718.00    0.51222   0.19156    0.000
 6719.00    0.45674   0.19184    0.000
 6720.00    0.40642   0.19188    0.000
 6721.00    0.45678   0.19143    0.000
 6722.00    0.50511   0.19110    0.000
 6723.00    0.53015   0.19134    0.000
 6724.00    0.55225   0.19153    0.000
 6725.00    0.55091   0.19119    0.000
 6726.00    0.54796   0.19077    0.000
 6727.00    0.53539   0.19089    0.000
 6728.00    0.52480   0.19117    0.000
 6729.00    0.52358   0.19098    0.000
 6730.00    0.52363   0.19053    0.000
 6731.00    0.52857   0.19047    0.000
 6732.00    0.52706   0.19076    0.000
 6733.00    0.50474   0.19072    0.000
 6734.00    0.48989   0.19030    0.000
 6735.00    0.49541   0.19006    0.000
 6736.00    0.50217   0.19028    0.000
 6737.00    0.51182   0.19040    0.000
 6738.00    0.51586   0.19007    0.000
 6739.00    0.50856   0.18970    0.000
 6740.00    0.50248   0.18977    0.000
 6741.00    0.49856   0.18998    0.000
 6742.00    0.48336   0.18981    0.000
 6743.00    0.45082   0.18943    0.000
 6744.00    0.44318   0.18935    0.000
 6745.00    0.46921   0.18951    0.000
 6746.00    0.48027   0.18950    0.000
 6747.00    0.47349   0.18928    0.000
 6748.00    0.46833   0.18909    0.000
 6749.00    0.46485   0.18907    0.000
 6750.00    0.45678   0.18916    0.000
 6751.00    0.44448   0.18916    0.000
 6752.00    0.43706   0.18898    0.000
 6753.00    0.43363   0.18881    0.012
 6754.00    0.46413   0.18888    0.012
 6755.00    0.51899   0.18898    0.012
 6756.00    0.54351   0.18893    0.013
 6757.00    0.54890   0.18876    0.013
 6758.00    0.55205   0.18866    0.012
 6759.00    0.55394   0.18874    0.012
 6760.00    0.59724   0.18885    0.012
 6761.00    0.66038   0.18877    0.012
 6762.00    0.65639   0.18852    0.012
 6763.00    0.62464   0.18847    0.013
 6764.00    0.59975   0.18865    0.012
 6765.00    0.57729   0.18871    0.012
 6766.00    0.56236   0.18845    0.012
 6767.00    0.54967   0.18821    0.012
 6768.00    0.50371   0.18830    0.012
 6769.00    0.44951   0.18848    0.012
 6770.00    0.45246   0.18834    0.012
 6771.00    0.46688   0.18800    0.012
 6772.00    0.50192   0.18793    0.012
 6773.00    0.54019   0.18809    0.012
 6774.00    0.53200   0.18807    0.012
 6775.00    0.51840   0.18780    0.012
 6776.00    0.52326   0.18759    0.011
 6777.00    0.52957   0.18762    0.011
 6778.00    0.56318   0.18766    0.011
 6779.00    0.59797   0.18750    0.012
 6780.00    0.56780   0.18723    0.012
 6781.00    0.53764   0.18713    0.012
 6782.00    0.53986   0.18718    0.012
 6783.00    0.54228   0.18710    0.011
 6784.00    0.54836   0.18685    0.011
 6785.00    0.54958   0.18669    0.011
 6786.00    0.49775   0.18669    0.011
 6787.00    0.44447   0.18669    0.011
 6788.00    0.37995   0.18657    0.011
 6789.00    0.33384   0.18638    0.011
 6790.00    0.39499   0.18626    0.012
 6791.00    0.44777   0.18629    0.012
 6792.00    0.46189   0.18629    0.012
 6793.00    0.47119   0.18609    0.012
 6794.00    0.46230   0.18593    0.012
 6795.00    0.45941   0.18598    0.012
 6796.00    0.47548   0.18603    0.012
 6797.00    0.49200   0.18588    0.012
 6798.00    0.50969   0.18569    0.012
 6799.00    0.52205   0.18571    0.012
 6800.00    0.52212   0.18580    0.012
 6801.00    0.52561   0.18573    0.012
 6802.00    0.53587   0.18550    0.012
 6803.00    0.54247   0.18544    0.011
 6804.00    0.54273   0.18558    0.011
 6805.00    0.53967   0.18559    0.011
 6806.00    0.53156   0.18532    0.011
 6807.00    0.51071   0.18515    0.011
 6808.00    0.47287   0.18533    0.011
 6809.00    0.46847   0.18543    0.011
 6810.00    0.50331   0.18516    0.011
 6811.00    0.52241   0.18490    0.011
 6812.00    0.52522   0.18503    0.012
 6813.00    0.51917   0.18524    0.012
 6814.00    0.50502   0.18504    0.012
 6815.00    0.50262   0.18466    0.012
 6816.00    0.50967   0.18464    0.012
 6817.00    0.50235   0.18494    0.012
 6818.00    0.48485   0.18494    0.011
 6819.00    0.46524   0.18452    0.011
 6820.00    0.44431   0.18427    0.011
 6821.00    0.44696   0.18452    0.011
 6822.00    0.46241   0.18473    0.011
 6823.00    0.47121   0.18442    0.011
 6824.00    0.47687   0.18401    0.011
 6825.00    0.48167   0.18408    0.011
 6826.00    0.48610   0.18439    0.011
 6827.00    0.45653   0.18425    0.011
 6828.00    0.41514   0.18377    0.011
 6829.00    0.41170   0.18359    0.011
 6830.00    0.41937   0.18388    0.011
 6831.00    0.47318   0.18400    0.011
 6832.00    0.53816   0.18362    0.011
 6833.00    0.55254   0.18321    0.011
 6834.00    0.55703   0.18331    0.011
 6835.00    0.51997   0.18357    0.011
 6836.00    0.47658   0.18340    0.011
 6837.00    0.48838   0.18295    0.012
 6838.00    0.50638   0.18279    0.012
 6839.00    0.54746   0.18300    0.013
 6840.00    0.59026   0.18305    0.013
 6841.00    0.57317   0.18267    0.012
 6842.00    0.55370   0.18233    0.012
 6843.00    0.51573   0.18240    0.012
 6844.00    0.47861   0.18261    0.011
 6845.00    0.48033   0.18243    0.011
 6846.00    0.47897   0.18204    0.011
 6847.00    0.42545   0.18193    0.011
 6848.00    0.37737   0.18207    0.011
 6849.00    0.38617   0.18205    0.011
 6850.00    0.39910   0.18178    0.011
 6851.00    0.44277   0.18156    0.011
 6852.00    0.48386   0.18157    0.010
 6853.00    0.51035   0.18164    0.010
 6854.00    0.53429   0.18147    0.011
 6855.00    0.54675   0.18120    0.011
 6856.00    0.54828   0.18116    0.011
 6857.00    0.50937   0.18123    0.011
 6858.00    0.47599   0.18112    0.011
 6859.00    0.45973   0.18094    0.011
 6860.00    0.45031   0.18087    0.011
 6861.00    0.45892   0.18087    0.011
 6862.00    0.47285   0.18078    0.011
 6863.00    0.49880   0.18066    0.011
 6864.00    0.51405   0.18060    0.011
 6865.00    0.50836   0.18062    0.011
 6866.00    0.49392   0.18061    0.011
 6867.00    0.46457   0.18047    0.011
 6868.00    0.44284   0.18031    0.012
 6869.00    0.43251   0.18034    0.012
 6870.00    0.40855   0.18045    0.011
 6871.00    0.36668   0.18036    0.011
 6872.00    0.36768   0.18019    0.011
 6873.00    0.41829   0.18015    0.011
 6874.00    0.44656   0.18025    0.011
 6875.00    0.45203   0.18028    0.010
 6876.00    0.45340   0.18019    0.010
 6877.00    0.45109   0.18007    0.011
 6878.00    0.44946   0.18008    0.011
 6879.00    0.44837   0.18019    0.011
 6880.00    0.47237   0.18022    0.011
 6881.00    0.51388   0.18012    0.011
 6882.00    0.52368   0.17998    0.011
 6883.00    0.51408   0.18002    0.011
 6884.00    0.51233   0.18017    0.011
 6885.00    0.51476   0.18023    0.011
 6886.00    0.51019   0.18005    0.011
 6887.00    0.50237   0.17994    0.012
 6888.00    0.49593   0.18007    0.011
 6889.00    0.49006   0.18024    0.011
 6890.00    0.50361   0.18018    0.011
 6891.00    0.52379   0.17997    0.011
 6892.00    0.50184   0.17991    0.011
 6893.00    0.46782   0.18012    0.011
 6894.00    0.47118   0.18028    0.011
 6895.00    0.48338   0.18003    0.011
 6896.00    0.49470   0.17979    0.011
 6897.00    0.50585   0.17992    0.011
 6898.00    0.51014   0.18019    0.011
 6899.00    0.51343   0.18010    0.011
 6900.00    0.54949   0.17976    0.011
 6901.00    0.58909   0.17966    0.012
 6902.00    0.57793   0.17990    0.012
 6903.00    0.56317   0.18001    0.011
 6904.00    0.50554   0.17973    0.011
 6905.00    0.44636   0.17944    0.011
 6906.00    0.45382   0.17951    0.011
 6907.00    0.46186   0.17973    0.011
 6908.00    0.48260   0.17959    0.011
 6909.00    0.50400   0.17929    0.011
 6910.00    0.53575   0.17916    0.011
 6911.00    0.56086   0.17927    0.011
 6912.00    0.51946   0.17929    0.011
 6913.00    0.48102   0.17910    0.011
 6914.00    0.46388   0.17884    0.011
 6915.00    0.44979   0.17880    0.011
 6916.00    0.45253   0.17885    0.011
 6917.00    0.46050   0.17878    0.011
 6918.00    0.49153   0.17863    0.011
 6919.00    0.50850   0.17846    0.011
 6920.00    0.47450   0.17838    0.011
 6921.00    0.45184   0.17839    0.011
 6922.00    0.46362   0.17840    0.011
 6923.00    0.47266   0.17821    0.011
 6924.00    0.47462   0.17799    0.011
 6925.00    0.46476   0.17794    0.011
 6926.00    0.42859   0.17802    0.011
 6927.00    0.42272   0.17801    0.011
 6928.00    0.47523   0.17781    0.012
 6929.00    0.50054   0.17762    0.012
 6930.00    0.48013   0.17768    0.012
 6931.00    0.46731   0.17778    0.012
 6932.00    0.46567   0.17763    0.012
 6933.00    0.46719   0.17736    0.012
 6934.00    0.47279   0.17735    0.011
 6935.00    0.47193   0.17750    0.011
 6936.00    0.46369   0.17744    0.011
 6937.00    0.46603   0.17723    0.011
 6938.00    0.47901   0.17712    0.011
 6939.00    0.49537   0.17721    0.011
 6940.00    0.51475   0.17725    0.011
 6941.00    0.52114   0.17711    0.011
 6942.00    0.51736   0.17694    0.011
 6943.00    0.50825   0.17699    0.011
 6944.00    0.49547   0.17704    0.011
 6945.00    0.47048   0.17689    0.011
 6946.00    0.43813   0.17678    0.011
 6947.00    0.43572   0.17681    0.012
 6948.00    0.44906   0.17687    0.012
 6949.00    0.44486   0.17680    0.012
 6950.00    0.43266   0.17670    0.012
 6951.00    0.44915   0.17666    0.012
 6952.00    0.47691   0.17670    0.012
 6953.00    0.47770   0.17665    0.012
 6954.00    0.46946   0.17654    0.012
 6955.00    0.49079   0.17655    0.012
 6956.00    0.52043   0.17658    0.012
 6957.00    0.49839   0.17650    0.012
 6958.00    0.46440   0.17641    0.011
 6959.00    0.46926   0.17645    0.011
 6960.00    0.48134   0.17646    0.011
 6961.00    0.42898   0.17635    0.011
 6962.00    0.36741   0.17620    0.011
 6963.00    0.37208   0.17623    0.011
 6964.00    0.38362   0.17633    0.011
 6965.00    0.41419   0.17620    0.011
 6966.00    0.44604   0.17594    0.012
 6967.00    0.43881   0.17592    0.012
 6968.00    0.43033   0.17610    0.012
 6969.00    0.46211   0.17600    0.012
 6970.00    0.49066   0.17570    0.012
 6971.00    0.42057   0.17556    0.012
 6972.00    0.35816   0.17571    0.012
 6973.00    0.41005   0.17579    0.012
 6974.00    0.45891   0.17555    0.012
 6975.00    0.47867   0.17527    0.012
 6976.00    0.49018   0.17532    0.012
 6977.00    0.44440   0.17548    0.012
 6978.00    0.41042   0.17531    0.011
 6979.00    0.43978   0.17502    0.011
 6980.00    0.45924   0.17500    0.011
 6981.00    0.43611   0.17511    0.011
 6982.00    0.42298   0.17511    0.012
 6983.00    0.44540   0.17498    0.012
 6984.00    0.46483   0.17486    0.012
 6985.00    0.47533   0.17481    0.012
 6986.00    0.47201   0.17481    0.012
 6987.00    0.43359   0.17478    0.012
 6988.00    0.40359   0.17470    0.012
 6989.00    0.39200   0.17462    0.012
 6990.00    0.38762   0.17450    0.012
 6991.00    0.39692   0.17445    0.012
 6992.00    0.41590   0.17452    0.012
 6993.00    0.45090   0.17451    0.012
 6994.00    0.45832   0.17428    0.013
 6995.00    0.42570   0.17410    0.012
 6996.00    0.44225   0.17417    0.012
 6997.00    0.52156   0.17424    0.012
 6998.00    0.51641   0.17406    0.012
 6999.00    0.41625   0.17378    0.012
 7000.00    0.36094   0.17373    0.012
 7001.00    0.35011   0.17386    0.012
 7002.00    0.35771   0.17381    0.012
 7003.00    0.38144   0.17354    0.012
 7004.00    0.38974   0.17339    0.012
 7005.00    0.38616   0.17348    0.011
 7006.00    0.42141   0.17346    0.012
 7007.00    0.48298   0.17320    0.012
 7008.00    0.48798   0.17305    0.012
 7009.00    0.45939   0.17317    0.012
 7010.00    0.47848   0.17320    0.012
 7011.00    0.52226   0.17295    0.012
 7012.00    0.55181   0.17279    0.013
 7013.00    0.57497   0.17292    0.013
 7014.00    0.50783   0.17301    0.013
 7015.00    0.40585   0.17276    0.013
 7016.00    0.40890   0.17247    0.013
 7017.00    0.44643   0.17259    0.013
 7018.00    0.44209   0.17288    0.013
 7019.00    0.42623   0.17277    0.013
 7020.00    0.40359   0.17241    0.013
 7021.00    0.37941   0.17242    0.012
 7022.00    0.40031   0.17275    0.012
 7023.00    0.42935   0.17278    0.012
 7024.00    0.40414   0.17242    0.012
 7025.00    0.37142   0.17224    0.012
 7026.00    0.38216   0.17252    0.012
 7027.00    0.39722   0.17281    0.012
 7028.00    0.38357   0.17263    0.012
 7029.00    0.36812   0.17227    0.012
 7030.00    0.41025   0.17236    0.013
 7031.00    0.45354   0.17274    0.013
 7032.00    0.37391   0.17277    0.013
 7033.00    0.30109   0.17243    0.013
 7034.00    0.41524   0.17227    0.013
 7035.00    0.51691   0.17250    0.013
 7036.00    0.44337   0.17270    0.013
 7037.00    0.38053   0.17253    0.013
 7038.00    0.41640   0.17219    0.013
 7039.00    0.44459   0.17218    0.013
 7040.00    0.42110   0.17241    0.013
 7041.00    0.39959   0.17236    0.012
 7042.00    0.38841   0.17208    0.012
 7043.00    0.38348   0.17188    0.012
 7044.00    0.40486   0.17185    0.012
 7045.00    0.42279   0.17176    0.012
 7046.00    0.42873   0.17153    0.012
 7047.00    0.43596   0.17126    0.012
 7048.00    0.44695   0.17114    0.012
 7049.00    0.46636   0.17105    0.013
 7050.00    0.50678   0.17074   -2.000
 7051.00    0.53974   0.17043   -2.000
 7052.00    0.55665   0.17026   -2.000
 7053.00    0.56588   0.17007   -2.000
 7054.00    0.56074   0.16971   -2.000
 7055.00    0.53366   0.16935   -2.000
 7056.00    0.47078   0.16916   -2.000
 7057.00    0.45363   0.16907   -2.000
 7058.00    0.50189   0.16882   -2.000
 7059.00    0.53015   0.16836   -2.000
 7060.00    0.53323   0.16806   -2.000
 7061.00    0.49259   0.16799   -2.000
 7062.00    0.40347   0.16786   -2.000
 7063.00    0.43117   0.16751   -2.000
 7064.00    0.57311   0.16717   -2.000
 7065.00    0.57253   0.16705   -2.000
 7066.00    0.44900   0.16698   -2.000
 7067.00    0.39895   0.16678   -2.000
 7068.00    0.40474   0.16643   -2.000
 7069.00    0.45110   0.16621   -2.000
 7070.00    0.52454   0.16613   -2.000
 7071.00    0.53887   0.16600   -2.000
 7072.00    0.51863   0.16580   -2.000
 7073.00    0.52525   0.16558   -2.000
 7074.00    0.54556   0.16539   -2.000
 7075.00    0.57332   0.16513   -2.000
 7076.00    0.60437   0.16493   -2.000
 7077.00    0.52853   0.16479   -2.000
 7078.00    0.41215   0.16460   -2.000
 7079.00    0.40333   0.16425   -2.000
 7080.00    0.42915   0.16393   -2.000
 7081.00    0.41375   0.16387   -2.000
 7082.00    0.38726   0.16378   -2.000
 7083.00    0.44497   0.16346   -2.000
 7084.00    0.52127   0.16291   -2.000
 7085.00    0.46494   0.16267   -2.000
 7086.00    0.38530   0.16276   -2.000
 7087.00    0.44170   0.16264   -2.000
 7088.00    0.51633   0.16210   -2.000
 7089.00    0.46324   0.16163   -2.000
 7090.00    0.39802   0.16175   -2.000
 7091.00    0.42825   0.16186   -2.000
 7092.00    0.46408   0.16157   -2.000
 7093.00    0.47474   0.16095   -2.000
 7094.00    0.48508   0.16079   -2.000
 7095.00    0.53508   0.16110   -2.000
 7096.00    0.58021   0.16116   -2.000
 7097.00    0.50451   0.16070   -2.000
 7098.00    0.43562   0.16025   -2.000
 7099.00    0.45719   0.16053   -2.000
 7100.00    0.47002   0.16083   -2.000
 7101.00    0.40538   0.16069   -2.000
 7102.00    0.35302   0.16018   -2.000
 7103.00    0.38088   0.16006   -2.000
 7104.00    0.40216   0.16043   -2.000
 7105.00    0.39000   0.16065   -2.000
 7106.00    0.37179   0.16036   -2.000
 7107.00    0.32869   0.15995   -2.000
 7108.00    0.33095   0.16012   -2.000
 7109.00    0.48785   0.16043   -2.000
 7110.00    0.60559   0.16043   -2.000
 7111.00    0.61078   0.16006   -2.000
 7112.00    0.59283   0.15982   -2.000
 7113.00    0.51806   0.15997   -2.000
 7114.00    0.45984   0.16023   -2.000
 7115.00    0.43665   0.16014   -2.000
 7116.00    0.42572   0.15975   -2.000
 7117.00    0.43734   0.15956   -2.000
 7118.00    0.44738   0.15968   -2.000
 7119.00    0.45486   0.15986   -2.000
 7120.00    0.49516   0.15968   -2.000
 7121.00    0.58171   0.15925   -2.000
 7122.00    0.63719   0.15904   -2.000
 7123.00    0.65413   0.15929   -2.000
 7124.00    0.58455   0.15944   -2.000
 7125.00    0.42038   0.15910   -2.000
 7126.00    0.41153   0.15863   -2.000
 7127.00    0.55246   0.15858   -2.000
 7128.00    0.55518   0.15892   -2.000
 7129.00    0.44036   0.15892   -2.000
 7130.00    0.35909   0.15844   -2.000
 7131.00    0.30293   0.15807   -2.000
 7132.00    0.35122   0.15832   -2.000
 7133.00    0.46825   0.15859   -2.000
 7134.00    0.49736   0.15839   -2.000
 7135.00    0.47582   0.15797   -2.000
 7136.00    0.46105   0.15787   -2.000
 7137.00    0.44968   0.15821   -2.000
 7138.00    0.44779   0.15829   -2.000
 7139.00    0.45002   0.15796   -2.000
 7140.00    0.43028   0.15773   -2.000
 7141.00    0.40236   0.15790   -2.000
 7142.00    0.44161   0.15809   -2.000
 7143.00    0.50207   0.15804   -2.000
 7144.00    0.43301   0.15789   -2.000
 7145.00    0.32978   0.15781   -2.000
 7146.00    0.34484   0.15792   -2.000
 7147.00    0.38538   0.15797   -2.000
 7148.00    0.36188   0.15792   -2.000
 7149.00    0.32742   0.15791   -2.000
 7150.00    0.36179   0.15788   -2.000
 7151.00    0.40506   0.15781   -2.000
 7152.00    0.38496   0.15790   -2.000
 7153.00    0.35912   0.15807   -2.000
 7154.00    0.39829   0.15802   -2.000
 7155.00    0.44102   0.15778   -2.000
 7156.00    0.41700   0.15769   -2.000
 7157.00    0.39285   0.15793   -2.000
 7158.00    0.48372   0.15813   -2.000
 7159.00    0.57204   0.15793   -2.000
 7160.00    0.60245   0.15761   -2.000
 7161.00    0.61675   0.15768   -2.000
 7162.00    0.42831   0.15802   -2.000
 7163.00    0.27359   0.15807   -2.000
 7164.00    0.40656   0.15773   -2.000
 7165.00    0.55764   0.15748   -2.000
 7166.00    0.82346   0.15768   -2.000
 7167.00    0.98239   0.15793   -2.000
 7168.00    0.61065   0.15784   -2.000
 7169.00    0.34253   0.15757   -2.000
 7170.00    0.49152   0.15748   -2.000
 7171.00    0.58703   0.15761   -2.000
 7172.00    0.50386   0.15772   -2.000
 7173.00    0.44112   0.15759   -2.000
 7174.00    0.43604   0.15740   -2.000
 7175.00    0.43737   0.15736   -2.000
 7176.00    0.45417   0.15740   -2.000
 7177.00    0.46865   0.15747   -2.000
 7178.00    0.47831   0.15738   -2.000
 7179.00    0.48766   0.15719   -2.000
 7180.00    0.49643   0.15707   -2.000
 7181.00    0.50956   0.15714   -2.000
 7182.00    0.52960   0.15722   -2.000
 7183.00    0.53544   0.15707   -2.000
 7184.00    0.52157   0.15685   -2.000
 7185.00    0.51044   0.15683   -2.000
 7186.00    0.50267   0.15704   -2.000
 7187.00    0.49419   0.15697   -2.000
 7188.00    0.48496   0.15661   -2.000
 7189.00    0.42678   0.15643   -2.000
 7190.00    0.32206   0.15666   -2.000
 7191.00    0.31231   0.15691   -2.000
 7192.00    0.38219   0.15664   -2.000
 7193.00    0.40075   0.15619   -2.000
 7194.00    0.38145   0.15622   -2.000
 7195.00    0.39189   0.15668   -2.000
 7196.00    0.42162   0.15672   -2.000
 7197.00    0.44509   0.15620   -2.000
 7198.00    0.46500   0.15589   -2.000
 7199.00    0.44324   0.15623   -2.000
 7200.00    0.40090   0.15665   -2.000
 7201.00    0.30832   0.15642   -2.000
 7202.00    0.19427   0.15591   -2.000
 7203.00    0.18533   0.15589   -2.000
 7204.00    0.21484   0.15639   -2.000
 7205.00    0.41541   0.15659   -2.000
 7206.00    0.66896   0.15621   -2.000
 7207.00    0.56925   0.15585   -2.000
 7208.00    0.37836   0.15608   -2.000
 7209.00    0.39800   0.15650   -2.000
 7210.00    0.46191   0.15645   -2.000
 7211.00    0.43843   0.15619   -2.000
 7212.00    0.40044   0.15615   -2.000
 7213.00    0.23793   0.15644   -2.000
 7214.00    0.05986   0.15661   -2.000
 7215.00    0.16994   0.15646   -2.000
 7216.00    0.30499   0.15634   -2.000
 7217.00    0.41468   0.15651   -2.000
 7218.00    0.52309   0.15677   -2.000
