###################################################################
## OUTPUT of StarlightChains_v04.for    [Cid@UFSC - 01/Apr/2007] ##
###################################################################

## Some input info
KUG0210-078._41_6.txt                    [arq_obs]
Base.CB07.vall.4m                        [arq_base]
Masks.EmLines.NEW.gm                     [arq_masks]
StCv04.C11.config                        [arq_config]
   66                                    [N_base]
    0                                    [N_YAV_components = # of components with extra extinction!]
    0                                    [i_FitPowerLaw (1/0 = Yes/No)]
-9.99                                    [alpha_PowerLaw]
CCM                                      [red_law_option]
 1.458241                                [q_norm = A(l_norm)/A(V)]

## (Re)Sampling Parameters
 3741.00                                 [l_ini (A)]
 7218.00                                 [l_fin (A)]
    1.00                                 [dl    (A)]     (OBS: dl_cushion =    50.00 A)

## Normalization info
 4020.00                                 [l_norm (A) - for base]
 4010.00                                 [llow_norm (A) - window for f_obs]
 4060.00                                 [lupp_norm (A) - window for f_obs]
8.596176E-18                             [fobs_norm (in input units)]

## S/N
 3691.00                                 [llow_SN (A) - window for S/N]
 7268.00                                 [lupp_SN (A) - window for S/N]
   2.042                                 [S/N in S/N window]
   3.320                                 [S/N in norm. window]
   0.007                                 [S/N_err in S/N window]
   0.011                                 [S/N_err in norm. window]
  1.0000                                 [fscale_chi2]

## etc...
    -2007739                             [idum_orig]
  2422                                   [NOl_eff]
  2402                                   [Nl_eff]
    20    NSIGMA                         [Ntot_cliped & clip_method]
  1123780                                [Nglobal_steps]
   7                                     [N_chains]
  43                                     [NEX0s_base = N_base in EX0s-fits]
 0   0   1       20   2.0   1.602E+03    [Clip-Bug, RC-Crash & Burn-In warning-flags, n_censored_weights, wei_nsig_threshold & wei_limit]
    34     33.652     32.805      0.848  [idt_all, wdt_TotTime, wdt_UsrTime & wdt_SysTime (sec)]

## Synthesis Results - Best model ##

 1.65801E-05                             [chi2/Nl_eff]
    38.95458                             [adev (%)]

   103.25780                             [sum-of-x (%)]
 2.02391E-17                             [Flux_tot (units of input spectrum!)]
 3.62739E-14                             [Mini_tot (???)]
 2.09294E-14                             [Mcor_tot (???)]

 146.25                                  [v0_min  (km/s)]
   0.00                                  [vd_min  (km/s)]
 0.6137                                  [AV_min  (mag)]
 0.0000                                  [YAV_min (mag)]

# j     x_j(%)      Mini_j(%)     Mcor_j(%)     age_j(yr)     Z_j      (L/M)_j    YAV?  Mstars   component_j        a/Fe...       SSP_chi2r SSP_adev(%)   SSP_AV   SSP_x(%)
  1     27.9128     1.3787E+00    2.3894E+00    1.000000E+06  0.00400  1.094E-02    0   1.0000   age020_m42            0.0000     1.6473E-05    37.4163   1.3790    99.9660
  2      0.0000     0.0000E+00    0.0000E+00    3.160000E+06  0.00400  4.007E-02    0   0.9999   age045_m42            0.0000     1.8019E-05    37.4455   0.5909   107.6874
  3      0.0000     0.0000E+00    0.0000E+00    5.010000E+06  0.00400  2.539E-02    0   0.9488   age055_m42            0.0000     1.7515E-05    37.5310   0.9496   104.3976
  4      0.0000     0.0000E+00    0.0000E+00    6.610000E+06  0.00400  2.620E-02    0   0.9220   age061_m42            0.0000     1.8483E-05    37.6017   0.5335   107.4132
  5      0.0000     3.7199E-07    5.7134E-07    1.000000E+07  0.00400  1.322E-02    0   0.8862   age070_m42            0.0000     1.8216E-05    38.3782   0.3548   107.4082
  6      0.0000     0.0000E+00    0.0000E+00    1.445000E+07  0.00400  7.883E-03    0   0.8571   age078_m42            0.0000     1.7794E-05    38.4023   0.6837   104.7962
  7      0.0000     0.0000E+00    0.0000E+00    2.512000E+07  0.00400  5.251E-03    0   0.8174   age090_m42            0.0000     1.8356E-05    38.6005   0.2402   107.6487
  8      0.0244     3.6206E-03    4.9265E-03    4.000000E+07  0.00400  3.649E-03    0   0.7851   age104_m42            0.0000     1.8619E-05    38.4390  -0.0122   108.9856
  9      0.0000     0.0000E+00    0.0000E+00    5.500000E+07  0.00400  3.098E-03    0   0.7629   age110_m42            0.0000     1.9280E-05    38.0347   0.0908   110.0314
 10      0.0000     0.0000E+00    0.0000E+00    1.015200E+08  0.00400  2.228E-03    0   0.7207   age116_m42            0.0000     1.9973E-05    37.7898   0.0821   110.7662
 11      0.0000     0.0000E+00    0.0000E+00    2.861200E+08  0.00400  1.093E-03    0   0.6648   age125_m42            0.0000     2.0645E-05    38.1445  -0.4602   113.1680
 12      0.0291     2.3808E-02    2.6264E-02    5.088000E+08  0.00400  6.597E-04    0   0.6365   age130_m42            0.0000     2.1542E-05    37.6558  -0.5279   115.2892
 13      0.0000     0.0000E+00    0.0000E+00    1.434000E+09  0.00400  2.132E-04    0   0.5798   age139_m42            0.0000     2.2064E-05    42.5541  -1.0000   110.5473
 14      0.0001     4.8075E-04    4.4802E-04    4.250000E+09  0.00400  5.895E-05    0   0.5377   age158_m42            0.0000     2.3398E-05    51.8745  -1.0000    98.7325
 15      0.0000     0.0000E+00    0.0000E+00    7.500000E+09  0.00400  3.510E-05    0   0.5212   age171_m42            0.0000     2.5190E-05    56.2985  -1.0000    94.1376
 16      0.0000     0.0000E+00    0.0000E+00    1.300000E+10  0.00400  2.005E-05    0   0.5034   age193_m42            0.0000     2.7065E-05    60.1467  -1.0000    89.9208
 17      0.0000     0.0000E+00    0.0000E+00    1.800000E+10  0.00400  1.525E-05    0   0.4967   age213_m42            0.0000     2.7090E-05    60.8484  -1.0000    89.0805
 18     18.0997     7.8999E-01    1.3692E+00    1.000000E+06  0.00800  1.238E-02    0   1.0000   age020_m52            0.0000     1.6462E-05    37.3772   1.3748   100.1689
 19      2.5580     4.4965E-02    7.7666E-02    3.160000E+06  0.00800  3.074E-02    0   0.9966   age045_m52            0.0000     1.6643E-05    37.4037   1.2918   101.1519
 20      1.8891     3.8260E-02    6.2616E-02    5.010000E+06  0.00800  2.668E-02    0   0.9443   age055_m52            0.0000     1.7303E-05    37.6301   1.0442   103.2571
 21      6.2127     1.5716E-01    2.4997E-01    6.610000E+06  0.00800  2.136E-02    0   0.9177   age061_m52            0.0000     1.7504E-05    38.2283  -0.1559   108.9786
 22      0.0000     0.0000E+00    0.0000E+00    1.000000E+07  0.00800  1.215E-02    0   0.8827   age070_m52            0.0000     1.7902E-05    38.8390   0.5631   106.5417
 23      0.4449     2.7577E-02    4.0875E-02    1.445000E+07  0.00800  8.717E-03    0   0.8552   age078_m52            0.0000     1.7948E-05    38.4263   0.6481   106.2285
 24      0.0000     0.0000E+00    0.0000E+00    2.512000E+07  0.00800  5.592E-03    0   0.8162   age090_m52            0.0000     1.8490E-05    38.7188   0.3023   108.8789
 25      0.0000     0.0000E+00    0.0000E+00    4.000000E+07  0.00800  3.896E-03    0   0.7841   age104_m52            0.0000     1.8944E-05    38.4764   0.1840   110.2843
 26      0.6628     1.6675E-01    2.0883E-01    1.015200E+08  0.00800  2.148E-03    0   0.7226   age116_m52            0.0000     1.9702E-05    38.0358   0.0762   111.0299
 27      0.0000     0.0000E+00    0.0000E+00    2.861200E+08  0.00800  9.925E-04    0   0.6683   age125_m52            0.0000     2.1542E-05    37.6585  -0.4590   116.2455
 28      0.0000     0.0000E+00    0.0000E+00    9.047900E+08  0.00800  3.141E-04    0   0.6138   age135_m52            0.0000     2.2681E-05    39.0275  -1.0000   118.0894
 29      0.0338     1.0614E-01    1.0767E-01    1.434000E+09  0.00800  1.719E-04    0   0.5853   age139_m52            0.0000     2.3681E-05    49.5981  -1.0000   105.3942
 30      0.0000     0.0000E+00    0.0000E+00    2.500000E+09  0.00800  7.872E-05    0   0.5600   age150_m52            0.0000     2.5875E-05    55.4897  -1.0000    97.0925
 31      0.0000     0.0000E+00    0.0000E+00    4.250000E+09  0.00800  4.336E-05    0   0.5426   age158_m52            0.0000     2.5908E-05    55.9703  -1.0000    95.8792
 32      0.7227     1.2361E+01    1.1395E+01    6.250000E+09  0.00800  3.159E-05    0   0.5319   age166_m52            0.0000     2.8643E-05    60.3856  -1.0000    91.0853
 33      0.0000     0.0000E+00    0.0000E+00    1.300000E+10  0.00800  1.361E-05    0   0.5073   age193_m52            0.0000     3.5358E-05    70.0459  -1.0000    78.7531
 34      0.0000     0.0000E+00    0.0000E+00    1.800000E+10  0.00800  9.886E-06    0   0.4990   age213_m52            0.0000     3.7812E-05    71.4284  -1.0000    75.3595
 35      2.8838     1.0092E-01    1.7492E-01    1.000000E+06  0.02000  1.544E-02    0   1.0000   age020_m62            0.0000     1.6447E-05    37.3673   1.3717   100.3862
 36      0.0088     1.2592E-04    2.1514E-04    3.160000E+06  0.02000  3.762E-02    0   0.9858   age045_m62            0.0000     1.6701E-05    37.5409   1.3127   101.2337
 37      0.0000     0.0000E+00    0.0000E+00    5.010000E+06  0.02000  3.296E-02    0   0.9342   age055_m62            0.0000     1.7968E-05    37.5265   0.8906   106.0088
 38      0.3365     1.5755E-02    2.4196E-02    8.710000E+06  0.02000  1.154E-02    0   0.8861   age067_m62            0.0000     1.7316E-05    42.0923   0.2023   105.4726
 39      0.0000     0.0000E+00    0.0000E+00    1.445000E+07  0.02000  7.663E-03    0   0.8472   age078_m62            0.0000     1.7733E-05    39.8192   0.2636   107.7802
 40      0.0000     0.0000E+00    0.0000E+00    2.512000E+07  0.02000  4.532E-03    0   0.8099   age090_m62            0.0000     1.8001E-05    40.0496   0.2676   107.1406
 41      0.0000     0.0000E+00    0.0000E+00    5.500000E+07  0.02000  2.733E-03    0   0.7595   age110_m62            0.0000     1.8828E-05    38.5425   0.1789   109.2525
 42      0.0000     0.0000E+00    0.0000E+00    1.609000E+08  0.02000  1.369E-03    0   0.6985   age120_m62            0.0000     2.0748E-05    37.7763  -0.0545   113.5663
 43      2.0482     1.2279E+00    1.4288E+00    2.861200E+08  0.02000  9.013E-04    0   0.6714   age125_m62            0.0000     2.2240E-05    37.4111  -0.3475   117.6242
 44      0.0000     0.0000E+00    0.0000E+00    5.088000E+08  0.02000  5.028E-04    0   0.6449   age130_m62            0.0000     2.3144E-05    37.3209  -0.8378   123.3494
 45      0.0002     4.0367E-04    4.3230E-04    9.047900E+08  0.02000  2.428E-04    0   0.6179   age135_m62            0.0000     2.2614E-05    39.4118  -1.0000   116.7432
 46      0.7667     3.2800E+00    3.3585E+00    1.434000E+09  0.02000  1.263E-04    0   0.5908   age139_m62            0.0000     2.3834E-05    47.2371  -1.0000   106.9642
 47      5.2221     4.7147E+01    4.6356E+01    2.500000E+09  0.02000  5.985E-05    0   0.5673   age150_m62            0.0000     2.6897E-05    55.3440  -1.0000    97.6960
 48      0.0000     0.0000E+00    0.0000E+00    4.250000E+09  0.02000  3.271E-05    0   0.5468   age158_m62            0.0000     3.1154E-05    61.6866  -1.0000    89.3207
 49      0.0000     0.0000E+00    0.0000E+00    1.000000E+10  0.02000  1.360E-05    0   0.5167   age181_m62            0.0000     3.7256E-05    67.9225  -1.0000    79.6529
 50      0.0000     0.0000E+00    0.0000E+00    1.800000E+10  0.02000  7.124E-06    0   0.5013   age213_m62            0.0000     4.1525E-05    70.8231  -1.0000    73.2207
 51     28.4637     5.9338E-01    1.0282E+00    1.000000E+06  0.05000  2.592E-02    0   0.9998   age020_m72            0.0000     1.6287E-05    37.3171   1.3753   100.2529
 52      0.8899     9.9251E-03    1.6474E-02    3.160000E+06  0.05000  4.845E-02    0   0.9577   age045_m72            0.0000     1.7226E-05    37.5529   1.1724   102.9047
 53      0.0000     0.0000E+00    0.0000E+00    5.010000E+06  0.05000  3.072E-02    0   0.9147   age055_m72            0.0000     1.7421E-05    39.1563   0.7997   104.8274
 54      1.0345     3.8419E-02    5.9108E-02    6.610000E+06  0.05000  1.455E-02    0   0.8877   age061_m72            0.0000     1.7460E-05    44.5101   0.3133   104.7719
 55      0.0000     0.0000E+00    0.0000E+00    1.000000E+07  0.05000  9.074E-03    0   0.8524   age070_m72            0.0000     1.7547E-05    39.6604   0.9779   104.4864
 56      0.0000     0.0000E+00    0.0000E+00    2.512000E+07  0.05000  4.250E-03    0   0.7902   age090_m72            0.0000     1.8349E-05    39.3686   0.6715   106.4867
 57      0.0000     0.0000E+00    0.0000E+00    4.000000E+07  0.05000  3.087E-03    0   0.7618   age104_m72            0.0000     1.8810E-05    39.5303   0.4494   107.9940
 58      0.0000     0.0000E+00    0.0000E+00    1.015200E+08  0.05000  1.700E-03    0   0.7096   age116_m72            0.0000     2.0418E-05    38.1757   0.1228   112.3560
 59      0.0000     0.0000E+00    0.0000E+00    2.861200E+08  0.05000  7.384E-04    0   0.6633   age125_m72            0.0000     2.2783E-05    37.2137  -0.5391   120.6179
 60      0.5269     7.4545E-01    8.2325E-01    5.088000E+08  0.05000  3.819E-04    0   0.6372   age130_m72            0.0000     2.2603E-05    37.0997  -1.0000   123.2563
 61      0.0000     0.0000E+00    0.0000E+00    9.047900E+08  0.05000  1.676E-04    0   0.6110   age135_m72            0.0000     2.4170E-05    45.0481  -1.0000   109.7135
 62      0.0000     0.0000E+00    0.0000E+00    1.434000E+09  0.05000  8.837E-05    0   0.5874   age139_m72            0.0000     2.7473E-05    55.3311  -1.0000    99.0368
 63      2.4866     3.1742E+01    3.0797E+01    2.500000E+09  0.05000  4.233E-05    0   0.5598   age150_m72            0.0000     3.1671E-05    61.4950  -1.0000    90.0184
 64      0.0000     0.0000E+00    0.0000E+00    6.250000E+09  0.05000  1.435E-05    0   0.5249   age166_m72            0.0000     3.8808E-05    69.6488  -1.0000    76.8076
 65      0.0000     0.0000E+00    0.0000E+00    1.300000E+10  0.05000  6.513E-06    0   0.5036   age193_m72            0.0000     4.4580E-05    73.2575  -1.0000    69.6629
 66      0.0000     0.0000E+00    0.0000E+00    1.800000E+10  0.05000  4.527E-06    0   0.4945   age213_m72            0.0000     4.7910E-05    74.9568  -1.0000    65.0845


## Synthesis Results - Average & Chains ##

# j      x_j: min, <> & last-chain-values for 1 ...  7 chains
  1     27.9128      1.0131      0.3929      2.0076      0.1525      0.1451      0.1779      0.0540      0.0000
  2      0.0000      1.1091      0.0000      0.0000      0.2223      0.1335      0.1132      0.0000      4.7471
  3      0.0000      0.8897      0.2988      3.1071      0.0559      0.1858      0.0150      0.0358      0.0000
  4      0.0000      1.0809      0.2894      1.4895      0.0000      0.0000      0.7255      0.4398      0.0000
  5      0.0000      1.0394      0.5290      2.3488      0.1249      0.5502      0.0481      0.0309      0.7722
  6      0.0000      1.0763      0.0000      0.4516      0.4202      0.0237      0.0000      0.0186      0.3201
  7      0.0000      0.7732      0.4879      1.3140      0.2249      0.0159      0.0760      0.0000      0.2926
  8      0.0244      0.7684      0.5287      1.5958      0.0000      0.0949      0.0833      0.0414      0.1593
  9      0.0000      0.8616      0.6135      0.0000      0.1135      0.0073      0.0583      0.0588      1.3607
 10      0.0000      1.0876      0.0000      1.5406      0.0727      0.5258      0.0000      0.0680      0.0000
 11      0.0000      1.1491      0.3111      1.1712      0.4020      0.3076      0.0000      0.0000      3.0962
 12      0.0291      0.9357      0.0953      3.6421      0.0000      0.1498      0.0659      0.0690      1.6485
 13      0.0000      0.9742      0.0775      0.0000      0.1575      0.4520      0.1363      0.0000      0.0000
 14      0.0001      1.0340      0.0000      5.2084      0.3158      0.0000      0.0473      0.4572      0.0000
 15      0.0000      0.6771      0.1942      0.2278      0.0731      1.2117      0.0216      0.0000      0.0000
 16      0.0000      0.9713      0.2282      0.0000      0.2848      0.6019      0.0197      0.0000      0.0000
 17      0.0000      0.8941      0.5932      0.7139      0.1020      0.0000      0.0330      0.0000      0.5766
 18     18.0997      0.7310      0.0000      1.0776      0.0000      0.6360      0.1689      0.7216      0.0000
 19      2.5580      0.9435      0.0000      6.0915      0.0625      0.0000      0.0226      0.0000      2.6300
 20      1.8891      1.4722      0.5145     10.3021      0.0650      0.1689      0.0404      0.0010     11.2282
 21      6.2127      1.0478      0.9161      2.4367      0.2080      0.2466      0.0000      0.0000      0.0000
 22      0.0000      1.4794      0.2122      0.0000      0.0710      0.7249      0.0000      0.0792      0.0000
 23      0.4449      0.9919      0.0041      1.0638      0.0980      0.1081      0.0106      0.0605      0.0000
 24      0.0000      0.8263      0.5712      0.3794      0.0505      0.1084      0.4688      0.3946      1.7139
 25      0.0000      0.9161      0.4659      0.1302      0.5876      0.3727      0.0479      0.0000      0.0000
 26      0.6628      0.9353      0.0000      1.7508      0.1180      0.0646      0.0398      0.0000      1.6288
 27      0.0000      0.7505      0.0000      0.0000      0.4516      0.4231      0.0318      0.0744      0.0000
 28      0.0000      1.0191      0.0263      0.0000      0.0000      0.2372      0.0523      0.1024      0.2598
 29      0.0338      0.7993      0.0000      0.4810      0.0558      0.0000      0.0171      0.0119      0.9881
 30      0.0000      1.1185      0.0141      0.0000      0.0000      0.0709      0.0315      0.1332      0.0000
 31      0.0000      1.1274      0.1366      0.0000      0.0000      0.0326      0.0590      0.0023      0.9534
 32      0.7227      0.9369      0.2172      0.8197      0.0048      0.0000      0.0000      0.0292      0.0000
 33      0.0000      1.1739      0.0000      1.0403      0.5930      0.0000      0.0000      0.1994      0.0000
 34      0.0000      0.8862      0.2221      2.1578      0.0650      0.0000      0.1190      0.0598      0.0000
 35      2.8838      0.9054      0.0000      2.8410      0.3435      0.7442      0.0189      0.1095      1.9141
 36      0.0088      1.0774      0.6766      1.2078      0.1141      0.3316      0.0000      0.1032      2.4652
 37      0.0000      1.1224      0.2876      3.6764      0.2858      0.5695      0.0865      0.4793      0.5716
 38      0.3365      1.0932      0.3249      0.8325      0.0749      0.2375      0.0405      0.6603      2.2242
 39      0.0000      0.8483      0.1630      1.7672      0.1172      0.1192      0.0937      0.1088      1.0407
 40      0.0000      0.9055      0.6845      1.6396      0.7696      0.0523      0.2564      0.3095      1.1185
 41      0.0000      0.9195      0.0000      0.0000      0.1254      0.2346      0.0404      0.0000      1.5795
 42      0.0000      1.0088      0.0000      0.7308      0.0967      0.0000      0.0975      0.1739      2.5687
 43      2.0482      0.9978      0.0000      1.4927      0.2095      0.3599      0.0000      0.0000      1.6492
 44      0.0000      0.8018      0.0000      0.6595      0.0537      0.0000      0.0651      0.0032      0.7519
 45      0.0002      1.0213      0.5512      0.6014      0.1878      0.0000      0.0774      0.0000      2.1875
 46      0.7667      0.9212      0.0000      0.6115      0.0087      0.0000      0.2266      0.0273      3.5389
 47      5.2221      0.6428      0.0000      0.7467      0.0318      0.0000      0.1097      0.0000      0.0000
 48      0.0000      1.1418      0.9723      0.0000      0.0000      0.3519      0.0000      0.2223      0.5894
 49      0.0000      0.9133      0.0768      2.5963      0.0399      0.0000      0.0000      0.0000      1.1691
 50      0.0000      1.2573      1.0670      0.0052      0.9827      1.1677      0.9770      0.5736      0.0326
 51     28.4637      0.9691      0.3829      2.9144      0.2040      0.2975      0.1575      0.0470      0.9365
 52      0.8899      1.1461      0.8275      1.7823      0.4276      0.0145      0.8564      0.0000      4.0063
 53      0.0000      1.0909      0.0000      2.1065      0.1413      0.0624      1.1339      0.0385      0.0000
 54      1.0345      1.0153      0.5112      0.5650      0.0000      1.3322      0.0727      0.1244      0.0619
 55      0.0000      0.7839      0.0000      0.9185      0.4534      0.0834      0.0000      0.0766      4.2365
 56      0.0000      5.5744     14.2062      2.9826     15.6503     14.6354     16.5132     11.6804      6.9112
 57      0.0000     18.9529     53.2746      0.0262     56.4376     53.6933     58.9884     62.8199      6.6493
 58      0.0000      0.7784      0.4060      2.1138      0.0000      0.0000      0.0582      0.5136      0.7645
 59      0.0000      0.8301      0.4982      0.0000      0.1595      0.1778      0.0000      0.0000      1.2866
 60      0.5269      0.7966      0.3777      1.6282      0.2214      0.0451      0.0166      0.0601      2.3749
 61      0.0000      0.8908      0.0000      0.0000      0.0649      0.0215      0.0130      0.0000      0.0000
 62      0.0000      0.6246      0.0000      0.0000      0.0000      0.2024      0.0000      0.0000      0.8465
 63      2.4866      0.7827      0.1419      1.5143      0.0000      0.0000      0.0093      0.1384      0.1733
 64      0.0000      0.9204      0.6060      0.3387      0.5701      0.7012      0.3234      0.9921      1.8012
 65      0.0000      1.2795      0.5705      0.0000      1.6911      1.5888      1.8401      1.7941      1.0831
 66      0.0000      1.7816      2.6243      0.0787      2.7820      2.7558      2.4838      3.1577      1.6279

# j      m_j: min, <> & last-chain-values for 1 ...  7 chains
  1  2.3894E+00  1.2816E-02  6.9928E-03  4.5445E-02  2.3760E-03  2.2385E-03  3.0998E-03  8.2141E-04  0.0000E+00
  2  0.0000E+00  3.8302E-03  0.0000E+00  0.0000E+00  9.4575E-04  5.6222E-04  5.3827E-04  0.0000E+00  2.5337E-02
  3  0.0000E+00  4.6010E-03  2.1738E-03  2.8753E-02  3.5645E-04  1.1717E-03  1.0669E-04  2.2287E-04  0.0000E+00
  4  0.0000E+00  5.2638E-03  1.9830E-03  1.2980E-02  0.0000E+00  0.0000E+00  4.8656E-03  2.5760E-03  0.0000E+00
  5  5.7134E-07  9.6422E-03  6.9052E-03  3.8990E-02  1.4277E-03  6.2236E-03  6.1395E-04  3.4491E-04  1.1072E-02
  6  0.0000E+00  1.6194E-02  0.0000E+00  1.2159E-02  7.7884E-03  4.3477E-04  0.0000E+00  3.3586E-04  7.4436E-03
  7  0.0000E+00  1.6657E-02  1.4788E-02  5.0652E-02  5.9690E-03  4.1727E-04  2.2549E-03  0.0000E+00  9.7434E-03
  8  4.9265E-03  2.2879E-02  2.2150E-02  8.5023E-02  0.0000E+00  3.4443E-03  3.4177E-03  1.4837E-03  7.3299E-03
  9  0.0000E+00  2.9364E-02  2.9416E-02  0.0000E+00  4.7648E-03  3.0265E-04  2.7376E-03  2.4118E-03  7.1668E-02
 10  0.0000E+00  4.8687E-02  0.0000E+00  1.2341E-01  4.0079E-03  2.8705E-02  0.0000E+00  3.6607E-03  0.0000E+00
 11  0.0000E+00  9.6722E-02  3.6843E-02  1.7640E-01  4.1689E-02  3.1571E-02  0.0000E+00  0.0000E+00  4.0280E-01
 12  2.6264E-02  1.2494E-01  1.7903E-02  8.7020E-01  0.0000E+00  2.4396E-02  1.2120E-02  1.1082E-02  3.4020E-01
 13  0.0000E+00  3.6665E-01  4.1055E-02  0.0000E+00  7.3004E-02  2.0742E-01  7.0632E-02  0.0000E+00  0.0000E+00
 14  4.4802E-04  1.3053E+00  0.0000E+00  1.1765E+01  4.9110E-01  0.0000E+00  8.2166E-02  6.9402E-01  0.0000E+00
 15  0.0000E+00  1.3915E+00  5.6149E-01  8.3778E-01  1.8505E-01  3.0362E+00  6.1112E-02  0.0000E+00  0.0000E+00
 16  0.0000E+00  3.3747E+00  1.1154E+00  0.0000E+00  1.2191E+00  2.5503E+00  9.4040E-02  0.0000E+00  0.0000E+00
 17  0.0000E+00  4.0302E+00  3.7618E+00  5.7579E+00  5.6632E-01  0.0000E+00  2.0493E-01  0.0000E+00  4.0172E+00
 18  1.3692E+00  8.1719E-03  0.0000E+00  2.1555E-02  0.0000E+00  8.6695E-03  2.6005E-03  9.7011E-03  0.0000E+00
 19  7.7666E-02  4.2329E-03  0.0000E+00  4.8906E-02  3.4561E-04  0.0000E+00  1.3943E-04  0.0000E+00  1.8237E-02
 20  6.2616E-02  7.2112E-03  3.5454E-03  9.0295E-02  3.9231E-04  1.0090E-03  2.7278E-04  5.9902E-06  8.5001E-02
 21  2.4997E-01  6.2297E-03  7.6632E-03  2.5925E-02  1.5232E-03  1.7877E-03  0.0000E+00  0.0000E+00  0.0000E+00
 22  0.0000E+00  1.4874E-02  3.0018E-03  0.0000E+00  8.7949E-04  8.8878E-03  0.0000E+00  9.5706E-04  0.0000E+00
 23  4.0875E-02  1.3466E-02  7.8927E-05  2.5845E-02  1.6397E-03  1.7903E-03  1.9776E-04  9.8709E-04  0.0000E+00
 24  0.0000E+00  1.6691E-02  1.6232E-02  1.3715E-02  1.2577E-03  2.6703E-03  1.3040E-02  9.5863E-03  5.3506E-02
 25  0.0000E+00  2.5516E-02  1.8257E-02  6.4891E-03  2.0162E-02  1.2659E-02  1.8367E-03  0.0000E+00  0.0000E+00
 26  2.0883E-01  4.3541E-02  0.0000E+00  1.4585E-01  6.7699E-03  3.6646E-03  2.5522E-03  0.0000E+00  1.1720E-01
 27  0.0000E+00  6.9938E-02  0.0000E+00  0.0000E+00  5.1841E-02  4.8078E-02  4.0771E-03  8.3372E-03  0.0000E+00
 28  0.0000E+00  2.7560E-01  9.9953E-03  0.0000E+00  0.0000E+00  7.8217E-02  1.9492E-02  3.3289E-02  1.0859E-01
 29  1.0767E-01  3.7664E-01  0.0000E+00  4.0556E-01  3.2406E-02  0.0000E+00  1.1095E-02  6.7184E-03  7.1959E-01
 30  0.0000E+00  1.1011E+00  1.9546E-02  0.0000E+00  0.0000E+00  8.5112E-02  4.2704E-02  1.5765E-01  0.0000E+00
 31  0.0000E+00  1.9524E+00  3.3277E-01  0.0000E+00  0.0000E+00  6.8845E-02  1.4078E-01  4.8541E-03  2.5518E+00
 32  1.1395E+01  2.1831E+00  7.1200E-01  3.4179E+00  1.3666E-02  0.0000E+00  0.0000E+00  8.1802E-02  0.0000E+00
 33  0.0000E+00  6.0555E+00  0.0000E+00  9.6022E+00  3.7684E+00  0.0000E+00  0.0000E+00  1.2367E+00  0.0000E+00
 34  0.0000E+00  6.1904E+00  2.1824E+00  2.6972E+01  5.5973E-01  0.0000E+00  1.1447E+00  5.0266E-01  0.0000E+00
 35  1.7492E-01  8.1148E-03  0.0000E+00  4.5567E-02  3.7932E-03  8.1342E-03  2.3323E-04  1.1802E-03  2.6516E-02
 36  2.1514E-04  3.9071E-03  3.4522E-03  7.8376E-03  5.0992E-04  1.4666E-03  0.0000E+00  4.4991E-04  1.3817E-02
 37  0.0000E+00  4.4027E-03  1.5871E-03  2.5804E-02  1.3811E-03  2.7239E-03  4.6739E-04  2.2607E-03  3.4649E-03
 38  2.4196E-02  1.1616E-02  4.8576E-03  1.5830E-02  9.8045E-04  3.0777E-03  5.9341E-04  8.4381E-03  3.6528E-02
 39  0.0000E+00  1.2979E-02  3.5085E-03  4.8383E-02  2.2086E-03  2.2239E-03  1.9746E-03  2.0023E-03  2.4610E-02
 40  0.0000E+00  2.2393E-02  2.3819E-02  7.2561E-02  2.3447E-02  1.5779E-03  8.7329E-03  9.2048E-03  4.2753E-02
 41  0.0000E+00  3.5361E-02  0.0000E+00  0.0000E+00  5.9389E-03  1.1001E-02  2.1423E-03  0.0000E+00  9.3886E-02
 42  0.0000E+00  7.1233E-02  0.0000E+00  9.2334E-02  8.4116E-03  0.0000E+00  9.4788E-03  1.4766E-02  2.8033E-01
 43  1.4288E+00  1.0286E-01  0.0000E+00  2.7536E-01  2.6612E-02  4.5239E-02  0.0000E+00  0.0000E+00  2.6276E-01
 44  0.0000E+00  1.4231E-01  0.0000E+00  2.0948E-01  1.1734E-02  0.0000E+00  1.5904E-02  6.8558E-04  2.0627E-01
 45  4.3230E-04  3.5970E-01  2.7311E-01  3.7900E-01  8.1491E-02  0.0000E+00  3.7538E-02  0.0000E+00  1.1907E+00
 46  3.3585E+00  5.9635E-01  0.0000E+00  7.0833E-01  6.9244E-03  0.0000E+00  2.0201E-01  2.1279E-02  3.5407E+00
 47  4.6356E+01  8.4317E-01  0.0000E+00  1.7528E+00  5.1388E-02  0.0000E+00  1.9810E-01  0.0000E+00  0.0000E+00
 48  0.0000E+00  2.6414E+00  3.1646E+00  0.0000E+00  0.0000E+00  9.9267E-01  0.0000E+00  6.1856E-01  2.1074E+00
 49  0.0000E+00  4.8020E+00  5.6776E-01  2.4427E+01  2.5870E-01  0.0000E+00  0.0000E+00  0.0000E+00  9.5000E+00
 50  0.0000E+00  1.2244E+01  1.4619E+01  9.0751E-02  1.1789E+01  1.3866E+01  1.3103E+01  6.7178E+00  4.9028E-01
 51  1.0282E+00  5.1731E-03  2.8757E-03  2.7838E-02  1.3417E-03  1.9362E-03  1.1576E-03  3.0179E-04  7.7268E-03
 52  1.6474E-02  3.1352E-03  3.1848E-03  8.7245E-03  1.4410E-03  4.8288E-05  3.2263E-03  0.0000E+00  1.6938E-02
 53  0.0000E+00  4.4953E-03  0.0000E+00  1.5532E-02  7.1705E-04  3.1340E-04  6.4347E-03  1.9090E-04  0.0000E+00
 54  5.9108E-02  8.5722E-03  6.0725E-03  8.5356E-03  0.0000E+00  1.3716E-02  8.4512E-04  1.2634E-03  8.0835E-04
 55  0.0000E+00  1.0190E-02  0.0000E+00  2.1366E-02  7.2613E-03  1.3224E-03  0.0000E+00  1.1976E-03  8.5122E-02
 56  0.0000E+00  1.4343E-01  5.1430E-01  1.3733E-01  4.9609E-01  4.5921E-01  5.8515E-01  3.6143E-01  2.7485E-01
 57  0.0000E+00  6.4727E-01  2.5598E+00  1.5999E-03  2.3744E+00  2.2360E+00  2.7743E+00  2.5800E+00  3.5097E-01
 58  0.0000E+00  4.4964E-02  3.2996E-02  2.1850E-01  0.0000E+00  0.0000E+00  4.6337E-03  3.5681E-02  6.8254E-02
 59  0.0000E+00  1.0319E-01  8.7131E-02  0.0000E+00  2.4430E-02  2.6949E-02  0.0000E+00  0.0000E+00  2.4720E-01
 60  8.2325E-01  1.8393E-01  1.2269E-01  6.7275E-01  6.2966E-02  1.2700E-02  5.2790E-03  1.6679E-02  8.4753E-01
 61  0.0000E+00  4.4942E-01  0.0000E+00  0.0000E+00  4.0367E-02  1.3209E-02  9.0424E-03  0.0000E+00  0.0000E+00
 62  0.0000E+00  5.7455E-01  0.0000E+00  0.0000E+00  0.0000E+00  2.2709E-01  0.0000E+00  0.0000E+00  1.2035E+00
 63  3.0797E+01  1.4325E+00  3.6549E-01  4.9592E+00  0.0000E+00  0.0000E+00  2.3341E-02  3.0463E-01  4.9016E-01
 64  0.0000E+00  4.6592E+00  4.3162E+00  3.0676E+00  3.5552E+00  4.3285E+00  2.2545E+00  6.0393E+00  1.4092E+01
 65  0.0000E+00  1.3691E+01  8.5887E+00  0.0000E+00  2.2292E+01  2.0731E+01  2.7117E+01  2.3087E+01  1.7913E+01
 66  0.0000E+00  2.6933E+01  5.5815E+01  2.1291E+00  5.1808E+01  5.0799E+01  5.1708E+01  5.7405E+01  3.8035E+01

# AV, chi2 & Mass for <> & i_chain = 1 ...  7 solutions
AV       0.6137      0.4905      0.4450      0.4241      0.4195      0.3822      0.5172      0.4120      0.3691
chi2 1.6580E-05  2.4515E-05  2.1897E-05  2.0953E-05  2.1902E-05  2.1852E-05  2.1833E-05  2.1933E-05  2.1527E-05
Mass 2.0929E-14  1.2004E-13  8.0258E-14  6.1353E-14  8.8578E-14  8.5114E-14  9.0346E-14  8.9822E-14  6.5976E-14
 146.25                                  [v0_min (km/s) before EX0s...]
   0.00                                  [vd_min (km/s) before EX0s...]


## Synthetic spectrum (Best Model) ##l_obs f_obs f_syn wei
 3478    [Nl_obs]
 3741.00    0.81636   1.06281    0.000
 3742.00    0.82604   1.08092    0.000
 3743.00    1.03482   1.08793    0.000
 3744.00    1.50362   1.08471    0.000
 3745.00    2.12391   1.07477    0.028
 3746.00    2.30436   1.06081    0.027
 3747.00    2.26146   1.04040    0.027
 3748.00    1.67240   1.01621    0.026
 3749.00    0.84319   0.98660    0.026
 3750.00    0.87099   0.94263    0.026
 3751.00    1.22234   0.89649    0.025
 3752.00    1.25507   0.88323    0.025
 3753.00    1.18568   0.91518    0.024
 3754.00    1.12784   0.96497    0.024
 3755.00    1.07310   1.00072    0.024
 3756.00    0.67211   1.01858    0.024
 3757.00    0.19512   1.03815    0.023
 3758.00    0.01048   1.05485    0.023
 3759.00   -0.12312   1.05253    0.000
 3760.00   -0.10568   1.04792    0.000
 3761.00   -0.06817   1.04152    0.000
 3762.00    0.10042   1.04486    0.022
 3763.00    0.28133   1.06709    0.022
 3764.00    0.42740   1.07867    0.022
 3765.00    0.57146   1.07596    0.022
 3766.00    0.68387   1.07073    0.022
 3767.00    0.79976   1.05746    0.022
 3768.00    1.42999   1.03029    0.023
 3769.00    2.01327   0.99498    0.023
 3770.00    1.45612   0.95410    0.022
 3771.00    0.93372   0.90216    0.022
 3772.00    0.86665   0.85687    0.022
 3773.00    0.81683   0.85838    0.022
 3774.00    0.91843   0.90659    0.022
 3775.00    1.01647   0.95638    0.022
 3776.00    1.09148   0.99394    0.022
 3777.00    1.09584   1.03094    0.023
 3778.00    0.74265   1.06044    0.023
 3779.00    0.47996   1.07812    0.023
 3780.00    0.58766   1.09121    0.023
 3781.00    0.69179   1.10426    0.022
 3782.00    0.78380   1.11630    0.023
 3783.00    0.74184   1.12194    0.023
 3784.00    0.31670   1.12338    0.023
 3785.00    0.28825   1.12564    0.023
 3786.00    1.22902   1.12606    0.023
 3787.00    1.90294   1.11844    0.023
 3788.00    2.01442   1.10693    0.023
 3789.00    2.07098   1.09958    0.023
 3790.00    2.02694   1.09342    0.023
 3791.00    1.93692   1.08270    0.023
 3792.00    1.77331   1.06486    0.023
 3793.00    1.54568   1.04499    0.022
 3794.00    1.22813   1.03138    0.022
 3795.00    0.97598   1.01305    0.021
 3796.00    0.80466   0.97864    0.021
 3797.00    0.68427   0.93085    0.021
 3798.00    0.61935   0.86954    0.021
 3799.00    0.84592   0.80768    0.021
 3800.00    1.35261   0.78862    0.022
 3801.00    1.73272   0.83429    0.022
 3802.00    2.00557   0.90636    0.023
 3803.00    1.79768   0.96584    0.023
 3804.00    1.23106   1.00816    0.022
 3805.00    1.23231   1.04038    0.022
 3806.00    1.60583   1.06151    0.022
 3807.00    1.62789   1.07033    0.022
 3808.00    1.44827   1.07274    0.022
 3809.00    1.29115   1.08043    0.022
 3810.00    1.14527   1.09565    0.022
 3811.00    0.73045   1.10809    0.022
 3812.00    0.19933   1.11392    0.022
 3813.00    0.23148   1.11431    0.022
 3814.00    0.47253   1.10925    0.022
 3815.00    0.35285   1.10012    0.021
 3816.00    0.11978   1.09334    0.021
 3817.00    0.22999   1.08972    0.021
 3818.00    0.43024   1.08814    0.021
 3819.00    0.68942   1.08406    0.021
 3820.00    0.96121   1.05710    0.022
 3821.00    0.92564   1.01096    0.021
 3822.00    0.83791   1.00031    0.021
 3823.00    0.72723   1.03931    0.021
 3824.00    0.61360   1.07552    0.021
 3825.00   -0.04435   1.08371    0.000
 3826.00   -0.75117   1.07409    0.000
 3827.00   -0.13561   1.06207    0.000
 3828.00    0.55103   1.05396    0.021
 3829.00    0.99945   1.04536    0.021
 3830.00    1.43749   1.03315    0.021
 3831.00    1.40269   1.01657    0.021
 3832.00    1.36685   0.99481    0.021
 3833.00    1.30787   0.96159    0.021
 3834.00    1.24506   0.91275    0.021
 3835.00    1.13458   0.85052    0.021
 3836.00    1.05329   0.78064    0.021
 3837.00    1.21863   0.73471    0.021
 3838.00    1.35543   0.75365    0.022
 3839.00    1.31258   0.81857    0.022
 3840.00    1.25067   0.88167    0.022
 3841.00    1.09475   0.93130    0.022
 3842.00    0.91592   0.97008    0.021
 3843.00    0.64545   1.00172    0.021
 3844.00    0.43501   1.02883    0.021
 3845.00    0.42409   1.04765    0.021
 3846.00    0.61293   1.05902    0.021
 3847.00    1.36271   1.06650    0.000
 3848.00    1.92627   1.07339    0.000
 3849.00    2.04259   1.08166    0.000
 3850.00    2.09150   1.08596    0.000
 3851.00    2.00062   1.08354    0.000
 3852.00    1.70641   1.08192    0.000
 3853.00    1.04543   1.08771    0.000
 3854.00    0.64968   1.09430    0.000
 3855.00    0.67220   1.09341    0.000
 3856.00    0.72509   1.08857    0.000
 3857.00    0.82000   1.08151    0.000
 3858.00    0.92231   1.07580    0.000
 3859.00    1.03362   1.07617    0.000
 3860.00    1.06313   1.07504    0.000
 3861.00    1.00477   1.07024    0.000
 3862.00    0.99868   1.07153    0.000
 3863.00    1.04213   1.07985    0.000
 3864.00    0.95076   1.08728    0.000
 3865.00    0.74677   1.08946    0.000
 3866.00    0.70329   1.08770    0.000
 3867.00    0.77785   1.08421    0.000
 3868.00    0.68344   1.07807    0.000
 3869.00    0.47987   1.06887    0.000
 3870.00    0.40017   1.07043    0.000
 3871.00    0.39048   1.07867    0.000
 3872.00    0.71605   1.07415    0.000
 3873.00    1.20654   1.05684    0.000
 3874.00    1.30039   1.04500    0.000
 3875.00    1.22556   1.05140    0.000
 3876.00    1.08971   1.06349    0.000
 3877.00    0.93163   1.06498    0.000
 3878.00    0.87857   1.05786    0.000
 3879.00    0.85788   1.04892    0.000
 3880.00    0.61362   1.03912    0.000
 3881.00    0.31196   1.03516    0.019
 3882.00    0.74263   1.03274    0.019
 3883.00    1.32641   1.01861    0.019
 3884.00    1.41477   0.99657    0.020
 3885.00    1.42144   0.97701    0.020
 3886.00    1.48200   0.95627    0.020
 3887.00    1.54923   0.91806    0.021
 3888.00    1.33103   0.86182    0.021
 3889.00    1.08840   0.79474    0.021
 3890.00    1.02357   0.72131    0.021
 3891.00    0.96761   0.68774    0.020
 3892.00    0.79369   0.73520    0.020
 3893.00    0.61890   0.82059    0.020
 3894.00    0.51228   0.88980    0.020
 3895.00    0.42771   0.93616    0.019
 3896.00    0.79410   0.96744    0.020
 3897.00    1.12767   0.98880    0.020
 3898.00    1.07302   1.00781    0.019
 3899.00    1.00326   1.02355    0.018
 3900.00    0.81029   1.03048    0.018
 3901.00    0.62738   1.03341    0.017
 3902.00    0.50592   1.04191    0.017
 3903.00    0.40301   1.05346    0.017
 3904.00    0.38940   1.05755    0.016
 3905.00    0.35246   1.05548    0.016
 3906.00    0.22415   1.05624    0.016
 3907.00    0.14162   1.05486    0.016
 3908.00    0.20833   1.05413    0.016
 3909.00    0.30738   1.06146    0.017
 3910.00    0.49561   1.07114    0.017
 3911.00    0.62050   1.07638    0.017
 3912.00    0.59578   1.07669    0.018
 3913.00    0.64187   1.07492    0.018
 3914.00    0.83247   1.07318    0.018
 3915.00    0.92204   1.07226    0.018
 3916.00    0.83215   1.07202    0.018
 3917.00    0.74084   1.07191    0.018
 3918.00    0.64732   1.06911    0.019
 3919.00    0.75142   1.06412    0.019
 3920.00    1.12518   1.05545    0.019
 3921.00    1.27744   1.04166    0.019
 3922.00    1.16362   1.03059    0.019
 3923.00    1.02176   1.02656    0.019
 3924.00    0.85018   1.02561    0.019
 3925.00    0.99637   1.02151    0.019
 3926.00    1.43941   1.01990    0.020
 3927.00    1.36590   1.01796    0.020
 3928.00    0.86699   1.01076    0.020
 3929.00    0.56061   1.00884    0.020
 3930.00    0.39382   1.01207    0.020
 3931.00    0.78911   1.01143    0.020
 3932.00    1.54212   1.00731    0.020
 3933.00    1.68787   0.99932    0.020
 3934.00    1.49568   0.98774    0.020
 3935.00    1.22734   0.97342    0.020
 3936.00    0.92214   0.96599    0.020
 3937.00    0.68895   0.97516    0.020
 3938.00    0.48586   0.99320    0.020
 3939.00    0.89062   1.00857    0.020
 3940.00    1.51281   1.01868    0.020
 3941.00    1.38332   1.02764    0.020
 3942.00    1.02663   1.03486    0.020
 3943.00    0.67188   1.03663    0.020
 3944.00    0.31763   1.03544    0.020
 3945.00    0.72182   1.03141    0.020
 3946.00    1.28067   1.02653    0.020
 3947.00    1.38869   1.03044    0.020
 3948.00    1.42452   1.04096    0.020
 3949.00    1.03882   1.04107    0.019
 3950.00    0.60278   1.03497    0.019
 3951.00    0.90127   1.03745    0.019
 3952.00    1.25958   1.04397    0.019
 3953.00    1.54008   1.04434    0.019
 3954.00    1.81700   1.03702    0.019
 3955.00    1.91274   1.03175    0.019
 3956.00    2.00161   1.03146    0.019
 3957.00    1.85230   1.02890    0.019
 3958.00    1.69810   1.02156    0.019
 3959.00    1.45134   1.01661    0.019
 3960.00    1.21882   1.01704    0.000
 3961.00    1.14672   1.01333    0.000
 3962.00    1.08976   0.99541    0.000
 3963.00    1.15173   0.96278    0.000
 3964.00    1.17920   0.93996    0.000
 3965.00    1.00192   0.92813    0.000
 3966.00    0.77941   0.90222    0.000
 3967.00    0.34449   0.86909    0.000
 3968.00    0.09414   0.83653    0.000
 3969.00    0.55110   0.78729    0.000
 3970.00    0.83785   0.71716    0.000
 3971.00    0.58053   0.64308    0.000
 3972.00    0.46984   0.61224    0.000
 3973.00    0.75630   0.65930    0.000
 3974.00    0.94207   0.74405    0.000
 3975.00    0.89406   0.81433    0.000
 3976.00    0.86110   0.86626    0.000
 3977.00    0.85836   0.90666    0.000
 3978.00    0.82113   0.93461    0.000
 3979.00    0.72358   0.95533    0.000
 3980.00    0.73768   0.97432    0.000
 3981.00    0.92271   0.99062    0.020
 3982.00    0.97434   1.00245    0.020
 3983.00    0.84659   1.00599    0.020
 3984.00    0.95704   1.00440    0.020
 3985.00    1.34958   1.00581    0.020
 3986.00    1.43615   1.01249    0.020
 3987.00    1.20324   1.02003    0.020
 3988.00    0.96911   1.02401    0.019
 3989.00    0.73384   1.02750    0.019
 3990.00    0.75785   1.03320    0.019
 3991.00    0.99235   1.03411    0.019
 3992.00    1.38166   1.03193    0.019
 3993.00    1.88158   1.03397    0.019
 3994.00    1.66183   1.03831    0.019
 3995.00    0.99085   1.03967    0.019
 3996.00    0.63519   1.03474    0.019
 3997.00    0.45234   1.02848    0.018
 3998.00    0.60336   1.02638    0.018
 3999.00    0.91342   1.02402    0.018
 4000.00    0.97044   1.02302    0.018
 4001.00    0.92345   1.03109    0.018
 4002.00    0.90892   1.04025    0.018
 4003.00    0.90579   1.04057    0.018
 4004.00    1.02031   1.03789    0.018
 4005.00    1.16970   1.03408    0.018
 4006.00    1.15297   1.02536    0.018
 4007.00    1.09543   1.01311    0.018
 4008.00    1.37104   1.01052    0.018
 4009.00    1.71288   1.01630    0.018
 4010.00    1.85720   1.01597    0.018
 4011.00    1.97083   1.00990    0.018
 4012.00    1.42944   1.01286    0.018
 4013.00    0.81274   1.02269    0.018
 4014.00    0.88383   1.02888    0.018
 4015.00    1.00809   1.03158    0.018
 4016.00    1.04355   1.03343    0.018
 4017.00    1.07526   1.03562    0.018
 4018.00    0.97108   1.03534    0.018
 4019.00    0.87345   1.03033    0.018
 4020.00    1.11722   1.02929    0.018
 4021.00    1.33702   1.03337    0.018
 4022.00    1.13408   1.03225    0.018
 4023.00    0.95561   1.02361    0.018
 4024.00    1.04046   1.01154    0.018
 4025.00    1.10192   0.99251    0.018
 4026.00    0.98580   0.95551    0.019
 4027.00    0.84268   0.90327    0.019
 4028.00    0.54376   0.87776    0.019
 4029.00    0.42632   0.91499    0.019
 4030.00    1.14059   0.97244    0.019
 4031.00    1.63295   1.00021    0.019
 4032.00    1.29290   1.00128    0.019
 4033.00    0.97326   0.99728    0.018
 4034.00    0.71762   0.99840    0.018
 4035.00    0.59295   1.00019    0.018
 4036.00    0.81671   1.00433    0.018
 4037.00    1.00000   1.01136    0.018
 4038.00    1.09087   1.02242    0.018
 4039.00    1.09696   1.03259    0.018
 4040.00    0.93544   1.03560    0.019
 4041.00    0.89598   1.03236    0.019
 4042.00    1.06678   1.02495    0.019
 4043.00    1.12653   1.02054    0.019
 4044.00    1.01876   1.02335    0.019
 4045.00    0.88179   1.02193    0.019
 4046.00    0.70612   1.00699    0.019
 4047.00    0.80928   0.98945    0.019
 4048.00    1.23799   0.98849    0.019
 4049.00    1.25625   1.00552    0.018
 4050.00    0.85194   1.01890    0.018
 4051.00    0.80802   1.02168    0.018
 4052.00    1.09137   1.02374    0.018
 4053.00    1.03133   1.02366    0.018
 4054.00    0.69646   1.01811    0.018
 4055.00    0.70042   1.01139    0.018
 4056.00    0.94298   1.00472    0.018
 4057.00    0.99690   1.00027    0.018
 4058.00    0.93430   1.00026    0.018
 4059.00    1.04298   1.00147    0.018
 4060.00    1.24408   1.00080    0.018
 4061.00    1.40161   1.00288    0.018
 4062.00    1.53874   1.00646    0.018
 4063.00    1.39378   1.00656    0.018
 4064.00    1.13486   0.99714    0.018
 4065.00    0.96338   0.98378    0.017
 4066.00    0.82205   0.98276    0.017
 4067.00    0.75765   0.99424    0.017
 4068.00    0.71558   0.99614    0.017
 4069.00    0.72441   0.97984    0.017
 4070.00    0.74546   0.96212    0.017
 4071.00    1.00467   0.95443    0.017
 4072.00    1.31004   0.95282    0.017
 4073.00    1.51276   0.95604    0.018
 4074.00    1.70002   0.96568    0.018
 4075.00    1.42685   0.98259    0.018
 4076.00    1.10274   0.99048    0.018
 4077.00    1.09109   0.97652    0.018
 4078.00    1.10232   0.95993    0.017
 4079.00    1.09373   0.95703    0.018
 4080.00    1.08437   0.96392    0.018
 4081.00    0.52711   0.97479    0.017
 4082.00   -0.00958   0.98626    0.000
 4083.00    0.34371   0.99301    0.017
 4084.00    0.69593   0.99136    0.018
 4085.00    1.03078   0.98304    0.018
 4086.00    1.30102   0.97327    0.018
 4087.00    0.90633   0.96937    0.018
 4088.00    0.58658   0.97114    0.018
 4089.00    0.81681   0.97065    0.018
 4090.00    0.98463   0.95411    0.018
 4091.00    0.80241   0.93911    0.018
 4092.00    0.69681   0.94873    0.000
 4093.00    0.93408   0.95797    0.000
 4094.00    1.08168   0.95060    0.000
 4095.00    0.89993   0.94143    0.000
 4096.00    0.80153   0.93158    0.000
 4097.00    0.95946   0.90927    0.000
 4098.00    1.07269   0.87401    0.000
 4099.00    1.06910   0.83465    0.000
 4100.00    1.11778   0.80392    0.000
 4101.00    1.28385   0.76663    0.000
 4102.00    1.36423   0.69766    0.000
 4103.00    1.27789   0.61819    0.000
 4104.00    1.25792   0.59667    0.000
 4105.00    1.35059   0.65630    0.000
 4106.00    1.38383   0.74167    0.000
 4107.00    1.32872   0.80948    0.000
 4108.00    1.22674   0.85561    0.000
 4109.00    1.06352   0.88432    0.000
 4110.00    1.14783   0.90170    0.000
 4111.00    1.51708   0.91257    0.000
 4112.00    1.51240   0.91923    0.000
 4113.00    1.12817   0.92624    0.017
 4114.00    0.88657   0.93571    0.017
 4115.00    0.77269   0.94640    0.017
 4116.00    0.69198   0.95288    0.018
 4117.00    0.63744   0.94584    0.017
 4118.00    0.74449   0.93872    0.017
 4119.00    0.96368   0.94739    0.017
 4120.00    1.08426   0.95132    0.017
 4121.00    1.14485   0.94132    0.017
 4122.00    1.01918   0.93072    0.017
 4123.00    0.79457   0.92896    0.017
 4124.00    0.96504   0.94154    0.026
 4125.00    1.31767   0.95701    0.120
 4126.00    1.18861   0.96632   -1.000
 4127.00    0.86828   0.97150   -1.000
 4128.00    0.75001   0.96902   -1.000
 4129.00    0.70012   0.96068   -1.000
 4130.00    0.62760   0.95350   -1.000
 4131.00    0.54864   0.95465   -1.000
 4132.00    0.59058   0.95516    0.041
 4133.00    0.66089   0.94992    0.018
 4134.00    0.75435   0.94414    0.017
 4135.00    0.85217   0.94533    0.017
 4136.00    0.63138   0.95210    0.017
 4137.00    0.36407   0.96194    0.017
 4138.00    0.51104   0.96973    0.017
 4139.00    0.70202   0.96982    0.017
 4140.00    0.97219   0.96960    0.017
 4141.00    1.24783   0.97172    0.017
 4142.00    1.35958   0.97143    0.017
 4143.00    1.46568   0.96428    0.017
 4144.00    1.36049   0.94177    0.017
 4145.00    1.25026   0.90903    0.017
 4146.00    0.98737   0.90002    0.017
 4147.00    0.73768   0.92554    0.017
 4148.00    0.69208   0.95006    0.017
 4149.00    0.66325   0.95876    0.017
 4150.00    0.79983   0.96013    0.017
 4151.00    0.86772   0.95564    0.017
 4152.00    0.44808   0.95123    0.017
 4153.00    0.14721   0.95194    0.017
 4154.00    0.49473   0.95020    0.017
 4155.00    0.79954   0.94580    0.017
 4156.00    0.91761   0.94433    0.017
 4157.00    0.97667   0.94518    0.017
 4158.00    0.82347   0.94353    0.017
 4159.00    0.69529   0.94434    0.017
 4160.00    0.64258   0.95194    0.017
 4161.00    0.57958   0.95877    0.017
 4162.00    0.49015   0.95933    0.017
 4163.00    0.54000   0.95655    0.017
 4164.00    0.89752   0.95566    0.017
 4165.00    1.07197   0.95639    0.017
 4166.00    0.89575   0.95657    0.017
 4167.00    0.65485   0.95673    0.017
 4168.00    0.30583   0.95457    0.017
 4169.00    0.05822   0.94789    0.017
 4170.00   -0.04082   0.94288    0.000
 4171.00   -0.00358   0.94492    0.000
 4172.00    0.20918   0.94821    0.017
 4173.00    0.22456   0.94263    0.017
 4174.00    0.01594   0.92951    0.017
 4175.00    0.11437   0.92341    0.017
 4176.00    0.52009   0.92824    0.017
 4177.00    0.81105   0.93556    0.017
 4178.00    1.00071   0.93798    0.017
 4179.00    0.89263   0.93525    0.017
 4180.00    0.55298   0.93234    0.017
 4181.00    0.60462   0.93551    0.017
 4182.00    0.92385   0.94144    0.017
 4183.00    0.93976   0.94148    0.017
 4184.00    0.77387   0.93729    0.017
 4185.00    0.52237   0.93664    0.017
 4186.00    0.22610   0.93889    0.017
 4187.00    0.41766   0.94020    0.017
 4188.00    0.83050   0.93344    0.017
 4189.00    1.07940   0.92236    0.017
 4190.00    1.26433   0.92369    0.017
 4191.00    0.98558   0.93150    0.017
 4192.00    0.55283   0.93437    0.017
 4193.00    0.23190   0.93483    0.017
 4194.00   -0.05786   0.93818    0.000
 4195.00    0.05797   0.94459    0.017
 4196.00    0.26685   0.94287    0.017
 4197.00    0.56797   0.92947    0.017
 4198.00    0.88603   0.91505    0.017
 4199.00    0.72503   0.90256    0.017
 4200.00    0.49628   0.88208    0.016
 4201.00    0.34622   0.85882    0.017
 4202.00    0.20420   0.85466    0.017
 4203.00    0.37334   0.86974    0.016
 4204.00    0.56275   0.88856    0.016
 4205.00    0.63953   0.90532    0.016
 4206.00    0.71285   0.91703    0.016
 4207.00    0.78718   0.92272    0.016
 4208.00    0.85390   0.92850    0.016
 4209.00    0.69732   0.93394    0.016
 4210.00    0.56584   0.93704    0.017
 4211.00    0.79983   0.93558    0.016
 4212.00    0.99503   0.93241    0.016
 4213.00    0.82327   0.93069    0.016
 4214.00    0.66812   0.92930    0.016
 4215.00    0.62714   0.92952    0.016
 4216.00    0.59632   0.92812    0.016
 4217.00    0.61952   0.91906    0.016
 4218.00    0.65082   0.91542    0.016
 4219.00    0.71668   0.92609    0.016
 4220.00    0.74921   0.93661    0.016
 4221.00    0.66432   0.93976    0.016
 4222.00    0.52381   0.94090    0.016
 4223.00    0.21860   0.94138    0.016
 4224.00    0.08944   0.93589    0.016
 4225.00    0.40456   0.92672    0.016
 4226.00    0.63856   0.91674    0.016
 4227.00    0.69625   0.90282    0.016
 4228.00    0.74051   0.88602    0.016
 4229.00    0.75943   0.88109    0.016
 4230.00    0.72241   0.89881    0.015
 4231.00    0.59331   0.92073    0.015
 4232.00    0.51711   0.93098    0.015
 4233.00    0.51727   0.93401    0.015
 4234.00    0.53408   0.92822    0.015
 4235.00    0.57202   0.91735    0.015
 4236.00    0.61246   0.91482    0.015
 4237.00    0.65569   0.91506    0.015
 4238.00    0.81462   0.91020    0.015
 4239.00    1.08770   0.90971    0.015
 4240.00    1.03413   0.91284    0.015
 4241.00    0.69627   0.91305    0.015
 4242.00    0.70199   0.91476    0.015
 4243.00    0.97110   0.91936    0.015
 4244.00    0.96831   0.92083    0.016
 4245.00    0.78229   0.92188    0.016
 4246.00    0.80878   0.92803    0.016
 4247.00    0.96074   0.93033    0.016
 4248.00    1.08793   0.92256    0.017
 4249.00    1.20238   0.91269    0.017
 4250.00    1.07391   0.90933    0.017
 4251.00    0.83706   0.90832    0.016
 4252.00    0.57938   0.90340    0.016
 4253.00    0.31372   0.90408    0.016
 4254.00    0.36091   0.91158    0.016
 4255.00    0.51006   0.91104    0.016
 4256.00    0.38769   0.90380    0.016
 4257.00    0.19119   0.90286    0.016
 4258.00    0.27736   0.91052    0.016
 4259.00    0.42687   0.91751    0.016
 4260.00    0.46645   0.91337    0.016
 4261.00    0.48636   0.90226    0.016
 4262.00    0.60521   0.89246    0.016
 4263.00    0.73761   0.89192    0.017
 4264.00    0.91488   0.90347    0.016
 4265.00    1.09654   0.91655    0.016
 4266.00    0.92584   0.92174    0.016
 4267.00    0.73359   0.92134    0.016
 4268.00    0.71171   0.91345    0.016
 4269.00    0.69377   0.89933    0.016
 4270.00    0.54806   0.89539    0.016
 4271.00    0.41243   0.89972    0.016
 4272.00    0.54352   0.89551    0.016
 4273.00    0.65963   0.88224    0.016
 4274.00    0.56995   0.87607    0.016
 4275.00    0.50242   0.88171    0.016
 4276.00    0.63608   0.88403    0.016
 4277.00    0.81018   0.88201    0.016
 4278.00    1.25364   0.88763    0.016
 4279.00    1.60408   0.89858    0.017
 4280.00    1.47299   0.90678    0.016
 4281.00    1.32585   0.90696    0.016
 4282.00    1.11167   0.89993   -2.000
 4283.00    0.88980   0.89565   -2.000
 4284.00    0.64142   0.89446   -2.000
 4285.00    0.41616   0.89373   -2.000
 4286.00    0.25813   0.89307   -2.000
 4287.00    0.39201   0.88926   -2.000
 4288.00    1.24992   0.88741   -2.000
 4289.00    1.79575   0.88954   -2.000
 4290.00    1.67442   0.88596   -2.000
 4291.00    1.48746   0.87344   -2.000
 4292.00    1.17867   0.86425   -2.000
 4293.00    0.87122   0.86969   -2.000
 4294.00    0.56593   0.88374   -2.000
 4295.00    0.48005   0.89172   -2.000
 4296.00    0.70629   0.88670   -2.000
 4297.00    0.90976   0.88160   -2.000
 4298.00    1.08474   0.88186    0.017
 4299.00    1.03804   0.87989    0.017
 4300.00    0.74683   0.87193    0.016
 4301.00    0.53783   0.85809    0.016
 4302.00    0.40883   0.84930    0.016
 4303.00    0.49130   0.85206    0.016
 4304.00    0.75522   0.85400    0.016
 4305.00    0.70803   0.85149    0.016
 4306.00    0.42575   0.85366    0.016
 4307.00    0.41537   0.85723    0.016
 4308.00    0.58555   0.85637    0.016
 4309.00    0.78119   0.84991    0.016
 4310.00    0.99163   0.84160    0.016
 4311.00    1.08951   0.84079    0.016
 4312.00    1.13036   0.84866    0.016
 4313.00    1.12969   0.85764    0.016
 4314.00    1.11080   0.86224    0.016
 4315.00    0.97868   0.86222    0.016
 4316.00    0.80392   0.86204    0.016
 4317.00    0.81867   0.86979    0.016
 4318.00    0.89400   0.88509    0.016
 4319.00    0.91736   0.89407    0.016
 4320.00    0.92683   0.89356    0.016
 4321.00    0.91902   0.88906    0.016
 4322.00    0.90742   0.88354    0.016
 4323.00    0.79801   0.87980    0.016
 4324.00    0.67159   0.87840    0.016
 4325.00    0.82090   0.87033    0.016
 4326.00    1.00667   0.85228    0.016
 4327.00    1.16859   0.83273    0.016
 4328.00    1.32828   0.82671    0.016
 4329.00    1.42041   0.83991    0.016
 4330.00    1.50868   0.85690    0.000
 4331.00    1.10815   0.86306    0.000
 4332.00    0.69822   0.85633    0.000
 4333.00    0.51491   0.84578    0.000
 4334.00    0.34454   0.83845    0.000
 4335.00    0.48482   0.83068    0.000
 4336.00    0.61694   0.82085    0.000
 4337.00    0.64275   0.80748    0.000
 4338.00    0.67479   0.77954    0.000
 4339.00    0.76126   0.72934    0.000
 4340.00    0.84466   0.66711    0.000
 4341.00    0.90825   0.59949    0.000
 4342.00    0.98004   0.54123    0.000
 4343.00    1.09316   0.54226    0.000
 4344.00    1.08352   0.61029    0.000
 4345.00    0.57284   0.68420    0.000
 4346.00    0.25811   0.73100    0.000
 4347.00    0.60632   0.76466    0.000
 4348.00    0.87518   0.79053    0.000
 4349.00    0.91761   0.80690    0.000
 4350.00    0.92384   0.82143    0.000
 4351.00    0.84183   0.83500    0.016
 4352.00    0.75730   0.83686    0.016
 4353.00    0.66746   0.82453    0.016
 4354.00    0.67029   0.81800    0.016
 4355.00    0.84255   0.83025    0.016
 4356.00    0.93744   0.84615    0.016
 4357.00    0.90870   0.85505    0.016
 4358.00    0.92603   0.86186    0.020
 4359.00    1.00794   0.86743    0.056
 4360.00    1.00517   0.86560   -1.000
 4361.00    0.89791   0.85975   -1.000
 4362.00    0.78012   0.86127   -1.000
 4363.00    0.65087   0.86979   -1.000
 4364.00    0.61867   0.87562   -1.000
 4365.00    0.67956   0.87693   -1.000
 4366.00    0.74066   0.88016   -1.000
 4367.00    0.80195   0.88408   -1.000
 4368.00    0.90514   0.87896    0.053
 4369.00    1.03956   0.86652    0.019
 4370.00    0.94151   0.86008    0.015
 4371.00    0.69135   0.86270    0.015
 4372.00    0.38675   0.86592    0.015
 4373.00    0.05097   0.86752    0.015
 4374.00    0.36975   0.86825    0.015
 4375.00    1.01502   0.86396    0.015
 4376.00    1.12843   0.85285    0.015
 4377.00    1.01232   0.84526    0.015
 4378.00    1.03344   0.85101    0.015
 4379.00    1.10535   0.86495    0.016
 4380.00    0.88827   0.87254    0.016
 4381.00    0.58057   0.86959    0.015
 4382.00    0.49547   0.86577    0.015
 4383.00    0.46861   0.86443    0.015
 4384.00    0.43172   0.85304    0.015
 4385.00    0.39269   0.82863    0.015
 4386.00    0.60489   0.81157    0.015
 4387.00    0.85958   0.81646    0.015
 4388.00    0.91832   0.82840    0.015
 4389.00    0.95203   0.82270    0.015
 4390.00    0.79137   0.81096    0.015
 4391.00    0.61337   0.81809    0.015
 4392.00    0.38002   0.83418    0.015
 4393.00    0.14372   0.84602    0.015
 4394.00    0.33263   0.85628    0.015
 4395.00    0.52855   0.86050    0.015
 4396.00    0.61792   0.85452    0.015
 4397.00    0.71383   0.84758    0.015
 4398.00    0.95321   0.85287    0.015
 4399.00    1.16271   0.86618    0.015
 4400.00    1.00285   0.87081    0.016
 4401.00    0.85003   0.86338    0.016
 4402.00    0.75641   0.85165    0.016
 4403.00    0.70284   0.84862    0.015
 4404.00    0.90020   0.85747    0.016
 4405.00    1.03748   0.85852    0.016
 4406.00    0.87922   0.84304    0.016
 4407.00    0.79568   0.83292    0.015
 4408.00    1.01040   0.84019    0.015
 4409.00    1.16550   0.84762    0.015
 4410.00    1.12287   0.84640    0.015
 4411.00    1.06065   0.84861    0.015
 4412.00    0.94351   0.85741    0.015
 4413.00    0.87950   0.86368    0.016
 4414.00    0.94282   0.86836    0.016
 4415.00    1.01663   0.86851    0.016
 4416.00    1.11212   0.85310    0.015
 4417.00    1.10513   0.83347    0.015
 4418.00    0.91363   0.82957    0.015
 4419.00    0.78517   0.83712    0.015
 4420.00    0.75596   0.84738    0.015
 4421.00    0.78151   0.85933    0.015
 4422.00    0.88273   0.86635    0.015
 4423.00    0.91620   0.86328    0.015
 4424.00    0.86724   0.85355    0.016
 4425.00    0.77552   0.84852    0.016
 4426.00    0.63795   0.85191    0.015
 4427.00    0.60885   0.85507    0.015
 4428.00    0.68236   0.85399    0.015
 4429.00    0.88026   0.85262    0.015
 4430.00    1.18190   0.85487    0.015
 4431.00    1.20138   0.85555    0.015
 4432.00    1.01371   0.84864    0.016
 4433.00    1.08419   0.84501    0.016
 4434.00    1.32110   0.84864    0.016
 4435.00    1.30398   0.84749    0.016
 4436.00    1.14357   0.83902    0.016
 4437.00    0.97237   0.83092    0.016
 4438.00    0.79587   0.83097    0.016
 4439.00    0.87585   0.83864    0.016
 4440.00    1.06466   0.84988    0.016
 4441.00    1.11034   0.85872    0.016
 4442.00    1.10400   0.85590    0.016
 4443.00    0.98468   0.84264    0.016
 4444.00    0.83060   0.83053    0.016
 4445.00    0.93669   0.82687    0.016
 4446.00    1.10939   0.83355    0.016
 4447.00    0.83152   0.84740    0.016
 4448.00    0.45974   0.85491    0.016
 4449.00    0.81072   0.85165    0.016
 4450.00    1.28046   0.85004    0.016
 4451.00    1.21452   0.85187    0.016
 4452.00    1.08256   0.84929    0.016
 4453.00    0.86029   0.84635    0.016
 4454.00    0.63035   0.84657    0.016
 4455.00    0.82549   0.84436    0.015
 4456.00    1.04162   0.83580    0.015
 4457.00    0.73193   0.82581    0.015
 4458.00    0.42141   0.82478    0.015
 4459.00    0.58329   0.82989    0.015
 4460.00    0.74049   0.83083    0.015
 4461.00    0.80312   0.82842    0.000
 4462.00    0.84904   0.82717    0.000
 4463.00    0.69871   0.82355    0.000
 4464.00    0.56904   0.82113    0.000
 4465.00    0.60700   0.82858    0.000
 4466.00    0.71655   0.83664    0.000
 4467.00    1.26180   0.83653    0.000
 4468.00    1.64736   0.83336    0.000
 4469.00    1.26680   0.83015    0.000
 4470.00    0.91175   0.82309    0.000
 4471.00    0.65638   0.80927    0.000
 4472.00    0.50773   0.78400    0.000
 4473.00    0.70603   0.75140    0.000
 4474.00    0.89982   0.75040    0.000
 4475.00    1.08117   0.79121    0.000
 4476.00    1.15182   0.82823    0.000
 4477.00    0.96159   0.84020    0.000
 4478.00    0.80519   0.84372    0.000
 4479.00    0.71767   0.84963    0.000
 4480.00    0.71516   0.85229    0.000
 4481.00    0.86335   0.84293    0.000
 4482.00    0.94143   0.82108    0.015
 4483.00    0.91079   0.80222    0.015
 4484.00    0.94924   0.80387    0.015
 4485.00    1.08180   0.82288    0.015
 4486.00    1.20747   0.83984    0.015
 4487.00    1.32488   0.84858    0.015
 4488.00    1.14661   0.85190    0.016
 4489.00    0.65575   0.84916    0.016
 4490.00    0.58739   0.83923    0.016
 4491.00    0.91304   0.82758    0.015
 4492.00    0.97111   0.82331    0.015
 4493.00    0.80921   0.82849    0.016
 4494.00    0.91220   0.83666    0.015
 4495.00    1.20687   0.83859    0.015
 4496.00    1.04396   0.83122    0.015
 4497.00    0.59039   0.82448    0.015
 4498.00    0.50518   0.82491    0.015
 4499.00    0.62457   0.83027    0.015
 4500.00    0.76177   0.83761    0.015
 4501.00    0.90757   0.84234    0.015
 4502.00    0.96291   0.84011    0.015
 4503.00    0.98052   0.83270    0.015
 4504.00    0.94195   0.83199    0.016
 4505.00    0.88333   0.84286    0.016
 4506.00    0.86203   0.85271    0.015
 4507.00    0.85199   0.85379    0.015
 4508.00    0.91974   0.84953    0.015
 4509.00    1.00697   0.84385    0.015
 4510.00    0.94272   0.83951    0.015
 4511.00    0.84767   0.83954    0.016
 4512.00    0.83693   0.84056    0.016
 4513.00    0.83964   0.83870    0.015
 4514.00    0.90949   0.83492    0.015
 4515.00    0.98733   0.83059    0.015
 4516.00    0.84145   0.82305    0.015
 4517.00    0.67748   0.81798    0.015
 4518.00    0.81091   0.82172    0.015
 4519.00    0.95787   0.82551    0.015
 4520.00    0.75120   0.82479    0.015
 4521.00    0.54677   0.82743    0.015
 4522.00    0.67882   0.83293    0.015
 4523.00    0.80005   0.83618    0.015
 4524.00    0.71834   0.83135    0.015
 4525.00    0.65954   0.82253    0.015
 4526.00    0.85747   0.81966    0.015
 4527.00    0.99941   0.81849    0.015
 4528.00    0.70328   0.81369    0.015
 4529.00    0.50264   0.80778    0.015
 4530.00    0.86665   0.80107    0.015
 4531.00    1.11250   0.79642    0.015
 4532.00    0.80529   0.79838    0.015
 4533.00    0.55962   0.80448    0.015
 4534.00    0.54918   0.81114    0.015
 4535.00    0.56137   0.80993    0.015
 4536.00    0.64573   0.80027    0.015
 4537.00    0.68032   0.79459    0.015
 4538.00    0.58044   0.80088    0.015
 4539.00    0.56752   0.81445    0.015
 4540.00    0.75606   0.81890    0.016
 4541.00    0.87133   0.80627    0.016
 4542.00    0.83971   0.77904    0.016
 4543.00    0.70680   0.75043    0.015
 4544.00    0.39706   0.74637    0.015
 4545.00    0.32335   0.76908    0.015
 4546.00    0.61032   0.78954    0.015
 4547.00    0.73881   0.79761    0.015
 4548.00    0.65454   0.80401    0.015
 4549.00    0.54148   0.80999    0.015
 4550.00    0.39438   0.80893    0.000
 4551.00    0.44326   0.80074    0.000
 4552.00    0.69642   0.79834    0.000
 4553.00    0.88269   0.80502    0.000
 4554.00    1.00745   0.80561    0.000
 4555.00    0.97949   0.80083    0.000
 4556.00    0.82775   0.79843    0.000
 4557.00    0.82053   0.79841    0.000
 4558.00    0.91636   0.80324    0.000
 4559.00    0.93202   0.81289    0.000
 4560.00    0.89751   0.81934    0.000
 4561.00    0.76414   0.82107    0.000
 4562.00    0.57672   0.82181    0.000
 4563.00    0.67149   0.82323    0.000
 4564.00    0.90041   0.82340    0.000
 4565.00    0.73183   0.81717    0.000
 4566.00    0.40023   0.80714    0.000
 4567.00    0.51937   0.80220    0.000
 4568.00    0.79645   0.80528    0.000
 4569.00    0.88857   0.81173    0.000
 4570.00    0.92603   0.81444    0.000
 4571.00    0.81692   0.81411    0.000
 4572.00    0.67191   0.81326    0.000
 4573.00    0.64046   0.80761    0.000
 4574.00    0.63152   0.80365    0.000
 4575.00    0.76908   0.81054    0.000
 4576.00    0.92931   0.81639    0.000
 4577.00    0.66959   0.81463    0.000
 4578.00    0.36181   0.81373    0.000
 4579.00    0.30737   0.81524    0.000
 4580.00    0.27238   0.81399    0.000
 4581.00    0.46788   0.80732    0.000
 4582.00    0.67298   0.79920    0.000
 4583.00    1.09389   0.79617    0.000
 4584.00    1.49443   0.79811    0.000
 4585.00    0.94014   0.79836    0.000
 4586.00    0.43481   0.79679    0.000
 4587.00    0.78503   0.79718    0.000
 4588.00    1.08612   0.79847    0.000
 4589.00    0.86146   0.80090    0.000
 4590.00    0.63536   0.80568    0.000
 4591.00    0.39842   0.80999    0.000
 4592.00    0.22012   0.80755    0.000
 4593.00    0.37885   0.79927    0.000
 4594.00    0.53213   0.79397    0.000
 4595.00    0.66053   0.79573    0.000
 4596.00    0.75223   0.79845    0.000
 4597.00    0.70664   0.79576    0.000
 4598.00    0.69984   0.79215    0.000
 4599.00    0.81435   0.79317    0.000
 4600.00    0.90353   0.79759    0.000
 4601.00    0.92546   0.80091    0.000
 4602.00    0.92719   0.79846    0.000
 4603.00    0.88291   0.79386    0.000
 4604.00    0.91980   0.79420    0.000
 4605.00    1.11689   0.79667    0.000
 4606.00    1.04366   0.79749    0.000
 4607.00    0.50567   0.79625    0.000
 4608.00    0.28113   0.79623    0.000
 4609.00    0.52856   0.80051    0.000
 4610.00    0.77378   0.80761    0.000
 4611.00    1.01607   0.81161    0.000
 4612.00    1.08990   0.80773    0.000
 4613.00    0.96740   0.80209    0.000
 4614.00    0.83522   0.80051    0.000
 4615.00    0.69311   0.79969    0.000
 4616.00    0.77650   0.80055    0.000
 4617.00    1.06431   0.80408    0.000
 4618.00    1.13729   0.80458    0.000
 4619.00    1.03864   0.80377    0.000
 4620.00    0.86289   0.80109    0.000
 4621.00    0.63296   0.79487    0.000
 4622.00    0.81390   0.79377    0.000
 4623.00    1.24817   0.79965    0.000
 4624.00    1.17940   0.80324    0.000
 4625.00    0.83971   0.80398    0.000
 4626.00    0.71788   0.80457    0.000
 4627.00    0.69794   0.80230    0.000
 4628.00    0.66801   0.79931    0.000
 4629.00    0.63404   0.80007    0.000
 4630.00    0.77057   0.80032    0.000
 4631.00    0.96576   0.79521    0.000
 4632.00    0.81539   0.78949    0.000
 4633.00    0.56493   0.78881    0.000
 4634.00    0.73968   0.79060    0.000
 4635.00    1.01628   0.78986    0.000
 4636.00    0.87592   0.78826    0.000
 4637.00    0.65503   0.78914    0.000
 4638.00    0.76189   0.79111    0.000
 4639.00    0.91795   0.78896    0.000
 4640.00    0.81721   0.78343    0.000
 4641.00    0.68820   0.77959    0.000
 4642.00    0.66810   0.77869    0.000
 4643.00    0.65591   0.78035    0.000
 4644.00    0.67393   0.78370    0.000
 4645.00    0.69308   0.78601    0.000
 4646.00    1.10204   0.78628    0.000
 4647.00    1.49236   0.78173    0.000
 4648.00    1.11917   0.76569    0.000
 4649.00    0.77167   0.74704    0.000
 4650.00    0.84421   0.74343    0.000
 4651.00    0.89894   0.75051    0.000
 4652.00    0.77135   0.75414    0.000
 4653.00    0.65322   0.75783    0.000
 4654.00    0.60426   0.76886    0.000
 4655.00    0.59627   0.77825    0.000
 4656.00    0.81737   0.77514    0.000
 4657.00    0.98882   0.76937    0.000
 4658.00    0.93881   0.77102    0.000
 4659.00    0.86770   0.77646    0.000
 4660.00    0.71936   0.78490    0.000
 4661.00    0.58950   0.79429    0.000
 4662.00    0.51639   0.79800    0.000
 4663.00    0.42465   0.79299    0.000
 4664.00    0.28430   0.78372    0.000
 4665.00    0.26166   0.77645    0.000
 4666.00    0.50283   0.77287    0.000
 4667.00    0.72383   0.76959    0.000
 4668.00    0.90566   0.76111    0.000
 4669.00    0.95810   0.75016    0.000
 4670.00    0.79141   0.74725    0.000
 4671.00    0.63498   0.75561    0.000
 4672.00    0.49378   0.76864    0.000
 4673.00    0.46651   0.77889    0.000
 4674.00    0.58782   0.78057    0.000
 4675.00    0.76673   0.77428    0.000
 4676.00    1.01180   0.76984    0.000
 4677.00    1.03726   0.77226    0.000
 4678.00    0.84017   0.77786    0.000
 4679.00    0.79984   0.78013    0.000
 4680.00    0.89961   0.77645    0.000
 4681.00    0.85331   0.77043    0.000
 4682.00    0.69196   0.76609    0.000
 4683.00    0.67686   0.76287    0.000
 4684.00    0.76306   0.76020    0.000
 4685.00    0.80122   0.75747    0.000
 4686.00    0.81019   0.74059    0.000
 4687.00    0.69122   0.70367    0.000
 4688.00    0.50442   0.68279    0.000
 4689.00    0.48853   0.70343    0.000
 4690.00    0.55129   0.73756    0.000
 4691.00    0.69913   0.75713    0.000
 4692.00    0.88067   0.76421    0.000
 4693.00    0.83825   0.76476    0.000
 4694.00    0.72021   0.76530    0.000
 4695.00    0.79337   0.76828    0.000
 4696.00    0.92078   0.77142    0.000
 4697.00    0.99378   0.77493    0.000
 4698.00    1.05403   0.77772    0.000
 4699.00    0.98866   0.77570    0.000
 4700.00    0.89966   0.76603    0.000
 4701.00    0.92100   0.75673    0.000
 4702.00    0.95838   0.75622    0.000
 4703.00    0.85436   0.75933    0.000
 4704.00    0.73539   0.75772    0.000
 4705.00    0.63645   0.75410    0.000
 4706.00    0.53889   0.75498    0.000
 4707.00    0.69977   0.75910    0.000
 4708.00    0.86943   0.76108    0.000
 4709.00    0.74646   0.75950    0.000
 4710.00    0.62779   0.75613    0.000
 4711.00    0.66363   0.75386    0.000
 4712.00    0.70141   0.75638    0.000
 4713.00    0.76895   0.76253    0.000
 4714.00    0.83347   0.75645    0.000
 4715.00    0.86836   0.73982    0.000
 4716.00    0.90154   0.73399    0.000
 4717.00    0.92259   0.74563    0.000
 4718.00    0.93276   0.75950    0.000
 4719.00    0.88364   0.76833    0.000
 4720.00    0.77635   0.77237    0.000
 4721.00    0.41558   0.77523    0.000
 4722.00    0.17068   0.77735    0.000
 4723.00    0.34145   0.77655    0.000
 4724.00    0.55467   0.77321    0.000
 4725.00    0.89574   0.77136    0.000
 4726.00    1.11324   0.77383    0.000
 4727.00    1.01413   0.77716    0.000
 4728.00    1.01173   0.77484    0.000
 4729.00    1.22251   0.76430    0.000
 4730.00    1.30577   0.75289    0.000
 4731.00    1.14525   0.74870    0.000
 4732.00    1.00561   0.74944    0.000
 4733.00    0.90080   0.75119    0.000
 4734.00    0.85638   0.75481    0.000
 4735.00    0.90026   0.75927    0.000
 4736.00    0.82845   0.76195    0.000
 4737.00    0.60792   0.76306    0.000
 4738.00    0.53419   0.76003    0.000
 4739.00    0.62676   0.75605    0.000
 4740.00    0.78931   0.75938    0.000
 4741.00    1.02177   0.76485    0.000
 4742.00    1.10074   0.76389    0.000
 4743.00    1.04448   0.76009    0.000
 4744.00    0.87183   0.76015    0.000
 4745.00    0.60882   0.76348    0.000
 4746.00    0.57149   0.76466    0.000
 4747.00    0.68822   0.76276    0.000
 4748.00    0.89779   0.76323    0.000
 4749.00    1.16290   0.76595    0.000
 4750.00    1.20706   0.76599    0.000
 4751.00    1.13590   0.76486    0.000
 4752.00    0.94124   0.76506    0.000
 4753.00    0.69069   0.76418    0.000
 4754.00    0.69614   0.76070    0.000
 4755.00    0.80125   0.75717    0.000
 4756.00    0.92314   0.75454    0.000
 4757.00    1.05058   0.75284    0.000
 4758.00    0.90846   0.75215    0.000
 4759.00    0.69140   0.75295    0.000
 4760.00    0.78005   0.75508    0.000
 4761.00    0.93864   0.75790    0.014
 4762.00    0.87579   0.75974    0.014
 4763.00    0.77240   0.75655    0.014
 4764.00    0.74531   0.74884    0.013
 4765.00    0.72897   0.74329    0.013
 4766.00    0.81399   0.74124    0.014
 4767.00    0.90930   0.73881    0.014
 4768.00    0.92631   0.73662    0.014
 4769.00    0.93825   0.73902    0.014
 4770.00    0.92186   0.74499    0.014
 4771.00    0.90446   0.75152    0.014
 4772.00    0.80497   0.75541    0.015
 4773.00    0.70593   0.75301    0.015
 4774.00    0.62002   0.74805    0.015
 4775.00    0.53783   0.74835    0.015
 4776.00    0.50957   0.75411    0.015
 4777.00    0.48910   0.75830    0.015
 4778.00    0.54203   0.75766    0.014
 4779.00    0.61022   0.75748    0.014
 4780.00    0.78301   0.75854    0.014
 4781.00    0.93120   0.75649    0.013
 4782.00    0.94912   0.75323    0.013
 4783.00    0.91961   0.75251    0.013
 4784.00    0.68811   0.75084    0.013
 4785.00    0.52411   0.74576    0.013
 4786.00    0.59734   0.74370    0.013
 4787.00    0.69027   0.74480    0.013
 4788.00    0.84136   0.74176    0.013
 4789.00    0.93634   0.73876    0.014
 4790.00    0.88999   0.74061    0.013
 4791.00    0.86254   0.74131    0.013
 4792.00    0.87606   0.74081    0.013
 4793.00    0.84427   0.74250    0.013
 4794.00    0.72722   0.74495    0.014
 4795.00    0.65469   0.74892    0.014
 4796.00    0.65532   0.75504    0.014
 4797.00    0.72800   0.75921    0.014
 4798.00    0.90448   0.75831    0.014
 4799.00    0.96214   0.75384    0.014
 4800.00    0.86921   0.74760    0.014
 4801.00    0.77974   0.74129    0.014
 4802.00    0.69416   0.73862    0.014
 4803.00    0.69408   0.74194    0.014
 4804.00    0.77823   0.74801    0.014
 4805.00    0.81162   0.75106    0.014
 4806.00    0.80092   0.74851    0.014
 4807.00    0.71782   0.74295    0.014
 4808.00    0.57931   0.73991    0.014
 4809.00    0.58958   0.73890    0.014
 4810.00    0.69993   0.73716    0.014
 4811.00    0.73989   0.73724    0.014
 4812.00    0.73836   0.73968    0.014
 4813.00    0.70177   0.74150    0.014
 4814.00    0.64716   0.74105    0.014
 4815.00    0.72518   0.73963    0.014
 4816.00    0.86224   0.73951    0.014
 4817.00    0.95383   0.74109    0.014
 4818.00    1.02801   0.74334    0.014
 4819.00    0.88499   0.74562    0.014
 4820.00    0.67135   0.74683    0.015
 4821.00    0.78161   0.74678    0.015
 4822.00    0.98006   0.74595    0.015
 4823.00    0.93969   0.74499    0.014
 4824.00    0.84595   0.74174    0.014
 4825.00    0.75421   0.73270    0.014
 4826.00    0.66281   0.72504    0.014
 4827.00    0.65720   0.72762    0.014
 4828.00    0.66327   0.73503    0.014
 4829.00    0.64761   0.73793    0.014
 4830.00    0.62984   0.73431    0.014
 4831.00    0.62776   0.72998    0.014
 4832.00    0.62663   0.72996    0.014
 4833.00    0.83474   0.73004    0.014
 4834.00    1.04569   0.72672    0.015
 4835.00    0.76814   0.72599    0.014
 4836.00    0.50843   0.72971    0.014
 4837.00    0.71438   0.73186    0.014
 4838.00    0.91023   0.73057    0.014
 4839.00    0.96844   0.72957    0.014
 4840.00    0.99981   0.72797    0.014
 4841.00    0.78864   0.72269    0.014
 4842.00    0.62431   0.71734    0.014
 4843.00    0.77071   0.71691    0.014
 4844.00    0.82534   0.71822    0.014
 4845.00    0.40633   0.71614    0.014
 4846.00    0.13159   0.71468    0.014
 4847.00    0.45737   0.71767    0.014
 4848.00    0.72044   0.72008    0.000
 4849.00    0.76759   0.71644    0.000
 4850.00    0.76415   0.70715    0.000
 4851.00    0.61403   0.69972    0.000
 4852.00    0.55287   0.69939    0.000
 4853.00    0.71189   0.69983    0.000
 4854.00    0.83575   0.69546    0.000
 4855.00    0.88462   0.68826    0.000
 4856.00    0.91325   0.67588    0.000
 4857.00    0.90440   0.65630    0.000
 4858.00    0.84988   0.63794    0.000
 4859.00    0.72145   0.62386    0.000
 4860.00    0.68812   0.60124    0.000
 4861.00    0.78986   0.56090    0.000
 4862.00    0.85836   0.50513    0.000
 4863.00    0.88535   0.45486    0.000
 4864.00    0.83864   0.44762    0.000
 4865.00    0.71080   0.49249    0.000
 4866.00    0.70892   0.55106    0.000
 4867.00    0.82938   0.59447    0.000
 4868.00    0.85237   0.62220    0.000
 4869.00    0.79189   0.64021    0.000
 4870.00    0.91162   0.65393    0.000
 4871.00    1.16729   0.66676    0.000
 4872.00    1.17739   0.67236    0.000
 4873.00    1.02469   0.66745    0.000
 4874.00    0.82333   0.66449    0.000
 4875.00    0.59371   0.67282    0.013
 4876.00    0.66814   0.68458    0.013
 4877.00    0.89636   0.69103    0.013
 4878.00    0.73546   0.69437    0.013
 4879.00    0.40417   0.69805    0.013
 4880.00    0.35050   0.70211    0.013
 4881.00    0.40118   0.70874    0.013
 4882.00    0.56267   0.71434    0.013
 4883.00    0.75951   0.71174    0.013
 4884.00    0.95360   0.70659    0.013
 4885.00    1.14697   0.70642    0.013
 4886.00    1.12281   0.70651    0.013
 4887.00    1.05120   0.70183    0.014
 4888.00    0.80481   0.69705    0.013
 4889.00    0.52813   0.69742    0.013
 4890.00    0.63552   0.70122    0.013
 4891.00    0.79350   0.70283    0.013
 4892.00    0.73159   0.69791    0.013
 4893.00    0.64926   0.68946    0.013
 4894.00    0.75251   0.69111    0.013
 4895.00    0.86628   0.70515    0.014
 4896.00    0.96554   0.71889    0.014
 4897.00    1.06060   0.72658    0.014
 4898.00    0.73402   0.72901    0.013
 4899.00    0.42986   0.72837    0.013
 4900.00    0.65781   0.72650    0.013
 4901.00    0.86495   0.72134    0.013
 4902.00    0.80316   0.71458    0.013
 4903.00    0.75285   0.71351    0.013
 4904.00    0.80235   0.71570    0.013
 4905.00    0.85283   0.71348    0.014
 4906.00    0.90962   0.71056    0.014
 4907.00    0.94869   0.71405    0.013
 4908.00    0.89865   0.72050    0.013
 4909.00    0.85350   0.72193    0.013
 4910.00    0.82823   0.71725    0.013
 4911.00    0.83683   0.70979    0.013
 4912.00    0.95973   0.70180    0.014
 4913.00    1.00996   0.69836    0.014
 4914.00    0.85328   0.70219    0.013
 4915.00    0.68415   0.70849    0.013
 4916.00    0.48472   0.71309    0.014
 4917.00    0.45612   0.71724    0.014
 4918.00    0.78612   0.71933    0.014
 4919.00    1.00220   0.71440    0.014
 4920.00    1.01046   0.70099    0.013
 4921.00    0.94482   0.68336    0.013
 4922.00    0.76136   0.66792    0.013
 4923.00    0.74645   0.65712    0.013
 4924.00    0.96743   0.65689    0.013
 4925.00    1.01156   0.66631    0.013
 4926.00    0.83789   0.67625    0.013
 4927.00    0.69219   0.68407    0.013
 4928.00    0.57685   0.69559    0.014
 4929.00    0.61908   0.70694    0.014
 4930.00    0.81218   0.71274    0.014
 4931.00    0.85184   0.71656    0.014
 4932.00    0.76194   0.71881    0.014
 4933.00    0.76532   0.71841    0.014
 4934.00    0.83806   0.71495    0.014
 4935.00    0.80659   0.70568    0.014
 4936.00    0.70707   0.69681    0.014
 4937.00    0.70019   0.69854    0.014
 4938.00    0.74627   0.70438    0.014
 4939.00    0.77613   0.70164    0.014
 4940.00    0.79790   0.69123    0.000
 4941.00    0.88798   0.68410    0.000
 4942.00    1.00747   0.68831    0.000
 4943.00    1.00005   0.69980    0.000
 4944.00    0.94576   0.70717    0.000
 4945.00    0.87077   0.70984    0.000
 4946.00    0.78929   0.71218    0.000
 4947.00    0.83405   0.71154    0.000
 4948.00    0.91174   0.70778    0.000
 4949.00    0.70362   0.70734    0.000
 4950.00    0.43463   0.71054    0.000
 4951.00    0.75048   0.71242    0.000
 4952.00    1.16488   0.71264    0.000
 4953.00    0.99971   0.71334    0.000
 4954.00    0.76082   0.71273    0.000
 4955.00    0.83966   0.70936    0.000
 4956.00    0.94667   0.70659    0.000
 4957.00    0.84783   0.70539    0.000
 4958.00    0.73813   0.69919    0.000
 4959.00    0.65529   0.68322    0.000
 4960.00    0.57522   0.67233    0.000
 4961.00    0.67230   0.68183    0.000
 4962.00    0.77131   0.69932    0.000
 4963.00    0.91238   0.70713    0.000
 4964.00    1.04224   0.70652    0.000
 4965.00    1.03445   0.70579    0.000
 4966.00    1.01457   0.70489    0.000
 4967.00    0.89343   0.69929    0.000
 4968.00    0.78971   0.69234    0.000
 4969.00    0.79483   0.69009    0.000
 4970.00    0.81237   0.69072    0.000
 4971.00    0.89089   0.69152    0.000
 4972.00    0.92669   0.69238    0.000
 4973.00    0.79247   0.69420    0.000
 4974.00    0.69101   0.69778    0.000
 4975.00    0.69793   0.70121    0.000
 4976.00    0.77285   0.70334    0.000
 4977.00    1.03782   0.70402    0.000
 4978.00    1.17121   0.70256    0.000
 4979.00    0.98987   0.69939    0.000
 4980.00    0.91917   0.69429    0.000
 4981.00    1.07702   0.68924    0.000
 4982.00    1.20406   0.68708    0.000
 4983.00    1.27576   0.68378    0.000
 4984.00    1.25071   0.67405    0.000
 4985.00    1.07364   0.66364    0.000
 4986.00    0.96831   0.66212    0.000
 4987.00    0.96194   0.66824    0.000
 4988.00    1.00969   0.67648    0.000
 4989.00    1.12313   0.68580    0.000
 4990.00    1.12375   0.69240    0.000
 4991.00    1.00360   0.69250    0.000
 4992.00    0.79915   0.68847    0.000
 4993.00    0.51509   0.68423    0.000
 4994.00    0.41557   0.68415    0.000
 4995.00    0.46965   0.68588    0.000
 4996.00    0.44106   0.68522    0.000
 4997.00    0.35189   0.68625    0.000
 4998.00    0.41900   0.68963    0.000
 4999.00    0.58667   0.69086    0.000
 5000.00    0.71828   0.68894    0.000
 5001.00    0.82959   0.68351    0.000
 5002.00    0.78308   0.67549    0.000
 5003.00    0.65926   0.66945    0.000
 5004.00    0.81635   0.66798    0.000
 5005.00    1.09239   0.67061    0.000
 5006.00    1.14872   0.67239    0.000
 5007.00    1.12538   0.66785    0.000
 5008.00    1.04550   0.66000    0.000
 5009.00    0.94827   0.65925    0.000
 5010.00    0.85907   0.66894    0.000
 5011.00    0.77193   0.67889    0.000
 5012.00    0.89324   0.68083    0.000
 5013.00    1.05787   0.67663    0.000
 5014.00    0.87774   0.66913    0.000
 5015.00    0.64117   0.66058    0.000
 5016.00    0.64077   0.65191    0.000
 5017.00    0.66934   0.64199    0.000
 5018.00    0.74726   0.63914    0.000
 5019.00    0.82934   0.64587    0.000
 5020.00    0.82113   0.65222    0.000
 5021.00    0.80851   0.65622    0.000
 5022.00    0.84648   0.66296    0.000
 5023.00    0.88469   0.66794    0.000
 5024.00    0.89018   0.66657    0.000
 5025.00    0.88967   0.66571    0.000
 5026.00    0.76862   0.67002    0.000
 5027.00    0.65411   0.67422    0.000
 5028.00    0.61587   0.67396    0.000
 5029.00    0.59590   0.66922    0.013
 5030.00    0.72344   0.66548    0.013
 5031.00    0.82438   0.66912    0.014
 5032.00    0.76407   0.67498    0.014
 5033.00    0.73698   0.67720    0.014
 5034.00    0.86877   0.67951    0.014
 5035.00    0.99502   0.68429    0.014
 5036.00    1.09966   0.68613    0.014
 5037.00    1.12915   0.67896    0.013
 5038.00    0.91488   0.66778    0.013
 5039.00    0.80368   0.66461    0.013
 5040.00    0.97540   0.66721    0.013
 5041.00    1.02357   0.66382    0.013
 5042.00    0.78122   0.65164    0.013
 5043.00    0.68485   0.63865    0.013
 5044.00    0.88518   0.63889    0.013
 5045.00    0.96416   0.65461    0.013
 5046.00    0.82841   0.67028    0.013
 5047.00    0.80131   0.67862    0.013
 5048.00    0.94242   0.68251    0.013
 5049.00    0.96687   0.67851    0.013
 5050.00    0.83272   0.66683    0.013
 5051.00    0.74680   0.65786    0.013
 5052.00    0.71859   0.65777    0.013
 5053.00    0.71201   0.66022    0.013
 5054.00    0.72827   0.66157    0.013
 5055.00    0.73778   0.66559    0.013
 5056.00    0.74102   0.67195    0.013
 5057.00    0.75401   0.67452    0.013
 5058.00    0.77501   0.67248    0.013
 5059.00    0.75994   0.67160    0.013
 5060.00    0.71883   0.67462    0.013
 5061.00    0.91429   0.67766    0.013
 5062.00    1.25976   0.67898    0.013
 5063.00    1.11044   0.68101    0.013
 5064.00    0.68681   0.68291    0.013
 5065.00    0.50704   0.68062    0.013
 5066.00    0.44486   0.67121    0.013
 5067.00    0.50352   0.66006    0.013
 5068.00    0.61247   0.65762    0.013
 5069.00    0.71185   0.66159    0.013
 5070.00    0.80781   0.66225    0.013
 5071.00    0.77397   0.66156    0.013
 5072.00    0.70110   0.66514    0.013
 5073.00    0.63105   0.66739    0.013
 5074.00    0.56172   0.66291    0.013
 5075.00    0.87382   0.65913    0.013
 5076.00    1.26321   0.66123    0.013
 5077.00    1.17045   0.66294    0.013
 5078.00    1.00106   0.66219    0.012
 5079.00    0.86076   0.66339    0.012
 5080.00    0.72391   0.66309    0.012
 5081.00    0.76799   0.65330    0.013
 5082.00    0.82662   0.64077    0.013
 5083.00    0.70767   0.63916    0.012
 5084.00    0.58073   0.64634    0.012
 5085.00    0.59436   0.65103    0.012
 5086.00    0.61258   0.65258    0.012
 5087.00    0.77718   0.65656    0.012
 5088.00    0.92593   0.66096    0.012
 5089.00    0.77999   0.66161    0.012
 5090.00    0.65643   0.66061    0.012
 5091.00    0.78207   0.66174    0.012
 5092.00    0.87790   0.66347    0.013
 5093.00    0.74151   0.66367    0.012
 5094.00    0.59447   0.66478    0.012
 5095.00    0.38479   0.66794    0.012
 5096.00    0.24303   0.66970    0.012
 5097.00    0.41822   0.66775    0.012
 5098.00    0.58539   0.66288    0.012
 5099.00    0.72201   0.65578    0.012
 5100.00    0.85345   0.64703    0.012
 5101.00    0.96842   0.63957    0.012
 5102.00    1.01289   0.63978    0.012
 5103.00    0.86732   0.64885    0.013
 5104.00    0.77770   0.65788    0.013
 5105.00    0.81742   0.66003    0.013
 5106.00    0.80624   0.65741    0.013
 5107.00    0.69322   0.65499    0.013
 5108.00    0.66242   0.65351    0.013
 5109.00    0.77488   0.64995    0.013
 5110.00    0.79051   0.64602    0.013
 5111.00    0.65844   0.64518    0.013
 5112.00    0.67376   0.64482    0.013
 5113.00    0.88658   0.64587    0.013
 5114.00    0.88703   0.65111    0.013
 5115.00    0.63689   0.65545    0.014
 5116.00    0.53018   0.65656    0.014
 5117.00    0.57273   0.65704    0.014
 5118.00    0.52736   0.65817    0.014
 5119.00    0.40131   0.66106    0.013
 5120.00    0.37758   0.66405    0.013
 5121.00    0.43665   0.66392    0.013
 5122.00    0.53275   0.66045    0.013
 5123.00    0.65522   0.65521    0.013
 5124.00    0.56357   0.64954    0.013
 5125.00    0.33817   0.64294    0.013
 5126.00    0.30081   0.63680    0.013
 5127.00    0.36611   0.63536    0.013
 5128.00    0.58719   0.63748    0.013
 5129.00    0.88218   0.63852    0.013
 5130.00    0.83880   0.63773    0.013
 5131.00    0.65694   0.63697    0.013
 5132.00    0.58931   0.63796    0.013
 5133.00    0.56162   0.64140    0.013
 5134.00    0.57576   0.64462    0.013
 5135.00    0.60224   0.64513    0.013
 5136.00    0.63513   0.64580    0.013
 5137.00    0.66959   0.64977    0.013
 5138.00    0.84224   0.65181    0.013
 5139.00    1.04220   0.64680    0.013
 5140.00    0.79069   0.63963    0.013
 5141.00    0.46957   0.63448    0.012
 5142.00    0.47710   0.63434    0.012
 5143.00    0.52207   0.63909    0.012
 5144.00    0.67756   0.63818    0.013
 5145.00    0.84149   0.63239    0.013
 5146.00    0.66212   0.63363    0.012
 5147.00    0.46863   0.63817    0.012
 5148.00    0.46758   0.63704    0.012
 5149.00    0.47298   0.63333    0.012
 5150.00    0.68342   0.63240    0.012
 5151.00    0.87739   0.63516    0.012
 5152.00    0.78566   0.63775    0.012
 5153.00    0.69178   0.63584    0.012
 5154.00    0.57486   0.63257    0.012
 5155.00    0.48267   0.63118    0.012
 5156.00    0.57653   0.63071    0.012
 5157.00    0.66990   0.63202    0.012
 5158.00    0.76043   0.63663    0.012
 5159.00    0.80976   0.64274    0.012
 5160.00    0.67143   0.64749    0.012
 5161.00    0.57192   0.64866    0.012
 5162.00    0.61726   0.64786    0.012
 5163.00    0.65527   0.64690    0.013
 5164.00    0.67039   0.64305    0.012
 5165.00    0.64304   0.63836    0.012
 5166.00    0.50315   0.63579    0.012
 5167.00    0.45545   0.62963    0.012
 5168.00    0.61737   0.61527    0.013
 5169.00    0.71745   0.59690    0.013
 5170.00    0.69579   0.58486    0.013
 5171.00    0.71463   0.58850    0.013
 5172.00    0.80298   0.60323    0.013
 5173.00    0.83745   0.60974    0.013
 5174.00    0.79095   0.59718    0.013
 5175.00    0.77972   0.58376    0.013
 5176.00    0.81509   0.59245    0.013
 5177.00    0.73814   0.61549    0.013
 5178.00    0.53051   0.63056    0.013
 5179.00    0.44333   0.63425    0.013
 5180.00    0.47970   0.63564    0.013
 5181.00    0.54657   0.63650    0.013
 5182.00    0.64101   0.63455    0.013
 5183.00    0.61157   0.62972    0.013
 5184.00    0.48334   0.61823    0.013
 5185.00    0.40866   0.59700    0.013
 5186.00    0.37155   0.58012    0.013
 5187.00    0.37855   0.58698    0.012
 5188.00    0.41268   0.61029    0.012
 5189.00    0.51660   0.62748    0.013
 5190.00    0.65801   0.63137    0.000
 5191.00    0.81673   0.63063    0.000
 5192.00    0.98353   0.63301    0.000
 5193.00    0.88599   0.63087    0.000
 5194.00    0.68213   0.61874    0.000
 5195.00    0.53121   0.61123    0.000
 5196.00    0.39846   0.61593    0.000
 5197.00    0.43135   0.62076    0.000
 5198.00    0.51210   0.62078    0.000
 5199.00    0.60839   0.62240    0.000
 5200.00    0.70840   0.62630    0.000
 5201.00    0.76929   0.63042    0.000
 5202.00    0.82265   0.63327    0.000
 5203.00    0.77521   0.63323    0.000
 5204.00    0.71270   0.63138    0.000
 5205.00    0.57482   0.62920    0.000
 5206.00    0.42868   0.62386    0.000
 5207.00    0.44392   0.61325    0.000
 5208.00    0.47082   0.60527    0.000
 5209.00    0.65598   0.60536    0.000
 5210.00    0.84705   0.60621    0.000
 5211.00    0.64648   0.60513    0.012
 5212.00    0.45087   0.60929    0.012
 5213.00    0.50189   0.61785    0.012
 5214.00    0.55355   0.62574    0.012
 5215.00    0.61574   0.63212    0.012
 5216.00    0.67077   0.63450    0.012
 5217.00    0.65284   0.62961    0.012
 5218.00    0.64942   0.62125    0.012
 5219.00    0.75153   0.61801    0.012
 5220.00    0.82991   0.62244    0.012
 5221.00    0.77611   0.63001    0.012
 5222.00    0.70310   0.63531    0.012
 5223.00    0.54463   0.63719    0.012
 5224.00    0.45636   0.63707    0.012
 5225.00    0.62454   0.63399    0.012
 5226.00    0.73650   0.62703    0.012
 5227.00    0.67641   0.61671    0.012
 5228.00    0.57174   0.60358    0.012
 5229.00    0.35110   0.59301    0.012
 5230.00    0.25304   0.59631    0.012
 5231.00    0.42913   0.61240    0.013
 5232.00    0.59957   0.62559    0.013
 5233.00    0.75906   0.63027    0.012
 5234.00    0.83765   0.62869    0.012
 5235.00    0.77951   0.62081    0.012
 5236.00    0.73433   0.61375    0.013
 5237.00    0.70833   0.61405    0.013
 5238.00    0.64037   0.61999    0.013
 5239.00    0.51777   0.62766    0.013
 5240.00    0.43187   0.63257    0.013
 5241.00    0.38807   0.63326    0.013
 5242.00    0.37645   0.63228    0.012
 5243.00    0.39736   0.63216    0.012
 5244.00    0.45046   0.63197    0.012
 5245.00    0.53228   0.63042    0.012
 5246.00    0.58544   0.63083    0.012
 5247.00    0.61607   0.63421    0.013
 5248.00    0.62397   0.63276    0.013
 5249.00    0.61616   0.62341    0.013
 5250.00    0.59128   0.61632    0.013
 5251.00    0.55606   0.61630    0.013
 5252.00    0.58951   0.61537    0.013
 5253.00    0.65929   0.61247    0.012
 5254.00    0.63223   0.61483    0.013
 5255.00    0.56070   0.61981    0.013
 5256.00    0.57240   0.61996    0.013
 5257.00    0.61700   0.61576    0.013
 5258.00    0.62398   0.61582    0.013
 5259.00    0.61830   0.62399    0.012
 5260.00    0.67122   0.63284    0.013
 5261.00    0.74073   0.63584    0.013
 5262.00    0.78410   0.63293    0.013
 5263.00    0.82137   0.62534    0.013
 5264.00    0.64541   0.61457    0.013
 5265.00    0.42947   0.60299    0.013
 5266.00    0.53460   0.59330    0.013
 5267.00    0.68624   0.58642    0.013
 5268.00    0.49893   0.58352    0.013
 5269.00    0.27596   0.58885    0.013
 5270.00    0.54795   0.59728    0.013
 5271.00    0.85367   0.59258    0.013
 5272.00    0.89317   0.57879    0.013
 5273.00    0.92374   0.57959    0.013
 5274.00    0.61858   0.59562    0.013
 5275.00    0.32182   0.60690    0.012
 5276.00    0.30588   0.60788    0.012
 5277.00    0.30788   0.60472    0.012
 5278.00    0.58291   0.60277    0.012
 5279.00    0.82077   0.60964    0.012
 5280.00    0.69598   0.62238    0.012
 5281.00    0.60948   0.62823    0.012
 5282.00    0.79253   0.62456    0.012
 5283.00    0.92745   0.61758    0.012
 5284.00    0.80135   0.61196    0.012
 5285.00    0.66820   0.60758    0.012
 5286.00    0.50445   0.60455    0.012
 5287.00    0.41110   0.60873    0.012
 5288.00    0.56968   0.62107    0.012
 5289.00    0.67854   0.63082    0.012
 5290.00    0.63809   0.63156    0.012
 5291.00    0.62790   0.62902    0.012
 5292.00    0.69507   0.62953    0.012
 5293.00    0.77683   0.63180    0.013
 5294.00    0.89067   0.63139    0.013
 5295.00    0.85780   0.62795    0.013
 5296.00    0.54497   0.62511    0.012
 5297.00    0.39518   0.62395    0.012
 5298.00    0.51685   0.61935    0.012
 5299.00    0.58425   0.60823    0.012
 5300.00    0.57242   0.59720    0.012
 5301.00    0.59861   0.59702    0.012
 5302.00    0.67358   0.60633    0.012
 5303.00    0.69794   0.61219    0.012
 5304.00    0.66507   0.61146    0.013
 5305.00    0.68033   0.61282    0.013
 5306.00    0.74360   0.61964    0.012
 5307.00    0.63604   0.62647    0.012
 5308.00    0.37823   0.62770    0.013
 5309.00    0.36710   0.62393    0.012
 5310.00    0.54714   0.62085    0.012
 5311.00    0.66322   0.62255    0.012
 5312.00    0.73572   0.62631    0.012
 5313.00    0.77620   0.62757    0.012
 5314.00    0.79757   0.62609    0.012
 5315.00    0.78727   0.62332    0.012
 5316.00    0.76047   0.62073    0.012
 5317.00    0.67455   0.61888    0.012
 5318.00    0.56193   0.61494    0.012
 5319.00    0.59314   0.60999    0.012
 5320.00    0.68023   0.61013    0.012
 5321.00    0.70349   0.61429    0.012
 5322.00    0.70565   0.61581    0.012
 5323.00    0.72409   0.61469    0.012
 5324.00    0.74706   0.61403    0.012
 5325.00    0.79662   0.61171    0.012
 5326.00    0.85224   0.60564    0.012
 5327.00    0.78656   0.60092    0.012
 5328.00    0.69874   0.60163    0.012
 5329.00    0.82065   0.59730    0.012
 5330.00    0.97197   0.58123    0.012
 5331.00    0.79484   0.56979    0.012
 5332.00    0.58458   0.57941    0.012
 5333.00    0.43753   0.59821    0.012
 5334.00    0.29454   0.60782    0.011
 5335.00    0.39935   0.60789    0.011
 5336.00    0.51160   0.60848    0.011
 5337.00    0.64813   0.61296    0.012
 5338.00    0.77968   0.61544    0.012
 5339.00    0.76842   0.61348    0.012
 5340.00    0.75670   0.61109    0.012
 5341.00    0.73847   0.60809    0.012
 5342.00    0.71766   0.60028    0.012
 5343.00    0.67274   0.59269    0.012
 5344.00    0.65688   0.59539    0.012
 5345.00    0.83916   0.60491    0.012
 5346.00    0.97102   0.61058    0.012
 5347.00    0.83665   0.60951    0.012
 5348.00    0.72536   0.60494    0.012
 5349.00    0.71205   0.60309    0.012
 5350.00    0.71177   0.60351    0.012
 5351.00    0.75715   0.60090    0.012
 5352.00    0.79285   0.59904    0.012
 5353.00    0.80004   0.60408    0.012
 5354.00    0.79199   0.61123    0.012
 5355.00    0.74565   0.61386    0.012
 5356.00    0.71309   0.61446    0.012
 5357.00    0.71037   0.61783    0.012
 5358.00    0.71545   0.62148    0.012
 5359.00    0.73517   0.62218    0.012
 5360.00    0.74297   0.62168    0.012
 5361.00    0.73120   0.62122    0.012
 5362.00    0.72578   0.62016    0.012
 5363.00    0.72950   0.61695    0.012
 5364.00    0.74207   0.61135    0.012
 5365.00    0.76582   0.60663    0.012
 5366.00    0.72834   0.60460    0.012
 5367.00    0.62261   0.60260    0.012
 5368.00    0.53703   0.60080   -2.000
 5369.00    0.47127   0.60108   -2.000
 5370.00    0.52991   0.60128   -2.000
 5371.00    0.69641   0.59871   -2.000
 5372.00    0.82531   0.59106   -2.000
 5373.00    0.92548   0.58116   -2.000
 5374.00    0.90313   0.57920   -2.000
 5375.00    0.79852   0.58957   -2.000
 5376.00    0.73213   0.60310   -2.000
 5377.00    0.68821   0.61044   -2.000
 5378.00    0.61697   0.61176   -2.000
 5379.00    0.53172   0.60952   -2.000
 5380.00    0.54703   0.60762   -2.000
 5381.00    0.60703   0.60811   -2.000
 5382.00    0.64203   0.60726   -2.000
 5383.00    0.66749   0.60400    0.011
 5384.00    0.60403   0.60140    0.011
 5385.00    0.51174   0.59969    0.011
 5386.00    0.51871   0.59918    0.011
 5387.00    0.55263   0.60225    0.011
 5388.00    0.52407   0.60583    0.011
 5389.00    0.48158   0.60581    0.011
 5390.00    0.53145   0.60381    0.011
 5391.00    0.59773   0.60077    0.011
 5392.00    0.62056   0.59629    0.011
 5393.00    0.63748   0.59252    0.011
 5394.00    0.81254   0.59109    0.011
 5395.00    1.00287   0.59079    0.011
 5396.00    0.75879   0.59089    0.011
 5397.00    0.48857   0.59123    0.012
 5398.00    0.38913   0.58862    0.011
 5399.00    0.29513   0.58085    0.011
 5400.00    0.36718   0.57679    0.011
 5401.00    0.43742   0.58335    0.011
 5402.00    0.46092   0.59052    0.011
 5403.00    0.48888   0.59137    0.011
 5404.00    0.57729   0.59170    0.011
 5405.00    0.65457   0.59165    0.012
 5406.00    0.63186   0.58422    0.011
 5407.00    0.59423   0.57156    0.011
 5408.00    0.45811   0.56367    0.011
 5409.00    0.36216   0.56588    0.011
 5410.00    0.47288   0.57217    0.011
 5411.00    0.56484   0.57002    0.012
 5412.00    0.57899   0.55449    0.011
 5413.00    0.58265   0.53700    0.011
 5414.00    0.55024   0.53491    0.011
 5415.00    0.55440   0.54945    0.012
 5416.00    0.66433   0.56696    0.012
 5417.00    0.75860   0.57747    0.012
 5418.00    0.81418   0.58445    0.012
 5419.00    0.84851   0.59251    0.011
 5420.00    0.83760   0.59729    0.011
 5421.00    0.73553   0.59633    0.011
 5422.00    0.46484   0.59265    0.011
 5423.00    0.35196   0.59007    0.011
 5424.00    0.49408   0.59126    0.011
 5425.00    0.59617   0.59259    0.011
 5426.00    0.64154   0.58808    0.011
 5427.00    0.69779   0.58344    0.011
 5428.00    0.76761   0.58785    0.011
 5429.00    0.86979   0.59669    0.011
 5430.00    1.00753   0.59853    0.011
 5431.00    0.95329   0.58832    0.011
 5432.00    0.71290   0.57563    0.011
 5433.00    0.57824   0.57602    0.011
 5434.00    0.53397   0.58393    0.011
 5435.00    0.48134   0.58386    0.011
 5436.00    0.42243   0.57777    0.011
 5437.00    0.50488   0.57388    0.011
 5438.00    0.68086   0.57483    0.011
 5439.00    0.69554   0.57989    0.011
 5440.00    0.61678   0.58769    0.011
 5441.00    0.57323   0.59561    0.011
 5442.00    0.54745   0.60026    0.011
 5443.00    0.56012   0.60128    0.011
 5444.00    0.58960   0.60078    0.011
 5445.00    0.56808   0.60027    0.011
 5446.00    0.52744   0.59813    0.011
 5447.00    0.46678   0.59126    0.011
 5448.00    0.39976   0.57946    0.011
 5449.00    0.45484   0.56894    0.011
 5450.00    0.54238   0.56950    0.011
 5451.00    0.54760   0.58065    0.011
 5452.00    0.53491   0.59017    0.011
 5453.00    0.49331   0.59267    0.011
 5454.00    0.44672   0.59119    0.011
 5455.00    0.59453   0.58811    0.011
 5456.00    0.76783   0.58264    0.011
 5457.00    0.73935   0.57350    0.011
 5458.00    0.69222   0.56616    0.011
 5459.00    0.73024   0.57027    0.011
 5460.00    0.77303   0.58254    0.011
 5461.00    0.75911   0.59097    0.011
 5462.00    0.74362   0.59146    0.011
 5463.00    0.69699   0.58754    0.011
 5464.00    0.65339   0.58198    0.011
 5465.00    0.68067   0.57546    0.011
 5466.00    0.70425   0.57269    0.011
 5467.00    0.68031   0.57729    0.011
 5468.00    0.65741   0.58197    0.011
 5469.00    0.64338   0.58198    0.011
 5470.00    0.64282   0.58265    0.011
 5471.00    0.72851   0.58457    0.011
 5472.00    0.81883   0.58339    0.011
 5473.00    0.93237   0.58071    0.011
 5474.00    1.01110   0.57996    0.011
 5475.00    0.94859   0.57818    0.011
 5476.00    0.85477   0.57442    0.010
 5477.00    0.65557   0.57265    0.011
 5478.00    0.52003   0.56858   -2.000
 5479.00    0.56530   0.55979   -2.000
 5480.00    0.57579   0.55896   -2.000
 5481.00    0.50185   0.56969   -2.000
 5482.00    0.52185   0.57711   -2.000
 5483.00    0.73868   0.57349   -2.000
 5484.00    0.86161   0.56743   -2.000
 5485.00    0.81357   0.56854   -2.000
 5486.00    0.79185   0.57505   -2.000
 5487.00    0.81202   0.58171   -2.000
 5488.00    0.90061   0.58442   -2.000
 5489.00    1.08477   0.57999   -2.000
 5490.00    1.28576   0.57302   -2.000
 5491.00    1.50745   0.57166   -2.000
 5492.00    1.35523   0.57470   -2.000
 5493.00    0.79780   0.57684   -2.000
 5494.00    0.52694   0.57837   -2.000
 5495.00    0.53002   0.57800   -2.000
 5496.00    0.48746   0.57519   -2.000
 5497.00    0.40644   0.57497   -2.000
 5498.00    0.44409   0.57691   -2.000
 5499.00    0.56981   0.57501   -2.000
 5500.00    0.64805   0.57170   -2.000
 5501.00    0.69534   0.57469   -2.000
 5502.00    0.69078   0.57998    0.011
 5503.00    0.65664   0.57794    0.011
 5504.00    0.69290   0.57083    0.011
 5505.00    0.76413   0.56751    0.011
 5506.00    0.70279   0.56952    0.011
 5507.00    0.58449   0.57147    0.011
 5508.00    0.68467   0.56877    0.011
 5509.00    0.86533   0.56420    0.011
 5510.00    0.92784   0.56503    0.011
 5511.00    0.95348   0.56998    0.011
 5512.00    0.87702   0.57138    0.011
 5513.00    0.77400   0.56972    0.011
 5514.00    0.64183   0.56589    0.011
 5515.00    0.50347   0.56137    0.010
 5516.00    0.48587   0.56064    0.010
 5517.00    0.48855   0.56362    0.010
 5518.00    0.47437   0.56707    0.011
 5519.00    0.45806   0.56985    0.011
 5520.00    0.36623   0.57328    0.010
 5521.00    0.26774   0.57751    0.010
 5522.00    0.35452   0.57914    0.010
 5523.00    0.45099   0.57764    0.010
 5524.00    0.50243   0.57602    0.010
 5525.00    0.55293   0.57555    0.010
 5526.00    0.59582   0.57548    0.010
 5527.00    0.63535   0.57410    0.010
 5528.00    0.60242   0.57038    0.010
 5529.00    0.57503   0.56491    0.010
 5530.00    0.61526   0.55848    0.010
 5531.00    0.64519   0.55545    0.010
 5532.00    0.58917   0.56080    0.010
 5533.00    0.54741   0.56914    0.010
 5534.00    0.59426   0.57226    0.010
 5535.00    0.62071   0.57089    0.010
 5536.00    0.54737   0.56840    0.010
 5537.00    0.50161   0.56507    0.010
 5538.00    0.56534   0.56331    0.010
 5539.00    0.60770   0.56567    0.012
 5540.00    0.57955   0.56827    0.027
 5541.00    0.55943   0.56912   -1.000
 5542.00    0.56173   0.57136   -1.000
 5543.00    0.59133   0.57441   -1.000
 5544.00    0.68608   0.57482   -1.000
 5545.00    0.70974   0.57126   -1.000
 5546.00    0.58686   0.56709   -1.000
 5547.00    0.47978   0.56633    0.058
 5548.00    0.40100   0.56695    0.015
 5549.00    0.36075   0.56708    0.010
 5550.00    0.38091   0.56966    0.010
 5551.00    0.41387   0.57385    0.010
 5552.00    0.46445   0.57575    0.010
 5553.00    0.50790   0.57562    0.011
 5554.00    0.54268   0.57457    0.011
 5555.00    0.57428   0.57188    0.010
 5556.00    0.60247   0.56797    0.010
 5557.00    0.64016   0.56538    0.010
 5558.00    0.68682   0.56610    0.010
 5559.00    0.67732   0.56775    0.010
 5560.00    0.62117   0.56738    0.010
 5561.00    0.63752   0.56684    0.010
 5562.00    0.70689   0.56736    0.010
 5563.00    0.67755   0.56695    0.010
 5564.00    0.58481   0.56493    0.010
 5565.00    0.53928   0.56177    0.010
 5566.00    0.52027   0.55995    0.010
 5567.00    0.57921   0.56020    0.010
 5568.00    0.67627   0.55911    0.010
 5569.00    0.71729   0.55750    0.010
 5570.00    0.73464   0.55822    0.010
 5571.00    0.70386   0.55859    0.010
 5572.00    0.65566   0.55757    0.010
 5573.00    0.62732   0.55924    0.010
 5574.00    0.60505   0.56097    0.010
 5575.00    0.61904   0.55705    0.010
 5576.00    0.64226   0.55509    0.010
 5577.00    0.62901   0.55996    0.010
 5578.00    0.60819   0.56266    0.010
 5579.00    0.66291   0.56158    0.010
 5580.00    0.72995   0.56197    0.010
 5581.00    0.71137   0.56241    0.010
 5582.00    0.68234   0.56258    0.010
 5583.00    0.68604   0.56352    0.010
 5584.00    0.69250   0.56221    0.010
 5585.00    0.63998   0.56027    0.010
 5586.00    0.58462   0.56041    0.010
 5587.00    0.60731   0.55926    0.010
 5588.00    0.63188   0.55391    0.010
 5589.00    0.69803   0.54541    0.011
 5590.00    0.75060   0.53818    0.011
 5591.00    0.53368   0.53653    0.011
 5592.00    0.33691   0.53951    0.011
 5593.00    0.37405   0.54252    0.011
 5594.00    0.41374   0.54013    0.011
 5595.00    0.47389   0.53706    0.011
 5596.00    0.53734   0.53868    0.011
 5597.00    0.62075   0.54568    0.011
 5598.00    0.68425   0.55355    0.011
 5599.00    0.65282   0.55980    0.011
 5600.00    0.63643   0.55750    0.011
 5601.00    0.67848   0.55004    0.011
 5602.00    0.71123   0.54694    0.010
 5603.00    0.71390   0.54607    0.010
 5604.00    0.69425   0.54266    0.010
 5605.00    0.61346   0.54027    0.010
 5606.00    0.52853   0.54392    0.010
 5607.00    0.43386   0.55301    0.010
 5608.00    0.39591   0.56061    0.010
 5609.00    0.47300   0.56375    0.010
 5610.00    0.53064   0.56399    0.010
 5611.00    0.55395   0.56307    0.010
 5612.00    0.56822   0.56212    0.010
 5613.00    0.56852   0.56201    0.009
 5614.00    0.60252   0.56322    0.009
 5615.00    0.68224   0.56420    0.010
 5616.00    0.71405   0.56032    0.010
 5617.00    0.68861   0.54823    0.010
 5618.00    0.62661   0.53597    0.010
 5619.00    0.52611   0.53674    0.010
 5620.00    0.51546   0.54617    0.010
 5621.00    0.58832   0.55073    0.010
 5622.00    0.59704   0.54983    0.010
 5623.00    0.55322   0.55021    0.010
 5624.00    0.50893   0.55342    0.010
 5625.00    0.46430   0.55460    0.010
 5626.00    0.45443   0.54889    0.010
 5627.00    0.46655   0.53996    0.010
 5628.00    0.52513   0.53805    0.010
 5629.00    0.60941   0.54377    0.010
 5630.00    0.64016   0.54890    0.010
 5631.00    0.64516   0.55182    0.010
 5632.00    0.58152   0.55528    0.010
 5633.00    0.48937   0.55769    0.010
 5634.00    0.51657   0.55761    0.010
 5635.00    0.58617   0.55593    0.010
 5636.00    0.59725   0.55331    0.010
 5637.00    0.59078   0.55072    0.010
 5638.00    0.53286   0.54842    0.010
 5639.00    0.46213   0.54548    0.010
 5640.00    0.43288   0.54299    0.010
 5641.00    0.41201   0.54351    0.010
 5642.00    0.41704   0.54502    0.010
 5643.00    0.42617   0.54356    0.010
 5644.00    0.44919   0.54088    0.010
 5645.00    0.47385   0.54205    0.010
 5646.00    0.44518   0.54479    0.010
 5647.00    0.41224   0.54581    0.009
 5648.00    0.38532   0.54639    0.009
 5649.00    0.35866   0.54743    0.009
 5650.00    0.35547   0.54865    0.009
 5651.00    0.35358   0.54822    0.009
 5652.00    0.40183   0.54631    0.009
 5653.00    0.45268   0.54603    0.009
 5654.00    0.55125   0.54865    0.009
 5655.00    0.64285   0.55104    0.009
 5656.00    0.65723   0.54926    0.010
 5657.00    0.66027   0.54416    0.010
 5658.00    0.57536   0.54172    0.010
 5659.00    0.50545   0.54239    0.010
 5660.00    0.52354   0.53675    0.010
 5661.00    0.53929   0.52688    0.010
 5662.00    0.54419   0.52741    0.010
 5663.00    0.53912   0.53622    0.010
 5664.00    0.49618   0.53852    0.010
 5665.00    0.46561   0.53512    0.010
 5666.00    0.47427   0.53582    0.010
 5667.00    0.45679   0.54142    0.010
 5668.00    0.36898   0.54476    0.010
 5669.00    0.30114   0.54282    0.010
 5670.00    0.27938   0.53899    0.010
 5671.00    0.30386   0.53805    0.010
 5672.00    0.42064   0.53983    0.010
 5673.00    0.49262   0.54175    0.010
 5674.00    0.48669   0.54409    0.010
 5675.00    0.48195   0.54781    0.010
 5676.00    0.47902   0.55084    0.010
 5677.00    0.50464   0.54985    0.010
 5678.00    0.56842   0.54712    0.010
 5679.00    0.59155   0.54744    0.010
 5680.00    0.56679   0.54890    0.010
 5681.00    0.56956   0.54690    0.010
 5682.00    0.60091   0.54400    0.010
 5683.00    0.59723   0.54342    0.010
 5684.00    0.56146   0.54161    0.010
 5685.00    0.53219   0.53675    0.010
 5686.00    0.50817   0.53464    0.010
 5687.00    0.48965   0.53730    0.009
 5688.00    0.47506   0.53898    0.009
 5689.00    0.41363   0.53663    0.009
 5690.00    0.32302   0.53311    0.009
 5691.00    0.34380   0.53287    0.009
 5692.00    0.42527   0.53629    0.009
 5693.00    0.52379   0.54044    0.009
 5694.00    0.63038   0.54325    0.009
 5695.00    0.68626   0.54544    0.010
 5696.00    0.72144   0.54573    0.010
 5697.00    0.72457   0.54400    0.010
 5698.00    0.71652   0.54281    0.010
 5699.00    0.70385   0.54282    0.010
 5700.00    0.68982   0.54129    0.010
 5701.00    0.68617   0.53787    0.010
 5702.00    0.68504   0.53596    0.010
 5703.00    0.63553   0.53385    0.010
 5704.00    0.57648   0.53042    0.010
 5705.00    0.53708   0.52982    0.010
 5706.00    0.50070   0.53347    0.010
 5707.00    0.57955   0.53632    0.010
 5708.00    0.67147   0.53407    0.010
 5709.00    0.62318   0.52894    0.010
 5710.00    0.56427   0.52489    0.010
 5711.00    0.49843   0.52108    0.010
 5712.00    0.43231   0.51865    0.010
 5713.00    0.46644   0.52010    0.010
 5714.00    0.50048   0.52175    0.010
 5715.00    0.49860   0.52434    0.010
 5716.00    0.49869   0.53109    0.010
 5717.00    0.53270   0.53614    0.010
 5718.00    0.56209   0.53754    0.010
 5719.00    0.54272   0.53856    0.010
 5720.00    0.52669   0.53857    0.010
 5721.00    0.53562   0.53835    0.010
 5722.00    0.54762   0.53986    0.009
 5723.00    0.57708   0.54128    0.009
 5724.00    0.59663   0.54224    0.009
 5725.00    0.57117   0.54337    0.009
 5726.00    0.54360   0.54391    0.010
 5727.00    0.50819   0.54360    0.009
 5728.00    0.48995   0.54236    0.009
 5729.00    0.52519   0.53851    0.009
 5730.00    0.56716   0.53490    0.009
 5731.00    0.62695   0.53633    0.009
 5732.00    0.64669   0.53973    0.009
 5733.00    0.57557   0.53848    0.009
 5734.00    0.51897   0.53379    0.009
 5735.00    0.49092   0.53310    0.009
 5736.00    0.50751   0.53726    0.009
 5737.00    0.60058   0.54060    0.009
 5738.00    0.67113   0.54103    0.009
 5739.00    0.70790   0.53970    0.009
 5740.00    0.71763   0.53815    0.000
 5741.00    0.69171   0.53679    0.000
 5742.00    0.66991   0.53563    0.000
 5743.00    0.65289   0.53537    0.000
 5744.00    0.64447   0.53545    0.000
 5745.00    0.64485   0.53492    0.000
 5746.00    0.62407   0.53436    0.000
 5747.00    0.58419   0.53679    0.000
 5748.00    0.57143   0.53982    0.000
 5749.00    0.58027   0.53886    0.000
 5750.00    0.59485   0.53341    0.000
 5751.00    0.61346   0.52938    0.000
 5752.00    0.59913   0.53204    0.000
 5753.00    0.56457   0.53664    0.000
 5754.00    0.56302   0.53597    0.000
 5755.00    0.57917   0.52940    0.000
 5756.00    0.51423   0.52225    0.000
 5757.00    0.41152   0.52065    0.000
 5758.00    0.35588   0.52641    0.000
 5759.00    0.31912   0.53389    0.000
 5760.00    0.35302   0.53754    0.000
 5761.00    0.41110   0.53759    0.000
 5762.00    0.45678   0.53450    0.000
 5763.00    0.49888   0.52938    0.000
 5764.00    0.47216   0.52402    0.000
 5765.00    0.42904   0.52028    0.000
 5766.00    0.41057   0.52193    0.000
 5767.00    0.39683   0.52953    0.000
 5768.00    0.53049   0.53562    0.000
 5769.00    0.68610   0.53696    0.000
 5770.00    0.79787   0.53668    0.000
 5771.00    0.90486   0.53600    0.000
 5772.00    0.90751   0.53475    0.000
 5773.00    0.90267   0.53353    0.000
 5774.00    0.77129   0.53177    0.000
 5775.00    0.63526   0.52982    0.000
 5776.00    0.59189   0.52925    0.000
 5777.00    0.55125   0.52857    0.000
 5778.00    0.59411   0.52849    0.000
 5779.00    0.63787   0.53051    0.000
 5780.00    0.69614   0.53219    0.000
 5781.00    0.74103   0.53143    0.000
 5782.00    0.65061   0.52720    0.000
 5783.00    0.56050   0.51908    0.000
 5784.00    0.47265   0.51163    0.000
 5785.00    0.40856   0.51087    0.000
 5786.00    0.47636   0.51375    0.000
 5787.00    0.53132   0.51328    0.000
 5788.00    0.52934   0.51118    0.000
 5789.00    0.54915   0.51440    0.000
 5790.00    0.64834   0.52108    0.000
 5791.00    0.71663   0.52510   -2.000
 5792.00    0.69058   0.52610   -2.000
 5793.00    0.68800   0.52354   -2.000
 5794.00    0.74631   0.52064   -2.000
 5795.00    0.77924   0.52238   -2.000
 5796.00    0.75554   0.52585   -2.000
 5797.00    0.71771   0.52854   -2.000
 5798.00    0.65252   0.53034   -2.000
 5799.00    0.63787   0.52843   -2.000
 5800.00    0.70847   0.52293   -2.000
 5801.00    0.73760   0.52066   -2.000
 5802.00    0.70544   0.52381   -2.000
 5803.00    0.65255   0.52391   -2.000
 5804.00    0.57272   0.52226   -2.000
 5805.00    0.51139   0.52369   -2.000
 5806.00    0.47126   0.52644   -2.000
 5807.00    0.50574   0.52412   -2.000
 5808.00    0.61556   0.52156   -2.000
 5809.00    0.63882   0.52227   -2.000
 5810.00    0.58497   0.52395   -2.000
 5811.00    0.52909   0.52514    0.000
 5812.00    0.47161   0.52563    0.000
 5813.00    0.46659   0.52436    0.000
 5814.00    0.49775   0.52080    0.000
 5815.00    0.52734   0.51933    0.000
 5816.00    0.55598   0.52099    0.000
 5817.00    0.56931   0.52363    0.000
 5818.00    0.57456   0.52048    0.000
 5819.00    0.52909   0.51791    0.000
 5820.00    0.46036   0.52048    0.000
 5821.00    0.43059   0.52617    0.000
 5822.00    0.41617   0.52927    0.000
 5823.00    0.50677   0.52961    0.000
 5824.00    0.63267   0.52908    0.000
 5825.00    0.72100   0.52779    0.000
 5826.00    0.79873   0.52650    0.000
 5827.00    0.76704   0.52683    0.000
 5828.00    0.70988   0.52939    0.000
 5829.00    0.70331   0.53048    0.000
 5830.00    0.70620   0.52937    0.000
 5831.00    0.66061   0.52782    0.000
 5832.00    0.60803   0.52762    0.000
 5833.00    0.62648   0.52761    0.000
 5834.00    0.65236   0.52651    0.000
 5835.00    0.71146   0.52590    0.000
 5836.00    0.77281   0.52515    0.000
 5837.00    0.65355   0.52291    0.000
 5838.00    0.52832   0.52199    0.000
 5839.00    0.44588   0.52373    0.000
 5840.00    0.36770   0.52417    0.000
 5841.00    0.42303   0.52217    0.000
 5842.00    0.47800   0.52217    0.000
 5843.00    0.52752   0.52484    0.000
 5844.00    0.57625   0.52684    0.000
 5845.00    0.61732   0.52736    0.000
 5846.00    0.66099   0.52688    0.000
 5847.00    0.72285   0.52533    0.000
 5848.00    0.76468   0.52293    0.000
 5849.00    0.69828   0.52021    0.000
 5850.00    0.63414   0.51776    0.000
 5851.00    0.57982   0.51722    0.000
 5852.00    0.53641   0.51851    0.000
 5853.00    0.53192   0.51947    0.000
 5854.00    0.55633   0.51791    0.000
 5855.00    0.66735   0.51340    0.000
 5856.00    0.73809   0.50894    0.000
 5857.00    0.70610   0.50922    0.000
 5858.00    0.69798   0.51201    0.000
 5859.00    0.74224   0.51005    0.000
 5860.00    0.77551   0.50385    0.000
 5861.00    0.78784   0.50162    0.000
 5862.00    0.79769   0.50600    0.000
 5863.00    0.80345   0.51137    0.000
 5864.00    0.79572   0.51369    0.000
 5865.00    0.76836   0.51234    0.000
 5866.00    0.72976   0.51183    0.000
 5867.00    0.67679   0.51396    0.000
 5868.00    0.66195   0.51450    0.000
 5869.00    0.69014   0.51180    0.000
 5870.00    0.68182   0.51038    0.000
 5871.00    0.63714   0.51310    0.000
 5872.00    0.61159   0.51648    0.000
 5873.00    0.60281   0.51795    0.000
 5874.00    0.64831   0.51742    0.000
 5875.00    0.73577   0.51470    0.000
 5876.00    0.74883   0.51005    0.000
 5877.00    0.71127   0.49080    0.000
 5878.00    0.60887   0.46893    0.000
 5879.00    0.46780   0.46605    0.000
 5880.00    0.39448   0.48309    0.000
 5881.00    0.35639   0.50535    0.000
 5882.00    0.39375   0.50735    0.000
 5883.00    0.46513   0.50583    0.000
 5884.00    0.51243   0.50663    0.000
 5885.00    0.55040   0.50866    0.000
 5886.00    0.60402   0.50766    0.000
 5887.00    0.66280   0.50576    0.000
 5888.00    0.66155   0.50657    0.000
 5889.00    0.64371   0.50759    0.000
 5890.00    0.61976   0.50337    0.000
 5891.00    0.59443   0.48778    0.000
 5892.00    0.57339   0.46175    0.000
 5893.00    0.55313   0.44626    0.000
 5894.00    0.54590   0.45780    0.000
 5895.00    0.54048   0.47826    0.000
 5896.00    0.54810   0.48808    0.000
 5897.00    0.55702   0.48554    0.000
 5898.00    0.54212   0.46997    0.000
 5899.00    0.52570   0.45874    0.000
 5900.00    0.50364   0.46992    0.000
 5901.00    0.48163   0.48745    0.009
 5902.00    0.53315   0.49537    0.009
 5903.00    0.58525   0.49935    0.009
 5904.00    0.65365   0.50309    0.009
 5905.00    0.71540   0.50453    0.009
 5906.00    0.68242   0.50500    0.009
 5907.00    0.65120   0.50511    0.009
 5908.00    0.63636   0.50368    0.009
 5909.00    0.61739   0.50261    0.009
 5910.00    0.57036   0.50417    0.009
 5911.00    0.52694   0.50614    0.009
 5912.00    0.50255   0.50623    0.009
 5913.00    0.49681   0.50604    0.009
 5914.00    0.57008   0.50733    0.009
 5915.00    0.62488   0.50723    0.009
 5916.00    0.61512   0.50264    0.009
 5917.00    0.59705   0.49692    0.009
 5918.00    0.55451   0.49549    0.009
 5919.00    0.52364   0.49748    0.009
 5920.00    0.52205   0.50073    0.009
 5921.00    0.53276   0.50320    0.009
 5922.00    0.57006   0.50428    0.009
 5923.00    0.57737   0.50536    0.009
 5924.00    0.52846   0.50492    0.009
 5925.00    0.48913   0.50318    0.009
 5926.00    0.46549   0.50294    0.009
 5927.00    0.47093   0.50413    0.009
 5928.00    0.51810   0.50539    0.009
 5929.00    0.52297   0.50636    0.009
 5930.00    0.47442   0.50514    0.009
 5931.00    0.44242   0.50180    0.009
 5932.00    0.42886   0.49799    0.009
 5933.00    0.40324   0.49613    0.009
 5934.00    0.36578   0.49932    0.009
 5935.00    0.33574   0.50358    0.009
 5936.00    0.31212   0.50299    0.009
 5937.00    0.32207   0.49888    0.009
 5938.00    0.35763   0.49760    0.009
 5939.00    0.37273   0.50106    0.009
 5940.00    0.37412   0.50390    0.009
 5941.00    0.38865   0.50481    0.009
 5942.00    0.41089   0.50490    0.009
 5943.00    0.45407   0.50212    0.009
 5944.00    0.50798   0.49740    0.009
 5945.00    0.54377   0.49632    0.009
 5946.00    0.57152   0.49845    0.009
 5947.00    0.58180   0.50104    0.009
 5948.00    0.58543   0.50320    0.009
 5949.00    0.55397   0.50387    0.009
 5950.00    0.51115   0.50169    0.009
 5951.00    0.49378   0.49669    0.009
 5952.00    0.48331   0.49378    0.009
 5953.00    0.46400   0.49666    0.009
 5954.00    0.44273   0.49947    0.009
 5955.00    0.45721   0.49663    0.009
 5956.00    0.47801   0.49376    0.009
 5957.00    0.50145   0.49646    0.009
 5958.00    0.52524   0.49909    0.009
 5959.00    0.47593   0.49641    0.009
 5960.00    0.41959   0.49312    0.009
 5961.00    0.40386   0.49362    0.009
 5962.00    0.39056   0.49669    0.009
 5963.00    0.45330   0.50009    0.008
 5964.00    0.51747   0.50202    0.008
 5965.00    0.50330   0.50263    0.008
 5966.00    0.48977   0.50198    0.009
 5967.00    0.49247   0.50096    0.008
 5968.00    0.49587   0.49893    0.008
 5969.00    0.50875   0.49747    0.008
 5970.00    0.52195   0.49897    0.008
 5971.00    0.53794   0.50068    0.009
 5972.00    0.54811   0.50146    0.009
 5973.00    0.51998   0.50251    0.009
 5974.00    0.49297   0.50315    0.009
 5975.00    0.47170   0.50293    0.009
 5976.00    0.45056   0.50209    0.009
 5977.00    0.42998   0.50009    0.009
 5978.00    0.41106   0.49597    0.009
 5979.00    0.39789   0.49169    0.009
 5980.00    0.40524   0.48978    0.009
 5981.00    0.47183   0.49012    0.009
 5982.00    0.52531   0.49276    0.009
 5983.00    0.54646   0.49657    0.009
 5984.00    0.56769   0.49851    0.009
 5985.00    0.58910   0.49651    0.009
 5986.00    0.60452   0.49075    0.009
 5987.00    0.60887   0.48510    0.009
 5988.00    0.59555   0.48575    0.009
 5989.00    0.55373   0.49027    0.009
 5990.00    0.55369   0.49241    0.009
 5991.00    0.61276   0.49325    0.009
 5992.00    0.65069   0.49506    0.009
 5993.00    0.66229   0.49526    0.009
 5994.00    0.62858   0.49278    0.008
 5995.00    0.54517   0.49209    0.008
 5996.00    0.49732   0.49584    0.008
 5997.00    0.48390   0.49880    0.008
 5998.00    0.48821   0.49797    0.008
 5999.00    0.50765   0.49446    0.008
 6000.00    0.51509   0.49002    0.008
 6001.00    0.51351   0.48828    0.008
 6002.00    0.50882   0.49014    0.008
 6003.00    0.50208   0.49286    0.008
 6004.00    0.51672   0.49358    0.009
 6005.00    0.54372   0.49060    0.009
 6006.00    0.53316   0.48816    0.009
 6007.00    0.50367   0.49003    0.009
 6008.00    0.51025   0.49156    0.009
 6009.00    0.53255   0.48918    0.009
 6010.00    0.51136   0.48415    0.009
 6011.00    0.47388   0.48033    0.009
 6012.00    0.45377   0.48384    0.009
 6013.00    0.43917   0.49137    0.009
 6014.00    0.49389   0.49362    0.009
 6015.00    0.56698   0.48960    0.009
 6016.00    0.56106   0.48501    0.009
 6017.00    0.53802   0.48525    0.009
 6018.00    0.48865   0.48752    0.009
 6019.00    0.43476   0.48637    0.009
 6020.00    0.45276   0.48507    0.009
 6021.00    0.48015   0.48652    0.009
 6022.00    0.47018   0.48555    0.009
 6023.00    0.45678   0.48211    0.009
 6024.00    0.49449   0.48138    0.008
 6025.00    0.53504   0.48338    0.008
 6026.00    0.55106   0.48488    0.008
 6027.00    0.56588   0.48524    0.009
 6028.00    0.51457   0.48741    0.008
 6029.00    0.46316   0.48890    0.008
 6030.00    0.40929   0.48792    0.008
 6031.00    0.36068   0.48908    0.008
 6032.00    0.37915   0.49144    0.008
 6033.00    0.39318   0.49180    0.008
 6034.00    0.36897   0.49126    0.008
 6035.00    0.34500   0.49201    0.009
 6036.00    0.32263   0.49324    0.008
 6037.00    0.31142   0.49302    0.008
 6038.00    0.35603   0.49223    0.009
 6039.00    0.39592   0.49208    0.009
 6040.00    0.41676   0.49240    0.009
 6041.00    0.45004   0.49238    0.009
 6042.00    0.52511   0.49113    0.009
 6043.00    0.57562   0.48955    0.009
 6044.00    0.55657   0.48861    0.009
 6045.00    0.53667   0.48805    0.009
 6046.00    0.51475   0.48979    0.009
 6047.00    0.50529   0.49214    0.008
 6048.00    0.52191   0.49251    0.009
 6049.00    0.52396   0.49231    0.009
 6050.00    0.49954   0.49250    0.008
 6051.00    0.45708   0.49217    0.008
 6052.00    0.38596   0.49162    0.008
 6053.00    0.35564   0.49229    0.008
 6054.00    0.38223   0.49252    0.008
 6055.00    0.44098   0.49061    0.008
 6056.00    0.53918   0.48772    0.008
 6057.00    0.57005   0.48623    0.008
 6058.00    0.52809   0.48513    0.008
 6059.00    0.49594   0.48331    0.008
 6060.00    0.47314   0.48340    0.008
 6061.00    0.46881   0.48573    0.008
 6062.00    0.48002   0.48841    0.008
 6063.00    0.47735   0.48966    0.009
 6064.00    0.46437   0.48926    0.009
 6065.00    0.45769   0.48727    0.009
 6066.00    0.45510   0.48451    0.009
 6067.00    0.43233   0.48071    0.008
 6068.00    0.39806   0.47605    0.008
 6069.00    0.39684   0.47737    0.008
 6070.00    0.41201   0.48499    0.008
 6071.00    0.42270   0.49005    0.009
 6072.00    0.43148   0.49087    0.009
 6073.00    0.41997   0.49043    0.009
 6074.00    0.40100   0.49021    0.009
 6075.00    0.37054   0.49047    0.009
 6076.00    0.33651   0.49046    0.009
 6077.00    0.38876   0.49020    0.009
 6078.00    0.46340   0.48948    0.009
 6079.00    0.49738   0.48801    0.009
 6080.00    0.52275   0.48508    0.009
 6081.00    0.51973   0.48031    0.008
 6082.00    0.51196   0.47851    0.008
 6083.00    0.47475   0.48099    0.008
 6084.00    0.43382   0.48093    0.008
 6085.00    0.39859   0.47794    0.008
 6086.00    0.36386   0.47785    0.008
 6087.00    0.37662   0.47946    0.008
 6088.00    0.39184   0.47877    0.008
 6089.00    0.42055   0.47835    0.008
 6090.00    0.44915   0.48015    0.008
 6091.00    0.45169   0.48196    0.008
 6092.00    0.45306   0.48030    0.008
 6093.00    0.42955   0.47650    0.008
 6094.00    0.40676   0.47547    0.008
 6095.00    0.39279   0.47637    0.008
 6096.00    0.38057   0.47671    0.008
 6097.00    0.38285   0.47897    0.009
 6098.00    0.38805   0.48262    0.009
 6099.00    0.41145   0.48274    0.009
 6100.00    0.43412   0.48054    0.009
 6101.00    0.45320   0.48064    0.009
 6102.00    0.46387   0.48301    0.009
 6103.00    0.44117   0.48403    0.008
 6104.00    0.42184   0.47866    0.008
 6105.00    0.41360   0.46605    0.008
 6106.00    0.40588   0.45946    0.008
 6107.00    0.39961   0.46783    0.008
 6108.00    0.40442   0.47799    0.008
 6109.00    0.43563   0.48054    0.008
 6110.00    0.46585   0.47843    0.008
 6111.00    0.49404   0.47672    0.008
 6112.00    0.52896   0.47906    0.008
 6113.00    0.57588   0.48083    0.008
 6114.00    0.59741   0.47830    0.008
 6115.00    0.57919   0.47674    0.008
 6116.00    0.55843   0.47911    0.008
 6117.00    0.53419   0.48154    0.008
 6118.00    0.50467   0.48053    0.008
 6119.00    0.46875   0.47652    0.008
 6120.00    0.44546   0.47571    0.008
 6121.00    0.43565   0.47800    0.008
 6122.00    0.44744   0.47696    0.008
 6123.00    0.47956   0.47253    0.008
 6124.00    0.52729   0.46651    0.008
 6125.00    0.58797   0.46084    0.008
 6126.00    0.60945   0.46436    0.009
 6127.00    0.60230   0.47349    0.009
 6128.00    0.57669   0.47645    0.009
 6129.00    0.53925   0.47464    0.008
 6130.00    0.51532   0.47247    0.008
 6131.00    0.49899   0.47051    0.008
 6132.00    0.51943   0.47094    0.008
 6133.00    0.55782   0.47421    0.008
 6134.00    0.60418   0.47690    0.009
 6135.00    0.65391   0.47784    0.009
 6136.00    0.66964   0.47812    0.009
 6137.00    0.67308   0.47585    0.009
 6138.00    0.67003   0.46828    0.009
 6139.00    0.66500   0.45525    0.008
 6140.00    0.63195   0.44494    0.008
 6141.00    0.59178   0.45048    0.008
 6142.00    0.56266   0.46641    0.008
 6143.00    0.53583   0.47430    0.008
 6144.00    0.52111   0.46925    0.008
 6145.00    0.50835   0.46417    0.008
 6146.00    0.47631   0.46902    0.008
 6147.00    0.44191   0.47590    0.008
 6148.00    0.42075   0.47749    0.008
 6149.00    0.40070   0.47617    0.008
 6150.00    0.40510   0.47381    0.008
 6151.00    0.41066   0.47015    0.008
 6152.00    0.39767   0.46702    0.008
 6153.00    0.38519   0.46620    0.008
 6154.00    0.41724   0.46804    0.008
 6155.00    0.45138   0.47113    0.008
 6156.00    0.52670   0.47279    0.009
 6157.00    0.59270   0.46994    0.009
 6158.00    0.55118   0.46610    0.009
 6159.00    0.51375   0.46654    0.009
 6160.00    0.50895   0.46745    0.009
 6161.00    0.51011   0.46734    0.009
 6162.00    0.54715   0.46718    0.009
 6163.00    0.58179   0.46195    0.008
 6164.00    0.60506   0.44894    0.008
 6165.00    0.61091   0.43853    0.008
 6166.00    0.54927   0.44007    0.008
 6167.00    0.49274   0.44898    0.008
 6168.00    0.45267   0.45625    0.008
 6169.00    0.43565   0.45923    0.008
 6170.00    0.48163   0.46160    0.008
 6171.00    0.51210   0.45969    0.008
 6172.00    0.50627   0.44976    0.008
 6173.00    0.50037   0.44445    0.008
 6174.00    0.49431   0.45208    0.008
 6175.00    0.47862   0.46072    0.008
 6176.00    0.44596   0.46155    0.008
 6177.00    0.42112   0.46082    0.008
 6178.00    0.40834   0.46144    0.008
 6179.00    0.41067   0.46060    0.008
 6180.00    0.43347   0.46012    0.008
 6181.00    0.44904   0.46296    0.008
 6182.00    0.45597   0.46479    0.008
 6183.00    0.46664   0.46339    0.008
 6184.00    0.48122   0.46418    0.009
 6185.00    0.51724   0.46662    0.009
 6186.00    0.57316   0.46689    0.009
 6187.00    0.61601   0.46636    0.009
 6188.00    0.64817   0.46544    0.009
 6189.00    0.61268   0.46178    0.009
 6190.00    0.52850   0.45809    0.009
 6191.00    0.46000   0.45716    0.008
 6192.00    0.40140   0.45778    0.008
 6193.00    0.40515   0.45465    0.008
 6194.00    0.44333   0.44637    0.008
 6195.00    0.60009   0.44506    0.008
 6196.00    0.81380   0.45435   -2.000
 6197.00    1.20867   0.46120   -2.000
 6198.00    1.67863   0.46267   -2.000
 6199.00    1.77603   0.46388   -2.000
 6200.00    1.74136   0.46546   -2.000
 6201.00    1.22606   0.46363   -2.000
 6202.00    0.56693   0.45732   -2.000
 6203.00    0.18856   0.45287   -2.000
 6204.00   -0.12007   0.45581   -2.000
 6205.00   -0.05637   0.46173   -2.000
 6206.00    0.08231   0.46445   -2.000
 6207.00    0.23450   0.46390   -2.000
 6208.00    0.38881   0.46307    0.009
 6209.00    0.43639   0.46366    0.009
 6210.00    0.47145   0.46408    0.009
 6211.00    0.49892   0.46376    0.008
 6212.00    0.52578   0.46307    0.008
 6213.00    0.48725   0.46172    0.008
 6214.00    0.44585   0.46013    0.008
 6215.00    0.40921   0.45765    0.008
 6216.00    0.37165   0.45165    0.008
 6217.00    0.28745   0.44577    0.008
 6218.00    0.20714   0.44403    0.008
 6219.00    0.19764   0.44615    0.008
 6220.00    0.19675   0.45122    0.008
 6221.00    0.29068   0.45360    0.008
 6222.00    0.38122   0.44989    0.008
 6223.00    0.44565   0.44630    0.008
 6224.00    0.49574   0.44775    0.008
 6225.00    0.46190   0.45168    0.008
 6226.00    0.43516   0.45360    0.008
 6227.00    0.44143   0.45249    0.008
 6228.00    0.44510   0.45238    0.008
 6229.00    0.43889   0.45370    0.008
 6230.00    0.42144   0.45419    0.008
 6231.00    0.36844   0.45371    0.008
 6232.00    0.33074   0.44925    0.008
 6233.00    0.33411   0.44040    0.008
 6234.00    0.35757   0.43556    0.008
 6235.00    0.42733   0.43884    0.008
 6236.00    0.47966   0.44429    0.008
 6237.00    0.49727   0.45099    0.008
 6238.00    0.52124   0.45660    0.008
 6239.00    0.55623   0.45703    0.008
 6240.00    0.58069   0.45329    0.008
 6241.00    0.58915   0.44891    0.008
 6242.00    0.58465   0.44525    0.008
 6243.00    0.56285   0.44310    0.008
 6244.00    0.54558   0.44507    0.008
 6245.00    0.53362   0.44607    0.008
 6246.00    0.53327   0.44201    0.008
 6247.00    0.54495   0.44015    0.008
 6248.00    0.54122   0.44111    0.008
 6249.00    0.52340   0.44089    0.008
 6250.00    0.53002   0.44333    0.008
 6251.00    0.55634   0.44894    0.008
 6252.00    0.54268   0.45241    0.008
 6253.00    0.50068   0.45281    0.008
 6254.00    0.46885   0.44954    0.008
 6255.00    0.44335   0.44246    0.008
 6256.00    0.43917   0.43774    0.008
 6257.00    0.44659   0.43790    0.008
 6258.00    0.49806   0.43959    0.008
 6259.00    0.57035   0.43884    0.009
 6260.00    0.70197   0.43595    0.009
 6261.00    0.85776   0.43330    0.010
 6262.00    0.82840   0.43511    0.011
 6263.00    0.73461   0.44146    0.011
 6264.00    0.56803   0.44537    0.011
 6265.00    0.38010   0.44830    0.011
 6266.00    0.25990   0.45199    0.010
 6267.00    0.15616   0.45129    0.009
 6268.00    0.19912   0.44637    0.009
 6269.00    0.27089   0.44547    0.008
 6270.00    0.33421   0.44898    0.008
 6271.00    0.39625   0.44997    0.008
 6272.00    0.42628   0.44792    0.008
 6273.00    0.45271   0.44658    0.008
 6274.00    0.47937   0.44714    0.008
 6275.00    0.50606   0.44905    0.008
 6276.00    0.52900   0.45064    0.008
 6277.00    0.55179   0.45032    0.008
 6278.00    0.53736   0.45002    0.008
 6279.00    0.52134   0.45041    0.008
 6280.00    0.45159   0.44986    0.000
 6281.00    0.38291   0.44869    0.000
 6282.00    0.33232   0.44632    0.000
 6283.00    0.28877   0.44248    0.000
 6284.00    0.31921   0.44153    0.000
 6285.00    0.34783   0.44410    0.000
 6286.00    0.36285   0.44749    0.000
 6287.00    0.37747   0.44999    0.000
 6288.00    0.38985   0.44971    0.000
 6289.00    0.38857   0.44949    0.000
 6290.00    0.32548   0.45145    0.000
 6291.00    0.27287   0.45369    0.000
 6292.00    0.25913   0.45413    0.000
 6293.00    0.26536   0.45142    0.000
 6294.00    0.33360   0.44799    0.000
 6295.00    0.39349   0.44656    0.000
 6296.00    0.43138   0.44656    0.000
 6297.00    0.46746   0.44798    0.000
 6298.00    0.49943   0.44820    0.000
 6299.00    0.52525   0.44438    0.000
 6300.00    0.53901   0.44009    0.000
 6301.00    0.53356   0.43972    0.000
 6302.00    0.49526   0.44229    0.000
 6303.00    0.45563   0.44283    0.000
 6304.00    0.41401   0.43911    0.000
 6305.00    0.37404   0.43608    0.000
 6306.00    0.33626   0.43862    0.000
 6307.00    0.32186   0.44302    0.000
 6308.00    0.33457   0.44409    0.000
 6309.00    0.34892   0.44440    0.000
 6310.00    0.36494   0.44735    0.000
 6311.00    0.38417   0.44981    0.000
 6312.00    0.40630   0.44882    0.000
 6313.00    0.42717   0.44524    0.000
 6314.00    0.44704   0.44185    0.000
 6315.00    0.45582   0.44136    0.000
 6316.00    0.45684   0.44281    0.000
 6317.00    0.45951   0.44078    0.000
 6318.00    0.46321   0.43644    0.000
 6319.00    0.45752   0.43662    0.000
 6320.00    0.44682   0.43740    0.000
 6321.00    0.42127   0.43359    0.008
 6322.00    0.38881   0.43314    0.008
 6323.00    0.35572   0.43841    0.008
 6324.00    0.32237   0.44223    0.008
 6325.00    0.29907   0.44205    0.008
 6326.00    0.27920   0.44236    0.008
 6327.00    0.28688   0.44544    0.008
 6328.00    0.30249   0.44767    0.007
 6329.00    0.31215   0.44768    0.007
 6330.00    0.32039   0.44624    0.007
 6331.00    0.35280   0.44617    0.007
 6332.00    0.38984   0.44706    0.008
 6333.00    0.46204   0.44544    0.008
 6334.00    0.53945   0.44426    0.008
 6335.00    0.52851   0.44623    0.008
 6336.00    0.50798   0.44844    0.008
 6337.00    0.45480   0.44594    0.008
 6338.00    0.39930   0.43786    0.008
 6339.00    0.33672   0.43199    0.008
 6340.00    0.27389   0.43364    0.008
 6341.00    0.27636   0.43777    0.008
 6342.00    0.28022   0.43974    0.008
 6343.00    0.32382   0.44238    0.008
 6344.00    0.36458   0.44496    0.008
 6345.00    0.35990   0.44352    0.008
 6346.00    0.35590   0.43879    0.008
 6347.00    0.35873   0.43496    0.008
 6348.00    0.36293   0.43562    0.008
 6349.00    0.37707   0.43676    0.008
 6350.00    0.38846   0.43706    0.008
 6351.00    0.38462   0.43908    0.008
 6352.00    0.37212   0.44285    0.008
 6353.00    0.32128   0.44445    0.007
 6354.00    0.27498   0.44481    0.007
 6355.00    0.24515   0.44503    0.007
 6356.00    0.23512   0.44345    0.007
 6357.00    0.28540   0.43942    0.007
 6358.00    0.33778   0.43607    0.008
 6359.00    0.39563   0.43695    0.008
 6360.00    0.44947   0.43782    0.008
 6361.00    0.49437   0.43387    0.008
 6362.00    0.51830   0.42965    0.008
 6363.00    0.50174   0.42896    0.008
 6364.00    0.48078   0.42847    0.008
 6365.00    0.45245   0.42640    0.008
 6366.00    0.41843   0.42629    0.008
 6367.00    0.37603   0.42925    0.008
 6368.00    0.32626   0.43291    0.008
 6369.00    0.26695   0.43556    0.008
 6370.00    0.24931   0.43807    0.008
 6371.00    0.27930   0.44071    0.008
 6372.00    0.29354   0.44108    0.008
 6373.00    0.29190   0.43811    0.008
 6374.00    0.27667   0.43668    0.008
 6375.00    0.24935   0.43914    0.008
 6376.00    0.23001   0.44293    0.008
 6377.00    0.21691   0.44429    0.007
 6378.00    0.23359   0.44336    0.008
 6379.00    0.27078   0.44328    0.008
 6380.00    0.31285   0.44293    0.008
 6381.00    0.35786   0.44028    0.007
 6382.00    0.38101   0.43769    0.007
 6383.00    0.39263   0.43694    0.007
 6384.00    0.37450   0.43706    0.008
 6385.00    0.34275   0.43855    0.008
 6386.00    0.30133   0.43982    0.008
 6387.00    0.25609   0.43863    0.007
 6388.00    0.26272   0.43781    0.008
 6389.00    0.28675   0.43956    0.008
 6390.00    0.33120   0.44142    0.008
 6391.00    0.38139   0.44172    0.008
 6392.00    0.41098   0.44162    0.008
 6393.00    0.43579   0.44167    0.008
 6394.00    0.47304   0.44049    0.008
 6395.00    0.51260   0.43546    0.008
 6396.00    0.47850   0.42782    0.008
 6397.00    0.43381   0.42606    0.008
 6398.00    0.30590   0.43223    0.008
 6399.00    0.16932   0.43867    0.008
 6400.00    0.16915   0.44150    0.008
 6401.00    0.17813   0.44004    0.008
 6402.00    0.26206   0.43215    0.008
 6403.00    0.34843   0.42315    0.008
 6404.00    0.36409   0.42533    0.007
 6405.00    0.37913   0.43457    0.007
 6406.00    0.37515   0.43948    0.007
 6407.00    0.37351   0.44010    0.007
 6408.00    0.40706   0.43883    0.008
 6409.00    0.43787   0.43582    0.008
 6410.00    0.44222   0.43092    0.008
 6411.00    0.44652   0.42771    0.008
 6412.00    0.45050   0.43106    0.008
 6413.00    0.45305   0.43478    0.008
 6414.00    0.44783   0.43204    0.008
 6415.00    0.44334   0.42955    0.008
 6416.00    0.44201   0.43159    0.008
 6417.00    0.44216   0.43330    0.008
 6418.00    0.44761   0.43392    0.008
 6419.00    0.45913   0.43525    0.008
 6420.00    0.48880   0.43577    0.008
 6421.00    0.51000   0.43488    0.008
 6422.00    0.50965   0.43193    0.008
 6423.00    0.50268   0.42688    0.008
 6424.00    0.48119   0.42422    0.007
 6425.00    0.45468   0.42848    0.007
 6426.00    0.41865   0.43611    0.008
 6427.00    0.38612   0.43924    0.008
 6428.00    0.35939   0.43816    0.008
 6429.00    0.33364   0.43815    0.008
 6430.00    0.30931   0.43989    0.008
 6431.00    0.28100   0.44062    0.008
 6432.00    0.24758   0.43744    0.007
 6433.00    0.23826   0.42992    0.007
 6434.00    0.25607   0.42395    0.008
 6435.00    0.27758   0.42545    0.008
 6436.00    0.30274   0.43071    0.008
 6437.00    0.34484   0.43479    0.008
 6438.00    0.40178   0.43716    0.008
 6439.00    0.41471   0.43799    0.008
 6440.00    0.39366   0.43616    0.008
 6441.00    0.37490   0.42960    0.008
 6442.00    0.35770   0.42384    0.008
 6443.00    0.37007   0.42706    0.008
 6444.00    0.40003   0.43502    0.008
 6445.00    0.42083   0.43902    0.008
 6446.00    0.43688   0.43932    0.008
 6447.00    0.42963   0.43893    0.008
 6448.00    0.41190   0.43921    0.008
 6449.00    0.36612   0.44009    0.008
 6450.00    0.30949   0.43979    0.008
 6451.00    0.28087   0.43473    0.008
 6452.00    0.26147   0.42324    0.007
 6453.00    0.24413   0.41445    0.007
 6454.00    0.22735   0.41806    0.007
 6455.00    0.25229   0.42735    0.007
 6456.00    0.28669   0.43346    0.007
 6457.00    0.28905   0.43412    0.007
 6458.00    0.28561   0.42923    0.008
 6459.00    0.24622   0.42444    0.008
 6460.00    0.20183   0.42629    0.008
 6461.00    0.22620   0.43263    0.008
 6462.00    0.25743   0.43776    0.008
 6463.00    0.32060   0.43899    0.008
 6464.00    0.38579   0.43436    0.008
 6465.00    0.38675   0.42374    0.008
 6466.00    0.38580   0.41742    0.008
 6467.00    0.36982   0.42251    0.008
 6468.00    0.35457   0.42976    0.008
 6469.00    0.35944   0.43308    0.008
 6470.00    0.36425   0.43435    0.008
 6471.00    0.36826   0.43413    0.008
 6472.00    0.37275   0.43206    0.008
 6473.00    0.38163   0.42969    0.008
 6474.00    0.38861   0.42732    0.007
 6475.00    0.38275   0.42694    0.007
 6476.00    0.37223   0.42999    0.007
 6477.00    0.33732   0.43114    0.007
 6478.00    0.30931   0.42878    0.007
 6479.00    0.31046   0.42803    0.007
 6480.00    0.32197   0.43017    0.007
 6481.00    0.36960   0.43138    0.007
 6482.00    0.40822   0.43128    0.008
 6483.00    0.42037   0.43033    0.007
 6484.00    0.42380   0.42599    0.007
 6485.00    0.40538   0.42009    0.008
 6486.00    0.39131   0.41864    0.008
 6487.00    0.38659   0.42226    0.008
 6488.00    0.39012   0.42619    0.008
 6489.00    0.40908   0.42818    0.008
 6490.00    0.43459   0.42918    0.008
 6491.00    0.47079   0.42963    0.008
 6492.00    0.50170   0.42853    0.008
 6493.00    0.52502   0.42564    0.008
 6494.00    0.52535   0.42287    0.008
 6495.00    0.49673   0.42056    0.008
 6496.00    0.48125   0.41436    0.008
 6497.00    0.48036   0.40295    0.007
 6498.00    0.47391   0.39488    0.007
 6499.00    0.46203   0.39496    0.007
 6500.00    0.44373   0.39987    0.007
 6501.00    0.41989   0.40604    0.007
 6502.00    0.41994   0.40968    0.007
 6503.00    0.43816   0.41299    0.007
 6504.00    0.45489   0.41756    0.007
 6505.00    0.47062   0.42089    0.007
 6506.00    0.46637   0.42277    0.007
 6507.00    0.45041   0.42387    0.008
 6508.00    0.42743   0.42483    0.007
 6509.00    0.40085   0.42572    0.007
 6510.00    0.38014   0.42533    0.007
 6511.00    0.36204   0.42334    0.008
 6512.00    0.34039   0.42210    0.008
 6513.00    0.31741   0.42334    0.008
 6514.00    0.32074   0.42516    0.008
 6515.00    0.33256   0.42547    0.008
 6516.00    0.31318   0.42518    0.007
 6517.00    0.28538   0.42425    0.007
 6518.00    0.31539   0.42132    0.007
 6519.00    0.35821   0.41790    0.007
 6520.00    0.39731   0.41610    0.007
 6521.00    0.43576   0.41497    0.007
 6522.00    0.43990   0.41528    0.007
 6523.00    0.43943   0.41875    0.007
 6524.00    0.44224   0.42222    0.007
 6525.00    0.44536   0.42309    0.007
 6526.00    0.44665   0.42224    0.007
 6527.00    0.44783   0.42187    0.008
 6528.00    0.40667   0.42130    0.000
 6529.00    0.36476   0.41800    0.000
 6530.00    0.36725   0.41429    0.000
 6531.00    0.37079   0.41460    0.000
 6532.00    0.40077   0.41793    0.000
 6533.00    0.42872   0.42042    0.000
 6534.00    0.42952   0.41974    0.000
 6535.00    0.43081   0.41689    0.000
 6536.00    0.43643   0.41494    0.000
 6537.00    0.43969   0.41602    0.000
 6538.00    0.42749   0.41912    0.000
 6539.00    0.41864   0.42083    0.000
 6540.00    0.42693   0.41974    0.000
 6541.00    0.43471   0.41872    0.000
 6542.00    0.44041   0.41998    0.000
 6543.00    0.43749   0.42152    0.000
 6544.00    0.40509   0.42061    0.000
 6545.00    0.37840   0.41796    0.000
 6546.00    0.36815   0.41551    0.000
 6547.00    0.36595   0.41356    0.000
 6548.00    0.38354   0.40992    0.000
 6549.00    0.39523   0.40475    0.000
 6550.00    0.39440   0.40331    0.000
 6551.00    0.39894   0.40647    0.000
 6552.00    0.41338   0.40895    0.000
 6553.00    0.41489   0.40809    0.000
 6554.00    0.39558   0.40495    0.000
 6555.00    0.37234   0.40181    0.000
 6556.00    0.34355   0.39872    0.000
 6557.00    0.32139   0.39357    0.000
 6558.00    0.30747   0.38683    0.000
 6559.00    0.32402   0.38150    0.000
 6560.00    0.37396   0.37774    0.000
 6561.00    0.45940   0.37125    0.000
 6562.00    0.57914   0.36068    0.000
 6563.00    0.65352   0.34541    0.000
 6564.00    0.68925   0.32050    0.000
 6565.00    0.65220   0.28439    0.000
 6566.00    0.56055   0.26160    0.000
 6567.00    0.48522   0.27933    0.000
 6568.00    0.42066   0.31900    0.000
 6569.00    0.36203   0.35117    0.000
 6570.00    0.30683   0.37024    0.000
 6571.00    0.29607   0.37954    0.000
 6572.00    0.30766   0.38272    0.000
 6573.00    0.31736   0.38568    0.000
 6574.00    0.32625   0.39021    0.000
 6575.00    0.33561   0.39260    0.000
 6576.00    0.34514   0.39205    0.000
 6577.00    0.37250   0.39123    0.000
 6578.00    0.40549   0.39265    0.000
 6579.00    0.43559   0.39747    0.000
 6580.00    0.46492   0.40299    0.000
 6581.00    0.44644   0.40641    0.000
 6582.00    0.41763   0.40733    0.000
 6583.00    0.41835   0.40614    0.000
 6584.00    0.42414   0.40414    0.000
 6585.00    0.46018   0.40395    0.000
 6586.00    0.50016   0.40634    0.000
 6587.00    0.48864   0.40836    0.000
 6588.00    0.47241   0.40915    0.000
 6589.00    0.44985   0.40825    0.000
 6590.00    0.42694   0.40858    0.000
 6591.00    0.43083   0.41115    0.000
 6592.00    0.43533   0.41315    0.000
 6593.00    0.44284   0.41364    0.000
 6594.00    0.44883   0.41146    0.000
 6595.00    0.42004   0.40437    0.000
 6596.00    0.39195   0.39613    0.000
 6597.00    0.37285   0.39549    0.000
 6598.00    0.35748   0.40237    0.000
 6599.00    0.37421   0.40813    0.000
 6600.00    0.39183   0.40891    0.000
 6601.00    0.41507   0.40707    0.000
 6602.00    0.43553   0.40674    0.000
 6603.00    0.44216   0.40963    0.000
 6604.00    0.43388   0.41311    0.000
 6605.00    0.36542   0.41427    0.000
 6606.00    0.31159   0.41312    0.000
 6607.00    0.30670   0.41059    0.000
 6608.00    0.30478   0.40820    0.000
 6609.00    0.31125   0.40717    0.007
 6610.00    0.31570   0.40627    0.007
 6611.00    0.31530   0.40390    0.007
 6612.00    0.31788   0.40121    0.007
 6613.00    0.32671   0.40274    0.007
 6614.00    0.34377   0.40820    0.007
 6615.00    0.37577   0.41163    0.007
 6616.00    0.38882   0.41084    0.007
 6617.00    0.37181   0.40956    0.007
 6618.00    0.35345   0.41104    0.007
 6619.00    0.33319   0.41275    0.007
 6620.00    0.31514   0.41240    0.007
 6621.00    0.29979   0.41155    0.007
 6622.00    0.30645   0.41194    0.007
 6623.00    0.33688   0.41305    0.007
 6624.00    0.35284   0.41380    0.008
 6625.00    0.35501   0.41311    0.008
 6626.00    0.35990   0.41054    0.008
 6627.00    0.36708   0.40657    0.008
 6628.00    0.36192   0.40415    0.008
 6629.00    0.34763   0.40562    0.007
 6630.00    0.35491   0.40793    0.007
 6631.00    0.37619   0.40853    0.007
 6632.00    0.39729   0.40819    0.007
 6633.00    0.41829   0.40752    0.007
 6634.00    0.39322   0.40654    0.007
 6635.00    0.34536   0.40419    0.007
 6636.00    0.31911   0.40008    0.007
 6637.00    0.30211   0.39730    0.007
 6638.00    0.31852   0.39932    0.007
 6639.00    0.34719   0.40405    0.007
 6640.00    0.37627   0.40757    0.007
 6641.00    0.40549   0.40830    0.007
 6642.00    0.38609   0.40669    0.007
 6643.00    0.35410   0.40540    0.007
 6644.00    0.32421   0.40666    0.007
 6645.00    0.29477   0.40699    0.007
 6646.00    0.31158   0.40324    0.007
 6647.00    0.33609   0.40047    0.007
 6648.00    0.32804   0.40262    0.007
 6649.00    0.31590   0.40545    0.007
 6650.00    0.30876   0.40563    0.007
 6651.00    0.30206   0.40508    0.007
 6652.00    0.29884   0.40585    0.007
 6653.00    0.29579   0.40657    0.007
 6654.00    0.30023   0.40606    0.007
 6655.00    0.30477   0.40519    0.007
 6656.00    0.30656   0.40469    0.007
 6657.00    0.30934   0.40467    0.007
 6658.00    0.33276   0.40507    0.007
 6659.00    0.35419   0.40499    0.007
 6660.00    0.35163   0.40463    0.007
 6661.00    0.34753   0.40494    0.007
 6662.00    0.33075   0.40504    0.007
 6663.00    0.31118   0.40416    0.007
 6664.00    0.27431   0.40274    0.007
 6665.00    0.24018   0.40010    0.007
 6666.00    0.21939   0.39603    0.007
 6667.00    0.19689   0.39473    0.007
 6668.00    0.16768   0.39728    0.007
 6669.00    0.15673   0.39896    0.007
 6670.00    0.20570   0.39860    0.007
 6671.00    0.25561   0.39872    0.007
 6672.00    0.30813   0.40064    0.007
 6673.00    0.32714   0.40322    0.007
 6674.00    0.26649   0.40449    0.007
 6675.00    0.22237   0.40439    0.007
 6676.00    0.21219   0.40398    0.007
 6677.00    0.22316   0.40380    0.007
 6678.00    0.27190   0.40379    0.007
 6679.00    0.31592   0.40051    0.007
 6680.00    0.35255   0.39059    0.007
 6681.00    0.38347   0.38091    0.007
 6682.00    0.40655   0.38087    0.007
 6683.00    0.40284   0.38875    0.007
 6684.00    0.36679   0.39453    0.007
 6685.00    0.34048   0.39575    0.007
 6686.00    0.32455   0.39649    0.007
 6687.00    0.32661   0.39787    0.007
 6688.00    0.34555   0.39929    0.007
 6689.00    0.36676   0.40027    0.007
 6690.00    0.38985   0.40037    0.007
 6691.00    0.41248   0.40007    0.007
 6692.00    0.43477   0.40048    0.008
 6693.00    0.43537   0.40130    0.008
 6694.00    0.42209   0.40162    0.007
 6695.00    0.43057   0.40143    0.007
 6696.00    0.45122   0.40131    0.000
 6697.00    0.44088   0.40107    0.000
 6698.00    0.41544   0.39908    0.000
 6699.00    0.40906   0.39550    0.000
 6700.00    0.41070   0.39371    0.000
 6701.00    0.40921   0.39476    0.000
 6702.00    0.40660   0.39683    0.000
 6703.00    0.38491   0.39915    0.000
 6704.00    0.35742   0.40059    0.000
 6705.00    0.38302   0.40019    0.000
 6706.00    0.42207   0.39805    0.000
 6707.00    0.41055   0.39559    0.000
 6708.00    0.38863   0.39508    0.000
 6709.00    0.38724   0.39670    0.000
 6710.00    0.38917   0.39824    0.000
 6711.00    0.38266   0.39866    0.000
 6712.00    0.37512   0.39830    0.000
 6713.00    0.35645   0.39723    0.000
 6714.00    0.33684   0.39659    0.000
 6715.00    0.33348   0.39635    0.000
 6716.00    0.33089   0.39521    0.000
 6717.00    0.39901   0.39363    0.000
 6718.00    0.46718   0.39188    0.000
 6719.00    0.48165   0.38918    0.000
 6720.00    0.49381   0.38584    0.000
 6721.00    0.46112   0.38528    0.000
 6722.00    0.42866   0.38945    0.000
 6723.00    0.39877   0.39379    0.000
 6724.00    0.37012   0.39471    0.000
 6725.00    0.35138   0.39407    0.000
 6726.00    0.33440   0.39499    0.000
 6727.00    0.32803   0.39656    0.000
 6728.00    0.31686   0.39581    0.000
 6729.00    0.28301   0.39350    0.000
 6730.00    0.26278   0.39272    0.000
 6731.00    0.29518   0.39401    0.000
 6732.00    0.32210   0.39524    0.000
 6733.00    0.33135   0.39600    0.000
 6734.00    0.32851   0.39629    0.000
 6735.00    0.29273   0.39574    0.000
 6736.00    0.26387   0.39484    0.000
 6737.00    0.25119   0.39462    0.000
 6738.00    0.24981   0.39535    0.000
 6739.00    0.27123   0.39615    0.000
 6740.00    0.30743   0.39531    0.000
 6741.00    0.36963   0.39267    0.000
 6742.00    0.40801   0.39060    0.000
 6743.00    0.40972   0.39090    0.000
 6744.00    0.39040   0.39228    0.000
 6745.00    0.34264   0.39188    0.000
 6746.00    0.32353   0.38959    0.000
 6747.00    0.33853   0.38907    0.000
 6748.00    0.37373   0.39029    0.000
 6749.00    0.43015   0.39087    0.000
 6750.00    0.44785   0.39078    0.000
 6751.00    0.42970   0.39001    0.000
 6752.00    0.43187   0.38878    0.000
 6753.00    0.45064   0.38784    0.008
 6754.00    0.43148   0.38843    0.008
 6755.00    0.38507   0.38905    0.009
 6756.00    0.28617   0.38838    0.009
 6757.00    0.15418   0.38905    0.009
 6758.00    0.10429   0.39087    0.009
 6759.00    0.09966   0.39200    0.008
 6760.00    0.19163   0.39293    0.008
 6761.00    0.32990   0.39415    0.009
 6762.00    0.38489   0.39529    0.009
 6763.00    0.40542   0.39584    0.009
 6764.00    0.38824   0.39533    0.009
 6765.00    0.35772   0.39421    0.009
 6766.00    0.31243   0.39392    0.008
 6767.00    0.26272   0.39431    0.008
 6768.00    0.32085   0.39385    0.008
 6769.00    0.40569   0.39160    0.008
 6770.00    0.46317   0.38837    0.008
 6771.00    0.51515   0.38694    0.008
 6772.00    0.50509   0.38844    0.008
 6773.00    0.48527   0.38972    0.008
 6774.00    0.39597   0.38883    0.008
 6775.00    0.29855   0.38827    0.008
 6776.00    0.24635   0.38996    0.008
 6777.00    0.19772   0.39255    0.008
 6778.00    0.35079   0.39432    0.008
 6779.00    0.51264   0.39495    0.008
 6780.00    0.51195   0.39470    0.008
 6781.00    0.50809   0.39449    0.008
 6782.00    0.43569   0.39496    0.008
 6783.00    0.36661   0.39509    0.008
 6784.00    0.35753   0.39391    0.008
 6785.00    0.34572   0.39116    0.008
 6786.00    0.30403   0.38726    0.008
 6787.00    0.27043   0.38404    0.008
 6788.00    0.29905   0.38327    0.008
 6789.00    0.32668   0.38444    0.008
 6790.00    0.34860   0.38654    0.008
 6791.00    0.35308   0.38906    0.008
 6792.00    0.27694   0.39036    0.008
 6793.00    0.22939   0.39030    0.008
 6794.00    0.28998   0.39045    0.008
 6795.00    0.33973   0.39035    0.008
 6796.00    0.35528   0.38880    0.008
 6797.00    0.37798   0.38725    0.008
 6798.00    0.41985   0.38708    0.008
 6799.00    0.47267   0.38736    0.008
 6800.00    0.55061   0.38787    0.008
 6801.00    0.58228   0.38847    0.008
 6802.00    0.52194   0.38864    0.008
 6803.00    0.47517   0.38898    0.008
 6804.00    0.45193   0.38977    0.009
 6805.00    0.44984   0.39028    0.009
 6806.00    0.47980   0.38966    0.010
 6807.00    0.47859   0.38854    0.011
 6808.00    0.43584   0.38849    0.011
 6809.00    0.42824   0.38863    0.010
 6810.00    0.46191   0.38807    0.009
 6811.00    0.50255   0.38825    0.009
 6812.00    0.55040   0.38827    0.008
 6813.00    0.55208   0.38726    0.008
 6814.00    0.51160   0.38717    0.008
 6815.00    0.46830   0.38825    0.008
 6816.00    0.42272   0.38856    0.008
 6817.00    0.37356   0.38705    0.008
 6818.00    0.32185   0.38534    0.008
 6819.00    0.31688   0.38618    0.008
 6820.00    0.34094   0.38888    0.008
 6821.00    0.33700   0.39001    0.008
 6822.00    0.31787   0.38871    0.008
 6823.00    0.32788   0.38659    0.008
 6824.00    0.35164   0.38619    0.008
 6825.00    0.34174   0.38802    0.008
 6826.00    0.31814   0.38995    0.008
 6827.00    0.33910   0.39071    0.008
 6828.00    0.37551   0.39063    0.008
 6829.00    0.35135   0.39009    0.009
 6830.00    0.30946   0.38825    0.010
 6831.00    0.24882   0.38517    0.010
 6832.00    0.18364   0.38372    0.011
 6833.00    0.31815   0.38538    0.011
 6834.00    0.49172   0.38778    0.011
 6835.00    0.54512   0.38833    0.009
 6836.00    0.58020   0.38754    0.008
 6837.00    0.59896   0.38764    0.008
 6838.00    0.61589   0.38873    0.009
 6839.00    0.51295   0.38887    0.008
 6840.00    0.40106   0.38741    0.008
 6841.00    0.30081   0.38527    0.008
 6842.00    0.20103   0.38267    0.008
 6843.00    0.21322   0.37977    0.008
 6844.00    0.22918   0.37693    0.008
 6845.00    0.36437   0.37541    0.008
 6846.00    0.48800   0.37665    0.007
 6847.00    0.41639   0.38025    0.007
 6848.00    0.34698   0.38401    0.007
 6849.00    0.30068   0.38592    0.007
 6850.00    0.26368   0.38622    0.007
 6851.00    0.29582   0.38614    0.007
 6852.00    0.33405   0.38588    0.008
 6853.00    0.40679   0.38555    0.007
 6854.00    0.46199   0.38541    0.007
 6855.00    0.43801   0.38567    0.008
 6856.00    0.41091   0.38575    0.008
 6857.00    0.37225   0.38351    0.008
 6858.00    0.34497   0.37931    0.008
 6859.00    0.35297   0.37743    0.008
 6860.00    0.36806   0.37872    0.008
 6861.00    0.40183   0.38021    0.008
 6862.00    0.42520   0.38118    0.008
 6863.00    0.42507   0.38101    0.008
 6864.00    0.42279   0.37880    0.008
 6865.00    0.41629   0.37744    0.008
 6866.00    0.37521   0.37992    0.008
 6867.00    0.27513   0.38407    0.008
 6868.00    0.22181   0.38592    0.008
 6869.00    0.23836   0.38467    0.008
 6870.00    0.26556   0.38116    0.008
 6871.00    0.30672   0.37758    0.007
 6872.00    0.31406   0.37746    0.007
 6873.00    0.28225   0.38020    0.007
 6874.00    0.26275   0.38149    0.007
 6875.00    0.25580   0.38004    0.007
 6876.00    0.28013   0.37901    0.007
 6877.00    0.33261   0.37973    0.007
 6878.00    0.34803   0.38014    0.007
 6879.00    0.33405   0.38010    0.007
 6880.00    0.35118   0.38132    0.007
 6881.00    0.39002   0.38329    0.007
 6882.00    0.40786   0.38397    0.007
 6883.00    0.41285   0.38316    0.008
 6884.00    0.41292   0.38102    0.008
 6885.00    0.41037   0.37784    0.008
 6886.00    0.42511   0.37604    0.008
 6887.00    0.44788   0.37753    0.008
 6888.00    0.42815   0.37971    0.007
 6889.00    0.39144   0.37973    0.007
 6890.00    0.34840   0.37971    0.007
 6891.00    0.30321   0.38062    0.007
 6892.00    0.26531   0.38067    0.007
 6893.00    0.22950   0.38036    0.007
 6894.00    0.28710   0.38069    0.007
 6895.00    0.36683   0.38081    0.007
 6896.00    0.33721   0.38079    0.008
 6897.00    0.28676   0.38126    0.008
 6898.00    0.31039   0.38109    0.008
 6899.00    0.34497   0.38043    0.008
 6900.00    0.27010   0.38122    0.008
 6901.00    0.18343   0.38290    0.008
 6902.00    0.18989   0.38318    0.008
 6903.00    0.20292   0.38200    0.008
 6904.00    0.15471   0.38186    0.008
 6905.00    0.10431   0.38340    0.007
 6906.00    0.13764   0.38435    0.007
 6907.00    0.17055   0.38364    0.007
 6908.00    0.17907   0.38265    0.007
 6909.00    0.18590   0.38286    0.007
 6910.00    0.16588   0.38394    0.007
 6911.00    0.14827   0.38465    0.007
 6912.00    0.15464   0.38483    0.007
 6913.00    0.16722   0.38475    0.007
 6914.00    0.22434   0.38395    0.007
 6915.00    0.27409   0.38251    0.007
 6916.00    0.28321   0.38045    0.007
 6917.00    0.30029   0.37798    0.007
 6918.00    0.35245   0.37703    0.007
 6919.00    0.39365   0.37780    0.007
 6920.00    0.39514   0.37820    0.007
 6921.00    0.39276   0.37882    0.007
 6922.00    0.37864   0.38044    0.008
 6923.00    0.37260   0.38211    0.008
 6924.00    0.38744   0.38328    0.008
 6925.00    0.38901   0.38367    0.007
 6926.00    0.36105   0.38241    0.007
 6927.00    0.33113   0.37900    0.007
 6928.00    0.29741   0.37550    0.007
 6929.00    0.27063   0.37464    0.007
 6930.00    0.25554   0.37676    0.007
 6931.00    0.23418   0.37939    0.007
 6932.00    0.20359   0.38058    0.007
 6933.00    0.18315   0.38079    0.007
 6934.00    0.17586   0.38064    0.007
 6935.00    0.22013   0.37955    0.007
 6936.00    0.32320   0.37736    0.008
 6937.00    0.36263   0.37672    0.008
 6938.00    0.33804   0.37863    0.008
 6939.00    0.31419   0.38030    0.008
 6940.00    0.29100   0.38022    0.008
 6941.00    0.31204   0.37964    0.008
 6942.00    0.36768   0.37996    0.008
 6943.00    0.34690   0.38114    0.008
 6944.00    0.27358   0.38200    0.008
 6945.00    0.22301   0.38120    0.008
 6946.00    0.18615   0.37885    0.008
 6947.00    0.17755   0.37561    0.007
 6948.00    0.18381   0.37258    0.007
 6949.00    0.21715   0.37250    0.007
 6950.00    0.26286   0.37558    0.007
 6951.00    0.28696   0.37855    0.007
 6952.00    0.30257   0.37999    0.007
 6953.00    0.29627   0.37967    0.007
 6954.00    0.28265   0.37719    0.007
 6955.00    0.27299   0.37478    0.007
 6956.00    0.26445   0.37418    0.007
 6957.00    0.24274   0.37433    0.008
 6958.00    0.21799   0.37499    0.008
 6959.00    0.23882   0.37670    0.008
 6960.00    0.26811   0.37854    0.008
 6961.00    0.28242   0.37918    0.008
 6962.00    0.29459   0.37895    0.008
 6963.00    0.32565   0.37874    0.008
 6964.00    0.35867   0.37894    0.008
 6965.00    0.31260   0.37941    0.008
 6966.00    0.26127   0.37992    0.007
 6967.00    0.30941   0.38020    0.008
 6968.00    0.36072   0.37932    0.008
 6969.00    0.30792   0.37780    0.008
 6970.00    0.25818   0.37816    0.008
 6971.00    0.30241   0.38041    0.008
 6972.00    0.34424   0.38167    0.007
 6973.00    0.35032   0.38054    0.008
 6974.00    0.34968   0.37844    0.008
 6975.00    0.28452   0.37797    0.008
 6976.00    0.23211   0.37955    0.008
 6977.00    0.26843   0.38007    0.008
 6978.00    0.29368   0.37786    0.008
 6979.00    0.25950   0.37451    0.008
 6980.00    0.23073   0.37055    0.008
 6981.00    0.22530   0.36513    0.008
 6982.00    0.22337   0.36139    0.008
 6983.00    0.23385   0.36414    0.008
 6984.00    0.23686   0.37087    0.008
 6985.00    0.21758   0.37603    0.008
 6986.00    0.21631   0.37867    0.008
 6987.00    0.26076   0.37985    0.008
 6988.00    0.30527   0.37999    0.008
 6989.00    0.34990   0.37967    0.008
 6990.00    0.38291   0.37914    0.008
 6991.00    0.39389   0.37785    0.008
 6992.00    0.37094   0.37589    0.008
 6993.00    0.29185   0.37501    0.008
 6994.00    0.26698   0.37628    0.008
 6995.00    0.32082   0.37831    0.008
 6996.00    0.34698   0.37913    0.008
 6997.00    0.33780   0.37834    0.008
 6998.00    0.32830   0.37740    0.008
 6999.00    0.31844   0.37762    0.008
 7000.00    0.32436   0.37826    0.008
 7001.00    0.34595   0.37758    0.008
 7002.00    0.34358   0.37445    0.008
 7003.00    0.32025   0.37098    0.008
 7004.00    0.34464   0.37101    0.008
 7005.00    0.40579   0.37399    0.008
 7006.00    0.36662   0.37543    0.008
 7007.00    0.25945   0.37349    0.008
 7008.00    0.22041   0.37081    0.008
 7009.00    0.22181   0.36991    0.008
 7010.00    0.25895   0.37088    0.008
 7011.00    0.31459   0.37281    0.008
 7012.00    0.39615   0.37483    0.008
 7013.00    0.48934   0.37562    0.010
 7014.00    0.55308   0.37463    0.010
 7015.00    0.60545   0.37360    0.010
 7016.00    0.51333   0.37418    0.010
 7017.00    0.37378   0.37474    0.010
 7018.00    0.33263   0.37162    0.009
 7019.00    0.31855   0.36480    0.008
 7020.00    0.29214   0.36123    0.008
 7021.00    0.26293   0.36552    0.008
 7022.00    0.29793   0.37261    0.008
 7023.00    0.34452   0.37683    0.008
 7024.00    0.35526   0.37781    0.008
 7025.00    0.36104   0.37609    0.008
 7026.00    0.32121   0.37165    0.008
 7027.00    0.27685   0.36713    0.008
 7028.00    0.29784   0.36634    0.008
 7029.00    0.32293   0.36905    0.008
 7030.00    0.33618   0.37160    0.008
 7031.00    0.34886   0.37248    0.008
 7032.00    0.29822   0.37294    0.008
 7033.00    0.25024   0.37374    0.008
 7034.00    0.27540   0.37437    0.008
 7035.00    0.29443   0.37411    0.008
 7036.00    0.22731   0.37329    0.008
 7037.00    0.16670   0.37262    0.008
 7038.00    0.16610   0.37267    0.008
 7039.00    0.16805   0.37388    0.008
 7040.00    0.18712   0.37364    0.008
 7041.00    0.20808   0.36952    0.008
 7042.00    0.23897   0.36666    0.008
 7043.00    0.27261   0.37045    0.008
 7044.00    0.31783   0.37722    0.008
 7045.00    0.35357   0.38146    0.008
 7046.00    0.35632   0.38220    0.008
 7047.00    0.36223   0.38012    0.008
 7048.00    0.37736   0.37680    0.008
 7049.00    0.38590   0.37550    0.008
 7050.00    0.37798   0.37740   -2.000
 7051.00    0.36531   0.38026   -2.000
 7052.00    0.34242   0.38188   -2.000
 7053.00    0.31279   0.38156   -2.000
 7054.00    0.27056   0.37927   -2.000
 7055.00    0.24256   0.37473   -2.000
 7056.00    0.23777   0.36889   -2.000
 7057.00    0.26159   0.36469   -2.000
 7058.00    0.32633   0.36373   -2.000
 7059.00    0.34154   0.36540   -2.000
 7060.00    0.29446   0.36806   -2.000
 7061.00    0.28012   0.36936   -2.000
 7062.00    0.30210   0.36755   -2.000
 7063.00    0.32941   0.36389   -2.000
 7064.00    0.36194   0.36203   -2.000
 7065.00    0.37665   0.36306   -2.000
 7066.00    0.37598   0.36485   -2.000
 7067.00    0.35707   0.36658   -2.000
 7068.00    0.32428   0.36766   -2.000
 7069.00    0.29780   0.36620   -2.000
 7070.00    0.27553   0.36234   -2.000
 7071.00    0.31281   0.35832   -2.000
 7072.00    0.38493   0.35724   -2.000
 7073.00    0.42873   0.36068   -2.000
 7074.00    0.45811   0.36543   -2.000
 7075.00    0.43123   0.36764   -2.000
 7076.00    0.37950   0.36788   -2.000
 7077.00    0.36712   0.36797   -2.000
 7078.00    0.36966   0.36786   -2.000
 7079.00    0.30117   0.36734   -2.000
 7080.00    0.20982   0.36711   -2.000
 7081.00    0.31263   0.36750   -2.000
 7082.00    0.46774   0.36802   -2.000
 7083.00    0.40165   0.36865   -2.000
 7084.00    0.28672   0.36926   -2.000
 7085.00    0.29081   0.36834   -2.000
 7086.00    0.31582   0.36457   -2.000
 7087.00    0.32691   0.35870   -2.000
 7088.00    0.33614   0.35431   -2.000
 7089.00    0.32168   0.35443   -2.000
 7090.00    0.30498   0.35619   -2.000
 7091.00    0.34329   0.35595   -2.000
 7092.00    0.38483   0.35448   -2.000
 7093.00    0.44196   0.35292   -2.000
 7094.00    0.49835   0.35215   -2.000
 7095.00    0.40301   0.35275   -2.000
 7096.00    0.30970   0.35322   -2.000
 7097.00    0.26708   0.35320   -2.000
 7098.00    0.22822   0.35322   -2.000
 7099.00    0.23942   0.35310   -2.000
 7100.00    0.25158   0.35323   -2.000
 7101.00    0.27224   0.35420   -2.000
 7102.00    0.28823   0.35678   -2.000
 7103.00    0.27374   0.35902   -2.000
 7104.00    0.26279   0.35905   -2.000
 7105.00    0.26996   0.35768   -2.000
 7106.00    0.28031   0.35660   -2.000
 7107.00    0.30383   0.35737   -2.000
 7108.00    0.30381   0.35929   -2.000
 7109.00    0.22358   0.35975   -2.000
 7110.00    0.20252   0.35809   -2.000
 7111.00    0.35147   0.35679   -2.000
 7112.00    0.44016   0.35705   -2.000
 7113.00    0.38100   0.35661   -2.000
 7114.00    0.32602   0.35427   -2.000
 7115.00    0.27987   0.35257   -2.000
 7116.00    0.27480   0.35352   -2.000
 7117.00    0.34527   0.35579   -2.000
 7118.00    0.38579   0.35727   -2.000
 7119.00    0.37818   0.35793   -2.000
 7120.00    0.32776   0.35829   -2.000
 7121.00    0.21701   0.35814   -2.000
 7122.00    0.21480   0.35769   -2.000
 7123.00    0.34723   0.35726   -2.000
 7124.00    0.47392   0.35661   -2.000
 7125.00    0.59433   0.35521   -2.000
 7126.00    0.61379   0.35479   -2.000
 7127.00    0.53589   0.35642   -2.000
 7128.00    0.42344   0.35689   -2.000
 7129.00    0.28162   0.35476   -2.000
 7130.00    0.28641   0.35296   -2.000
 7131.00    0.40101   0.35320   -2.000
 7132.00    0.46094   0.35339   -2.000
 7133.00    0.48490   0.35099   -2.000
 7134.00    0.40127   0.34775   -2.000
 7135.00    0.25566   0.34763   -2.000
 7136.00    0.26701   0.35065   -2.000
 7137.00    0.35713   0.35404   -2.000
 7138.00    0.44724   0.35606   -2.000
 7139.00    0.53735   0.35671   -2.000
 7140.00    0.46692   0.35733   -2.000
 7141.00    0.33670   0.35753   -2.000
 7142.00    0.33575   0.35593   -2.000
 7143.00    0.37564   0.35452   -2.000
 7144.00    0.39827   0.35544   -2.000
 7145.00    0.41635   0.35673   -2.000
 7146.00    0.40768   0.35662   -2.000
 7147.00    0.39324   0.35621   -2.000
 7148.00    0.40960   0.35608   -2.000
 7149.00    0.43122   0.35587   -2.000
 7150.00    0.33261   0.35430   -2.000
 7151.00    0.21844   0.35042   -2.000
 7152.00    0.27144   0.34799   -2.000
 7153.00    0.33962   0.34975   -2.000
 7154.00    0.40787   0.35269   -2.000
 7155.00    0.47613   0.35518   -2.000
 7156.00    0.43932   0.35782   -2.000
 7157.00    0.40105   0.35884   -2.000
 7158.00    0.43055   0.35709   -2.000
 7159.00    0.46811   0.35574   -2.000
 7160.00    0.68878   0.35751   -2.000
 7161.00    0.88944   0.35944   -2.000
 7162.00    0.83809   0.35827   -2.000
 7163.00    0.78558   0.35583   -2.000
 7164.00    0.72315   0.35511   -2.000
 7165.00    0.63689   0.35628   -2.000
 7166.00    0.39958   0.35618   -2.000
 7167.00    0.23621   0.35190   -2.000
 7168.00    0.43995   0.34626   -2.000
 7169.00    0.59911   0.34547   -2.000
 7170.00    0.57884   0.35028   -2.000
 7171.00    0.50910   0.35566   -2.000
 7172.00    0.27412   0.35787   -2.000
 7173.00    0.12067   0.35743   -2.000
 7174.00    0.19720   0.35714   -2.000
 7175.00    0.26439   0.35841   -2.000
 7176.00    0.30902   0.35994   -2.000
 7177.00    0.32887   0.36005   -2.000
 7178.00    0.29712   0.35814   -2.000
 7179.00    0.33581   0.35497   -2.000
 7180.00    0.50203   0.35360   -2.000
 7181.00    0.52920   0.35552   -2.000
 7182.00    0.33629   0.35675   -2.000
 7183.00    0.26593   0.35351   -2.000
 7184.00    0.36584   0.34836   -2.000
 7185.00    0.38212   0.34698   -2.000
 7186.00    0.29613   0.35113   -2.000
 7187.00    0.30860   0.35606   -2.000
 7188.00    0.42720   0.35746   -2.000
 7189.00    0.44544   0.35543   -2.000
 7190.00    0.36826   0.35088   -2.000
 7191.00    0.30504   0.34644   -2.000
 7192.00    0.25353   0.34542   -2.000
 7193.00    0.25232   0.34738   -2.000
 7194.00    0.28824   0.35030   -2.000
 7195.00    0.35033   0.35190   -2.000
 7196.00    0.42938   0.35106   -2.000
 7197.00    0.35157   0.35033   -2.000
 7198.00    0.18478   0.35195   -2.000
 7199.00    0.36400   0.35352   -2.000
 7200.00    0.71410   0.35250   -2.000
 7201.00    0.84905   0.35151   -2.000
 7202.00    0.89213   0.35301   -2.000
 7203.00    0.72101   0.35488   -2.000
 7204.00    0.47150   0.35458   -2.000
 7205.00    0.26744   0.35288   -2.000
 7206.00    0.07746   0.35269   -2.000
 7207.00    0.15020   0.35518   -2.000
 7208.00    0.29075   0.35743   -2.000
 7209.00    0.30174   0.35523   -2.000
 7210.00    0.28548   0.34855   -2.000
 7211.00    0.32682   0.34349   -2.000
 7212.00    0.37773   0.34449   -2.000
 7213.00    0.42533   0.34922   -2.000
 7214.00    0.47253   0.35424   -2.000
 7215.00    0.50342   0.35673   -2.000
 7216.00    0.53290   0.35543   -2.000
 7217.00    0.33550   0.35272   -2.000
 7218.00    0.12657   0.35111   -2.000
