###################################################################
## OUTPUT of StarlightChains_v04.for    [Cid@UFSC - 01/Apr/2007] ##
###################################################################

## Some input info
KUG0210-078._32_46.txt                   [arq_obs]
Base.CB07.vall.4m                        [arq_base]
Masks.EmLines.NEW.gm                     [arq_masks]
StCv04.C11.config                        [arq_config]
   66                                    [N_base]
    0                                    [N_YAV_components = # of components with extra extinction!]
    0                                    [i_FitPowerLaw (1/0 = Yes/No)]
-9.99                                    [alpha_PowerLaw]
CCM                                      [red_law_option]
 1.458241                                [q_norm = A(l_norm)/A(V)]

## (Re)Sampling Parameters
 3741.00                                 [l_ini (A)]
 7218.00                                 [l_fin (A)]
    1.00                                 [dl    (A)]     (OBS: dl_cushion =    50.00 A)

## Normalization info
 4020.00                                 [l_norm (A) - for base]
 4010.00                                 [llow_norm (A) - window for f_obs]
 4060.00                                 [lupp_norm (A) - window for f_obs]
1.027051E-17                             [fobs_norm (in input units)]

## S/N
 3691.00                                 [llow_SN (A) - window for S/N]
 7268.00                                 [lupp_SN (A) - window for S/N]
   4.163                                 [S/N in S/N window]
   5.736                                 [S/N in norm. window]
   0.008                                 [S/N_err in S/N window]
   0.011                                 [S/N_err in norm. window]
  1.0000                                 [fscale_chi2]

## etc...
    -2007494                             [idum_orig]
  2426                                   [NOl_eff]
  2378                                   [Nl_eff]
    48    NSIGMA                         [Ntot_cliped & clip_method]
  5380620                                [Nglobal_steps]
   7                                     [N_chains]
   9                                     [NEX0s_base = N_base in EX0s-fits]
 0   0   1       48   2.0   3.016E+03    [Clip-Bug, RC-Crash & Burn-In warning-flags, n_censored_weights, wei_nsig_threshold & wei_limit]
    45     45.175     44.483      0.692  [idt_all, wdt_TotTime, wdt_UsrTime & wdt_SysTime (sec)]

## Synthesis Results - Best model ##

 4.97910E-06                             [chi2/Nl_eff]
    14.35295                             [adev (%)]

   101.36535                             [sum-of-x (%)]
 3.28468E-18                             [Flux_tot (units of input spectrum!)]
 1.48891E-13                             [Mini_tot (???)]
 7.60264E-14                             [Mcor_tot (???)]

-205.99                                  [v0_min  (km/s)]
 368.07                                  [vd_min  (km/s)]
-0.8589                                  [AV_min  (mag)]
 0.0000                                  [YAV_min (mag)]

# j     x_j(%)      Mini_j(%)     Mcor_j(%)     age_j(yr)     Z_j      (L/M)_j    YAV?  Mstars   component_j        a/Fe...       SSP_chi2r SSP_adev(%)   SSP_AV   SSP_x(%)
  1      0.0000     0.0000E+00    0.0000E+00    1.000000E+06  0.00400  1.094E-02    0   1.0000   age020_m42            0.0000     7.2537E-06    17.0186   2.6415    79.8685
  2      0.0000     0.0000E+00    0.0000E+00    3.160000E+06  0.00400  4.007E-02    0   0.9999   age045_m42            0.0000     6.3360E-06    15.8912   1.8892    85.9426
  3      0.0000     0.0000E+00    0.0000E+00    5.010000E+06  0.00400  2.539E-02    0   0.9488   age055_m42            0.0000     6.7354E-06    16.4307   2.2254    83.4972
  4      0.0000     0.0000E+00    0.0000E+00    6.610000E+06  0.00400  2.620E-02    0   0.9220   age061_m42            0.0000     6.3394E-06    15.8487   1.8211    86.0025
  5      0.0000     0.0000E+00    0.0000E+00    1.000000E+07  0.00400  1.322E-02    0   0.8862   age070_m42            0.0000     6.5979E-06    16.5722   1.5987    86.4731
  6      0.0000     0.0000E+00    0.0000E+00    1.445000E+07  0.00400  7.883E-03    0   0.8571   age078_m42            0.0000     6.8112E-06    16.7879   1.9253    84.3147
  7      0.0000     0.0000E+00    0.0000E+00    2.512000E+07  0.00400  5.251E-03    0   0.8174   age090_m42            0.0000     6.5959E-06    16.7144   1.4781    86.7554
  8      0.0000     0.0000E+00    0.0000E+00    4.000000E+07  0.00400  3.649E-03    0   0.7851   age104_m42            0.0000     6.4119E-06    16.4002   1.2410    87.7113
  9      0.0000     0.0000E+00    0.0000E+00    5.500000E+07  0.00400  3.098E-03    0   0.7629   age110_m42            0.0000     6.2004E-06    15.7847   1.3629    88.4604
 10      0.0000     0.0000E+00    0.0000E+00    1.015200E+08  0.00400  2.228E-03    0   0.7207   age116_m42            0.0000     6.0763E-06    15.4371   1.3635    89.0786
 11      0.0000     0.0000E+00    0.0000E+00    2.861200E+08  0.00400  1.093E-03    0   0.6648   age125_m42            0.0000     5.9534E-06    15.4110   0.8107    91.2334
 12      0.0000     0.0000E+00    0.0000E+00    5.088000E+08  0.00400  6.597E-04    0   0.6365   age130_m42            0.0000     5.7560E-06    14.8584   0.7669    92.8253
 13      0.0000     0.0000E+00    0.0000E+00    1.434000E+09  0.00400  2.132E-04    0   0.5798   age139_m42            0.0000     5.3467E-06    14.4037  -0.2225    94.9994
 14      0.0000     0.0000E+00    0.0000E+00    4.250000E+09  0.00400  5.895E-05    0   0.5377   age158_m42            0.0000     5.3878E-06    14.5808  -0.6950    91.9400
 15      0.0000     0.0000E+00    0.0000E+00    7.500000E+09  0.00400  3.510E-05    0   0.5212   age171_m42            0.0000     5.4057E-06    14.6037  -0.8993    91.6511
 16      0.0000     0.0000E+00    0.0000E+00    1.300000E+10  0.00400  2.005E-05    0   0.5034   age193_m42            0.0000     5.4792E-06    14.7100  -1.0000    89.9855
 17      0.0000     0.0000E+00    0.0000E+00    1.800000E+10  0.00400  1.525E-05    0   0.4967   age213_m42            0.0000     5.5166E-06    14.8268  -1.0000    89.1388
 18      0.0000     0.0000E+00    0.0000E+00    1.000000E+06  0.00800  1.238E-02    0   1.0000   age020_m52            0.0000     7.2494E-06    17.0152   2.6356    80.0704
 19      0.0000     0.0000E+00    0.0000E+00    3.160000E+06  0.00800  3.074E-02    0   0.9966   age045_m52            0.0000     7.1699E-06    16.9681   2.5565    80.8529
 20      0.0000     0.0000E+00    0.0000E+00    5.010000E+06  0.00800  2.668E-02    0   0.9443   age055_m52            0.0000     6.8650E-06    16.5986   2.3126    82.6597
 21      0.0000     0.0000E+00    0.0000E+00    6.610000E+06  0.00800  2.136E-02    0   0.9177   age061_m52            0.0000     6.4874E-06    16.5085   1.0976    87.4503
 22      0.0000     0.0000E+00    0.0000E+00    1.000000E+07  0.00800  1.215E-02    0   0.8827   age070_m52            0.0000     6.8029E-06    17.0520   1.7946    85.9071
 23      0.0000     0.0000E+00    0.0000E+00    1.445000E+07  0.00800  8.717E-03    0   0.8552   age078_m52            0.0000     6.7209E-06    16.7104   1.8906    85.5045
 24      0.0000     0.0000E+00    0.0000E+00    2.512000E+07  0.00800  5.592E-03    0   0.8162   age090_m52            0.0000     6.5395E-06    16.7085   1.5425    87.7932
 25      0.0000     0.0000E+00    0.0000E+00    4.000000E+07  0.00800  3.896E-03    0   0.7841   age104_m52            0.0000     6.3183E-06    16.2559   1.4392    88.8294
 26      0.0000     0.0000E+00    0.0000E+00    1.015200E+08  0.00800  2.148E-03    0   0.7226   age116_m52            0.0000     6.0924E-06    15.6112   1.3480    89.3646
 27      0.0000     0.0000E+00    0.0000E+00    2.861200E+08  0.00800  9.925E-04    0   0.6683   age125_m52            0.0000     5.7278E-06    14.8499   0.8313    93.7235
 28      0.0000     0.0000E+00    0.0000E+00    9.047900E+08  0.00800  3.141E-04    0   0.6138   age135_m52            0.0000     5.1814E-06    14.1108  -0.0208    98.8897
 29      0.0000     0.0000E+00    0.0000E+00    1.434000E+09  0.00800  1.719E-04    0   0.5853   age139_m52            0.0000     5.1903E-06    14.2724  -0.5948    96.5356
 30      0.0000     0.0000E+00    0.0000E+00    2.500000E+09  0.00800  7.872E-05    0   0.5600   age150_m52            0.0000     5.2080E-06    14.4535  -0.9036    94.8727
 31      0.0000     0.0000E+00    0.0000E+00    4.250000E+09  0.00800  4.336E-05    0   0.5426   age158_m52            0.0000     5.2753E-06    14.5195  -0.9187    93.9572
 32      0.0000     0.0000E+00    0.0000E+00    6.250000E+09  0.00800  3.159E-05    0   0.5319   age166_m52            0.0000     5.4016E-06    14.7533  -1.0000    91.7110
 33      0.0000     0.0000E+00    0.0000E+00    1.300000E+10  0.00800  1.361E-05    0   0.5073   age193_m52            0.0000     7.1831E-06    21.1514  -1.0000    81.3042
 34      0.0000     0.0000E+00    0.0000E+00    1.800000E+10  0.00800  9.886E-06    0   0.4990   age213_m52            0.0000     8.0848E-06    22.9642  -1.0000    78.4647
 35      0.0000     0.0000E+00    0.0000E+00    1.000000E+06  0.02000  1.544E-02    0   1.0000   age020_m62            0.0000     7.2741E-06    17.0491   2.6319    80.2547
 36      0.0000     0.0000E+00    0.0000E+00    3.160000E+06  0.02000  3.762E-02    0   0.9858   age045_m62            0.0000     7.2436E-06    17.0388   2.5670    81.0632
 37      0.0000     0.0000E+00    0.0000E+00    5.010000E+06  0.02000  3.296E-02    0   0.9342   age055_m62            0.0000     6.5524E-06    16.1558   2.1701    84.8942
 38      0.0000     0.0000E+00    0.0000E+00    8.710000E+06  0.02000  1.154E-02    0   0.8861   age067_m62            0.0000     7.8518E-06    20.1722   1.3497    85.9113
 39      0.0000     0.0000E+00    0.0000E+00    1.445000E+07  0.02000  7.663E-03    0   0.8472   age078_m62            0.0000     6.9387E-06    17.8020   1.4716    87.1374
 40      0.0000     0.0000E+00    0.0000E+00    2.512000E+07  0.02000  4.532E-03    0   0.8099   age090_m62            0.0000     6.9578E-06    17.9203   1.4680    86.7860
 41      0.0000     0.0000E+00    0.0000E+00    5.500000E+07  0.02000  2.733E-03    0   0.7595   age110_m62            0.0000     6.3850E-06    16.3188   1.4228    88.1447
 42      0.0000     0.0000E+00    0.0000E+00    1.609000E+08  0.02000  1.369E-03    0   0.6985   age120_m62            0.0000     5.9663E-06    15.2908   1.2164    91.6901
 43      0.0000     0.0000E+00    0.0000E+00    2.861200E+08  0.02000  9.013E-04    0   0.6714   age125_m62            0.0000     5.7535E-06    14.7939   0.9390    95.0378
 44      0.0000     0.0000E+00    0.0000E+00    5.088000E+08  0.02000  5.028E-04    0   0.6449   age130_m62            0.0000     5.3706E-06    14.2227   0.5058    98.9601
 45      0.0000     0.0000E+00    0.0000E+00    9.047900E+08  0.02000  2.428E-04    0   0.6179   age135_m62            0.0000     5.1036E-06    14.1811  -0.1014    98.7392
 46      0.0000     0.0000E+00    0.0000E+00    1.434000E+09  0.02000  1.263E-04    0   0.5908   age139_m62            0.0000     5.1341E-06    14.3613  -0.5508    97.2870
 47      0.0000     0.0000E+00    0.0000E+00    2.500000E+09  0.02000  5.985E-05    0   0.5673   age150_m62            0.0000     5.2043E-06    14.6774  -0.9536    96.7655
 48      0.0000     0.0000E+00    0.0000E+00    4.250000E+09  0.02000  3.271E-05    0   0.5468   age158_m62            0.0000     5.6784E-06    15.6482  -1.0000    90.8687
 49      0.0000     0.0000E+00    0.0000E+00    1.000000E+10  0.02000  1.360E-05    0   0.5167   age181_m62            0.0000     7.4791E-06    20.6618  -1.0000    82.8623
 50      0.0000     0.0000E+00    0.0000E+00    1.800000E+10  0.02000  7.124E-06    0   0.5013   age213_m62            0.0000     9.2755E-06    24.2442  -1.0000    77.3189
 51      0.0000     0.0000E+00    0.0000E+00    1.000000E+06  0.05000  2.592E-02    0   0.9998   age020_m72            0.0000     7.3683E-06    17.1851   2.6283    80.1806
 52      0.0000     0.0000E+00    0.0000E+00    3.160000E+06  0.05000  4.845E-02    0   0.9577   age045_m72            0.0000     6.9616E-06    16.7174   2.4383    82.4047
 53      0.0000     0.0000E+00    0.0000E+00    5.010000E+06  0.05000  3.072E-02    0   0.9147   age055_m72            0.0000     7.0304E-06    17.3077   2.0230    84.5285
 54      0.0000     0.0000E+00    0.0000E+00    6.610000E+06  0.05000  1.455E-02    0   0.8877   age061_m72            0.0000     8.5325E-06    21.5865   1.4214    85.8031
 55      0.0000     0.0000E+00    0.0000E+00    1.000000E+07  0.05000  9.074E-03    0   0.8524   age070_m72            0.0000     7.1113E-06    17.5613   2.1980    84.3056
 56      0.0000     0.0000E+00    0.0000E+00    2.512000E+07  0.05000  4.250E-03    0   0.7902   age090_m72            0.0000     6.7420E-06    17.0244   1.8965    86.0567
 57      0.0000     0.0000E+00    0.0000E+00    4.000000E+07  0.05000  3.087E-03    0   0.7618   age104_m72            0.0000     6.6382E-06    17.0228   1.6735    87.3997
 58      0.0000     0.0000E+00    0.0000E+00    1.015200E+08  0.05000  1.700E-03    0   0.7096   age116_m72            0.0000     6.1264E-06    15.6855   1.3776    90.8458
 59      0.0000     0.0000E+00    0.0000E+00    2.861200E+08  0.05000  7.384E-04    0   0.6633   age125_m72            0.0000     5.5312E-06    14.4480   0.7760    97.1201
 60     50.3423     2.8689E+00    3.5801E+00    5.088000E+08  0.05000  3.819E-04    0   0.6372   age130_m72            0.0000     5.1385E-06    14.2155   0.2380    99.8377
 61     22.8435     2.9664E+00    3.5495E+00    9.047900E+08  0.05000  1.676E-04    0   0.6110   age135_m72            0.0000     5.0783E-06    14.6882  -0.5068    99.0933
 62      0.0000     0.0000E+00    0.0000E+00    1.434000E+09  0.05000  8.837E-05    0   0.5874   age139_m72            0.0000     5.1925E-06    14.7475  -0.9682    98.5667
 63      0.0000     0.0000E+00    0.0000E+00    2.500000E+09  0.05000  4.233E-05    0   0.5598   age150_m72            0.0000     5.7274E-06    15.7290  -1.0000    91.7335
 64      0.0000     0.0000E+00    0.0000E+00    6.250000E+09  0.05000  1.435E-05    0   0.5249   age166_m72            0.0000     8.1705E-06    22.3247  -1.0000    80.3128
 65     28.1795     9.4165E+01    9.2870E+01    1.300000E+10  0.05000  6.513E-06    0   0.5036   age193_m72            0.0000     1.0870E-05    27.1094  -1.0000    74.3258
 66      0.0000     0.0000E+00    0.0000E+00    1.800000E+10  0.05000  4.527E-06    0   0.4945   age213_m72            0.0000     1.2761E-05    29.7370  -1.0000    70.2109


## Synthesis Results - Average & Chains ##

# j      x_j: min, <> & last-chain-values for 1 ...  7 chains
  1      0.0000      0.3124      0.2245      0.0369      0.2196      0.0124      0.2576      0.0000      0.0000
  2      0.0000      0.4357      0.2855      0.0627      0.0000      0.0000      0.1357      0.0000      0.0916
  3      0.0000      0.5263      0.3477      0.0000      0.0316      0.1589      0.0000      0.0000      0.0106
  4      0.0000      0.4658      0.0000      0.0000      0.1446      0.0000      0.1114      0.0112      0.1732
  5      0.0000      0.3681      0.0927      0.0000      0.1153      0.1248      0.0399      0.0060      0.0896
  6      0.0000      0.5479      0.0520      0.0281      0.1397      0.0087      0.3920      0.0000      0.1369
  7      0.0000      0.3862      0.0000      0.1532      0.0443      0.1422      0.3507      0.0000      0.1078
  8      0.0000      0.4033      0.0000      0.0126      0.0000      0.0521      0.0485      0.0988      0.1049
  9      0.0000      0.3553      0.1539      0.0047      0.2267      0.1178      0.1961      0.1982      0.0060
 10      0.0000      0.3330      0.0000      0.0262      0.0000      0.2768      0.0681      0.0000      0.1367
 11      0.0000      0.5955      0.0000      0.0561      0.2497      0.2981      0.0000      0.0569      0.0706
 12      0.0000      0.3274      0.1864      0.0574      0.0000      0.0770      0.1375      0.0509      0.0791
 13      0.0000      0.4379      0.5507      0.1976      0.1116      0.1185      0.1148      0.0088      0.0245
 14      0.0000      0.3440      0.4795      0.0438      0.0000      0.0000      0.0000      0.0000      0.0000
 15      0.0000      0.4086      0.0000      0.0336      0.0000      0.0000      0.0000      0.0482      0.0000
 16      0.0000      0.5983      0.0048      0.0000      0.3238      0.0000      0.1791      0.0000      0.0603
 17      0.0000      0.3695      0.0078      0.0749      0.0152      0.0000      0.5479      0.0000      0.0000
 18      0.0000      0.3084      0.0000      0.0000      0.1466      0.0255      0.0000      0.0000      0.0024
 19      0.0000      0.3848      0.1797      0.0062      0.0000      0.1251      0.0961      0.0116      0.0742
 20      0.0000      0.4997      0.0000      0.0000      0.0000      0.1004      0.0000      0.0000      0.0233
 21      0.0000      0.5205      0.0000      0.0036      0.1018      0.3788      0.0865      0.0287      0.0000
 22      0.0000      0.3306      0.1395      0.0000      0.0285      0.0000      0.2265      0.0000      0.3187
 23      0.0000      0.3593      0.3362      0.0000      0.0000      0.0161      0.0000      0.0000      0.1340
 24      0.0000      0.4345      0.3141      0.0382      0.0000      0.0000      0.1485      0.2026      0.0883
 25      0.0000      0.4556      0.1254      0.0955      0.4066      0.0648      0.1161      0.0000      0.0000
 26      0.0000      0.3060      0.0000      0.1136      0.0554      0.0494      0.0000      0.0380      0.2446
 27      0.0000      0.5702      0.0000      0.0000      0.1122      0.0893      0.0000      0.0860      0.0740
 28      0.0000      0.5474      0.0000      0.0976      0.7780      0.0514      0.2244      0.0473      0.0861
 29      0.0000      0.4220      0.3446      0.0972      0.0681      0.0559      0.1611      0.2283      0.0000
 30      0.0000      0.4577      0.0143      0.0863      0.0354      0.0250      0.0188      0.0000      0.0950
 31      0.0000      0.4029      0.0000      0.0689      0.0348      0.1666      0.0000      0.0219      0.0000
 32      0.0000      0.3606      0.0000      0.0000      0.0925      0.1698      0.4116      0.0090      0.2358
 33      0.0000      0.4547      0.1217      0.0405      0.0759      0.0286      0.0000      0.0000      0.0000
 34      0.0000      0.3282      0.0492      0.0274      0.0000      0.3003      0.0000      0.0004      0.0161
 35      0.0000      0.6021      0.4773      0.0000      0.1022      0.0450      0.0625      0.0371      0.0000
 36      0.0000      0.4904      0.1405      0.0381      0.2339      0.2389      0.1371      0.0029      0.0853
 37      0.0000      0.2946      0.0000      0.0458      0.0903      0.0647      0.3927      0.0192      0.0226
 38      0.0000      0.5522      0.5485      0.0837      0.5034      0.0000      0.0153      0.0000      0.0000
 39      0.0000      0.5624      0.2563      0.0838      0.3190      0.1742      0.1516      0.0096      0.0000
 40      0.0000      0.4517      0.0315      0.0000      0.0996      0.1762      0.1758      0.0000      0.0000
 41      0.0000      0.5203      0.5235      0.1203      0.2834      0.0000      0.3998      0.0375      0.2066
 42      0.0000      0.6301      0.6781      0.0333      0.2371      0.0554      0.0748      0.0253      0.1585
 43      0.0000      0.4373      0.0658      0.0120      0.1705      0.0530      0.1722      0.0145      0.0406
 44      0.0000      0.4593      0.5189      0.0000      0.1140      0.5283      0.1385      0.0671      0.0386
 45      0.0000      0.5304      0.0000      0.0404      0.2994      0.1779      0.2386      0.0000      0.0878
 46      0.0000      0.4707      0.0000      0.0000      0.1517      0.0000      0.0875      0.0794      0.0382
 47      0.0000      0.4610      0.0000      0.0000      0.0000      0.0627      0.1432      0.0000      0.0000
 48      0.0000      0.5899      0.0000      0.1042      0.0914      0.1319      0.2858      0.0193      0.0536
 49      0.0000      0.5571      0.1437      0.4109      0.6794      0.2977      0.1026      0.4122      0.4428
 50      0.0000      1.1010      1.6247      1.2998      1.4441      1.2187      1.3882      1.2839      1.2518
 51      0.0000      0.3793      0.1397      0.0642      0.0234      0.0000      0.4671      0.0144      0.0352
 52      0.0000      0.4264      0.0000      0.0000      0.6469      0.0226      0.0785      0.0418      0.1663
 53      0.0000      0.3878      0.0000      0.0640      0.3837      0.2561      0.0000      0.0246      0.0000
 54      0.0000      0.4094      0.0462      0.0000      0.0000      0.0000      0.1221      0.0374      0.0877
 55      0.0000      0.5650      0.5060      0.0000      0.0232      0.0000      0.0000      0.0233      0.0000
 56      0.0000      0.5367      0.0000      0.0174      0.0618      0.1133      0.3630      0.0000      0.0664
 57      0.0000      0.4930      0.0000      0.0007      0.0050      0.0000      0.0000      0.0000      0.1061
 58      0.0000      0.4671      0.1444      0.0000      0.1164      0.1105      0.0000      0.3112      0.0152
 59      0.0000      0.4937      0.3356      0.0000      0.1325      0.3272      0.0979      0.0901      0.1029
 60     50.3423      6.4801      7.1010      9.7207      7.2225      3.5341      7.3991     12.2784      3.2265
 61     22.8435     58.6717     74.5369     77.8183     75.0797     79.7495     75.3479     75.9056     81.9048
 62      0.0000      0.6604      0.2673      0.4510      0.0000      0.2346      0.4641      0.5235      0.0000
 63      0.0000      0.8312      0.7983      1.1247      0.8270      0.5856      1.2652      1.6790      1.1073
 64      0.0000      1.0626      1.1026      1.4126      0.6911      0.9273      1.2828      1.1808      1.1763
 65     28.1795      2.7562      3.2082      3.2664      3.4380      4.5816      2.8370      2.5851      2.9324
 66      0.0000      2.9808      3.5361      3.5541      3.6459      3.4596      3.3987      3.0697      4.4189

# j      m_j: min, <> & last-chain-values for 1 ...  7 chains
  1  0.0000E+00  2.7822E-03  1.8537E-03  2.9902E-04  1.7709E-03  9.4729E-05  2.1703E-03  0.0000E+00  0.0000E+00
  2  0.0000E+00  1.0592E-03  6.4362E-04  1.3859E-04  0.0000E+00  0.0000E+00  3.1218E-04  0.0000E+00  1.9285E-04
  3  0.0000E+00  1.9161E-03  1.1738E-03  0.0000E+00  1.0403E-04  4.9662E-04  0.0000E+00  0.0000E+00  3.3400E-05
  4  0.0000E+00  1.5967E-03  0.0000E+00  0.0000E+00  4.4890E-04  0.0000E+00  3.6142E-04  3.8901E-05  5.1416E-04
  5  0.0000E+00  2.4040E-03  5.6160E-04  0.0000E+00  6.8176E-04  6.9976E-04  2.4637E-04  3.9580E-05  5.0653E-04
  6  0.0000E+00  5.8031E-03  5.1109E-04  2.7115E-04  1.3400E-03  7.8793E-05  3.9286E-03  0.0000E+00  1.2555E-03
  7  0.0000E+00  5.8562E-03  0.0000E+00  2.1143E-03  6.0818E-04  1.8511E-03  5.0320E-03  0.0000E+00  1.4162E-03
  8  0.0000E+00  8.4540E-03  0.0000E+00  2.4050E-04  0.0000E+00  9.3759E-04  9.6214E-04  2.1029E-03  1.9043E-03
  9  0.0000E+00  8.5241E-03  3.4230E-03  1.0159E-04  4.9255E-03  2.4261E-03  4.4518E-03  4.8305E-03  1.2376E-04
 10  0.0000E+00  1.0495E-02  0.0000E+00  7.5007E-04  0.0000E+00  7.4875E-03  2.0307E-03  0.0000E+00  3.7310E-03
 11  0.0000E+00  3.5285E-02  0.0000E+00  3.0237E-03  1.3399E-02  1.5159E-02  0.0000E+00  3.4237E-03  3.6224E-03
 12  0.0000E+00  3.0774E-02  1.6245E-02  4.9053E-03  0.0000E+00  6.2134E-03  1.2227E-02  4.8576E-03  6.4426E-03
 13  0.0000E+00  1.1600E-01  1.3529E-01  4.7627E-02  2.6784E-02  2.6946E-02  2.8777E-02  2.3786E-03  5.6309E-03
 14  0.0000E+00  3.0565E-01  3.9506E-01  3.5427E-02  0.0000E+00  0.0000E+00  0.0000E+00  0.0000E+00  0.0000E+00
 15  0.0000E+00  5.9108E-01  0.0000E+00  4.4163E-02  0.0000E+00  0.0000E+00  0.0000E+00  7.0751E-02  0.0000E+00
 16  0.0000E+00  1.4633E+00  1.0784E-02  0.0000E+00  7.1727E-01  0.0000E+00  4.1449E-01  0.0000E+00  1.2764E-01
 17  0.0000E+00  1.1724E+00  2.2965E-02  2.1637E-01  4.3771E-02  0.0000E+00  1.6447E+00  0.0000E+00  0.0000E+00
 18  0.0000E+00  2.4267E-03  0.0000E+00  0.0000E+00  1.0449E-03  1.7239E-04  0.0000E+00  0.0000E+00  1.6287E-05
 19  0.0000E+00  1.2152E-03  5.2632E-04  1.7682E-05  0.0000E+00  3.3907E-04  2.8706E-04  3.7090E-05  2.0285E-04
 20  0.0000E+00  1.7231E-03  0.0000E+00  0.0000E+00  0.0000E+00  2.9701E-04  0.0000E+00  0.0000E+00  6.9539E-05
 21  0.0000E+00  2.1784E-03  0.0000E+00  1.3526E-05  3.8603E-04  1.3608E-03  3.4266E-04  1.2187E-04  0.0000E+00
 22  0.0000E+00  2.3397E-03  9.1572E-04  0.0000E+00  1.8252E-04  0.0000E+00  1.5167E-03  0.0000E+00  1.9535E-03
 23  0.0000E+00  3.4337E-03  2.9794E-03  0.0000E+00  0.0000E+00  1.3226E-04  0.0000E+00  0.0000E+00  1.1088E-03
 24  0.0000E+00  6.1787E-03  4.1409E-03  4.9419E-04  0.0000E+00  0.0000E+00  1.9979E-03  2.9264E-03  1.0870E-03
 25  0.0000E+00  8.9321E-03  2.2806E-03  1.7043E-03  7.2195E-03  1.0908E-03  2.1543E-03  0.0000E+00  0.0000E+00
 26  0.0000E+00  1.0028E-02  0.0000E+00  3.3866E-03  1.6439E-03  1.3901E-03  0.0000E+00  1.2641E-03  6.9418E-03
 27  0.0000E+00  3.7401E-02  0.0000E+00  0.0000E+00  6.6672E-03  5.0252E-03  0.0000E+00  5.7291E-03  4.2035E-03
 28  0.0000E+00  1.0421E-01  0.0000E+00  1.6901E-02  1.3413E-01  8.3954E-03  4.0413E-02  9.1485E-03  1.4193E-02
 29  0.0000E+00  1.3997E-01  1.0598E-01  2.9328E-02  2.0466E-02  1.5905E-02  5.0548E-02  7.6931E-02  0.0000E+00
 30  0.0000E+00  3.1718E-01  9.2189E-03  5.4416E-02  2.2201E-02  1.4866E-02  1.2328E-02  0.0000E+00  5.7031E-02
 31  0.0000E+00  4.9117E-01  0.0000E+00  7.6378E-02  3.8397E-02  1.7436E-01  0.0000E+00  2.7160E-02  0.0000E+00
 32  0.0000E+00  5.9150E-01  0.0000E+00  0.0000E+00  1.3746E-01  2.3911E-01  6.3874E-01  1.4972E-02  3.3494E-01
 33  0.0000E+00  1.6511E+00  4.0979E-01  1.3368E-01  2.4954E-01  8.9116E-02  0.0000E+00  0.0000E+00  0.0000E+00
 34  0.0000E+00  1.6136E+00  2.2420E-01  1.2240E-01  0.0000E+00  1.2673E+00  0.0000E+00  2.2409E-03  6.8522E-02
 35  0.0000E+00  3.7989E-03  2.7925E-03  0.0000E+00  5.8412E-04  2.4354E-04  3.7337E-04  2.3760E-04  0.0000E+00
 36  0.0000E+00  1.2518E-03  3.3269E-04  8.8603E-05  5.4075E-04  5.2339E-04  3.3101E-04  7.5674E-06  1.8867E-04
 37  0.0000E+00  8.1333E-04  0.0000E+00  1.1507E-04  2.2590E-04  1.5322E-04  1.0258E-03  5.3746E-05  5.4104E-05
 38  0.0000E+00  4.1307E-03  3.8045E-03  5.6946E-04  3.4101E-03  0.0000E+00  1.0836E-04  0.0000E+00  0.0000E+00
 39  0.0000E+00  6.0575E-03  2.5602E-03  8.2145E-04  3.1113E-03  1.6106E-03  1.5452E-03  1.0460E-04  0.0000E+00
 40  0.0000E+00  7.8641E-03  5.0802E-04  0.0000E+00  1.5697E-03  2.6324E-03  2.8949E-03  0.0000E+00  0.0000E+00
 41  0.0000E+00  1.4085E-02  1.3143E-02  2.9624E-03  6.9493E-03  0.0000E+00  1.0240E-02  1.0325E-03  4.8440E-03
 42  0.0000E+00  3.1320E-02  3.1255E-02  1.5056E-03  1.0672E-02  2.3620E-03  3.5180E-03  1.2793E-03  6.8222E-03
 43  0.0000E+00  3.1733E-02  4.4254E-03  7.8974E-04  1.1202E-02  3.3040E-03  1.1821E-02  1.0697E-03  2.5540E-03
 44  0.0000E+00  5.7387E-02  6.0121E-02  0.0000E+00  1.2902E-02  5.6655E-02  1.6377E-02  8.5157E-03  4.1801E-03
 45  0.0000E+00  1.3151E-01  0.0000E+00  9.1090E-03  6.7218E-02  3.7852E-02  5.5966E-02  0.0000E+00  1.8854E-02
 46  0.0000E+00  2.1449E-01  0.0000E+00  0.0000E+00  6.2607E-02  0.0000E+00  3.7732E-02  3.6753E-02  1.5070E-02
 47  0.0000E+00  4.2567E-01  0.0000E+00  0.0000E+00  0.0000E+00  4.9701E-02  1.2513E-01  0.0000E+00  0.0000E+00
 48  0.0000E+00  9.6063E-01  0.0000E+00  1.5439E-01  1.3486E-01  1.8437E-01  4.4035E-01  3.1974E-02  7.5632E-02
 49  0.0000E+00  2.0621E+00  4.9312E-01  1.3837E+00  2.2772E+00  9.4570E-01  3.5936E-01  1.5495E+00  1.4194E+00
 50  0.0000E+00  7.5473E+00  1.0327E+01  8.1071E+00  8.9651E+00  7.1701E+00  9.0039E+00  8.9395E+00  7.4316E+00
 51  0.0000E+00  1.4251E-03  4.8694E-04  2.1965E-04  7.9672E-05  0.0000E+00  1.6606E-03  5.5085E-05  1.1471E-04
 52  0.0000E+00  8.2103E-04  0.0000E+00  0.0000E+00  1.1281E-03  3.7395E-05  1.4307E-04  8.1746E-05  2.7737E-04
 53  0.0000E+00  1.1249E-03  0.0000E+00  1.6877E-04  1.0079E-03  6.3756E-04  0.0000E+00  7.2397E-05  0.0000E+00
 54  0.0000E+00  2.4335E-03  2.5437E-04  0.0000E+00  0.0000E+00  0.0000E+00  6.8685E-04  2.2582E-04  4.5118E-04
 55  0.0000E+00  5.1709E-03  4.2941E-03  0.0000E+00  1.9261E-04  0.0000E+00  0.0000E+00  2.1644E-04  0.0000E+00
 56  0.0000E+00  9.7210E-03  0.0000E+00  2.8605E-04  1.0130E-03  1.7611E-03  6.2206E-03  0.0000E+00  1.0419E-03
 57  0.0000E+00  1.1852E-02  0.0000E+00  1.4580E-05  1.0866E-04  0.0000E+00  0.0000E+00  0.0000E+00  2.2081E-03
 58  0.0000E+00  1.8992E-02  5.4449E-03  0.0000E+00  4.2878E-03  3.8576E-03  0.0000E+00  1.2853E-02  5.3574E-04
 59  0.0000E+00  4.3205E-02  2.7230E-02  0.0000E+00  1.0500E-02  2.4573E-02  8.1064E-03  8.0099E-03  7.7956E-03
 60  3.5801E+00  1.0533E+00  1.0703E+00  1.4376E+00  1.0631E+00  4.9303E-01  1.1379E+00  2.0271E+00  4.5418E-01
 61  3.5495E+00  2.0837E+01  2.4546E+01  2.5145E+01  2.4147E+01  2.4309E+01  2.5318E+01  2.7381E+01  2.5191E+01
 62  0.0000E+00  4.2761E-01  1.6048E-01  2.6573E-01  0.0000E+00  1.3039E-01  2.8432E-01  3.4433E-01  0.0000E+00
 63  0.0000E+00  1.0708E+00  9.5371E-01  1.3184E+00  9.6488E-01  6.4754E-01  1.5421E+00  2.1970E+00  1.2355E+00
 64  0.0000E+00  3.7866E+00  3.6434E+00  4.5797E+00  2.2301E+00  2.8362E+00  4.3250E+00  4.2738E+00  3.6302E+00
 65  9.2870E+01  2.0762E+01  2.2409E+01  2.2386E+01  2.3453E+01  2.9620E+01  2.0218E+01  1.9778E+01  1.9130E+01
 66  0.0000E+00  3.1720E+01  3.4892E+01  3.4411E+01  3.5135E+01  3.1597E+01  3.4219E+01  3.3178E+01  4.0724E+01

# AV, chi2 & Mass for <> & i_chain = 1 ...  7 solutions
AV      -0.8589     -0.6981     -0.6575     -0.7275     -0.6712     -0.7210     -0.6823     -0.6748     -0.7294
chi2 4.9791E-06  5.4694E-06  5.0801E-06  5.0628E-06  5.0735E-06  5.0639E-06  5.0884E-06  5.0534E-06  5.0660E-06
Mass 7.6026E-14  4.1282E-14  4.7014E-14  4.3614E-14  4.7259E-14  4.6639E-14  4.4569E-14  4.1935E-14  4.5706E-14
-205.99                                  [v0_min (km/s) before EX0s...]
 368.07                                  [vd_min (km/s) before EX0s...]


## Synthetic spectrum (Best Model) ##l_obs f_obs f_syn wei
 3478    [Nl_obs]
 3741.00    1.04146   0.43918    0.000
 3742.00    1.10481   0.43435    0.000
 3743.00    1.14404   0.42896    0.000
 3744.00    0.89547   0.42474    0.000
 3745.00    0.47921   0.42257    0.023
 3746.00    0.41279   0.42391    0.023
 3747.00    0.52402   0.42832    0.023
 3748.00    0.39602   0.43646    0.022
 3749.00    0.16283   0.44683    0.022
 3750.00    0.21745   0.45906    0.022
 3751.00    0.38073   0.47174    0.021
 3752.00    0.51473   0.48369    0.021
 3753.00    0.63935   0.49417    0.021
 3754.00    0.63869   0.50221    0.021
 3755.00    0.60447   0.50809    0.020
 3756.00    0.61132   0.51105    0.020
 3757.00    0.62719   0.51220    0.020
 3758.00    0.59458   0.51145    0.020
 3759.00    0.55351   0.50972    0.020
 3760.00    0.50483   0.50701    0.021
 3761.00    0.45514   0.50428    0.022
 3762.00    0.42461   0.50192    0.021
 3763.00    0.39588   0.50012    0.019
 3764.00    0.55651   0.49921    0.019
 3765.00    0.72807   0.49953    0.019
 3766.00    0.83098   0.50216    0.019
 3767.00    0.93092   0.50690    0.019
 3768.00    0.86768   0.51448    0.019
 3769.00    0.80562   0.52468    0.019
 3770.00    0.77183   0.53740    0.019
 3771.00    0.73741   0.55214    0.019
 3772.00    0.69462   0.56853    0.019
 3773.00    0.66284   0.58540    0.019
 3774.00    0.72776   0.60227    0.019
 3775.00    0.80688   0.61799    0.019
 3776.00    0.97801   0.63151    0.019
 3777.00    1.08082   0.64217    0.020
 3778.00    0.83781   0.64931    0.019
 3779.00    0.62969   0.65270    0.019
 3780.00    0.56440   0.65188    0.020
 3781.00    0.48289   0.64721    0.020
 3782.00    0.34633   0.63859    0.020
 3783.00    0.17565   0.62689    0.020
 3784.00   -0.09263   0.61266    0.000
 3785.00   -0.28592   0.59639    0.000
 3786.00   -0.29603   0.57935    0.000
 3787.00   -0.17545   0.56143    0.000
 3788.00    0.22057   0.54400    0.020
 3789.00    0.49666   0.52679    0.020
 3790.00    0.55305   0.51139    0.020
 3791.00    0.57698   0.49812    0.020
 3792.00    0.54891   0.48756    0.019
 3793.00    0.54325   0.48054    0.019
 3794.00    0.56906   0.47748    0.019
 3795.00    0.51852   0.47896    0.019
 3796.00    0.37360   0.48473    0.019
 3797.00    0.25455   0.49490    0.019
 3798.00    0.16368   0.50876    0.019
 3799.00    0.14901   0.52527    0.019
 3800.00    0.20757   0.54336    0.019
 3801.00    0.21789   0.56149    0.019
 3802.00    0.18734   0.57922    0.019
 3803.00    0.25856   0.59516    0.019
 3804.00    0.40572   0.60874    0.019
 3805.00    0.55101   0.61934    0.019
 3806.00    0.69508   0.62684    0.019
 3807.00    0.61534   0.63132    0.019
 3808.00    0.40717   0.63256    0.019
 3809.00    0.30030   0.63152    0.019
 3810.00    0.24406   0.62814    0.019
 3811.00    0.30026   0.62348    0.019
 3812.00    0.40507   0.61737    0.019
 3813.00    0.63210   0.61039    0.019
 3814.00    0.90446   0.60264    0.020
 3815.00    0.86005   0.59437    0.020
 3816.00    0.71606   0.58552    0.020
 3817.00    0.57736   0.57619    0.019
 3818.00    0.44006   0.56636    0.019
 3819.00    0.48428   0.55556    0.019
 3820.00    0.56738   0.54385    0.019
 3821.00    0.60007   0.53109    0.019
 3822.00    0.62419   0.51715    0.019
 3823.00    0.57978   0.50243    0.019
 3824.00    0.52657   0.48728    0.019
 3825.00    0.24405   0.47207    0.019
 3826.00   -0.05905   0.45684    0.000
 3827.00    0.13252   0.44184    0.019
 3828.00    0.35067   0.42818    0.019
 3829.00    0.41042   0.41636    0.019
 3830.00    0.46693   0.40715    0.019
 3831.00    0.51744   0.40084    0.019
 3832.00    0.57212   0.39846    0.019
 3833.00    0.71934   0.39996    0.019
 3834.00    0.84364   0.40598    0.019
 3835.00    0.68279   0.41588    0.019
 3836.00    0.53259   0.42979    0.019
 3837.00    0.47232   0.44692    0.019
 3838.00    0.42819   0.46644    0.019
 3839.00    0.48557   0.48748    0.019
 3840.00    0.56923   0.50889    0.019
 3841.00    0.78256   0.52998    0.019
 3842.00    0.92658   0.54977    0.019
 3843.00    0.79318   0.56813    0.019
 3844.00    0.64115   0.58427    0.019
 3845.00    0.42721   0.59845    0.019
 3846.00    0.28207   0.61021    0.019
 3847.00    0.33013   0.61984    0.000
 3848.00    0.39192   0.62750    0.000
 3849.00    0.48670   0.63344    0.000
 3850.00    0.60220   0.63800    0.000
 3851.00    0.76067   0.64148    0.000
 3852.00    0.79113   0.64412    0.000
 3853.00    0.59074   0.64637    0.000
 3854.00    0.50289   0.64881    0.000
 3855.00    0.59256   0.65150    0.000
 3856.00    0.60188   0.65458    0.000
 3857.00    0.49999   0.65811    0.000
 3858.00    0.44313   0.66210    0.000
 3859.00    0.44115   0.66614    0.000
 3860.00    0.34583   0.67003    0.000
 3861.00    0.15024   0.67329    0.000
 3862.00    0.21542   0.67534    0.000
 3863.00    0.52768   0.67622    0.000
 3864.00    0.69748   0.67566    0.000
 3865.00    0.74827   0.67352    0.000
 3866.00    0.83590   0.67001    0.000
 3867.00    0.95061   0.66515    0.000
 3868.00    0.99110   0.65948    0.000
 3869.00    0.98365   0.65285    0.000
 3870.00    1.03375   0.64589    0.000
 3871.00    1.11637   0.63816    0.000
 3872.00    1.01709   0.63009    0.000
 3873.00    0.82832   0.62108    0.000
 3874.00    0.63831   0.61151    0.000
 3875.00    0.44776   0.60078    0.000
 3876.00    0.62793   0.58935    0.000
 3877.00    0.94312   0.57691    0.000
 3878.00    0.87313   0.56386    0.000
 3879.00    0.68438   0.55023    0.000
 3880.00    0.45781   0.53675    0.000
 3881.00    0.22153   0.52389    0.018
 3882.00    0.36472   0.51266    0.018
 3883.00    0.58724   0.50380    0.018
 3884.00    0.46006   0.49789    0.018
 3885.00    0.27521   0.49551    0.018
 3886.00    0.21651   0.49697    0.018
 3887.00    0.17342   0.50221    0.018
 3888.00    0.40714   0.51087    0.018
 3889.00    0.66455   0.52245    0.018
 3890.00    0.78797   0.53609    0.019
 3891.00    0.90471   0.55112    0.019
 3892.00    0.65389   0.56665    0.019
 3893.00    0.39695   0.58216    0.019
 3894.00    0.13395   0.59711    0.019
 3895.00   -0.09691   0.61112    0.000
 3896.00    0.32996   0.62433    0.018
 3897.00    0.72288   0.63645    0.018
 3898.00    0.71429   0.64806    0.018
 3899.00    0.69768   0.65904    0.018
 3900.00    0.61580   0.67001    0.018
 3901.00    0.53947   0.68089    0.017
 3902.00    0.49707   0.69196    0.017
 3903.00    0.46338   0.70315    0.017
 3904.00    0.47159   0.71423    0.016
 3905.00    0.47641   0.72501    0.016
 3906.00    0.46794   0.73489    0.016
 3907.00    0.44939   0.74346    0.016
 3908.00    0.39801   0.75010    0.016
 3909.00    0.36924   0.75451    0.017
 3910.00    0.40279   0.75663    0.017
 3911.00    0.47806   0.75608    0.017
 3912.00    0.65184   0.75341    0.018
 3913.00    0.77541   0.74856    0.018
 3914.00    0.79650   0.74204    0.018
 3915.00    0.81374   0.73396    0.019
 3916.00    0.82413   0.72467    0.019
 3917.00    0.85234   0.71419    0.019
 3918.00    0.90825   0.70222    0.019
 3919.00    0.92247   0.68870    0.019
 3920.00    0.87982   0.67294    0.019
 3921.00    0.83064   0.65499    0.019
 3922.00    0.77361   0.63414    0.019
 3923.00    0.73504   0.61108    0.019
 3924.00    0.71603   0.58577    0.019
 3925.00    0.65496   0.55944    0.018
 3926.00    0.55461   0.53323    0.018
 3927.00    0.55204   0.50869    0.018
 3928.00    0.63001   0.48751    0.019
 3929.00    0.57498   0.47109    0.019
 3930.00    0.42356   0.46083    0.019
 3931.00    0.29518   0.45729    0.019
 3932.00    0.18147   0.46085    0.019
 3933.00    0.21444   0.47099    0.019
 3934.00    0.32905   0.48674    0.019
 3935.00    0.39334   0.50689    0.019
 3936.00    0.43326   0.52977    0.019
 3937.00    0.61078   0.55408    0.019
 3938.00    0.84582   0.57830    0.019
 3939.00    0.91607   0.60162    0.019
 3940.00    0.92738   0.62315    0.019
 3941.00    0.90515   0.64260    0.019
 3942.00    0.87279   0.65967    0.020
 3943.00    0.81133   0.67441    0.020
 3944.00    0.74257   0.68681    0.020
 3945.00    0.94323   0.69694    0.020
 3946.00    1.19883   0.70481    0.020
 3947.00    1.02291   0.71035    0.020
 3948.00    0.77789   0.71347    0.020
 3949.00    0.62529   0.71395    0.020
 3950.00    0.48372   0.71164    0.020
 3951.00    0.38636   0.70625    0.020
 3952.00    0.29261   0.69756    0.020
 3953.00    0.49106   0.68535    0.020
 3954.00    0.70293   0.66956    0.020
 3955.00    0.69721   0.65015    0.020
 3956.00    0.68891   0.62730    0.020
 3957.00    0.69044   0.60137    0.020
 3958.00    0.69005   0.57293    0.020
 3959.00    0.65317   0.54286    0.020
 3960.00    0.64861   0.51221    0.000
 3961.00    1.00825   0.48235    0.000
 3962.00    1.31110   0.45470    0.000
 3963.00    1.16760   0.43077    0.000
 3964.00    1.01887   0.41201    0.000
 3965.00    0.83915   0.39970    0.000
 3966.00    0.72861   0.39462    0.000
 3967.00    0.94291   0.39727    0.000
 3968.00    1.08724   0.40752    0.000
 3969.00    0.96343   0.42492    0.000
 3970.00    0.85582   0.44845    0.000
 3971.00    0.79999   0.47680    0.000
 3972.00    0.69428   0.50843    0.000
 3973.00    0.45351   0.54186    0.000
 3974.00    0.34682   0.57564    0.000
 3975.00    0.55148   0.60861    0.000
 3976.00    0.72048   0.63980    0.000
 3977.00    0.81785   0.66865    0.000
 3978.00    0.77379   0.69484    0.000
 3979.00    0.48232   0.71832    0.000
 3980.00    0.43761   0.73923    0.000
 3981.00    0.77067   0.75781    0.019
 3982.00    0.95293   0.77433    0.019
 3983.00    0.93240   0.78905    0.020
 3984.00    0.90144   0.80213    0.020
 3985.00    0.85811   0.81375    0.020
 3986.00    0.89259   0.82394    0.020
 3987.00    1.00831   0.83281    0.020
 3988.00    0.94967   0.84040    0.020
 3989.00    0.73043   0.84682    0.019
 3990.00    0.57059   0.85228    0.019
 3991.00    0.45898   0.85691    0.020
 3992.00    0.46319   0.86101    0.019
 3993.00    0.55017   0.86470    0.019
 3994.00    0.61984   0.86818    0.019
 3995.00    0.67867   0.87155    0.019
 3996.00    0.75298   0.87476    0.019
 3997.00    0.83577   0.87795    0.020
 3998.00    0.83017   0.88088    0.020
 3999.00    0.78246   0.88389    0.019
 4000.00    0.73447   0.88671    0.019
 4001.00    0.68637   0.88986    0.020
 4002.00    0.73821   0.89320    0.020
 4003.00    0.82516   0.89720    0.020
 4004.00    0.87885   0.90177    0.020
 4005.00    0.92269   0.90706    0.020
 4006.00    0.89937   0.91299    0.020
 4007.00    0.85955   0.91927    0.020
 4008.00    0.86745   0.92585    0.020
 4009.00    0.88484   0.93222    0.020
 4010.00    0.94300   0.93837    0.020
 4011.00    1.00748   0.94384    0.020
 4012.00    0.84878   0.94871    0.020
 4013.00    0.66441   0.95262    0.019
 4014.00    0.79837   0.95573    0.020
 4015.00    0.95696   0.95776    0.020
 4016.00    1.04352   0.95888    0.020
 4017.00    1.12706   0.95886    0.020
 4018.00    1.08317   0.95784    0.020
 4019.00    1.04078   0.95562    0.020
 4020.00    1.11503   0.95232    0.020
 4021.00    1.18083   0.94782    0.020
 4022.00    1.09762   0.94225    0.020
 4023.00    1.02685   0.93573    0.020
 4024.00    1.08996   0.92851    0.020
 4025.00    1.14540   0.92110    0.019
 4026.00    1.14264   0.91385    0.019
 4027.00    1.11481   0.90764    0.019
 4028.00    0.94238   0.90269    0.019
 4029.00    0.80744   0.89988    0.019
 4030.00    0.84434   0.89897    0.019
 4031.00    0.86664   0.90034    0.019
 4032.00    0.83419   0.90309    0.019
 4033.00    0.85358   0.90704    0.019
 4034.00    1.03547   0.91091    0.019
 4035.00    1.13474   0.91429    0.018
 4036.00    1.01424   0.91619    0.018
 4037.00    0.95035   0.91651    0.018
 4038.00    1.01575   0.91504    0.018
 4039.00    1.09591   0.91219    0.019
 4040.00    1.20526   0.90852    0.019
 4041.00    1.20965   0.90459    0.019
 4042.00    1.03323   0.90124    0.019
 4043.00    0.95084   0.89866    0.019
 4044.00    1.01033   0.89738    0.019
 4045.00    0.93956   0.89701    0.019
 4046.00    0.69613   0.89752    0.019
 4047.00    0.65705   0.89823    0.019
 4048.00    0.85655   0.89881    0.019
 4049.00    1.00000   0.89874    0.019
 4050.00    1.08575   0.89776    0.019
 4051.00    1.02994   0.89579    0.019
 4052.00    0.84557   0.89280    0.019
 4053.00    0.80876   0.88903    0.019
 4054.00    0.89006   0.88464    0.019
 4055.00    0.95547   0.87993    0.019
 4056.00    1.00968   0.87521    0.020
 4057.00    0.87480   0.87059    0.020
 4058.00    0.62313   0.86650    0.020
 4059.00    0.54532   0.86282    0.020
 4060.00    0.56132   0.86003    0.020
 4061.00    0.66481   0.85774    0.020
 4062.00    0.80929   0.85637    0.020
 4063.00    0.93959   0.85527    0.020
 4064.00    1.06416   0.85469    0.020
 4065.00    0.83538   0.85389    0.020
 4066.00    0.48477   0.85308    0.019
 4067.00    0.57989   0.85162    0.020
 4068.00    0.80444   0.84990    0.020
 4069.00    0.82866   0.84758    0.020
 4070.00    0.80477   0.84530    0.020
 4071.00    0.80660   0.84303    0.020
 4072.00    0.81342   0.84149    0.020
 4073.00    1.06391   0.84077    0.020
 4074.00    1.35111   0.84136    0.020
 4075.00    1.28665   0.84323    0.020
 4076.00    1.18328   0.84642    0.020
 4077.00    1.00412   0.85070    0.020
 4078.00    0.81941   0.85569    0.019
 4079.00    0.80863   0.86102    0.019
 4080.00    0.80452   0.86613    0.019
 4081.00    1.04574   0.87059    0.019
 4082.00    1.27448   0.87389    0.019
 4083.00    0.98146   0.87561    0.019
 4084.00    0.70817   0.87531    0.019
 4085.00    0.76004   0.87265    0.019
 4086.00    0.81377   0.86727    0.019
 4087.00    0.88660   0.85901    0.019
 4088.00    0.91097   0.84767    0.019
 4089.00    0.57965   0.83350    0.019
 4090.00    0.31695   0.81654    0.018
 4091.00    0.43923   0.79764    0.019
 4092.00    0.60095   0.77714    0.000
 4093.00    0.93921   0.75640    0.000
 4094.00    1.18764   0.73605    0.000
 4095.00    1.10614   0.71761    0.000
 4096.00    1.03007   0.70172    0.000
 4097.00    0.97067   0.68968    0.000
 4098.00    0.88591   0.68173    0.000
 4099.00    0.73486   0.67858    0.000
 4100.00    0.66479   0.67986    0.000
 4101.00    0.77657   0.68555    0.000
 4102.00    0.85820   0.69475    0.000
 4103.00    0.88116   0.70695    0.000
 4104.00    0.87400   0.72104    0.000
 4105.00    0.81573   0.73638    0.000
 4106.00    0.85992   0.75208    0.000
 4107.00    1.05644   0.76757    0.000
 4108.00    1.08039   0.78229    0.000
 4109.00    0.87887   0.79595    0.000
 4110.00    0.74649   0.80817    0.000
 4111.00    0.69370   0.81894    0.000
 4112.00    0.68460   0.82794    0.000
 4113.00    0.71986   0.83549    0.018
 4114.00    0.76964   0.84130    0.018
 4115.00    0.83243   0.84585    0.019
 4116.00    0.81372   0.84895    0.019
 4117.00    0.73070   0.85106    0.019
 4118.00    0.66086   0.85214    0.027
 4119.00    0.60016   0.85234    0.097
 4120.00    0.54542   0.85197   -1.000
 4121.00    0.49431   0.85070   -1.000
 4122.00    0.47917   0.84930   -1.000
 4123.00    0.48314   0.84714   -1.000
 4124.00    0.55811   0.84534   -1.000
 4125.00    0.66581   0.84329   -1.000
 4126.00    0.75600   0.84227    0.053
 4127.00    0.83924   0.84175    0.022
 4128.00    0.67668   0.84266    0.019
 4129.00    0.43094   0.84463    0.019
 4130.00    0.65980   0.84782    0.019
 4131.00    1.02369   0.85198    0.019
 4132.00    1.09989   0.85646    0.019
 4133.00    1.10854   0.86115    0.019
 4134.00    0.89329   0.86510    0.019
 4135.00    0.63578   0.86829    0.019
 4136.00    0.69470   0.87001    0.019
 4137.00    0.79983   0.87051    0.019
 4138.00    0.89351   0.86966    0.019
 4139.00    0.98597   0.86783    0.019
 4140.00    1.13674   0.86545    0.019
 4141.00    1.29154   0.86265    0.020
 4142.00    1.29451   0.86008    0.020
 4143.00    1.29225   0.85745    0.019
 4144.00    1.01547   0.85551    0.019
 4145.00    0.74887   0.85355    0.019
 4146.00    0.83634   0.85239    0.019
 4147.00    0.92004   0.85123    0.019
 4148.00    0.94536   0.85086    0.019
 4149.00    0.93600   0.85079    0.019
 4150.00    0.58482   0.85154    0.019
 4151.00    0.32759   0.85308    0.019
 4152.00    0.73725   0.85534    0.019
 4153.00    1.10956   0.85879    0.019
 4154.00    1.27787   0.86272    0.019
 4155.00    1.38799   0.86751    0.019
 4156.00    1.24373   0.87222    0.019
 4157.00    1.05943   0.87705    0.018
 4158.00    0.73109   0.88100    0.018
 4159.00    0.45706   0.88412    0.018
 4160.00    0.34692   0.88592    0.018
 4161.00    0.36691   0.88596    0.018
 4162.00    0.72108   0.88437    0.018
 4163.00    0.97079   0.88071    0.018
 4164.00    0.98976   0.87568    0.018
 4165.00    0.97572   0.86909    0.018
 4166.00    0.89845   0.86179    0.018
 4167.00    0.78312   0.85385    0.018
 4168.00    0.60418   0.84602    0.018
 4169.00    0.44112   0.83865    0.018
 4170.00    0.30130   0.83222    0.018
 4171.00    0.38429   0.82721    0.018
 4172.00    0.75425   0.82371    0.018
 4173.00    0.96759   0.82199    0.018
 4174.00    1.00319   0.82185    0.018
 4175.00    0.95019   0.82311    0.018
 4176.00    0.80852   0.82580    0.018
 4177.00    0.85396   0.82931    0.018
 4178.00    1.06457   0.83364    0.018
 4179.00    1.17372   0.83821    0.018
 4180.00    1.20397   0.84269    0.018
 4181.00    1.18965   0.84734    0.018
 4182.00    1.14486   0.85175    0.018
 4183.00    1.00966   0.85596    0.018
 4184.00    0.82025   0.85925    0.018
 4185.00    0.79687   0.86222    0.018
 4186.00    0.86033   0.86444    0.018
 4187.00    0.95432   0.86559    0.018
 4188.00    1.06217   0.86549    0.018
 4189.00    1.01157   0.86411    0.018
 4190.00    0.89914   0.86185    0.018
 4191.00    0.94514   0.85827    0.018
 4192.00    1.04375   0.85426    0.017
 4193.00    0.96098   0.85003    0.018
 4194.00    0.82764   0.84591    0.018
 4195.00    0.78653   0.84242    0.018
 4196.00    0.76657   0.84026    0.018
 4197.00    0.78866   0.83954    0.018
 4198.00    0.81848   0.84048    0.018
 4199.00    0.82890   0.84332    0.018
 4200.00    0.83658   0.84745    0.018
 4201.00    0.97132   0.85306    0.018
 4202.00    1.11901   0.85911    0.018
 4203.00    0.93953   0.86570    0.018
 4204.00    0.73874   0.87200    0.018
 4205.00    0.57987   0.87801    0.018
 4206.00    0.42270   0.88313    0.018
 4207.00    0.53784   0.88752    0.018
 4208.00    0.65495   0.89068    0.018
 4209.00    0.82999   0.89304    0.018
 4210.00    1.01137   0.89471    0.018
 4211.00    1.28507   0.89549    0.018
 4212.00    1.49493   0.89603    0.019
 4213.00    1.10108   0.89515    0.018
 4214.00    0.78392   0.89361    0.018
 4215.00    0.99387   0.89007    0.018
 4216.00    1.17830   0.88574    0.018
 4217.00    1.22703   0.87926    0.018
 4218.00    1.20039   0.87183    0.018
 4219.00    0.85186   0.86333    0.018
 4220.00    0.59527   0.85462    0.018
 4221.00    0.66263   0.84671    0.018
 4222.00    0.70497   0.83993    0.018
 4223.00    0.67319   0.83588    0.018
 4224.00    0.72251   0.83382    0.018
 4225.00    0.97651   0.83404    0.018
 4226.00    1.17627   0.83605    0.018
 4227.00    1.25818   0.83977    0.018
 4228.00    1.20818   0.84427    0.018
 4229.00    0.90942   0.84986    0.018
 4230.00    0.76616   0.85602    0.018
 4231.00    0.87893   0.86170    0.017
 4232.00    0.94386   0.86804    0.017
 4233.00    0.93973   0.87389    0.017
 4234.00    0.97115   0.87990    0.017
 4235.00    1.04769   0.88561    0.017
 4236.00    1.02787   0.89152    0.017
 4237.00    0.90023   0.89670    0.017
 4238.00    0.82631   0.90091    0.017
 4239.00    0.80541   0.90458    0.017
 4240.00    0.88538   0.90650    0.017
 4241.00    1.05312   0.90671    0.017
 4242.00    1.05832   0.90522    0.017
 4243.00    0.93890   0.90241    0.017
 4244.00    0.91896   0.89875    0.017
 4245.00    0.96606   0.89374    0.018
 4246.00    0.92171   0.88894    0.018
 4247.00    0.82337   0.88457    0.018
 4248.00    0.92550   0.88069    0.018
 4249.00    1.13085   0.87732    0.018
 4250.00    1.23859   0.87537    0.018
 4251.00    1.30279   0.87476    0.018
 4252.00    1.14849   0.87558    0.018
 4253.00    0.91042   0.87688    0.018
 4254.00    0.85963   0.87931    0.018
 4255.00    0.86986   0.88225    0.017
 4256.00    0.72473   0.88589    0.017
 4257.00    0.53719   0.89029    0.017
 4258.00    0.64201   0.89438    0.017
 4259.00    0.81235   0.89801    0.017
 4260.00    0.83374   0.90011    0.017
 4261.00    0.82848   0.90096    0.018
 4262.00    1.01236   0.89926    0.018
 4263.00    1.22211   0.89587    0.018
 4264.00    0.99532   0.89039    0.018
 4265.00    0.72589   0.88359    0.018
 4266.00    0.78988   0.87586    0.018
 4267.00    0.87427   0.86826    0.018
 4268.00    0.85896   0.86213    0.017
 4269.00    0.83988   0.85707    0.017
 4270.00    0.61039   0.85450    0.017
 4271.00    0.38965   0.85399    0.017
 4272.00    0.40009   0.85554    0.017
 4273.00    0.41549   0.85845    0.017
 4274.00    0.49912   0.86234    0.017
 4275.00    0.56664   0.86575    0.017
 4276.00    0.48782   0.86895    0.017
 4277.00    0.44349   0.87076    0.017
 4278.00    0.62896   0.87111    0.017
 4279.00    0.82402   0.87027    0.017
 4280.00    1.06870   0.86704    0.017
 4281.00    1.21597   0.86309    0.018
 4282.00    0.95660   0.85727   -2.000
 4283.00    0.69851   0.85105   -2.000
 4284.00    0.44480   0.84393   -2.000
 4285.00    0.27789   0.83666   -2.000
 4286.00    0.36329   0.82983   -2.000
 4287.00    0.52542   0.82282   -2.000
 4288.00    0.87784   0.81692   -2.000
 4289.00    1.18812   0.81000   -2.000
 4290.00    1.40830   0.80344   -2.000
 4291.00    1.45027   0.79555   -2.000
 4292.00    1.16139   0.78726   -2.000
 4293.00    0.82331   0.77849   -2.000
 4294.00    0.40543   0.76856   -2.000
 4295.00    0.22464   0.75884   -2.000
 4296.00    0.38112   0.74891   -2.000
 4297.00    0.57964   0.73995   -2.000
 4298.00    0.83075   0.73217    0.017
 4299.00    0.90306   0.72627    0.017
 4300.00    0.77815   0.72168    0.017
 4301.00    0.64847   0.71981    0.017
 4302.00    0.51414   0.72010    0.017
 4303.00    0.51713   0.72266    0.017
 4304.00    0.63793   0.72849    0.017
 4305.00    0.75065   0.73646    0.017
 4306.00    0.85726   0.74789    0.018
 4307.00    0.89790   0.76118    0.017
 4308.00    0.89472   0.77669    0.017
 4309.00    0.91640   0.79283    0.017
 4310.00    0.95252   0.80928    0.017
 4311.00    0.91383   0.82566    0.017
 4312.00    0.83721   0.84012    0.017
 4313.00    0.84934   0.85352    0.017
 4314.00    0.90042   0.86298    0.017
 4315.00    0.75221   0.86957    0.017
 4316.00    0.52894   0.87197    0.017
 4317.00    0.49936   0.87218    0.017
 4318.00    0.53170   0.86887    0.017
 4319.00    0.64822   0.86445    0.017
 4320.00    0.78724   0.85847    0.017
 4321.00    0.78136   0.85187    0.017
 4322.00    0.74376   0.84619    0.017
 4323.00    0.89726   0.84100    0.017
 4324.00    1.08400   0.83800    0.017
 4325.00    1.12628   0.83476    0.017
 4326.00    1.14945   0.83146    0.018
 4327.00    1.07077   0.82671    0.018
 4328.00    0.98257   0.82076    0.017
 4329.00    1.13444   0.81364    0.018
 4330.00    1.30003   0.80423    0.000
 4331.00    1.06087   0.79331    0.000
 4332.00    0.81414   0.78078    0.000
 4333.00    0.78021   0.76785    0.000
 4334.00    0.74900   0.75456    0.000
 4335.00    0.78313   0.74307    0.000
 4336.00    0.82204   0.73485    0.000
 4337.00    0.92318   0.72958    0.000
 4338.00    0.99139   0.72863    0.000
 4339.00    0.77185   0.73195    0.000
 4340.00    0.58342   0.73871    0.000
 4341.00    0.59592   0.74747    0.000
 4342.00    0.62115   0.75902    0.000
 4343.00    0.71064   0.77167    0.000
 4344.00    0.78014   0.78439    0.000
 4345.00    0.76809   0.79733    0.000
 4346.00    0.75323   0.80981    0.000
 4347.00    0.72889   0.82125    0.000
 4348.00    0.70935   0.83119    0.000
 4349.00    0.70351   0.84112    0.000
 4350.00    0.76171   0.85202    0.000
 4351.00    0.97604   0.86304    0.018
 4352.00    1.01405   0.87351    0.018
 4353.00    0.68116   0.88438    0.018
 4354.00    0.60497   0.89512    0.022
 4355.00    0.99806   0.90525    0.057
 4356.00    1.23234   0.91437   -1.000
 4357.00    1.21286   0.92362   -1.000
 4358.00    1.19585   0.93186   -1.000
 4359.00    1.18230   0.93868   -1.000
 4360.00    1.16943   0.94317   -1.000
 4361.00    1.15740   0.94642   -1.000
 4362.00    1.20332   0.94790    0.072
 4363.00    1.31226   0.94703    0.023
 4364.00    1.18437   0.94426    0.018
 4365.00    0.82930   0.94013    0.018
 4366.00    0.62156   0.93599    0.018
 4367.00    0.53843   0.93066    0.018
 4368.00    0.61491   0.92514    0.018
 4369.00    0.81029   0.91929    0.018
 4370.00    0.85528   0.91308    0.018
 4371.00    0.80187   0.90602    0.018
 4372.00    0.85762   0.89918    0.018
 4373.00    0.97589   0.89273    0.018
 4374.00    0.93696   0.88664    0.018
 4375.00    0.81961   0.87954    0.018
 4376.00    0.90949   0.87179    0.018
 4377.00    1.08879   0.86365    0.017
 4378.00    0.94796   0.85597    0.017
 4379.00    0.68868   0.84884    0.017
 4380.00    0.64614   0.84198    0.017
 4381.00    0.67156   0.83767    0.017
 4382.00    0.80041   0.83638    0.017
 4383.00    0.95631   0.83807    0.018
 4384.00    0.77023   0.84112    0.017
 4385.00    0.51110   0.84554    0.017
 4386.00    0.60639   0.85150    0.017
 4387.00    0.76161   0.85808    0.017
 4388.00    0.95394   0.86502    0.017
 4389.00    1.15101   0.87240    0.017
 4390.00    1.02743   0.87900    0.017
 4391.00    0.87523   0.88435    0.017
 4392.00    0.88656   0.88835    0.017
 4393.00    0.90659   0.89173    0.017
 4394.00    0.96924   0.89421    0.017
 4395.00    1.03229   0.89436    0.017
 4396.00    1.06066   0.89340    0.017
 4397.00    1.08278   0.89113    0.017
 4398.00    0.96754   0.88862    0.017
 4399.00    0.85393   0.88711    0.017
 4400.00    0.76051   0.88524    0.017
 4401.00    0.69815   0.88314    0.017
 4402.00    0.89702   0.88240    0.017
 4403.00    1.06196   0.88387    0.017
 4404.00    1.01422   0.88614    0.018
 4405.00    0.96186   0.88877    0.018
 4406.00    0.88685   0.89268    0.017
 4407.00    0.83837   0.89723    0.017
 4408.00    0.89588   0.90153    0.017
 4409.00    0.94695   0.90565    0.017
 4410.00    0.97667   0.90933    0.017
 4411.00    0.95911   0.91202    0.017
 4412.00    0.80907   0.91383    0.017
 4413.00    0.74725   0.91662    0.017
 4414.00    0.89684   0.91923    0.017
 4415.00    0.98844   0.92176    0.017
 4416.00    0.96002   0.92459    0.017
 4417.00    0.95036   0.92670    0.017
 4418.00    0.97446   0.92810    0.017
 4419.00    0.94808   0.92866    0.017
 4420.00    0.84222   0.92882    0.017
 4421.00    0.80389   0.92936    0.017
 4422.00    0.85888   0.92897    0.017
 4423.00    0.86512   0.92849    0.017
 4424.00    0.81206   0.92753    0.017
 4425.00    0.82379   0.92637    0.017
 4426.00    0.90501   0.92553    0.017
 4427.00    1.01931   0.92370    0.017
 4428.00    1.16490   0.92279    0.017
 4429.00    1.20318   0.92251    0.017
 4430.00    1.15199   0.92205    0.017
 4431.00    1.07578   0.92231    0.017
 4432.00    0.98120   0.92272    0.017
 4433.00    0.94057   0.92416    0.017
 4434.00    0.93472   0.92680    0.017
 4435.00    0.96176   0.92933    0.017
 4436.00    1.00736   0.93220    0.017
 4437.00    1.05810   0.93432    0.017
 4438.00    1.11137   0.93604    0.017
 4439.00    1.06446   0.93750    0.017
 4440.00    0.97506   0.93860    0.017
 4441.00    0.91404   0.94005    0.017
 4442.00    0.86335   0.94149    0.017
 4443.00    0.97097   0.94231    0.017
 4444.00    1.12729   0.94125    0.017
 4445.00    1.14647   0.93927    0.017
 4446.00    1.13053   0.93616    0.017
 4447.00    1.10165   0.93078    0.017
 4448.00    1.07007   0.92505    0.017
 4449.00    1.01680   0.91832    0.017
 4450.00    0.95995   0.91074    0.017
 4451.00    1.12196   0.90308    0.017
 4452.00    1.31095   0.89499    0.017
 4453.00    1.06637   0.88886    0.017
 4454.00    0.78490   0.88347    0.016
 4455.00    0.89345   0.87969    0.017
 4456.00    1.02125   0.87733    0.017
 4457.00    1.01796   0.87660    0.017
 4458.00    1.01211   0.87757    0.016
 4459.00    0.97676   0.87959    0.017
 4460.00    0.94477   0.88450    0.017
 4461.00    0.98099   0.88962    0.000
 4462.00    1.01133   0.89584    0.000
 4463.00    0.97264   0.90286    0.000
 4464.00    0.95384   0.90981    0.000
 4465.00    1.09631   0.91773    0.000
 4466.00    1.20840   0.92482    0.000
 4467.00    1.13567   0.93267    0.000
 4468.00    1.03905   0.93973    0.000
 4469.00    0.82785   0.94668    0.000
 4470.00    0.69906   0.95273    0.000
 4471.00    0.89213   0.95793    0.000
 4472.00    1.01447   0.96157    0.000
 4473.00    0.90683   0.96395    0.000
 4474.00    0.85628   0.96558    0.000
 4475.00    0.96284   0.96576    0.000
 4476.00    0.98423   0.96510    0.000
 4477.00    0.80492   0.96320    0.000
 4478.00    0.73457   0.96138    0.000
 4479.00    0.88611   0.95954    0.000
 4480.00    1.03854   0.95894    0.000
 4481.00    1.19254   0.95842    0.000
 4482.00    1.19074   0.95793    0.016
 4483.00    0.94730   0.95743    0.016
 4484.00    0.89880   0.95641    0.016
 4485.00    1.11579   0.95519    0.016
 4486.00    1.22297   0.95401    0.016
 4487.00    1.19848   0.95309    0.016
 4488.00    1.16828   0.95338    0.016
 4489.00    1.13205   0.95407    0.016
 4490.00    1.10660   0.95635    0.016
 4491.00    1.09120   0.95871    0.016
 4492.00    1.06477   0.96251    0.016
 4493.00    1.02926   0.96725    0.016
 4494.00    0.99713   0.97284    0.016
 4495.00    0.96745   0.98025    0.016
 4496.00    0.79641   0.98724    0.016
 4497.00    0.53559   0.99516    0.016
 4498.00    0.58257   1.00201    0.016
 4499.00    0.80053   1.00897    0.016
 4500.00    0.96768   1.01555    0.016
 4501.00    1.11028   1.02064    0.016
 4502.00    1.00791   1.02486    0.016
 4503.00    0.80336   1.02701    0.016
 4504.00    0.80872   1.02771    0.016
 4505.00    0.88901   1.02698    0.016
 4506.00    0.96704   1.02498    0.016
 4507.00    1.04439   1.02253    0.016
 4508.00    1.09053   1.01884    0.016
 4509.00    1.12886   1.01478    0.016
 4510.00    1.07903   1.00949    0.016
 4511.00    1.01128   1.00408    0.016
 4512.00    0.93420   0.99839    0.016
 4513.00    0.85562   0.99264    0.015
 4514.00    0.77780   0.98671    0.016
 4515.00    0.70007   0.97988    0.016
 4516.00    0.77573   0.97364    0.016
 4517.00    0.86382   0.96577    0.016
 4518.00    1.02131   0.95880    0.016
 4519.00    1.18196   0.95021    0.016
 4520.00    1.07634   0.94168    0.016
 4521.00    0.97029   0.93319    0.016
 4522.00    1.00920   0.92417    0.016
 4523.00    1.04065   0.91653    0.016
 4524.00    0.93197   0.90956    0.016
 4525.00    0.82882   0.90460    0.016
 4526.00    0.78760   0.90060    0.016
 4527.00    0.76878   0.89957    0.016
 4528.00    0.92529   0.89919    0.016
 4529.00    1.07303   0.90180    0.016
 4530.00    1.16891   0.90483    0.016
 4531.00    1.18101   0.90910    0.016
 4532.00    0.80091   0.91440    0.016
 4533.00    0.52048   0.91952    0.016
 4534.00    0.62101   0.92628    0.016
 4535.00    0.74463   0.93149    0.016
 4536.00    0.94182   0.93673    0.016
 4537.00    1.07160   0.93960    0.016
 4538.00    1.01919   0.94140    0.016
 4539.00    1.03087   0.94250    0.016
 4540.00    1.19102   0.94257    0.016
 4541.00    1.30108   0.94215    0.016
 4542.00    1.31074   0.94023    0.016
 4543.00    1.23173   0.93851    0.016
 4544.00    0.99791   0.93591    0.016
 4545.00    0.84068   0.93443    0.016
 4546.00    0.80050   0.93259    0.016
 4547.00    0.77236   0.93167    0.016
 4548.00    0.76036   0.93213    0.016
 4549.00    0.79428   0.93284    0.015
 4550.00    0.88246   0.93575    0.000
 4551.00    0.95296   0.93808    0.000
 4552.00    1.00503   0.94144    0.000
 4553.00    0.97349   0.94506    0.000
 4554.00    0.86505   0.94970    0.000
 4555.00    0.81999   0.95445    0.000
 4556.00    0.82629   0.95919    0.000
 4557.00    0.81547   0.96361    0.000
 4558.00    0.79244   0.96693    0.000
 4559.00    0.81625   0.97011    0.000
 4560.00    0.86937   0.97202    0.000
 4561.00    0.93851   0.97359    0.000
 4562.00    1.01641   0.97462    0.000
 4563.00    0.98923   0.97591    0.000
 4564.00    0.91210   0.97745    0.000
 4565.00    0.87974   0.97854    0.000
 4566.00    0.86574   0.97909    0.000
 4567.00    0.98789   0.97903    0.000
 4568.00    1.15775   0.97743    0.000
 4569.00    1.12963   0.97534    0.000
 4570.00    1.04300   0.97332    0.000
 4571.00    0.98544   0.97018    0.000
 4572.00    0.93499   0.96770    0.000
 4573.00    0.89409   0.96423    0.000
 4574.00    0.85507   0.95979    0.000
 4575.00    0.89209   0.95581    0.000
 4576.00    0.94087   0.95125    0.000
 4577.00    0.85057   0.94751    0.000
 4578.00    0.74434   0.94391    0.000
 4579.00    0.75198   0.94164    0.000
 4580.00    0.76836   0.93991    0.000
 4581.00    0.83984   0.93881    0.000
 4582.00    0.91361   0.93853    0.000
 4583.00    0.94813   0.93793    0.000
 4584.00    0.97874   0.93881    0.000
 4585.00    0.85583   0.93894    0.000
 4586.00    0.74071   0.93969    0.000
 4587.00    0.76174   0.94014    0.000
 4588.00    0.78717   0.93999    0.000
 4589.00    0.85960   0.93994    0.000
 4590.00    0.91169   0.93906    0.000
 4591.00    0.80991   0.93881    0.000
 4592.00    0.73313   0.93877    0.000
 4593.00    0.80005   0.93914    0.000
 4594.00    0.82196   0.93998    0.000
 4595.00    0.63821   0.94061    0.000
 4596.00    0.53554   0.94306    0.000
 4597.00    0.73617   0.94508    0.000
 4598.00    0.89715   0.94863    0.000
 4599.00    0.93413   0.95276    0.000
 4600.00    0.93111   0.95649    0.000
 4601.00    0.82192   0.96164    0.000
 4602.00    0.78865   0.96605    0.000
 4603.00    0.92841   0.97105    0.000
 4604.00    1.05300   0.97575    0.000
 4605.00    1.14765   0.98097    0.000
 4606.00    1.18550   0.98528    0.000
 4607.00    1.12571   0.98915    0.000
 4608.00    1.07250   0.99211    0.000
 4609.00    1.02921   0.99362    0.000
 4610.00    1.02687   0.99471    0.000
 4611.00    1.07872   0.99598    0.000
 4612.00    1.07713   0.99692    0.000
 4613.00    1.01328   0.99699    0.000
 4614.00    1.01004   0.99797    0.000
 4615.00    1.06909   0.99743    0.000
 4616.00    1.07224   0.99663    0.000
 4617.00    1.02471   0.99642    0.000
 4618.00    0.98151   0.99565    0.000
 4619.00    0.94176   0.99442    0.000
 4620.00    0.92260   0.99389    0.000
 4621.00    0.91791   0.99319    0.000
 4622.00    0.90709   0.99126    0.000
 4623.00    0.89248   0.98898    0.000
 4624.00    0.99862   0.98647    0.000
 4625.00    1.16977   0.98341    0.000
 4626.00    1.18230   0.98047    0.000
 4627.00    1.12062   0.97698    0.000
 4628.00    1.06460   0.97306    0.000
 4629.00    1.01086   0.96890    0.000
 4630.00    0.96505   0.96453    0.000
 4631.00    0.92197   0.96037    0.000
 4632.00    0.98778   0.95521    0.000
 4633.00    1.08513   0.95072    0.000
 4634.00    1.01930   0.94615    0.000
 4635.00    0.91438   0.94149    0.000
 4636.00    0.92214   0.93668    0.000
 4637.00    0.95167   0.93173    0.000
 4638.00    0.91771   0.92814    0.000
 4639.00    0.87422   0.92427    0.000
 4640.00    0.79628   0.92162    0.000
 4641.00    0.71455   0.91959    0.000
 4642.00    1.04962   0.91765    0.000
 4643.00    1.41499   0.91640    0.000
 4644.00    1.16785   0.91550    0.000
 4645.00    0.89755   0.91578    0.000
 4646.00    0.79535   0.91667    0.000
 4647.00    0.69727   0.91937    0.000
 4648.00    0.71973   0.92293    0.000
 4649.00    0.75666   0.92645    0.000
 4650.00    1.02994   0.93028    0.000
 4651.00    1.25934   0.93266    0.000
 4652.00    1.03961   0.93509    0.000
 4653.00    0.83991   0.93593    0.000
 4654.00    0.78664   0.93639    0.000
 4655.00    0.76069   0.93677    0.000
 4656.00    0.88747   0.93528    0.000
 4657.00    0.97192   0.93304    0.000
 4658.00    0.86746   0.92915    0.000
 4659.00    0.78890   0.92448    0.000
 4660.00    0.80517   0.91893    0.000
 4661.00    0.84452   0.91383    0.000
 4662.00    0.95467   0.90921    0.000
 4663.00    1.00172   0.90520    0.000
 4664.00    0.88418   0.90228    0.000
 4665.00    0.78107   0.89994    0.000
 4666.00    0.71033   0.89921    0.000
 4667.00    0.71243   0.89988    0.000
 4668.00    0.85599   0.90254    0.000
 4669.00    0.92505   0.90511    0.000
 4670.00    0.86793   0.90778    0.000
 4671.00    0.80612   0.91049    0.000
 4672.00    0.73736   0.91241    0.000
 4673.00    0.74243   0.91512    0.000
 4674.00    0.84379   0.91711    0.000
 4675.00    0.92600   0.91952    0.000
 4676.00    0.98620   0.92090    0.000
 4677.00    1.00451   0.92104    0.000
 4678.00    0.98035   0.92136    0.000
 4679.00    0.92603   0.92151    0.000
 4680.00    0.84475   0.92210    0.000
 4681.00    0.78601   0.92233    0.000
 4682.00    0.74504   0.92309    0.000
 4683.00    0.76433   0.92333    0.000
 4684.00    0.82537   0.92286    0.000
 4685.00    0.82955   0.92279    0.000
 4686.00    0.79921   0.92251    0.000
 4687.00    0.90107   0.92201    0.000
 4688.00    1.07304   0.92094    0.000
 4689.00    1.02941   0.91984    0.000
 4690.00    0.88658   0.91766    0.000
 4691.00    0.92783   0.91524    0.000
 4692.00    1.04202   0.91314    0.000
 4693.00    1.07702   0.91007    0.000
 4694.00    1.08528   0.90727    0.000
 4695.00    0.97409   0.90373    0.000
 4696.00    0.82900   0.90068    0.000
 4697.00    0.91876   0.89714    0.000
 4698.00    1.06350   0.89412    0.000
 4699.00    1.03903   0.89219    0.000
 4700.00    0.98272   0.89041    0.000
 4701.00    0.96721   0.89000    0.000
 4702.00    0.95764   0.88984    0.000
 4703.00    1.02202   0.89160    0.000
 4704.00    1.09422   0.89310    0.000
 4705.00    1.03830   0.89522    0.000
 4706.00    0.97359   0.89789    0.000
 4707.00    0.77217   0.90141    0.000
 4708.00    0.56610   0.90679    0.000
 4709.00    0.60997   0.91186    0.000
 4710.00    0.65614   0.91804    0.000
 4711.00    0.76486   0.92347    0.000
 4712.00    0.85979   0.92812    0.000
 4713.00    0.74331   0.93278    0.000
 4714.00    0.64880   0.93688    0.000
 4715.00    0.76981   0.94166    0.000
 4716.00    0.87928   0.94530    0.000
 4717.00    0.90714   0.94710    0.000
 4718.00    0.92254   0.94778    0.000
 4719.00    0.87018   0.94610    0.000
 4720.00    0.82524   0.94365    0.000
 4721.00    0.81264   0.94049    0.000
 4722.00    0.83669   0.93720    0.000
 4723.00    0.99226   0.93393    0.000
 4724.00    1.09171   0.92988    0.000
 4725.00    1.02224   0.92616    0.000
 4726.00    0.96116   0.92161    0.000
 4727.00    0.92158   0.91877    0.000
 4728.00    0.97360   0.91699    0.000
 4729.00    1.22755   0.91631    0.000
 4730.00    1.28121   0.91759    0.000
 4731.00    0.95192   0.91911    0.000
 4732.00    0.76835   0.92149    0.000
 4733.00    0.82782   0.92316    0.000
 4734.00    0.79025   0.92620    0.000
 4735.00    0.61076   0.92971    0.000
 4736.00    0.61014   0.93257    0.000
 4737.00    0.83950   0.93633    0.000
 4738.00    0.94683   0.93987    0.000
 4739.00    0.91593   0.94230    0.000
 4740.00    0.92749   0.94395    0.000
 4741.00    0.98145   0.94565    0.000
 4742.00    0.93273   0.94699    0.000
 4743.00    0.79352   0.94756    0.000
 4744.00    0.85591   0.94679    0.000
 4745.00    1.07480   0.94642    0.000
 4746.00    1.14978   0.94489    0.000
 4747.00    1.12653   0.94251    0.000
 4748.00    0.92428   0.94004    0.000
 4749.00    0.61493   0.93723    0.000
 4750.00    0.79435   0.93433    0.000
 4751.00    1.22888   0.93012    0.000
 4752.00    1.19305   0.92693    0.000
 4753.00    0.94430   0.92279    0.000
 4754.00    0.89708   0.91852    0.000
 4755.00    0.92833   0.91493    0.000
 4756.00    0.99567   0.91123    0.000
 4757.00    1.07498   0.90813    0.000
 4758.00    1.05548   0.90470    0.000
 4759.00    1.00850   0.90301    0.000
 4760.00    0.91989   0.90148    0.000
 4761.00    0.82176   0.90028    0.015
 4762.00    0.79041   0.90099    0.015
 4763.00    0.77128   0.90152    0.015
 4764.00    0.74938   0.90325    0.015
 4765.00    0.72709   0.90583    0.015
 4766.00    0.84450   0.91018    0.015
 4767.00    0.97607   0.91478    0.016
 4768.00    0.93621   0.91798    0.015
 4769.00    0.88526   0.92254    0.015
 4770.00    0.94958   0.92570    0.015
 4771.00    1.01736   0.92810    0.015
 4772.00    1.07650   0.93083    0.015
 4773.00    1.12649   0.93292    0.015
 4774.00    0.91146   0.93425    0.015
 4775.00    0.71451   0.93278    0.015
 4776.00    0.77867   0.93211    0.015
 4777.00    0.83994   0.93166    0.015
 4778.00    0.87403   0.92868    0.015
 4779.00    0.89870   0.92701    0.015
 4780.00    0.85883   0.92580    0.015
 4781.00    0.84140   0.92410    0.014
 4782.00    0.94292   0.92269    0.014
 4783.00    1.02650   0.92212    0.014
 4784.00    1.03371   0.92330    0.014
 4785.00    1.00369   0.92389    0.014
 4786.00    0.84281   0.92566    0.014
 4787.00    0.77828   0.92878    0.016
 4788.00    0.99843   0.93056    0.039
 4789.00    1.10198   0.93275   -1.000
 4790.00    0.91192   0.93478   -1.000
 4791.00    0.83317   0.93656   -1.000
 4792.00    0.99581   0.93811   -1.000
 4793.00    1.10567   0.93963   -1.000
 4794.00    1.11619   0.94088   -1.000
 4795.00    1.17216   0.94034   -1.000
 4796.00    1.30279   0.93923   -1.000
 4797.00    1.35146   0.93710   -1.000
 4798.00    1.28201   0.93592   -1.000
 4799.00    1.14645   0.93447    0.067
 4800.00    0.92709   0.93310    0.020
 4801.00    0.84558   0.93260    0.015
 4802.00    0.91803   0.93118    0.015
 4803.00    0.96541   0.93012    0.015
 4804.00    0.98810   0.92879    0.015
 4805.00    1.01069   0.92890    0.015
 4806.00    1.03318   0.92982    0.015
 4807.00    1.00176   0.93029    0.015
 4808.00    0.92908   0.93163    0.015
 4809.00    0.91003   0.93306    0.014
 4810.00    0.92706   0.93386    0.014
 4811.00    0.88778   0.93509    0.014
 4812.00    0.81530   0.93582    0.014
 4813.00    0.71654   0.93634    0.014
 4814.00    0.60427   0.93645    0.014
 4815.00    0.62425   0.93440    0.014
 4816.00    0.70311   0.93289    0.014
 4817.00    0.82466   0.93124    0.014
 4818.00    0.96253   0.92913    0.014
 4819.00    0.96566   0.92671    0.015
 4820.00    0.92497   0.92284    0.015
 4821.00    1.02477   0.91966    0.015
 4822.00    1.16282   0.91602    0.015
 4823.00    1.12365   0.91238    0.015
 4824.00    1.04489   0.91040    0.014
 4825.00    0.83044   0.90839    0.014
 4826.00    0.59181   0.90605    0.014
 4827.00    0.65418   0.90353    0.014
 4828.00    0.75757   0.90084    0.015
 4829.00    0.81873   0.89971    0.015
 4830.00    0.87579   0.89770    0.014
 4831.00    0.91083   0.89490    0.014
 4832.00    0.94453   0.89322    0.014
 4833.00    0.88580   0.89147    0.014
 4834.00    0.82492   0.88955    0.015
 4835.00    0.81917   0.88603    0.014
 4836.00    0.81235   0.88342    0.014
 4837.00    0.77763   0.88126    0.014
 4838.00    0.73841   0.87778    0.014
 4839.00    0.63779   0.87439    0.014
 4840.00    0.56455   0.87005    0.014
 4841.00    0.73877   0.86564    0.014
 4842.00    0.88896   0.86019    0.014
 4843.00    0.87975   0.85406    0.014
 4844.00    0.87358   0.84856    0.014
 4845.00    0.88306   0.84105    0.014
 4846.00    0.89919   0.83161    0.014
 4847.00    0.94295   0.82014    0.014
 4848.00    0.97300   0.80862    0.000
 4849.00    0.95588   0.79869    0.000
 4850.00    0.92627   0.78737    0.000
 4851.00    0.86047   0.77484    0.000
 4852.00    0.78460   0.76202    0.000
 4853.00    0.68384   0.74883    0.000
 4854.00    0.65062   0.73747    0.000
 4855.00    0.76151   0.72882    0.000
 4856.00    0.86571   0.72277    0.000
 4857.00    0.95750   0.71812    0.000
 4858.00    1.00953   0.71331    0.000
 4859.00    0.99722   0.71107    0.000
 4860.00    0.94355   0.71125    0.000
 4861.00    0.83117   0.71535    0.000
 4862.00    0.73486   0.72165    0.000
 4863.00    0.65862   0.72645    0.000
 4864.00    0.72511   0.73298    0.000
 4865.00    0.94875   0.74036    0.000
 4866.00    0.97683   0.74915    0.000
 4867.00    0.81497   0.75821    0.000
 4868.00    0.74348   0.76668    0.000
 4869.00    0.74940   0.77520    0.000
 4870.00    0.75451   0.78182    0.000
 4871.00    0.75901   0.79011    0.000
 4872.00    0.83690   0.79869    0.000
 4873.00    0.96343   0.80553    0.000
 4874.00    0.97832   0.81154    0.000
 4875.00    0.92842   0.81578    0.015
 4876.00    0.79765   0.82047    0.015
 4877.00    0.62599   0.82373    0.015
 4878.00    0.65058   0.82596    0.015
 4879.00    0.76112   0.82870    0.015
 4880.00    0.88221   0.82912    0.015
 4881.00    1.00727   0.83062    0.015
 4882.00    0.98586   0.83270    0.015
 4883.00    0.91775   0.83339    0.015
 4884.00    0.87561   0.83588    0.015
 4885.00    0.84039   0.83816    0.015
 4886.00    0.78573   0.84299    0.015
 4887.00    0.72682   0.84926    0.015
 4888.00    0.75075   0.85456    0.015
 4889.00    0.78905   0.86070    0.015
 4890.00    0.79761   0.86523    0.015
 4891.00    0.80226   0.87208    0.015
 4892.00    0.94838   0.87997    0.015
 4893.00    1.10765   0.88582    0.015
 4894.00    0.97428   0.89049    0.015
 4895.00    0.82432   0.89347    0.015
 4896.00    0.69235   0.89583    0.015
 4897.00    0.56270   0.89770    0.015
 4898.00    0.64111   0.89859    0.015
 4899.00    0.71922   0.89828    0.015
 4900.00    0.79008   0.89821    0.015
 4901.00    0.85843   0.89664    0.015
 4902.00    0.89428   0.89330    0.015
 4903.00    0.91843   0.89059    0.015
 4904.00    0.84074   0.88813    0.015
 4905.00    0.76888   0.88567    0.015
 4906.00    0.73461   0.88178    0.015
 4907.00    0.72839   0.87681    0.015
 4908.00    0.86323   0.87231    0.015
 4909.00    0.97480   0.86795    0.015
 4910.00    0.99165   0.86350    0.015
 4911.00    0.99151   0.85879    0.015
 4912.00    0.93401   0.85340    0.015
 4913.00    0.88766   0.84866    0.015
 4914.00    0.87307   0.84548    0.015
 4915.00    0.83929   0.84315    0.015
 4916.00    0.75882   0.84179    0.015
 4917.00    0.73451   0.84009    0.015
 4918.00    0.82809   0.83966    0.014
 4919.00    0.86599   0.84145    0.014
 4920.00    0.80228   0.84510    0.014
 4921.00    0.78106   0.85048    0.014
 4922.00    0.82761   0.85452    0.014
 4923.00    0.90620   0.85833    0.014
 4924.00    1.02966   0.86243    0.014
 4925.00    1.03057   0.86664    0.014
 4926.00    0.88057   0.87056    0.014
 4927.00    0.79481   0.87224    0.014
 4928.00    0.77879   0.87399    0.014
 4929.00    0.75691   0.87556    0.014
 4930.00    0.72941   0.87586    0.014
 4931.00    0.75188   0.87578    0.014
 4932.00    0.81656   0.87419    0.014
 4933.00    0.82501   0.87391    0.014
 4934.00    0.79166   0.87685    0.014
 4935.00    0.83891   0.87944    0.014
 4936.00    0.93880   0.88081    0.014
 4937.00    0.92123   0.88200    0.014
 4938.00    0.83651   0.88474    0.014
 4939.00    0.77785   0.88943    0.014
 4940.00    0.73216   0.89418    0.000
 4941.00    0.72299   0.89742    0.000
 4942.00    0.72954   0.89994    0.000
 4943.00    0.78348   0.90238    0.000
 4944.00    0.85493   0.90278    0.000
 4945.00    0.90097   0.90302    0.000
 4946.00    0.93908   0.90268    0.000
 4947.00    0.96620   0.90117    0.000
 4948.00    0.99047   0.89943    0.000
 4949.00    0.99098   0.89525    0.000
 4950.00    0.98644   0.89193    0.000
 4951.00    0.97271   0.88722    0.000
 4952.00    0.95744   0.88289    0.000
 4953.00    0.89029   0.88183    0.000
 4954.00    0.81655   0.87900    0.000
 4955.00    0.81819   0.87672    0.000
 4956.00    0.82652   0.87254    0.000
 4957.00    0.92828   0.87024    0.000
 4958.00    1.03496   0.87301    0.000
 4959.00    0.94811   0.87299    0.000
 4960.00    0.85775   0.87237    0.000
 4961.00    0.78290   0.87188    0.000
 4962.00    0.71376   0.87175    0.000
 4963.00    0.76873   0.87403    0.000
 4964.00    0.81870   0.87376    0.000
 4965.00    0.80724   0.87300    0.000
 4966.00    0.80946   0.87383    0.000
 4967.00    0.92613   0.87264    0.000
 4968.00    1.00578   0.87222    0.000
 4969.00    0.85418   0.87020    0.000
 4970.00    0.72721   0.86676    0.000
 4971.00    0.72097   0.86441    0.000
 4972.00    0.73011   0.85949    0.000
 4973.00    0.80049   0.85529    0.000
 4974.00    0.84435   0.85082    0.000
 4975.00    0.80050   0.84487    0.000
 4976.00    0.76407   0.83988    0.000
 4977.00    0.74836   0.83396    0.000
 4978.00    0.77125   0.83016    0.000
 4979.00    0.88647   0.82825    0.000
 4980.00    0.92159   0.82556    0.000
 4981.00    0.79124   0.82421    0.000
 4982.00    0.67585   0.82315    0.000
 4983.00    0.58733   0.82364    0.000
 4984.00    0.61007   0.82625    0.000
 4985.00    0.80764   0.82727    0.000
 4986.00    0.87861   0.82982    0.000
 4987.00    0.77497   0.83169    0.000
 4988.00    0.79452   0.83124    0.000
 4989.00    0.96364   0.83272    0.000
 4990.00    0.98776   0.83208    0.000
 4991.00    0.85668   0.83161    0.000
 4992.00    0.70096   0.83079    0.000
 4993.00    0.52199   0.82596    0.000
 4994.00    0.55309   0.82281    0.000
 4995.00    0.75905   0.81905    0.000
 4996.00    0.80909   0.81460    0.000
 4997.00    0.74486   0.81158    0.000
 4998.00    0.79127   0.80583    0.000
 4999.00    0.90888   0.80030    0.000
 5000.00    0.91780   0.79595    0.000
 5001.00    0.86552   0.79169    0.000
 5002.00    0.81498   0.79006    0.000
 5003.00    0.76529   0.78687    0.000
 5004.00    0.80095   0.78245    0.000
 5005.00    0.87275   0.77955    0.000
 5006.00    0.88305   0.77638    0.000
 5007.00    0.87105   0.77598    0.000
 5008.00    0.91523   0.77493    0.000
 5009.00    0.97666   0.77274    0.000
 5010.00    0.98835   0.77262    0.000
 5011.00    0.98734   0.77048    0.000
 5012.00    0.85109   0.77030    0.000
 5013.00    0.68675   0.77212    0.000
 5014.00    0.80124   0.77351    0.000
 5015.00    0.96137   0.77694    0.000
 5016.00    0.91653   0.77755    0.000
 5017.00    0.84653   0.77938    0.000
 5018.00    0.87319   0.78511    0.000
 5019.00    0.90802   0.78914    0.000
 5020.00    0.87027   0.79396    0.000
 5021.00    0.82897   0.79653    0.000
 5022.00    0.81143   0.79946    0.000
 5023.00    0.79492   0.80599    0.000
 5024.00    0.81864   0.80871    0.000
 5025.00    0.84185   0.81066    0.000
 5026.00    0.85484   0.81251    0.000
 5027.00    0.86475   0.81316    0.000
 5028.00    0.83873   0.81537    0.000
 5029.00    0.81380   0.81387    0.013
 5030.00    0.79768   0.81016    0.013
 5031.00    0.78341   0.81021    0.014
 5032.00    0.78040   0.80924    0.014
 5033.00    0.78872   0.80692    0.014
 5034.00    0.85130   0.80376    0.013
 5035.00    0.88133   0.79884    0.013
 5036.00    0.78463   0.79993    0.013
 5037.00    0.73969   0.80175    0.013
 5038.00    0.86261   0.80053    0.014
 5039.00    0.96497   0.80095    0.014
 5040.00    1.01086   0.80054    0.013
 5041.00    1.00148   0.80364    0.013
 5042.00    0.86213   0.80808    0.013
 5043.00    0.79578   0.80957    0.014
 5044.00    0.87782   0.81286    0.013
 5045.00    0.90407   0.81584    0.013
 5046.00    0.83160   0.81880    0.013
 5047.00    0.80531   0.82278    0.013
 5048.00    0.85051   0.82526    0.014
 5049.00    0.89705   0.82895    0.014
 5050.00    0.94542   0.83254    0.014
 5051.00    0.92942   0.83471    0.014
 5052.00    0.83638   0.83791    0.013
 5053.00    0.82975   0.83936    0.013
 5054.00    0.91431   0.84066    0.014
 5055.00    0.90064   0.84250    0.014
 5056.00    0.79553   0.84203    0.014
 5057.00    0.78470   0.84176    0.014
 5058.00    0.85124   0.83923    0.014
 5059.00    0.91689   0.83614    0.014
 5060.00    0.98190   0.83514    0.014
 5061.00    0.94691   0.83154    0.014
 5062.00    0.84853   0.82773    0.014
 5063.00    0.86091   0.82295    0.014
 5064.00    0.93470   0.81830    0.014
 5065.00    0.89133   0.81614    0.014
 5066.00    0.79147   0.81191    0.014
 5067.00    0.70087   0.80792    0.014
 5068.00    0.61413   0.80370    0.014
 5069.00    0.62781   0.79969    0.014
 5070.00    0.67724   0.79749    0.014
 5071.00    0.81536   0.79436    0.014
 5072.00    0.98015   0.79175    0.014
 5073.00    0.84250   0.78827    0.014
 5074.00    0.62931   0.78547    0.014
 5075.00    0.74631   0.78511    0.014
 5076.00    0.93022   0.78515    0.014
 5077.00    0.83093   0.78520    0.014
 5078.00    0.68663   0.78451    0.014
 5079.00    0.75769   0.78548    0.014
 5080.00    0.85423   0.78859    0.014
 5081.00    1.00467   0.79201    0.014
 5082.00    1.15945   0.79468    0.014
 5083.00    0.95877   0.79695    0.013
 5084.00    0.74211   0.80008    0.013
 5085.00    0.69450   0.80310    0.013
 5086.00    0.65072   0.80566    0.013
 5087.00    0.69782   0.80709    0.013
 5088.00    0.74806   0.80739    0.013
 5089.00    0.85701   0.80783    0.013
 5090.00    0.95473   0.80745    0.013
 5091.00    0.92738   0.80632    0.013
 5092.00    0.89208   0.80451    0.013
 5093.00    0.79485   0.80137    0.013
 5094.00    0.72332   0.79940    0.013
 5095.00    0.80318   0.79826    0.014
 5096.00    0.85585   0.79588    0.014
 5097.00    0.78170   0.79347    0.013
 5098.00    0.74415   0.79092    0.013
 5099.00    0.84611   0.78951    0.013
 5100.00    0.90391   0.79059    0.013
 5101.00    0.82128   0.79000    0.013
 5102.00    0.78676   0.78906    0.013
 5103.00    0.88195   0.78981    0.013
 5104.00    0.95352   0.78972    0.013
 5105.00    0.97048   0.79226    0.013
 5106.00    0.95808   0.79438    0.013
 5107.00    0.88696   0.79457    0.013
 5108.00    0.80928   0.79704    0.013
 5109.00    0.72016   0.79746    0.013
 5110.00    0.71887   0.79858    0.013
 5111.00    0.85156   0.80093    0.013
 5112.00    0.90711   0.79969    0.013
 5113.00    0.85929   0.79909    0.013
 5114.00    0.83944   0.79754    0.013
 5115.00    0.85259   0.79480    0.013
 5116.00    0.84456   0.79365    0.014
 5117.00    0.81449   0.78948    0.014
 5118.00    0.77544   0.78492    0.014
 5119.00    0.72813   0.78191    0.014
 5120.00    0.68237   0.77819    0.014
 5121.00    0.63786   0.77568    0.013
 5122.00    0.61383   0.77201    0.013
 5123.00    0.60439   0.76816    0.013
 5124.00    0.56039   0.76780    0.013
 5125.00    0.49481   0.76720    0.013
 5126.00    0.57440   0.76636    0.013
 5127.00    0.73325   0.76552    0.013
 5128.00    0.80980   0.76367    0.013
 5129.00    0.84733   0.76571    0.013
 5130.00    0.84783   0.76693    0.013
 5131.00    0.83318   0.76508    0.013
 5132.00    0.77112   0.76473    0.013
 5133.00    0.69249   0.76271    0.013
 5134.00    0.80754   0.76368    0.013
 5135.00    0.97969   0.76465    0.013
 5136.00    0.90932   0.76010    0.013
 5137.00    0.77970   0.75852    0.014
 5138.00    0.77419   0.75782    0.014
 5139.00    0.79320   0.75711    0.014
 5140.00    0.87406   0.75758    0.014
 5141.00    0.96446   0.75411    0.014
 5142.00    0.90573   0.75245    0.014
 5143.00    0.83002   0.75447    0.013
 5144.00    0.69760   0.75464    0.013
 5145.00    0.56085   0.75446    0.013
 5146.00    0.52362   0.75451    0.013
 5147.00    0.49048   0.75471    0.014
 5148.00    0.55203   0.75646    0.014
 5149.00    0.61358   0.75791    0.013
 5150.00    0.64246   0.75753    0.013
 5151.00    0.66779   0.75729    0.014
 5152.00    0.63162   0.75679    0.014
 5153.00    0.59508   0.75411    0.014
 5154.00    0.55465   0.75203    0.014
 5155.00    0.52086   0.74827    0.014
 5156.00    0.53698   0.74143    0.014
 5157.00    0.55746   0.73507    0.014
 5158.00    0.60292   0.72685    0.014
 5159.00    0.63309   0.71879    0.014
 5160.00    0.59354   0.71037    0.014
 5161.00    0.59882   0.69834    0.014
 5162.00    0.77133   0.68897    0.014
 5163.00    0.89054   0.68251    0.014
 5164.00    0.84347   0.67692    0.014
 5165.00    0.78084   0.67107    0.014
 5166.00    0.67698   0.66342    0.013
 5167.00    0.58023   0.65995    0.013
 5168.00    0.49963   0.66236    0.013
 5169.00    0.48095   0.66561    0.013
 5170.00    0.58423   0.66638    0.013
 5171.00    0.65676   0.66579    0.013
 5172.00    0.67653   0.66766    0.013
 5173.00    0.72251   0.67376    0.013
 5174.00    0.80786   0.67949    0.013
 5175.00    0.85219   0.68179    0.013
 5176.00    0.84233   0.68392    0.013
 5177.00    0.77152   0.68489    0.013
 5178.00    0.62979   0.68761    0.013
 5179.00    0.59168   0.69301    0.013
 5180.00    0.65988   0.69584    0.013
 5181.00    0.68225   0.69833    0.013
 5182.00    0.66316   0.69875    0.013
 5183.00    0.67523   0.70067    0.013
 5184.00    0.71213   0.70835    0.013
 5185.00    0.75368   0.71262    0.013
 5186.00    0.79849   0.71421    0.013
 5187.00    0.85070   0.71700    0.013
 5188.00    0.90745   0.72075    0.013
 5189.00    0.87396   0.72638    0.013
 5190.00    0.79194   0.72907    0.000
 5191.00    0.80607   0.72864    0.000
 5192.00    0.86507   0.73133    0.000
 5193.00    0.84879   0.73479    0.000
 5194.00    0.80223   0.73476    0.000
 5195.00    0.75347   0.73440    0.000
 5196.00    0.70396   0.73337    0.000
 5197.00    0.70469   0.73280    0.000
 5198.00    0.71995   0.73327    0.000
 5199.00    0.66847   0.73031    0.000
 5200.00    0.60106   0.72873    0.000
 5201.00    0.65472   0.72897    0.000
 5202.00    0.73168   0.72786    0.000
 5203.00    0.70176   0.72862    0.000
 5204.00    0.65586   0.72834    0.000
 5205.00    0.66059   0.72968    0.000
 5206.00    0.67087   0.73417    0.000
 5207.00    0.72273   0.73618    0.000
 5208.00    0.77760   0.73947    0.000
 5209.00    0.86485   0.74344    0.000
 5210.00    0.95332   0.74678    0.000
 5211.00    0.91892   0.75153    0.014
 5212.00    0.88382   0.75483    0.014
 5213.00    0.84392   0.75705    0.014
 5214.00    0.80482   0.75873    0.014
 5215.00    0.77892   0.75925    0.013
 5216.00    0.75165   0.75965    0.013
 5217.00    0.71039   0.76031    0.013
 5218.00    0.67254   0.75906    0.014
 5219.00    0.65956   0.75745    0.014
 5220.00    0.65755   0.75615    0.013
 5221.00    0.71666   0.75350    0.013
 5222.00    0.76314   0.75413    0.013
 5223.00    0.75344   0.75414    0.013
 5224.00    0.75209   0.75296    0.013
 5225.00    0.78127   0.75466    0.013
 5226.00    0.79807   0.75440    0.013
 5227.00    0.77693   0.75794    0.013
 5228.00    0.76156   0.76318    0.013
 5229.00    0.76116   0.76484    0.013
 5230.00    0.75779   0.77022    0.013
 5231.00    0.74777   0.77418    0.013
 5232.00    0.75087   0.77692    0.013
 5233.00    0.77942   0.78203    0.013
 5234.00    0.80809   0.78509    0.013
 5235.00    0.83696   0.78924    0.013
 5236.00    0.86885   0.79201    0.013
 5237.00    0.90522   0.79222    0.013
 5238.00    0.89534   0.79341    0.013
 5239.00    0.82525   0.79436    0.013
 5240.00    0.76591   0.79426    0.013
 5241.00    0.71891   0.79171    0.013
 5242.00    0.69911   0.79010    0.013
 5243.00    0.70682   0.78975    0.013
 5244.00    0.80424   0.78803    0.013
 5245.00    0.98169   0.78559    0.013
 5246.00    0.97131   0.78135    0.013
 5247.00    0.81324   0.78027    0.013
 5248.00    0.74407   0.78007    0.013
 5249.00    0.73636   0.77546    0.013
 5250.00    0.78682   0.77267    0.013
 5251.00    0.87255   0.77013    0.013
 5252.00    0.90408   0.76666    0.013
 5253.00    0.90692   0.76343    0.013
 5254.00    0.87502   0.75638    0.013
 5255.00    0.82717   0.74991    0.013
 5256.00    0.80076   0.74463    0.013
 5257.00    0.78284   0.73761    0.013
 5258.00    0.76890   0.73120    0.013
 5259.00    0.75631   0.72367    0.013
 5260.00    0.77955   0.71530    0.013
 5261.00    0.81294   0.70950    0.013
 5262.00    0.78663   0.70578    0.013
 5263.00    0.74639   0.70203    0.014
 5264.00    0.64122   0.69883    0.014
 5265.00    0.52387   0.69834    0.014
 5266.00    0.61538   0.70072    0.014
 5267.00    0.73715   0.70484    0.014
 5268.00    0.66005   0.70792    0.014
 5269.00    0.56204   0.71040    0.013
 5270.00    0.64732   0.71850    0.014
 5271.00    0.74510   0.72833    0.014
 5272.00    0.63407   0.73507    0.014
 5273.00    0.51603   0.74264    0.014
 5274.00    0.70094   0.74846    0.014
 5275.00    0.87672   0.75532    0.014
 5276.00    0.74941   0.76574    0.014
 5277.00    0.63706   0.77262    0.014
 5278.00    0.75227   0.77801    0.014
 5279.00    0.83291   0.78371    0.013
 5280.00    0.57629   0.78886    0.013
 5281.00    0.36723   0.79524    0.013
 5282.00    0.49305   0.79915    0.013
 5283.00    0.61310   0.80079    0.013
 5284.00    0.70183   0.80427    0.013
 5285.00    0.75294   0.80800    0.013
 5286.00    0.64062   0.80939    0.013
 5287.00    0.59385   0.80821    0.013
 5288.00    0.78166   0.80676    0.013
 5289.00    0.90017   0.80662    0.013
 5290.00    0.81057   0.80681    0.013
 5291.00    0.72778   0.80507    0.013
 5292.00    0.66242   0.80173    0.013
 5293.00    0.66867   0.80083    0.013
 5294.00    0.83244   0.80154    0.013
 5295.00    0.90683   0.80143    0.013
 5296.00    0.81065   0.80080    0.013
 5297.00    0.72270   0.80083    0.013
 5298.00    0.64845   0.80391    0.013
 5299.00    0.63976   0.80764    0.013
 5300.00    0.72674   0.80947    0.012
 5301.00    0.77560   0.81122    0.013
 5302.00    0.77556   0.81403    0.013
 5303.00    0.75501   0.81767    0.014
 5304.00    0.71129   0.82011    0.014
 5305.00    0.69300   0.82103    0.014
 5306.00    0.70007   0.82141    0.014
 5307.00    0.70523   0.82101    0.014
 5308.00    0.70869   0.82109    0.014
 5309.00    0.70828   0.82015    0.013
 5310.00    0.70486   0.81660    0.013
 5311.00    0.71682   0.81347    0.012
 5312.00    0.73926   0.81008    0.012
 5313.00    0.70033   0.80565    0.012
 5314.00    0.62476   0.80083    0.012
 5315.00    0.56099   0.79401    0.012
 5316.00    0.50338   0.78873    0.012
 5317.00    0.56767   0.78531    0.012
 5318.00    0.68704   0.77852    0.012
 5319.00    0.83336   0.77120    0.012
 5320.00    0.99015   0.76736    0.012
 5321.00    0.85604   0.76458    0.012
 5322.00    0.62577   0.76100    0.012
 5323.00    0.60235   0.75673    0.012
 5324.00    0.63628   0.75480    0.013
 5325.00    0.74939   0.75706    0.013
 5326.00    0.88056   0.75736    0.013
 5327.00    0.84552   0.75500    0.013
 5328.00    0.78013   0.75697    0.012
 5329.00    0.80684   0.76192    0.012
 5330.00    0.84646   0.76565    0.012
 5331.00    0.82971   0.76613    0.013
 5332.00    0.80728   0.76710    0.013
 5333.00    0.74730   0.77203    0.013
 5334.00    0.68492   0.77510    0.012
 5335.00    0.69536   0.77655    0.013
 5336.00    0.70789   0.77776    0.013
 5337.00    0.69015   0.77971    0.013
 5338.00    0.67304   0.78404    0.013
 5339.00    0.67383   0.78414    0.013
 5340.00    0.68051   0.78451    0.013
 5341.00    0.77158   0.78956    0.013
 5342.00    0.84544   0.79270    0.012
 5343.00    0.75822   0.79604    0.013
 5344.00    0.69210   0.79842    0.013
 5345.00    0.76990   0.80081    0.012
 5346.00    0.83685   0.80719    0.012
 5347.00    0.84649   0.81048    0.012
 5348.00    0.83318   0.81249    0.012
 5349.00    0.72244   0.81668    0.012
 5350.00    0.62898   0.81980    0.012
 5351.00    0.59604   0.82282    0.012
 5352.00    0.59076   0.82334    0.012
 5353.00    0.66699   0.82246    0.012
 5354.00    0.73665   0.82370    0.012
 5355.00    0.78980   0.82232    0.012
 5356.00    0.82195   0.81899    0.012
 5357.00    0.80862   0.81640    0.012
 5358.00    0.79573   0.81238    0.012
 5359.00    0.78366   0.80889    0.012
 5360.00    0.79258   0.80487    0.012
 5361.00    0.83594   0.79869    0.012
 5362.00    0.86193   0.79469    0.012
 5363.00    0.86292   0.79191    0.012
 5364.00    0.89684   0.78910    0.012
 5365.00    0.97240   0.78715    0.012
 5366.00    0.95968   0.78545    0.012
 5367.00    0.84853   0.78516    0.012
 5368.00    0.76539   0.78549   -2.000
 5369.00    0.70978   0.78602   -2.000
 5370.00    0.68164   0.78709   -2.000
 5371.00    0.67732   0.78883   -2.000
 5372.00    0.66588   0.79216   -2.000
 5373.00    0.64900   0.79425   -2.000
 5374.00    0.72977   0.79508   -2.000
 5375.00    0.87610   0.79682   -2.000
 5376.00    0.96050   0.79783   -2.000
 5377.00    1.00847   0.79807   -2.000
 5378.00    0.87654   0.79850   -2.000
 5379.00    0.65233   0.79721   -2.000
 5380.00    0.61666   0.79525   -2.000
 5381.00    0.66474   0.79393   -2.000
 5382.00    0.73475   0.79078   -2.000
 5383.00    0.81313   0.78753    0.012
 5384.00    0.84317   0.78503    0.012
 5385.00    0.85753   0.78061    0.012
 5386.00    0.85830   0.77731    0.012
 5387.00    0.85539   0.77342    0.012
 5388.00    0.79691   0.76686    0.012
 5389.00    0.72605   0.76386    0.012
 5390.00    0.67491   0.76139    0.012
 5391.00    0.62726   0.75638    0.012
 5392.00    0.62104   0.75287    0.012
 5393.00    0.62044   0.74946    0.012
 5394.00    0.69983   0.74706    0.012
 5395.00    0.78696   0.74462    0.012
 5396.00    0.73842   0.73953    0.012
 5397.00    0.68173   0.73783    0.012
 5398.00    0.69624   0.73901    0.012
 5399.00    0.71281   0.73778    0.012
 5400.00    0.76377   0.73602    0.012
 5401.00    0.80908   0.73592    0.012
 5402.00    0.70856   0.73769    0.012
 5403.00    0.61507   0.73955    0.011
 5404.00    0.61687   0.74072    0.011
 5405.00    0.62335   0.74303    0.012
 5406.00    0.67203   0.74691    0.012
 5407.00    0.71668   0.75192    0.012
 5408.00    0.73471   0.75556    0.012
 5409.00    0.75421   0.75799    0.012
 5410.00    0.78132   0.76302    0.011
 5411.00    0.78784   0.76731    0.011
 5412.00    0.70890   0.76963    0.011
 5413.00    0.66196   0.77334    0.011
 5414.00    0.72492   0.77523    0.011
 5415.00    0.77377   0.77619    0.011
 5416.00    0.78183   0.77853    0.011
 5417.00    0.78412   0.77793    0.011
 5418.00    0.77216   0.77802    0.011
 5419.00    0.78683   0.77853    0.011
 5420.00    0.85816   0.77429    0.011
 5421.00    0.84256   0.77378    0.011
 5422.00    0.66617   0.77462    0.011
 5423.00    0.59898   0.77041    0.011
 5424.00    0.70822   0.76945    0.011
 5425.00    0.76473   0.76853    0.011
 5426.00    0.74648   0.76703    0.011
 5427.00    0.74494   0.76864    0.011
 5428.00    0.76426   0.76613    0.011
 5429.00    0.74776   0.76568    0.011
 5430.00    0.69188   0.76980    0.012
 5431.00    0.68601   0.77024    0.012
 5432.00    0.72862   0.77088    0.012
 5433.00    0.73843   0.77304    0.012
 5434.00    0.72019   0.77456    0.012
 5435.00    0.69777   0.77661    0.012
 5436.00    0.67221   0.77799    0.012
 5437.00    0.68736   0.77815    0.012
 5438.00    0.72944   0.77866    0.012
 5439.00    0.70863   0.78001    0.012
 5440.00    0.65139   0.77928    0.012
 5441.00    0.68960   0.77817    0.012
 5442.00    0.77599   0.77763    0.012
 5443.00    0.77231   0.77513    0.012
 5444.00    0.72927   0.77452    0.012
 5445.00    0.72412   0.77327    0.012
 5446.00    0.73318   0.76937    0.012
 5447.00    0.80300   0.76963    0.012
 5448.00    0.89215   0.76971    0.012
 5449.00    0.83590   0.76779    0.011
 5450.00    0.74100   0.76755    0.011
 5451.00    0.70753   0.76548    0.011
 5452.00    0.68741   0.76532    0.011
 5453.00    0.69991   0.76636    0.011
 5454.00    0.71804   0.76333    0.011
 5455.00    0.75024   0.76374    0.011
 5456.00    0.78430   0.76581    0.011
 5457.00    0.77303   0.76470    0.011
 5458.00    0.75759   0.76461    0.011
 5459.00    0.82049   0.76366    0.011
 5460.00    0.88779   0.76321    0.011
 5461.00    0.95458   0.76301    0.011
 5462.00    1.01957   0.76029    0.011
 5463.00    0.89767   0.76004    0.011
 5464.00    0.78129   0.75931    0.011
 5465.00    0.79459   0.75654    0.011
 5466.00    0.80802   0.75548    0.011
 5467.00    0.82312   0.75325    0.011
 5468.00    0.83538   0.75101    0.011
 5469.00    0.82317   0.74894    0.011
 5470.00    0.81812   0.74696    0.011
 5471.00    0.85897   0.74704    0.011
 5472.00    0.88235   0.74448    0.011
 5473.00    0.81815   0.74298    0.011
 5474.00    0.77117   0.74501    0.011
 5475.00    0.79413   0.74403    0.011
 5476.00    0.83050   0.74367    0.011
 5477.00    0.91200   0.74576    0.012
 5478.00    0.93104   0.74700   -2.000
 5479.00    0.77270   0.74903   -2.000
 5480.00    0.69213   0.75001   -2.000
 5481.00    0.80037   0.75106   -2.000
 5482.00    0.85223   0.75420   -2.000
 5483.00    0.78600   0.75551   -2.000
 5484.00    0.62376   0.75639   -2.000
 5485.00    0.28670   0.75833   -2.000
 5486.00    0.06517   0.75871   -2.000
 5487.00    0.02752   0.75973   -2.000
 5488.00    0.04887   0.76072   -2.000
 5489.00    0.15264   0.75968   -2.000
 5490.00    0.26981   0.76018   -2.000
 5491.00    0.40346   0.76086   -2.000
 5492.00    0.48432   0.75948   -2.000
 5493.00    0.50797   0.75830   -2.000
 5494.00    0.60585   0.75720   -2.000
 5495.00    0.77470   0.75687   -2.000
 5496.00    0.89645   0.75578   -2.000
 5497.00    0.97852   0.75267   -2.000
 5498.00    0.99784   0.75262   -2.000
 5499.00    0.97060   0.75241   -2.000
 5500.00    0.90117   0.74903   -2.000
 5501.00    0.80423   0.74836   -2.000
 5502.00    0.77231   0.74760    0.011
 5503.00    0.77750   0.74638    0.011
 5504.00    0.77883   0.74719    0.011
 5505.00    0.77825   0.74536    0.011
 5506.00    0.74207   0.74562    0.011
 5507.00    0.69060   0.74821    0.011
 5508.00    0.67661   0.74701    0.011
 5509.00    0.67643   0.74811    0.011
 5510.00    0.70168   0.75049    0.011
 5511.00    0.73487   0.75065    0.011
 5512.00    0.76096   0.75271    0.011
 5513.00    0.78521   0.75391    0.011
 5514.00    0.79193   0.75514    0.011
 5515.00    0.79493   0.75726    0.011
 5516.00    0.82171   0.75672    0.011
 5517.00    0.85249   0.75775    0.011
 5518.00    0.83966   0.75929    0.011
 5519.00    0.82130   0.75796    0.011
 5520.00    0.78134   0.75786    0.011
 5521.00    0.73948   0.75803    0.011
 5522.00    0.72054   0.75730    0.011
 5523.00    0.70280   0.75675    0.011
 5524.00    0.78416   0.75585    0.011
 5525.00    0.86502   0.75590    0.011
 5526.00    0.76847   0.75612    0.011
 5527.00    0.67448   0.75545    0.011
 5528.00    0.63536   0.75575    0.011
 5529.00    0.60534   0.75741    0.011
 5530.00    0.68646   0.75837    0.011
 5531.00    0.75947   0.75804    0.011
 5532.00    0.76489   0.75993    0.011
 5533.00    0.77925   0.76220    0.011
 5534.00    0.84918   0.76185    0.011
 5535.00    0.90318   0.76388    0.011
 5536.00    0.87929   0.76655    0.011
 5537.00    0.84668   0.76711    0.011
 5538.00    0.77945   0.76906    0.011
 5539.00    0.71856   0.77027    0.011
 5540.00    0.67858   0.77129    0.011
 5541.00    0.66048   0.77335    0.013
 5542.00    0.70340   0.77272    0.030
 5543.00    0.73602   0.77337   -1.000
 5544.00    0.74402   0.77572   -1.000
 5545.00    0.74560   0.77456   -1.000
 5546.00    0.73393   0.77419   -1.000
 5547.00    0.72391   0.77529   -1.000
 5548.00    0.71683   0.77402   -1.000
 5549.00    0.73192   0.77318   -1.000
 5550.00    0.78176   0.77204   -1.000
 5551.00    0.81950   0.76998   -1.000
 5552.00    0.84058   0.76946   -1.000
 5553.00    0.85491   0.76723   -1.000
 5554.00    0.86105   0.76424   -1.000
 5555.00    0.82619   0.76363   -1.000
 5556.00    0.74753   0.76164   -1.000
 5557.00    0.70178   0.75848    0.039
 5558.00    0.68705   0.75691    0.013
 5559.00    0.69526   0.75561    0.010
 5560.00    0.72254   0.75348    0.010
 5561.00    0.72234   0.75134    0.010
 5562.00    0.70202   0.75041    0.010
 5563.00    0.68002   0.74956    0.010
 5564.00    0.65693   0.74859    0.011
 5565.00    0.65847   0.74792    0.011
 5566.00    0.67386   0.74686    0.011
 5567.00    0.69767   0.74772    0.011
 5568.00    0.72560   0.74769    0.011
 5569.00    0.70001   0.74543    0.011
 5570.00    0.65182   0.74724    0.011
 5571.00    0.65157   0.74752    0.011
 5572.00    0.66866   0.74412    0.011
 5573.00    0.63881   0.74534    0.011
 5574.00    0.59459   0.74478    0.011
 5575.00    0.59592   0.74087    0.011
 5576.00    0.60886   0.74079    0.011
 5577.00    0.63496   0.73851    0.011
 5578.00    0.66377   0.73484    0.011
 5579.00    0.69759   0.73377    0.011
 5580.00    0.73222   0.73026    0.011
 5581.00    0.76342   0.72751    0.011
 5582.00    0.79421   0.72564    0.010
 5583.00    0.82497   0.72208    0.011
 5584.00    0.85573   0.72137    0.011
 5585.00    0.78494   0.71986    0.011
 5586.00    0.70924   0.71739    0.011
 5587.00    0.60660   0.71822    0.011
 5588.00    0.50655   0.71785    0.010
 5589.00    0.58380   0.71807    0.010
 5590.00    0.65909   0.71958    0.010
 5591.00    0.69571   0.71972    0.010
 5592.00    0.72564   0.72265    0.010
 5593.00    0.67798   0.72463    0.010
 5594.00    0.63997   0.72479    0.011
 5595.00    0.67950   0.72898    0.011
 5596.00    0.72114   0.73175    0.011
 5597.00    0.77551   0.73246    0.011
 5598.00    0.81655   0.73604    0.011
 5599.00    0.79398   0.73865    0.011
 5600.00    0.77355   0.74041    0.011
 5601.00    0.76136   0.74325    0.011
 5602.00    0.72851   0.74484    0.011
 5603.00    0.62880   0.74613    0.011
 5604.00    0.56615   0.74770    0.011
 5605.00    0.60497   0.74807    0.011
 5606.00    0.65306   0.74794    0.010
 5607.00    0.72290   0.74791    0.010
 5608.00    0.76209   0.74662    0.010
 5609.00    0.73911   0.74524    0.011
 5610.00    0.73025   0.74448    0.011
 5611.00    0.74633   0.74184    0.011
 5612.00    0.76118   0.73982    0.011
 5613.00    0.77412   0.73957    0.011
 5614.00    0.77173   0.73710    0.011
 5615.00    0.74854   0.73513    0.011
 5616.00    0.70816   0.73559    0.011
 5617.00    0.64726   0.73478    0.011
 5618.00    0.62519   0.73399    0.011
 5619.00    0.64402   0.73457    0.010
 5620.00    0.66506   0.73432    0.010
 5621.00    0.68814   0.73457    0.010
 5622.00    0.67493   0.73602    0.010
 5623.00    0.63197   0.73615    0.010
 5624.00    0.59635   0.73640    0.010
 5625.00    0.56603   0.73812    0.010
 5626.00    0.56965   0.73858    0.010
 5627.00    0.59474   0.73859    0.010
 5628.00    0.62726   0.73949    0.010
 5629.00    0.66389   0.73946    0.010
 5630.00    0.72659   0.73913    0.010
 5631.00    0.80184   0.73896    0.010
 5632.00    0.81983   0.73857    0.010
 5633.00    0.81402   0.73821    0.010
 5634.00    0.82545   0.73731    0.010
 5635.00    0.84300   0.73716    0.010
 5636.00    0.77440   0.73725    0.010
 5637.00    0.67995   0.73596    0.010
 5638.00    0.62064   0.73632    0.010
 5639.00    0.57010   0.73676    0.010
 5640.00    0.56863   0.73522    0.010
 5641.00    0.57708   0.73594    0.010
 5642.00    0.60871   0.73627    0.010
 5643.00    0.64400   0.73451    0.010
 5644.00    0.64360   0.73497    0.010
 5645.00    0.63900   0.73465    0.010
 5646.00    0.66929   0.73290    0.010
 5647.00    0.70237   0.73267    0.010
 5648.00    0.74930   0.73118    0.010
 5649.00    0.79686   0.72980    0.010
 5650.00    0.78297   0.72925    0.010
 5651.00    0.76673   0.72660    0.010
 5652.00    0.66945   0.72586    0.010
 5653.00    0.57727   0.72612    0.010
 5654.00    0.57885   0.72298    0.010
 5655.00    0.57991   0.72252    0.010
 5656.00    0.57519   0.72465    0.010
 5657.00    0.56501   0.72331    0.010
 5658.00    0.51248   0.72302    0.010
 5659.00    0.47643   0.72572    0.010
 5660.00    0.53704   0.72687    0.010
 5661.00    0.59414   0.72795    0.010
 5662.00    0.63488   0.73045    0.010
 5663.00    0.67249   0.73239    0.010
 5664.00    0.69823   0.73443    0.010
 5665.00    0.70881   0.73687    0.010
 5666.00    0.67127   0.73879    0.010
 5667.00    0.64608   0.74053    0.010
 5668.00    0.65414   0.74222    0.010
 5669.00    0.64814   0.74382    0.010
 5670.00    0.60969   0.74493    0.010
 5671.00    0.59258   0.74523    0.010
 5672.00    0.61806   0.74565    0.010
 5673.00    0.65758   0.74593    0.010
 5674.00    0.72153   0.74529    0.010
 5675.00    0.75141   0.74430    0.010
 5676.00    0.72941   0.74383    0.010
 5677.00    0.71539   0.74329    0.010
 5678.00    0.71206   0.74158    0.010
 5679.00    0.71540   0.74038    0.010
 5680.00    0.72658   0.74032    0.010
 5681.00    0.72827   0.73936    0.010
 5682.00    0.72011   0.73831    0.010
 5683.00    0.68194   0.73812    0.010
 5684.00    0.61627   0.73778    0.010
 5685.00    0.56743   0.73750    0.010
 5686.00    0.53218   0.73734    0.010
 5687.00    0.53557   0.73681    0.010
 5688.00    0.56643   0.73649    0.010
 5689.00    0.60674   0.73630    0.010
 5690.00    0.65295   0.73525    0.010
 5691.00    0.65382   0.73353    0.010
 5692.00    0.62997   0.73281    0.010
 5693.00    0.61803   0.73142    0.010
 5694.00    0.61171   0.72800    0.010
 5695.00    0.59682   0.72665    0.010
 5696.00    0.57843   0.72510    0.010
 5697.00    0.57918   0.72117    0.010
 5698.00    0.58661   0.71959    0.010
 5699.00    0.60117   0.71771    0.010
 5700.00    0.61782   0.71524    0.010
 5701.00    0.65428   0.71468    0.010
 5702.00    0.69556   0.71244    0.010
 5703.00    0.73895   0.71223    0.010
 5704.00    0.78276   0.71361    0.010
 5705.00    0.74619   0.71179    0.010
 5706.00    0.69727   0.71421    0.010
 5707.00    0.62953   0.71751    0.010
 5708.00    0.55966   0.71690    0.010
 5709.00    0.56030   0.72139    0.010
 5710.00    0.56629   0.72582    0.010
 5711.00    0.56821   0.72661    0.010
 5712.00    0.56997   0.73176    0.010
 5713.00    0.53854   0.73588    0.010
 5714.00    0.50873   0.73736    0.010
 5715.00    0.55627   0.74205    0.010
 5716.00    0.60423   0.74505    0.010
 5717.00    0.65944   0.74628    0.010
 5718.00    0.71284   0.74973    0.010
 5719.00    0.74722   0.75150    0.010
 5720.00    0.77178   0.75193    0.010
 5721.00    0.72281   0.75381    0.010
 5722.00    0.67851   0.75467    0.010
 5723.00    0.66091   0.75437    0.010
 5724.00    0.66206   0.75475    0.010
 5725.00    0.74836   0.75530    0.010
 5726.00    0.80275   0.75525    0.010
 5727.00    0.73841   0.75443    0.010
 5728.00    0.67683   0.75442    0.010
 5729.00    0.62388   0.75499    0.010
 5730.00    0.57705   0.75405    0.010
 5731.00    0.54638   0.75370    0.010
 5732.00    0.54672   0.75414    0.010
 5733.00    0.61742   0.75322    0.010
 5734.00    0.68384   0.75291    0.010
 5735.00    0.74188   0.75285    0.010
 5736.00    0.75070   0.75179    0.010
 5737.00    0.67521   0.75154    0.010
 5738.00    0.62749   0.75091    0.010
 5739.00    0.62140   0.74964    0.010
 5740.00    0.64047   0.74932    0.000
 5741.00    0.69273   0.74815    0.000
 5742.00    0.73920   0.74699    0.000
 5743.00    0.77893   0.74659    0.000
 5744.00    0.79821   0.74460    0.000
 5745.00    0.79654   0.74359    0.000
 5746.00    0.76203   0.74370    0.000
 5747.00    0.69784   0.74174    0.000
 5748.00    0.68970   0.74087    0.000
 5749.00    0.72618   0.74103    0.000
 5750.00    0.76748   0.73931    0.000
 5751.00    0.81218   0.73923    0.000
 5752.00    0.78994   0.74000    0.000
 5753.00    0.72659   0.73875    0.000
 5754.00    0.68803   0.73935    0.000
 5755.00    0.66276   0.74035    0.000
 5756.00    0.72271   0.73945    0.000
 5757.00    0.82236   0.74062    0.000
 5758.00    0.83964   0.74167    0.000
 5759.00    0.82386   0.74080    0.000
 5760.00    0.75211   0.74247    0.000
 5761.00    0.66121   0.74370    0.000
 5762.00    0.67181   0.74255    0.000
 5763.00    0.71166   0.74361    0.000
 5764.00    0.71448   0.74423    0.000
 5765.00    0.70850   0.74248    0.000
 5766.00    0.72695   0.74256    0.000
 5767.00    0.75009   0.74194    0.000
 5768.00    0.73992   0.73928    0.000
 5769.00    0.72478   0.73844    0.000
 5770.00    0.72000   0.73663    0.000
 5771.00    0.71636   0.73319    0.000
 5772.00    0.73609   0.73157    0.000
 5773.00    0.75750   0.72923    0.000
 5774.00    0.75688   0.72577    0.000
 5775.00    0.75545   0.72375    0.000
 5776.00    0.79670   0.72176    0.000
 5777.00    0.83625   0.71910    0.000
 5778.00    0.80830   0.71716    0.000
 5779.00    0.77919   0.71687    0.000
 5780.00    0.73133   0.71646    0.000
 5781.00    0.69189   0.71487    0.000
 5782.00    0.73765   0.71610    0.000
 5783.00    0.77756   0.71811    0.000
 5784.00    0.77501   0.71771    0.000
 5785.00    0.77449   0.72018    0.000
 5786.00    0.78531   0.72327    0.000
 5787.00    0.80472   0.72356    0.000
 5788.00    0.86227   0.72661    0.000
 5789.00    0.88742   0.73017    0.000
 5790.00    0.79455   0.73098    0.000
 5791.00    0.72621   0.73351   -2.000
 5792.00    0.73277   0.73679   -2.000
 5793.00    0.73585   0.73768   -2.000
 5794.00    0.72990   0.73873   -2.000
 5795.00    0.72093   0.74139   -2.000
 5796.00    0.70522   0.74268   -2.000
 5797.00    0.67739   0.74266   -2.000
 5798.00    0.62612   0.74422   -2.000
 5799.00    0.60214   0.74516   -2.000
 5800.00    0.62424   0.74452   -2.000
 5801.00    0.65096   0.74521   -2.000
 5802.00    0.68454   0.74574   -2.000
 5803.00    0.69037   0.74530   -2.000
 5804.00    0.66014   0.74577   -2.000
 5805.00    0.65784   0.74592   -2.000
 5806.00    0.68751   0.74568   -2.000
 5807.00    0.70686   0.74632   -2.000
 5808.00    0.71579   0.74656   -2.000
 5809.00    0.72109   0.74644   -2.000
 5810.00    0.72315   0.74725   -2.000
 5811.00    0.72668   0.74794    0.000
 5812.00    0.73136   0.74788    0.000
 5813.00    0.73954   0.74868    0.000
 5814.00    0.75013   0.75007    0.000
 5815.00    0.77377   0.75044    0.000
 5816.00    0.80531   0.75100    0.000
 5817.00    0.82184   0.75224    0.000
 5818.00    0.83043   0.75269    0.000
 5819.00    0.77340   0.75299    0.000
 5820.00    0.68629   0.75388    0.000
 5821.00    0.69357   0.75422    0.000
 5822.00    0.73808   0.75427    0.000
 5823.00    0.78374   0.75479    0.000
 5824.00    0.82979   0.75464    0.000
 5825.00    0.80979   0.75433    0.000
 5826.00    0.77114   0.75476    0.000
 5827.00    0.75336   0.75427    0.000
 5828.00    0.74045   0.75335    0.000
 5829.00    0.73602   0.75374    0.000
 5830.00    0.73317   0.75330    0.000
 5831.00    0.71225   0.75174    0.000
 5832.00    0.68873   0.75187    0.000
 5833.00    0.69284   0.75180    0.000
 5834.00    0.69985   0.74985    0.000
 5835.00    0.72764   0.74919    0.000
 5836.00    0.75683   0.74902    0.000
 5837.00    0.77543   0.74695    0.000
 5838.00    0.79368   0.74549    0.000
 5839.00    0.76197   0.74463    0.000
 5840.00    0.73002   0.74209    0.000
 5841.00    0.69136   0.73989    0.000
 5842.00    0.65469   0.73831    0.000
 5843.00    0.64795   0.73532    0.000
 5844.00    0.64994   0.73259    0.000
 5845.00    0.73653   0.73068    0.000
 5846.00    0.81460   0.72767    0.000
 5847.00    0.83289   0.72474    0.000
 5848.00    0.84712   0.72304    0.000
 5849.00    0.83940   0.72054    0.000
 5850.00    0.83114   0.71772    0.000
 5851.00    0.82055   0.71694    0.000
 5852.00    0.80766   0.71594    0.000
 5853.00    0.78656   0.71363    0.000
 5854.00    0.76468   0.71363    0.000
 5855.00    0.74044   0.71412    0.000
 5856.00    0.71386   0.71305    0.000
 5857.00    0.68131   0.71401    0.000
 5858.00    0.66362   0.71537    0.000
 5859.00    0.67858   0.71505    0.000
 5860.00    0.67749   0.71627    0.000
 5861.00    0.64587   0.71817    0.000
 5862.00    0.62615   0.71833    0.000
 5863.00    0.62619   0.71894    0.000
 5864.00    0.66095   0.72036    0.000
 5865.00    0.74627   0.72050    0.000
 5866.00    0.80886   0.72016    0.000
 5867.00    0.84234   0.72016    0.000
 5868.00    0.84211   0.71933    0.000
 5869.00    0.80383   0.71765    0.000
 5870.00    0.78575   0.71563    0.000
 5871.00    0.78780   0.71308    0.000
 5872.00    0.78192   0.71005    0.000
 5873.00    0.76909   0.70556    0.000
 5874.00    0.72257   0.70042    0.000
 5875.00    0.65000   0.69618    0.000
 5876.00    0.63181   0.68946    0.000
 5877.00    0.65062   0.68144    0.000
 5878.00    0.66568   0.67642    0.000
 5879.00    0.67852   0.66835    0.000
 5880.00    0.67310   0.65805    0.000
 5881.00    0.65819   0.65336    0.000
 5882.00    0.63644   0.64525    0.000
 5883.00    0.61160   0.63398    0.000
 5884.00    0.58398   0.63166    0.000
 5885.00    0.55528   0.62600    0.000
 5886.00    0.55868   0.61580    0.000
 5887.00    0.57268   0.61738    0.000
 5888.00    0.59402   0.61628    0.000
 5889.00    0.61740   0.60928    0.000
 5890.00    0.62291   0.61486    0.000
 5891.00    0.62437   0.61867    0.000
 5892.00    0.63931   0.61579    0.000
 5893.00    0.65670   0.62410    0.000
 5894.00    0.72701   0.63183    0.000
 5895.00    0.80471   0.63302    0.000
 5896.00    0.78770   0.64193    0.000
 5897.00    0.76118   0.65066    0.000
 5898.00    0.72861   0.65415    0.000
 5899.00    0.69566   0.66210    0.000
 5900.00    0.68305   0.66963    0.000
 5901.00    0.67105   0.67353    0.010
 5902.00    0.66623   0.67962    0.010
 5903.00    0.66252   0.68467    0.010
 5904.00    0.68987   0.68770    0.010
 5905.00    0.71173   0.69196    0.010
 5906.00    0.65540   0.69448    0.009
 5907.00    0.60548   0.69619    0.009
 5908.00    0.61526   0.69905    0.009
 5909.00    0.62369   0.69981    0.009
 5910.00    0.62295   0.70078    0.009
 5911.00    0.62849   0.70276    0.009
 5912.00    0.66712   0.70252    0.009
 5913.00    0.69221   0.70336    0.009
 5914.00    0.65999   0.70480    0.009
 5915.00    0.62613   0.70410    0.009
 5916.00    0.58660   0.70500    0.009
 5917.00    0.56496   0.70601    0.009
 5918.00    0.59593   0.70525    0.009
 5919.00    0.61921   0.70620    0.009
 5920.00    0.62322   0.70669    0.009
 5921.00    0.62583   0.70603    0.009
 5922.00    0.62543   0.70681    0.009
 5923.00    0.62470   0.70688    0.009
 5924.00    0.62337   0.70640    0.009
 5925.00    0.63774   0.70696    0.009
 5926.00    0.67785   0.70717    0.009
 5927.00    0.70692   0.70670    0.009
 5928.00    0.72017   0.70661    0.009
 5929.00    0.72758   0.70735    0.009
 5930.00    0.72765   0.70720    0.009
 5931.00    0.71738   0.70650    0.009
 5932.00    0.69563   0.70758    0.009
 5933.00    0.65824   0.70762    0.009
 5934.00    0.60550   0.70649    0.009
 5935.00    0.60048   0.70755    0.009
 5936.00    0.63675   0.70760    0.009
 5937.00    0.67719   0.70647    0.009
 5938.00    0.72082   0.70737    0.009
 5939.00    0.73590   0.70710    0.009
 5940.00    0.73187   0.70600    0.009
 5941.00    0.71929   0.70676    0.009
 5942.00    0.70170   0.70607    0.009
 5943.00    0.67457   0.70496    0.009
 5944.00    0.64256   0.70596    0.009
 5945.00    0.62372   0.70536    0.009
 5946.00    0.61072   0.70410    0.009
 5947.00    0.65630   0.70517    0.009
 5948.00    0.72419   0.70525    0.009
 5949.00    0.73947   0.70431    0.009
 5950.00    0.73773   0.70529    0.009
 5951.00    0.70354   0.70610    0.009
 5952.00    0.66056   0.70580    0.009
 5953.00    0.65820   0.70670    0.009
 5954.00    0.66487   0.70820    0.009
 5955.00    0.71376   0.70848    0.009
 5956.00    0.77013   0.70902    0.009
 5957.00    0.79239   0.71090    0.009
 5958.00    0.81003   0.71158    0.009
 5959.00    0.79496   0.71158    0.009
 5960.00    0.77674   0.71329    0.009
 5961.00    0.72113   0.71408    0.009
 5962.00    0.66329   0.71347    0.009
 5963.00    0.67355   0.71445    0.009
 5964.00    0.68524   0.71501    0.009
 5965.00    0.64985   0.71377    0.009
 5966.00    0.61468   0.71372    0.009
 5967.00    0.58491   0.71388    0.009
 5968.00    0.56012   0.71210    0.009
 5969.00    0.60233   0.71113    0.009
 5970.00    0.64567   0.71104    0.009
 5971.00    0.69912   0.70889    0.009
 5972.00    0.74520   0.70739    0.009
 5973.00    0.74275   0.70728    0.009
 5974.00    0.73643   0.70497    0.009
 5975.00    0.71027   0.70339    0.009
 5976.00    0.69450   0.70367    0.009
 5977.00    0.72176   0.70170    0.009
 5978.00    0.74048   0.70031    0.009
 5979.00    0.72993   0.70100    0.009
 5980.00    0.71778   0.69981    0.009
 5981.00    0.70105   0.69871    0.009
 5982.00    0.68577   0.69958    0.009
 5983.00    0.67409   0.69922    0.009
 5984.00    0.66632   0.69841    0.009
 5985.00    0.66690   0.69924    0.009
 5986.00    0.65918   0.69935    0.009
 5987.00    0.63614   0.69847    0.009
 5988.00    0.62924   0.69909    0.009
 5989.00    0.64839   0.69922    0.009
 5990.00    0.66604   0.69806    0.009
 5991.00    0.68158   0.69848    0.009
 5992.00    0.68003   0.69819    0.009
 5993.00    0.65720   0.69660    0.009
 5994.00    0.63461   0.69691    0.009
 5995.00    0.61228   0.69603    0.009
 5996.00    0.60656   0.69421    0.009
 5997.00    0.61691   0.69455    0.009
 5998.00    0.63907   0.69314    0.009
 5999.00    0.67130   0.69141    0.009
 6000.00    0.68960   0.69173    0.009
 6001.00    0.69743   0.69005    0.009
 6002.00    0.68345   0.68882    0.009
 6003.00    0.65506   0.68900    0.009
 6004.00    0.63364   0.68725    0.009
 6005.00    0.61625   0.68674    0.009
 6006.00    0.61696   0.68681    0.009
 6007.00    0.62677   0.68517    0.009
 6008.00    0.63783   0.68534    0.009
 6009.00    0.64942   0.68545    0.009
 6010.00    0.67429   0.68422    0.009
 6011.00    0.70411   0.68487    0.009
 6012.00    0.70274   0.68530    0.009
 6013.00    0.69145   0.68476    0.009
 6014.00    0.67589   0.68570    0.009
 6015.00    0.65920   0.68670    0.009
 6016.00    0.69325   0.68710    0.009
 6017.00    0.73832   0.68821    0.009
 6018.00    0.76421   0.68984    0.009
 6019.00    0.78682   0.69123    0.009
 6020.00    0.79358   0.69242    0.009
 6021.00    0.79828   0.69447    0.009
 6022.00    0.75273   0.69661    0.009
 6023.00    0.70255   0.69779    0.009
 6024.00    0.65174   0.69983    0.009
 6025.00    0.60088   0.70229    0.009
 6026.00    0.64799   0.70334    0.009
 6027.00    0.69692   0.70500    0.009
 6028.00    0.71283   0.70734    0.009
 6029.00    0.72811   0.70811    0.009
 6030.00    0.72858   0.70920    0.009
 6031.00    0.72845   0.71117    0.009
 6032.00    0.72081   0.71159    0.009
 6033.00    0.71252   0.71211    0.009
 6034.00    0.69867   0.71366    0.009
 6035.00    0.68494   0.71374    0.009
 6036.00    0.67205   0.71378    0.009
 6037.00    0.66173   0.71494    0.009
 6038.00    0.66418   0.71474    0.009
 6039.00    0.67079   0.71439    0.009
 6040.00    0.69419   0.71510    0.009
 6041.00    0.71147   0.71468    0.009
 6042.00    0.70822   0.71400    0.009
 6043.00    0.71090   0.71412    0.009
 6044.00    0.73040   0.71355    0.009
 6045.00    0.74366   0.71265    0.009
 6046.00    0.74180   0.71209    0.009
 6047.00    0.73211   0.71142    0.009
 6048.00    0.70605   0.71054    0.009
 6049.00    0.67727   0.70938    0.009
 6050.00    0.64354   0.70871    0.009
 6051.00    0.61858   0.70819    0.009
 6052.00    0.60756   0.70672    0.009
 6053.00    0.61243   0.70617    0.009
 6054.00    0.63946   0.70631    0.009
 6055.00    0.68060   0.70490    0.009
 6056.00    0.73905   0.70458    0.009
 6057.00    0.75834   0.70549    0.009
 6058.00    0.73526   0.70446    0.009
 6059.00    0.72959   0.70435    0.009
 6060.00    0.74054   0.70582    0.009
 6061.00    0.75106   0.70531    0.009
 6062.00    0.76123   0.70525    0.009
 6063.00    0.76119   0.70673    0.009
 6064.00    0.75358   0.70666    0.009
 6065.00    0.75468   0.70633    0.009
 6066.00    0.76143   0.70715    0.009
 6067.00    0.75015   0.70724    0.009
 6068.00    0.72859   0.70638    0.009
 6069.00    0.73297   0.70605    0.009
 6070.00    0.75022   0.70606    0.009
 6071.00    0.77394   0.70463    0.009
 6072.00    0.80044   0.70311    0.009
 6073.00    0.82254   0.70297    0.009
 6074.00    0.84303   0.70120    0.008
 6075.00    0.84336   0.69893    0.009
 6076.00    0.83741   0.69876    0.009
 6077.00    0.79542   0.69697    0.009
 6078.00    0.74407   0.69463    0.009
 6079.00    0.71905   0.69463    0.009
 6080.00    0.69959   0.69301    0.009
 6081.00    0.72058   0.69111    0.009
 6082.00    0.74832   0.69149    0.009
 6083.00    0.74219   0.68999    0.009
 6084.00    0.73178   0.68868    0.009
 6085.00    0.74499   0.68954    0.009
 6086.00    0.76027   0.68797    0.009
 6087.00    0.77816   0.68703    0.009
 6088.00    0.79617   0.68838    0.009
 6089.00    0.78648   0.68659    0.009
 6090.00    0.77580   0.68570    0.009
 6091.00    0.73025   0.68750    0.009
 6092.00    0.68731   0.68550    0.009
 6093.00    0.69978   0.68446    0.009
 6094.00    0.71039   0.68668    0.009
 6095.00    0.69848   0.68471    0.009
 6096.00    0.68594   0.68358    0.009
 6097.00    0.66811   0.68611    0.009
 6098.00    0.65387   0.68448    0.009
 6099.00    0.66188   0.68348    0.009
 6100.00    0.66050   0.68607    0.009
 6101.00    0.61334   0.68495    0.009
 6102.00    0.57247   0.68426    0.009
 6103.00    0.55653   0.68643    0.009
 6104.00    0.55618   0.68574    0.009
 6105.00    0.60715   0.68536    0.009
 6106.00    0.65063   0.68652    0.009
 6107.00    0.67324   0.68597    0.009
 6108.00    0.70545   0.68582    0.009
 6109.00    0.76049   0.68553    0.009
 6110.00    0.78939   0.68487    0.009
 6111.00    0.76451   0.68498    0.009
 6112.00    0.73185   0.68321    0.009
 6113.00    0.68525   0.68233    0.009
 6114.00    0.66294   0.68286    0.009
 6115.00    0.67865   0.68004    0.009
 6116.00    0.68447   0.67899    0.009
 6117.00    0.67667   0.68004    0.009
 6118.00    0.66614   0.67682    0.009
 6119.00    0.65230   0.67564    0.009
 6120.00    0.65241   0.67710    0.009
 6121.00    0.66742   0.67396    0.009
 6122.00    0.67469   0.67263    0.009
 6123.00    0.67468   0.67417    0.008
 6124.00    0.67158   0.67138    0.008
 6125.00    0.66591   0.66990    0.009
 6126.00    0.65718   0.67121    0.008
 6127.00    0.64621   0.66892    0.008
 6128.00    0.63574   0.66743    0.008
 6129.00    0.62559   0.66849    0.008
 6130.00    0.63112   0.66692    0.008
 6131.00    0.64544   0.66568    0.008
 6132.00    0.64676   0.66666    0.008
 6133.00    0.64174   0.66605    0.008
 6134.00    0.61636   0.66534    0.008
 6135.00    0.58240   0.66626    0.009
 6136.00    0.56829   0.66661    0.009
 6137.00    0.56136   0.66645    0.009
 6138.00    0.56074   0.66707    0.009
 6139.00    0.56205   0.66792    0.009
 6140.00    0.57984   0.66807    0.009
 6141.00    0.60182   0.66791    0.009
 6142.00    0.63819   0.66841    0.009
 6143.00    0.67754   0.66849    0.009
 6144.00    0.68669   0.66720    0.009
 6145.00    0.69092   0.66658    0.009
 6146.00    0.68283   0.66620    0.009
 6147.00    0.67323   0.66380    0.009
 6148.00    0.63881   0.66171    0.009
 6149.00    0.60231   0.66072    0.008
 6150.00    0.58319   0.65759    0.009
 6151.00    0.56490   0.65433    0.009
 6152.00    0.58093   0.65292    0.008
 6153.00    0.59759   0.64965    0.008
 6154.00    0.62204   0.64602    0.008
 6155.00    0.64688   0.64475    0.008
 6156.00    0.67942   0.64195    0.009
 6157.00    0.70581   0.63890    0.009
 6158.00    0.66128   0.63850    0.009
 6159.00    0.62131   0.63667    0.009
 6160.00    0.61788   0.63476    0.009
 6161.00    0.61997   0.63578    0.009
 6162.00    0.65533   0.63523    0.009
 6163.00    0.68307   0.63445    0.009
 6164.00    0.67460   0.63683    0.009
 6165.00    0.66083   0.63766    0.009
 6166.00    0.62655   0.63759    0.009
 6167.00    0.60000   0.64063    0.008
 6168.00    0.59837   0.64262    0.009
 6169.00    0.60019   0.64281    0.009
 6170.00    0.61142   0.64549    0.008
 6171.00    0.62761   0.64809    0.008
 6172.00    0.65542   0.64824    0.009
 6173.00    0.68109   0.64975    0.009
 6174.00    0.70241   0.65222    0.009
 6175.00    0.71077   0.65218    0.009
 6176.00    0.69626   0.65227    0.009
 6177.00    0.68451   0.65405    0.009
 6178.00    0.67704   0.65369    0.008
 6179.00    0.65667   0.65274    0.008
 6180.00    0.61884   0.65378    0.008
 6181.00    0.59969   0.65307    0.008
 6182.00    0.60282   0.65172    0.008
 6183.00    0.61255   0.65246    0.008
 6184.00    0.62920   0.65157    0.008
 6185.00    0.65988   0.65039    0.008
 6186.00    0.70358   0.65141    0.008
 6187.00    0.75042   0.65066    0.009
 6188.00    0.79983   0.64995    0.009
 6189.00    0.80864   0.65150    0.009
 6190.00    0.78822   0.65114    0.009
 6191.00    0.76554   0.65088    0.008
 6192.00    0.74142   0.65273    0.008
 6193.00    0.70493   0.65272    0.008
 6194.00    0.66159   0.65262    0.009
 6195.00    0.55025   0.65425    0.009
 6196.00    0.40626   0.65428   -2.000
 6197.00    0.41404   0.65388   -2.000
 6198.00    0.48472   0.65480   -2.000
 6199.00    0.62492   0.65449   -2.000
 6200.00    0.78977   0.65339   -2.000
 6201.00    0.85055   0.65328   -2.000
 6202.00    0.88020   0.65246   -2.000
 6203.00    0.70413   0.65048   -2.000
 6204.00    0.47696   0.64934   -2.000
 6205.00    0.46965   0.64815   -2.000
 6206.00    0.50661   0.64549   -2.000
 6207.00    0.57268   0.64361   -2.000
 6208.00    0.64334   0.64239    0.009
 6209.00    0.65921   0.63961    0.009
 6210.00    0.66866   0.63743    0.008
 6211.00    0.67537   0.63645    0.008
 6212.00    0.68186   0.63418    0.008
 6213.00    0.67504   0.63219    0.008
 6214.00    0.66763   0.63146    0.008
 6215.00    0.68083   0.63010    0.008
 6216.00    0.69401   0.62863    0.008
 6217.00    0.69553   0.62785    0.008
 6218.00    0.69618   0.62741    0.008
 6219.00    0.68105   0.62668    0.008
 6220.00    0.66621   0.62547    0.008
 6221.00    0.65465   0.62562    0.008
 6222.00    0.64330   0.62576    0.009
 6223.00    0.63362   0.62389    0.009
 6224.00    0.62099   0.62411    0.009
 6225.00    0.59107   0.62518    0.009
 6226.00    0.56408   0.62276    0.009
 6227.00    0.55064   0.62252    0.009
 6228.00    0.54352   0.62442    0.009
 6229.00    0.56036   0.62185    0.009
 6230.00    0.56817   0.62071    0.009
 6231.00    0.54742   0.62313    0.009
 6232.00    0.53192   0.62087    0.009
 6233.00    0.53055   0.61861    0.008
 6234.00    0.54859   0.62115    0.008
 6235.00    0.61133   0.61967    0.008
 6236.00    0.65681   0.61632    0.008
 6237.00    0.66792   0.61854    0.008
 6238.00    0.66329   0.61811    0.008
 6239.00    0.63134   0.61404    0.008
 6240.00    0.62140   0.61562    0.008
 6241.00    0.64487   0.61625    0.008
 6242.00    0.66337   0.61197    0.008
 6243.00    0.67522   0.61284    0.008
 6244.00    0.66913   0.61434    0.008
 6245.00    0.64193   0.61037    0.008
 6246.00    0.62461   0.61069    0.008
 6247.00    0.61753   0.61284    0.008
 6248.00    0.60758   0.60962    0.008
 6249.00    0.59500   0.60973    0.008
 6250.00    0.59412   0.61250    0.008
 6251.00    0.60265   0.61035    0.008
 6252.00    0.63217   0.61049    0.008
 6253.00    0.67658   0.61393    0.008
 6254.00    0.68540   0.61301    0.009
 6255.00    0.67208   0.61323    0.009
 6256.00    0.65922   0.61721    0.009
 6257.00    0.64660   0.61751    0.009
 6258.00    0.64675   0.61763    0.009
 6259.00    0.65294   0.62172    0.009
 6260.00    0.66546   0.62296    0.009
 6261.00    0.68057   0.62284    0.010
 6262.00    0.70757   0.62645    0.010
 6263.00    0.73872   0.62829    0.011
 6264.00    0.68463   0.62791    0.011
 6265.00    0.60555   0.63060    0.010
 6266.00    0.52518   0.63256    0.010
 6267.00    0.44450   0.63205    0.009
 6268.00    0.48964   0.63377    0.009
 6269.00    0.55947   0.63561    0.008
 6270.00    0.59689   0.63509    0.008
 6271.00    0.62935   0.63604    0.008
 6272.00    0.61777   0.63763    0.008
 6273.00    0.60123   0.63718    0.008
 6274.00    0.60307   0.63769    0.008
 6275.00    0.60629   0.63904    0.008
 6276.00    0.60849   0.63868    0.008
 6277.00    0.61066   0.63900    0.008
 6278.00    0.59022   0.64005    0.008
 6279.00    0.57013   0.63964    0.008
 6280.00    0.57099   0.63977    0.000
 6281.00    0.57400   0.64045    0.000
 6282.00    0.61366   0.63990    0.000
 6283.00    0.65161   0.63964    0.000
 6284.00    0.67155   0.63982    0.000
 6285.00    0.68807   0.63911    0.000
 6286.00    0.67902   0.63838    0.000
 6287.00    0.66938   0.63804    0.000
 6288.00    0.65647   0.63727    0.000
 6289.00    0.64704   0.63613    0.000
 6290.00    0.65336   0.63553    0.000
 6291.00    0.66053   0.63487    0.000
 6292.00    0.67087   0.63350    0.000
 6293.00    0.68145   0.63302    0.000
 6294.00    0.69276   0.63268    0.000
 6295.00    0.69686   0.63120    0.000
 6296.00    0.68193   0.63111    0.000
 6297.00    0.66924   0.63128    0.000
 6298.00    0.66162   0.62971    0.000
 6299.00    0.66006   0.62990    0.000
 6300.00    0.67039   0.63065    0.000
 6301.00    0.66579   0.62894    0.000
 6302.00    0.63566   0.62894    0.000
 6303.00    0.61253   0.63022    0.000
 6304.00    0.59990   0.62845    0.000
 6305.00    0.59781   0.62780    0.000
 6306.00    0.60960   0.62951    0.000
 6307.00    0.62206   0.62800    0.000
 6308.00    0.63531   0.62648    0.000
 6309.00    0.65504   0.62851    0.000
 6310.00    0.68140   0.62786    0.000
 6311.00    0.69532   0.62569    0.000
 6312.00    0.69803   0.62772    0.000
 6313.00    0.68549   0.62833    0.000
 6314.00    0.66084   0.62618    0.000
 6315.00    0.63246   0.62789    0.000
 6316.00    0.60148   0.62952    0.000
 6317.00    0.59796   0.62792    0.000
 6318.00    0.61128   0.62916    0.000
 6319.00    0.62334   0.63123    0.000
 6320.00    0.63473   0.63025    0.000
 6321.00    0.63851   0.63084    0.008
 6322.00    0.63875   0.63260    0.008
 6323.00    0.62806   0.63207    0.008
 6324.00    0.61299   0.63203    0.008
 6325.00    0.60767   0.63296    0.008
 6326.00    0.60568   0.63253    0.008
 6327.00    0.61548   0.63218    0.008
 6328.00    0.62865   0.63225    0.008
 6329.00    0.63380   0.63153    0.008
 6330.00    0.63703   0.63119    0.008
 6331.00    0.63467   0.63092    0.008
 6332.00    0.63124   0.62986    0.008
 6333.00    0.63887   0.62965    0.008
 6334.00    0.64814   0.62948    0.008
 6335.00    0.67537   0.62838    0.008
 6336.00    0.70454   0.62832    0.008
 6337.00    0.74246   0.62830    0.008
 6338.00    0.78100   0.62740    0.008
 6339.00    0.76547   0.62743    0.008
 6340.00    0.74797   0.62736    0.008
 6341.00    0.71357   0.62652    0.008
 6342.00    0.67941   0.62640    0.008
 6343.00    0.65606   0.62620    0.008
 6344.00    0.63383   0.62533    0.008
 6345.00    0.62934   0.62479    0.008
 6346.00    0.62730   0.62419    0.008
 6347.00    0.64991   0.62318    0.008
 6348.00    0.67020   0.62214    0.008
 6349.00    0.67370   0.62125    0.008
 6350.00    0.67577   0.62026    0.008
 6351.00    0.66991   0.61893    0.008
 6352.00    0.66553   0.61821    0.008
 6353.00    0.66763   0.61766    0.008
 6354.00    0.66375   0.61637    0.008
 6355.00    0.63812   0.61609    0.008
 6356.00    0.61982   0.61650    0.008
 6357.00    0.62383   0.61582    0.008
 6358.00    0.62840   0.61607    0.008
 6359.00    0.63441   0.61756    0.008
 6360.00    0.63748   0.61787    0.008
 6361.00    0.63400   0.61855    0.008
 6362.00    0.63329   0.62088    0.008
 6363.00    0.63794   0.62222    0.008
 6364.00    0.63237   0.62303    0.008
 6365.00    0.60962   0.62538    0.008
 6366.00    0.59205   0.62742    0.008
 6367.00    0.58213   0.62823    0.008
 6368.00    0.57836   0.62998    0.008
 6369.00    0.58254   0.63208    0.008
 6370.00    0.58951   0.63276    0.008
 6371.00    0.59968   0.63362    0.008
 6372.00    0.59272   0.63535    0.008
 6373.00    0.56850   0.63570    0.008
 6374.00    0.55793   0.63564    0.008
 6375.00    0.55952   0.63695    0.008
 6376.00    0.57109   0.63696    0.008
 6377.00    0.59048   0.63604    0.008
 6378.00    0.59011   0.63707    0.008
 6379.00    0.57613   0.63708    0.008
 6380.00    0.57380   0.63541    0.008
 6381.00    0.57851   0.63603    0.008
 6382.00    0.61208   0.63614    0.008
 6383.00    0.66085   0.63389    0.008
 6384.00    0.66802   0.63425    0.008
 6385.00    0.65616   0.63472    0.008
 6386.00    0.64202   0.63217    0.008
 6387.00    0.62697   0.63223    0.008
 6388.00    0.61084   0.63316    0.008
 6389.00    0.59435   0.63064    0.008
 6390.00    0.59864   0.63021    0.008
 6391.00    0.60878   0.63155    0.008
 6392.00    0.62394   0.62965    0.008
 6393.00    0.64027   0.62882    0.008
 6394.00    0.64282   0.63020    0.008
 6395.00    0.64281   0.62912    0.008
 6396.00    0.61701   0.62805    0.008
 6397.00    0.58750   0.62914    0.008
 6398.00    0.57677   0.62890    0.008
 6399.00    0.56800   0.62791    0.008
 6400.00    0.58966   0.62837    0.008
 6401.00    0.61336   0.62854    0.008
 6402.00    0.64169   0.62812    0.008
 6403.00    0.67017   0.62797    0.008
 6404.00    0.67217   0.62758    0.008
 6405.00    0.67443   0.62792    0.008
 6406.00    0.68464   0.62809    0.008
 6407.00    0.69266   0.62680    0.008
 6408.00    0.66795   0.62754    0.008
 6409.00    0.64468   0.62864    0.008
 6410.00    0.63522   0.62660    0.008
 6411.00    0.62802   0.62699    0.008
 6412.00    0.63658   0.62920    0.008
 6413.00    0.64513   0.62734    0.008
 6414.00    0.65357   0.62687    0.008
 6415.00    0.66253   0.62959    0.008
 6416.00    0.67376   0.62879    0.008
 6417.00    0.68160   0.62756    0.008
 6418.00    0.67741   0.62979    0.008
 6419.00    0.67764   0.63012    0.008
 6420.00    0.69110   0.62887    0.008
 6421.00    0.70298   0.63003    0.008
 6422.00    0.71087   0.63078    0.008
 6423.00    0.70872   0.62998    0.008
 6424.00    0.68458   0.63025    0.008
 6425.00    0.65087   0.63094    0.008
 6426.00    0.59895   0.63069    0.008
 6427.00    0.56323   0.63060    0.008
 6428.00    0.55439   0.63101    0.008
 6429.00    0.56097   0.63107    0.008
 6430.00    0.58996   0.63104    0.008
 6431.00    0.60994   0.63115    0.008
 6432.00    0.61839   0.63086    0.008
 6433.00    0.63365   0.63109    0.008
 6434.00    0.65658   0.63148    0.008
 6435.00    0.66907   0.63047    0.008
 6436.00    0.67117   0.63047    0.008
 6437.00    0.67600   0.63144    0.008
 6438.00    0.68321   0.63001    0.008
 6439.00    0.68579   0.62946    0.008
 6440.00    0.68479   0.63080    0.008
 6441.00    0.69439   0.62925    0.008
 6442.00    0.71118   0.62754    0.008
 6443.00    0.69711   0.62902    0.008
 6444.00    0.66467   0.62868    0.008
 6445.00    0.64856   0.62602    0.008
 6446.00    0.64093   0.62675    0.008
 6447.00    0.65306   0.62820    0.008
 6448.00    0.67408   0.62531    0.008
 6449.00    0.63826   0.62456    0.008
 6450.00    0.58046   0.62760    0.008
 6451.00    0.56303   0.62579    0.008
 6452.00    0.55890   0.62371    0.008
 6453.00    0.56584   0.62731    0.008
 6454.00    0.57583   0.62714    0.008
 6455.00    0.57394   0.62432    0.008
 6456.00    0.56936   0.62743    0.008
 6457.00    0.57799   0.62873    0.008
 6458.00    0.58902   0.62575    0.008
 6459.00    0.59880   0.62780    0.008
 6460.00    0.60840   0.63029    0.008
 6461.00    0.62773   0.62751    0.008
 6462.00    0.64802   0.62802    0.008
 6463.00    0.63228   0.63124    0.008
 6464.00    0.61426   0.62912    0.008
 6465.00    0.60454   0.62798    0.008
 6466.00    0.59520   0.63111    0.008
 6467.00    0.63149   0.62996    0.008
 6468.00    0.66725   0.62751    0.008
 6469.00    0.68839   0.62963    0.008
 6470.00    0.70909   0.62943    0.008
 6471.00    0.72342   0.62645    0.008
 6472.00    0.73348   0.62712    0.008
 6473.00    0.70398   0.62711    0.008
 6474.00    0.67687   0.62391    0.008
 6475.00    0.66599   0.62323    0.008
 6476.00    0.65710   0.62304    0.008
 6477.00    0.65863   0.61972    0.008
 6478.00    0.66021   0.61779    0.008
 6479.00    0.66194   0.61717    0.008
 6480.00    0.66442   0.61376    0.008
 6481.00    0.66945   0.61080    0.008
 6482.00    0.67505   0.60959    0.008
 6483.00    0.68230   0.60653    0.008
 6484.00    0.68188   0.60349    0.008
 6485.00    0.66226   0.60176    0.008
 6486.00    0.63560   0.59928    0.008
 6487.00    0.59378   0.59707    0.008
 6488.00    0.56780   0.59561    0.008
 6489.00    0.57147   0.59398    0.008
 6490.00    0.57902   0.59288    0.008
 6491.00    0.59295   0.59246    0.008
 6492.00    0.61584   0.59212    0.008
 6493.00    0.65160   0.59217    0.008
 6494.00    0.67288   0.59302    0.008
 6495.00    0.67592   0.59396    0.008
 6496.00    0.67535   0.59515    0.008
 6497.00    0.67079   0.59709    0.008
 6498.00    0.67638   0.59856    0.008
 6499.00    0.69191   0.60065    0.008
 6500.00    0.68778   0.60357    0.008
 6501.00    0.66664   0.60467    0.008
 6502.00    0.64860   0.60651    0.008
 6503.00    0.63290   0.60981    0.008
 6504.00    0.63482   0.61048    0.008
 6505.00    0.64854   0.61120    0.008
 6506.00    0.65918   0.61408    0.008
 6507.00    0.66803   0.61475    0.008
 6508.00    0.66389   0.61439    0.008
 6509.00    0.65311   0.61629    0.008
 6510.00    0.64223   0.61720    0.008
 6511.00    0.63129   0.61631    0.008
 6512.00    0.63578   0.61700    0.008
 6513.00    0.64614   0.61811    0.008
 6514.00    0.64838   0.61741    0.008
 6515.00    0.64801   0.61717    0.008
 6516.00    0.62854   0.61811    0.008
 6517.00    0.60392   0.61788    0.008
 6518.00    0.60265   0.61722    0.008
 6519.00    0.60656   0.61774    0.008
 6520.00    0.61854   0.61785    0.008
 6521.00    0.63195   0.61731    0.008
 6522.00    0.63661   0.61733    0.008
 6523.00    0.64009   0.61730    0.008
 6524.00    0.60960   0.61720    0.008
 6525.00    0.57587   0.61696    0.008
 6526.00    0.55687   0.61634    0.008
 6527.00    0.53874   0.61622    0.008
 6528.00    0.56783   0.61593    0.000
 6529.00    0.59797   0.61484    0.000
 6530.00    0.60972   0.61427    0.000
 6531.00    0.62079   0.61384    0.000
 6532.00    0.61455   0.61233    0.000
 6533.00    0.60777   0.61114    0.000
 6534.00    0.59382   0.61030    0.000
 6535.00    0.58246   0.60825    0.000
 6536.00    0.59408   0.60627    0.000
 6537.00    0.60365   0.60497    0.000
 6538.00    0.59978   0.60263    0.000
 6539.00    0.59398   0.59975    0.000
 6540.00    0.57828   0.59751    0.000
 6541.00    0.56911   0.59460    0.000
 6542.00    0.58690   0.59092    0.000
 6543.00    0.60678   0.58808    0.000
 6544.00    0.63376   0.58468    0.000
 6545.00    0.65602   0.57970    0.000
 6546.00    0.66469   0.57645    0.000
 6547.00    0.66618   0.57364    0.000
 6548.00    0.65001   0.56750    0.000
 6549.00    0.64209   0.56299    0.000
 6550.00    0.65166   0.56170    0.000
 6551.00    0.65525   0.55601    0.000
 6552.00    0.64783   0.54951    0.000
 6553.00    0.63669   0.54967    0.000
 6554.00    0.61958   0.54740    0.000
 6555.00    0.64056   0.54099    0.000
 6556.00    0.71532   0.54121    0.000
 6557.00    0.81098   0.54231    0.000
 6558.00    0.93261   0.53743    0.000
 6559.00    1.02983   0.53732    0.000
 6560.00    1.10033   0.54194    0.000
 6561.00    1.10120   0.54025    0.000
 6562.00    1.03479   0.53949    0.000
 6563.00    0.94150   0.54582    0.000
 6564.00    0.82532   0.54757    0.000
 6565.00    0.73533   0.54664    0.000
 6566.00    0.66501   0.55297    0.000
 6567.00    0.60746   0.55805    0.000
 6568.00    0.55833   0.55841    0.000
 6569.00    0.52772   0.56259    0.000
 6570.00    0.50781   0.56779    0.000
 6571.00    0.50850   0.56948    0.000
 6572.00    0.51956   0.57208    0.000
 6573.00    0.54469   0.57638    0.000
 6574.00    0.57594   0.57870    0.000
 6575.00    0.60693   0.58002    0.000
 6576.00    0.63781   0.58278    0.000
 6577.00    0.67827   0.58526    0.000
 6578.00    0.72175   0.58603    0.000
 6579.00    0.76329   0.58725    0.000
 6580.00    0.80432   0.58941    0.000
 6581.00    0.82767   0.58986    0.000
 6582.00    0.84721   0.58909    0.000
 6583.00    0.82144   0.59046    0.000
 6584.00    0.78791   0.59178    0.000
 6585.00    0.73822   0.59046    0.000
 6586.00    0.68644   0.59088    0.000
 6587.00    0.63938   0.59244    0.000
 6588.00    0.59275   0.59099    0.000
 6589.00    0.58261   0.59069    0.000
 6590.00    0.57448   0.59271    0.000
 6591.00    0.58339   0.59200    0.000
 6592.00    0.59278   0.59094    0.000
 6593.00    0.61329   0.59267    0.000
 6594.00    0.63233   0.59297    0.000
 6595.00    0.61795   0.59145    0.000
 6596.00    0.60151   0.59261    0.000
 6597.00    0.55894   0.59407    0.000
 6598.00    0.52469   0.59294    0.000
 6599.00    0.56170   0.59331    0.000
 6600.00    0.59735   0.59507    0.000
 6601.00    0.62428   0.59479    0.000
 6602.00    0.64347   0.59460    0.000
 6603.00    0.62412   0.59588    0.000
 6604.00    0.60823   0.59655    0.000
 6605.00    0.60625   0.59639    0.000
 6606.00    0.60215   0.59681    0.000
 6607.00    0.59091   0.59770    0.000
 6608.00    0.58690   0.59790    0.000
 6609.00    0.60328   0.59792    0.008
 6610.00    0.61940   0.59851    0.008
 6611.00    0.63487   0.59886    0.008
 6612.00    0.64311   0.59868    0.008
 6613.00    0.63625   0.59850    0.008
 6614.00    0.63898   0.59872    0.008
 6615.00    0.65910   0.59874    0.008
 6616.00    0.68068   0.59764    0.008
 6617.00    0.70456   0.59720    0.008
 6618.00    0.72178   0.59751    0.008
 6619.00    0.72973   0.59615    0.008
 6620.00    0.71549   0.59485    0.008
 6621.00    0.67405   0.59503    0.008
 6622.00    0.63209   0.59391    0.008
 6623.00    0.58955   0.59212    0.008
 6624.00    0.57510   0.59215    0.008
 6625.00    0.58742   0.59168    0.008
 6626.00    0.60467   0.58980    0.008
 6627.00    0.62607   0.58961    0.008
 6628.00    0.62533   0.58989    0.008
 6629.00    0.60824   0.58823    0.008
 6630.00    0.58607   0.58809    0.008
 6631.00    0.56062   0.58908    0.008
 6632.00    0.54295   0.58740    0.008
 6633.00    0.52969   0.58682    0.008
 6634.00    0.55790   0.58869    0.008
 6635.00    0.60664   0.58781    0.008
 6636.00    0.63303   0.58635    0.008
 6637.00    0.64985   0.58818    0.008
 6638.00    0.64098   0.58880    0.008
 6639.00    0.62268   0.58711    0.008
 6640.00    0.60372   0.58789    0.008
 6641.00    0.58456   0.58921    0.008
 6642.00    0.56451   0.58764    0.008
 6643.00    0.54424   0.58732    0.008
 6644.00    0.56984   0.58905    0.008
 6645.00    0.60513   0.58801    0.008
 6646.00    0.61036   0.58640    0.008
 6647.00    0.61059   0.58775    0.008
 6648.00    0.58850   0.58783    0.008
 6649.00    0.56362   0.58569    0.008
 6650.00    0.56569   0.58581    0.008
 6651.00    0.57011   0.58651    0.008
 6652.00    0.58046   0.58453    0.008
 6653.00    0.59112   0.58358    0.008
 6654.00    0.63552   0.58455    0.008
 6655.00    0.67987   0.58320    0.008
 6656.00    0.67864   0.58151    0.008
 6657.00    0.67712   0.58229    0.008
 6658.00    0.66965   0.58207    0.008
 6659.00    0.66090   0.58041    0.008
 6660.00    0.63679   0.58043    0.008
 6661.00    0.61423   0.58101    0.008
 6662.00    0.60452   0.58009    0.008
 6663.00    0.59760   0.57938    0.008
 6664.00    0.60793   0.58003    0.008
 6665.00    0.61846   0.58009    0.008
 6666.00    0.63000   0.57913    0.008
 6667.00    0.64106   0.57889    0.008
 6668.00    0.65028   0.58000    0.008
 6669.00    0.65378   0.57994    0.008
 6670.00    0.63850   0.57843    0.008
 6671.00    0.62046   0.57922    0.008
 6672.00    0.59473   0.58069    0.008
 6673.00    0.57691   0.57944    0.008
 6674.00    0.57789   0.57899    0.008
 6675.00    0.58408   0.58066    0.008
 6676.00    0.60094   0.58043    0.008
 6677.00    0.61609   0.57918    0.008
 6678.00    0.62815   0.58052    0.008
 6679.00    0.63130   0.58128    0.008
 6680.00    0.62050   0.57960    0.008
 6681.00    0.61526   0.57997    0.008
 6682.00    0.61765   0.58151    0.008
 6683.00    0.61353   0.58076    0.008
 6684.00    0.60155   0.58004    0.008
 6685.00    0.60537   0.58060    0.008
 6686.00    0.62600   0.58065    0.008
 6687.00    0.63161   0.57981    0.008
 6688.00    0.62312   0.57943    0.008
 6689.00    0.62610   0.57952    0.008
 6690.00    0.63859   0.57887    0.008
 6691.00    0.65302   0.57828    0.008
 6692.00    0.66887   0.57811    0.008
 6693.00    0.66400   0.57754    0.008
 6694.00    0.64586   0.57695    0.008
 6695.00    0.63545   0.57638    0.008
 6696.00    0.62936   0.57558    0.000
 6697.00    0.62862   0.57507    0.000
 6698.00    0.63050   0.57462    0.000
 6699.00    0.63445   0.57356    0.000
 6700.00    0.63928   0.57278    0.000
 6701.00    0.62459   0.57280    0.000
 6702.00    0.60286   0.57185    0.000
 6703.00    0.58585   0.57053    0.000
 6704.00    0.57027   0.57050    0.000
 6705.00    0.58300   0.56995    0.000
 6706.00    0.60290   0.56826    0.000
 6707.00    0.64117   0.56782    0.000
 6708.00    0.68322   0.56818    0.000
 6709.00    0.70726   0.56691    0.000
 6710.00    0.72838   0.56593    0.000
 6711.00    0.74615   0.56679    0.000
 6712.00    0.76352   0.56658    0.000
 6713.00    0.76654   0.56570    0.000
 6714.00    0.76836   0.56603    0.000
 6715.00    0.78308   0.56648    0.000
 6716.00    0.79842   0.56645    0.000
 6717.00    0.79524   0.56648    0.000
 6718.00    0.79102   0.56694    0.000
 6719.00    0.74327   0.56737    0.000
 6720.00    0.69522   0.56751    0.000
 6721.00    0.64145   0.56800    0.000
 6722.00    0.59154   0.56864    0.000
 6723.00    0.58589   0.56904    0.000
 6724.00    0.58293   0.56885    0.000
 6725.00    0.60129   0.56879    0.000
 6726.00    0.62098   0.56945    0.000
 6727.00    0.64857   0.56932    0.000
 6728.00    0.66977   0.56858    0.000
 6729.00    0.66068   0.56870    0.000
 6730.00    0.65279   0.56878    0.000
 6731.00    0.64952   0.56780    0.000
 6732.00    0.63772   0.56717    0.000
 6733.00    0.59842   0.56766    0.000
 6734.00    0.56710   0.56694    0.000
 6735.00    0.55751   0.56530    0.000
 6736.00    0.54784   0.56557    0.000
 6737.00    0.53801   0.56574    0.000
 6738.00    0.53657   0.56425    0.000
 6739.00    0.55209   0.56383    0.000
 6740.00    0.57309   0.56451    0.000
 6741.00    0.60371   0.56362    0.000
 6742.00    0.62814   0.56256    0.000
 6743.00    0.64307   0.56393    0.000
 6744.00    0.63656   0.56416    0.000
 6745.00    0.60107   0.56256    0.000
 6746.00    0.59577   0.56365    0.000
 6747.00    0.62642   0.56500    0.000
 6748.00    0.63346   0.56410    0.000
 6749.00    0.61571   0.56430    0.000
 6750.00    0.59312   0.56584    0.000
 6751.00    0.56605   0.56592    0.000
 6752.00    0.59351   0.56556    0.000
 6753.00    0.66548   0.56683    0.008
 6754.00    0.70356   0.56739    0.009
 6755.00    0.71729   0.56688    0.009
 6756.00    0.66631   0.56754    0.009
 6757.00    0.57453   0.56831    0.009
 6758.00    0.49957   0.56820    0.009
 6759.00    0.43390   0.56794    0.009
 6760.00    0.45392   0.56820    0.009
 6761.00    0.51499   0.56878    0.009
 6762.00    0.62190   0.56872    0.009
 6763.00    0.74777   0.56822    0.009
 6764.00    0.76178   0.56845    0.009
 6765.00    0.73624   0.56884    0.009
 6766.00    0.70695   0.56832    0.009
 6767.00    0.67654   0.56830    0.009
 6768.00    0.69195   0.56886    0.009
 6769.00    0.71872   0.56817    0.009
 6770.00    0.73035   0.56766    0.009
 6771.00    0.73894   0.56835    0.009
 6772.00    0.71562   0.56811    0.008
 6773.00    0.68729   0.56722    0.008
 6774.00    0.65261   0.56726    0.008
 6775.00    0.61720   0.56689    0.008
 6776.00    0.59777   0.56602    0.008
 6777.00    0.57961   0.56605    0.008
 6778.00    0.60189   0.56565    0.008
 6779.00    0.62593   0.56466    0.008
 6780.00    0.59791   0.56488    0.008
 6781.00    0.57004   0.56467    0.008
 6782.00    0.57454   0.56340    0.009
 6783.00    0.58001   0.56351    0.009
 6784.00    0.60304   0.56394    0.008
 6785.00    0.62603   0.56250    0.008
 6786.00    0.64854   0.56198    0.008
 6787.00    0.66793   0.56314    0.008
 6788.00    0.66330   0.56247    0.009
 6789.00    0.65816   0.56157    0.009
 6790.00    0.65000   0.56292    0.009
 6791.00    0.63470   0.56302    0.009
 6792.00    0.58634   0.56165    0.008
 6793.00    0.55448   0.56228    0.008
 6794.00    0.58504   0.56349    0.008
 6795.00    0.60906   0.56230    0.008
 6796.00    0.61244   0.56164    0.008
 6797.00    0.61176   0.56315    0.008
 6798.00    0.60025   0.56298    0.008
 6799.00    0.60042   0.56179    0.008
 6800.00    0.62740   0.56279    0.008
 6801.00    0.64234   0.56339    0.008
 6802.00    0.63331   0.56213    0.008
 6803.00    0.61875   0.56215    0.008
 6804.00    0.59462   0.56333    0.008
 6805.00    0.57853   0.56287    0.008
 6806.00    0.57461   0.56202    0.008
 6807.00    0.57326   0.56270    0.008
 6808.00    0.57533   0.56320    0.008
 6809.00    0.58131   0.56268    0.008
 6810.00    0.59188   0.56284    0.008
 6811.00    0.61190   0.56339    0.008
 6812.00    0.64170   0.56310    0.008
 6813.00    0.68305   0.56295    0.009
 6814.00    0.73494   0.56344    0.009
 6815.00    0.73123   0.56377    0.009
 6816.00    0.68278   0.56357    0.008
 6817.00    0.65777   0.56334    0.008
 6818.00    0.64935   0.56364    0.008
 6819.00    0.65087   0.56380    0.008
 6820.00    0.65856   0.56331    0.008
 6821.00    0.62988   0.56292    0.008
 6822.00    0.58146   0.56290    0.008
 6823.00    0.56224   0.56270    0.008
 6824.00    0.55678   0.56205    0.008
 6825.00    0.56011   0.56159    0.008
 6826.00    0.56701   0.56137    0.008
 6827.00    0.55718   0.56073    0.008
 6828.00    0.54155   0.55986    0.008
 6829.00    0.56968   0.55938    0.008
 6830.00    0.61061   0.55886    0.008
 6831.00    0.63083   0.55779    0.008
 6832.00    0.64603   0.55710    0.008
 6833.00    0.63589   0.55683    0.008
 6834.00    0.62080   0.55606    0.008
 6835.00    0.62265   0.55531    0.008
 6836.00    0.62709   0.55500    0.008
 6837.00    0.63471   0.55477    0.009
 6838.00    0.64269   0.55437    0.009
 6839.00    0.64909   0.55389    0.009
 6840.00    0.65538   0.55344    0.009
 6841.00    0.62394   0.55330    0.009
 6842.00    0.59099   0.55325    0.009
 6843.00    0.54622   0.55242    0.008
 6844.00    0.50488   0.55210    0.008
 6845.00    0.60352   0.55284    0.008
 6846.00    0.69637   0.55216    0.008
 6847.00    0.69158   0.55084    0.008
 6848.00    0.68718   0.55161    0.008
 6849.00    0.68694   0.55183    0.008
 6850.00    0.68294   0.54983    0.008
 6851.00    0.65104   0.54994    0.008
 6852.00    0.62680   0.55116    0.008
 6853.00    0.64596   0.54920    0.008
 6854.00    0.65738   0.54786    0.008
 6855.00    0.63382   0.54990    0.008
 6856.00    0.61449   0.54969    0.008
 6857.00    0.61079   0.54699    0.008
 6858.00    0.60146   0.54798    0.008
 6859.00    0.57467   0.54954    0.008
 6860.00    0.56185   0.54721    0.008
 6861.00    0.58577   0.54669    0.008
 6862.00    0.60086   0.54916    0.008
 6863.00    0.59598   0.54843    0.008
 6864.00    0.59031   0.54626    0.008
 6865.00    0.58311   0.54802    0.008
 6866.00    0.58608   0.54969    0.008
 6867.00    0.60640   0.54771    0.008
 6868.00    0.62523   0.54737    0.008
 6869.00    0.64186   0.54977    0.008
 6870.00    0.61950   0.54956    0.008
 6871.00    0.54591   0.54799    0.008
 6872.00    0.50342   0.54982    0.008
 6873.00    0.49694   0.55159    0.008
 6874.00    0.52161   0.54992    0.008
 6875.00    0.57809   0.54978    0.008
 6876.00    0.61088   0.55258    0.008
 6877.00    0.62235   0.55281    0.008
 6878.00    0.61813   0.55124    0.008
 6879.00    0.60147   0.55318    0.008
 6880.00    0.58759   0.55534    0.008
 6881.00    0.57565   0.55391    0.008
 6882.00    0.60226   0.55411    0.008
 6883.00    0.65245   0.55692    0.008
 6884.00    0.66884   0.55675    0.008
 6885.00    0.66717   0.55545    0.008
 6886.00    0.67223   0.55761    0.008
 6887.00    0.68041   0.55924    0.008
 6888.00    0.64498   0.55765    0.008
 6889.00    0.59211   0.55803    0.008
 6890.00    0.58621   0.56029    0.008
 6891.00    0.59631   0.55975    0.008
 6892.00    0.57647   0.55879    0.008
 6893.00    0.54803   0.56029    0.008
 6894.00    0.53609   0.56106    0.008
 6895.00    0.52806   0.55982    0.008
 6896.00    0.51928   0.55992    0.008
 6897.00    0.51035   0.56108    0.008
 6898.00    0.56253   0.56051    0.008
 6899.00    0.62373   0.55968    0.008
 6900.00    0.62807   0.56032    0.008
 6901.00    0.62627   0.56069    0.008
 6902.00    0.59900   0.55963    0.008
 6903.00    0.56993   0.55916    0.008
 6904.00    0.61094   0.55985    0.008
 6905.00    0.65446   0.55944    0.008
 6906.00    0.63877   0.55826    0.008
 6907.00    0.62214   0.55837    0.008
 6908.00    0.58011   0.55864    0.008
 6909.00    0.54216   0.55747    0.008
 6910.00    0.56901   0.55680    0.008
 6911.00    0.59166   0.55731    0.008
 6912.00    0.57225   0.55687    0.008
 6913.00    0.55045   0.55594    0.009
 6914.00    0.51142   0.55600    0.008
 6915.00    0.48360   0.55611    0.008
 6916.00    0.51762   0.55515    0.008
 6917.00    0.54038   0.55471    0.008
 6918.00    0.51351   0.55489    0.008
 6919.00    0.50716   0.55455    0.008
 6920.00    0.57523   0.55429    0.008
 6921.00    0.62412   0.55414    0.008
 6922.00    0.61474   0.55412    0.008
 6923.00    0.59978   0.55411    0.008
 6924.00    0.57041   0.55387    0.008
 6925.00    0.54404   0.55359    0.008
 6926.00    0.52436   0.55364    0.008
 6927.00    0.52981   0.55377    0.008
 6928.00    0.58367   0.55331    0.008
 6929.00    0.62177   0.55317    0.008
 6930.00    0.63337   0.55347    0.008
 6931.00    0.64319   0.55343    0.010
 6932.00    0.65037   0.55312    0.029
 6933.00    0.63459   0.55301   -1.000
 6934.00    0.58905   0.55320   -1.000
 6935.00    0.54184   0.55295   -1.000
 6936.00    0.49272   0.55234   -1.000
 6937.00    0.47865   0.55224   -1.000
 6938.00    0.49983   0.55259   -1.000
 6939.00    0.53449   0.55221   -1.000
 6940.00    0.58110   0.55141   -1.000
 6941.00    0.58541   0.55192   -1.000
 6942.00    0.55665   0.55242   -1.000
 6943.00    0.53575   0.55152   -1.000
 6944.00    0.52025   0.55136   -1.000
 6945.00    0.52699   0.55225    0.026
 6946.00    0.54714   0.55191    0.010
 6947.00    0.57155   0.55117    0.008
 6948.00    0.59821   0.55220    0.008
 6949.00    0.61588   0.55303    0.008
 6950.00    0.62944   0.55240    0.008
 6951.00    0.61024   0.55270    0.008
 6952.00    0.57817   0.55378    0.008
 6953.00    0.60837   0.55362    0.008
 6954.00    0.65940   0.55341    0.008
 6955.00    0.65141   0.55424    0.008
 6956.00    0.62685   0.55446    0.008
 6957.00    0.58409   0.55410    0.008
 6958.00    0.53713   0.55459    0.008
 6959.00    0.52536   0.55489    0.008
 6960.00    0.52013   0.55429    0.008
 6961.00    0.53502   0.55421    0.008
 6962.00    0.55279   0.55440    0.008
 6963.00    0.59251   0.55331    0.008
 6964.00    0.63451   0.55261    0.008
 6965.00    0.63657   0.55333    0.008
 6966.00    0.63597   0.55247    0.008
 6967.00    0.64174   0.55078    0.008
 6968.00    0.64771   0.55128    0.008
 6969.00    0.64575   0.55162    0.008
 6970.00    0.64191   0.54953    0.008
 6971.00    0.58100   0.54889    0.008
 6972.00    0.52333   0.55049    0.008
 6973.00    0.51398   0.54942    0.008
 6974.00    0.50652   0.54757    0.008
 6975.00    0.51719   0.54923    0.008
 6976.00    0.53004   0.55049    0.008
 6977.00    0.55797   0.54881    0.008
 6978.00    0.58532   0.54871    0.008
 6979.00    0.60961   0.55075    0.008
 6980.00    0.62734   0.55050    0.008
 6981.00    0.61683   0.54930    0.008
 6982.00    0.60024   0.55072    0.008
 6983.00    0.56208   0.55216    0.008
 6984.00    0.52603   0.55130    0.008
 6985.00    0.49627   0.55093    0.008
 6986.00    0.48232   0.55209    0.008
 6987.00    0.50852   0.55226    0.008
 6988.00    0.53727   0.55128    0.008
 6989.00    0.57159   0.55123    0.008
 6990.00    0.57698   0.55186    0.008
 6991.00    0.52751   0.55126    0.008
 6992.00    0.51489   0.55017    0.008
 6993.00    0.56331   0.55029    0.008
 6994.00    0.58381   0.55033    0.008
 6995.00    0.56382   0.54925    0.008
 6996.00    0.55909   0.54843    0.008
 6997.00    0.57387   0.54853    0.008
 6998.00    0.60432   0.54819    0.008
 6999.00    0.65241   0.54719    0.008
 7000.00    0.66130   0.54678    0.008
 7001.00    0.63130   0.54641    0.008
 7002.00    0.62718   0.54572    0.008
 7003.00    0.64571   0.54540    0.008
 7004.00    0.63576   0.54514    0.008
 7005.00    0.60386   0.54476    0.008
 7006.00    0.59878   0.54471    0.008
 7007.00    0.61188   0.54447    0.008
 7008.00    0.61597   0.54353    0.008
 7009.00    0.61471   0.54344    0.009
 7010.00    0.63167   0.54419    0.009
 7011.00    0.65805   0.54356    0.009
 7012.00    0.67294   0.54269    0.009
 7013.00    0.68268   0.54374    0.009
 7014.00    0.65148   0.54458    0.009
 7015.00    0.60448   0.54355    0.009
 7016.00    0.58945   0.54343    0.009
 7017.00    0.58493   0.54499    0.009
 7018.00    0.60246   0.54498    0.009
 7019.00    0.62606   0.54384    0.009
 7020.00    0.60141   0.54498    0.009
 7021.00    0.56585   0.54715    0.009
 7022.00    0.58526   0.54692    0.009
 7023.00    0.61460   0.54609    0.009
 7024.00    0.61765   0.54784    0.009
 7025.00    0.61707   0.54937    0.009
 7026.00    0.62496   0.54821    0.009
 7027.00    0.63370   0.54844    0.009
 7028.00    0.62741   0.55145    0.009
 7029.00    0.62017   0.55220    0.009
 7030.00    0.59879   0.55056    0.009
 7031.00    0.57729   0.55210    0.009
 7032.00    0.62992   0.55466    0.009
 7033.00    0.67993   0.55321    0.009
 7034.00    0.65799   0.55241    0.009
 7035.00    0.63754   0.55532    0.009
 7036.00    0.63815   0.55619    0.009
 7037.00    0.63315   0.55390    0.009
 7038.00    0.57648   0.55441    0.009
 7039.00    0.53219   0.55628    0.009
 7040.00    0.57135   0.55413    0.009
 7041.00    0.60275   0.55209    0.009
 7042.00    0.59359   0.55347    0.009
 7043.00    0.59361   0.55348    0.009
 7044.00    0.63229   0.55056    0.009
 7045.00    0.64266   0.54930    0.009
 7046.00    0.55452   0.54957    0.009
 7047.00    0.50121   0.54695    0.009
 7048.00    0.54983   0.54386    0.009
 7049.00    0.57924   0.54358    0.009
 7050.00    0.56068   0.54296   -2.000
 7051.00    0.54876   0.54016   -2.000
 7052.00    0.55112   0.53830   -2.000
 7053.00    0.56789   0.53793   -2.000
 7054.00    0.61157   0.53588   -2.000
 7055.00    0.63019   0.53330   -2.000
 7056.00    0.60794   0.53275   -2.000
 7057.00    0.62706   0.53234   -2.000
 7058.00    0.70537   0.53092   -2.000
 7059.00    0.74083   0.53023   -2.000
 7060.00    0.72235   0.53004   -2.000
 7061.00    0.70535   0.52897   -2.000
 7062.00    0.68996   0.52813   -2.000
 7063.00    0.67242   0.52803   -2.000
 7064.00    0.65278   0.52762   -2.000
 7065.00    0.63234   0.52742   -2.000
 7066.00    0.61122   0.52788   -2.000
 7067.00    0.59649   0.52751   -2.000
 7068.00    0.58660   0.52657   -2.000
 7069.00    0.62309   0.52648   -2.000
 7070.00    0.69053   0.52626   -2.000
 7071.00    0.70538   0.52517   -2.000
 7072.00    0.68947   0.52446   -2.000
 7073.00    0.65451   0.52444   -2.000
 7074.00    0.60983   0.52360   -2.000
 7075.00    0.61407   0.52205   -2.000
 7076.00    0.63991   0.52100   -2.000
 7077.00    0.63996   0.52016   -2.000
 7078.00    0.63023   0.51863   -2.000
 7079.00    0.61799   0.51689   -2.000
 7080.00    0.60495   0.51593   -2.000
 7081.00    0.64314   0.51510   -2.000
 7082.00    0.69513   0.51365   -2.000
 7083.00    0.73671   0.51220   -2.000
 7084.00    0.77599   0.51136   -2.000
 7085.00    0.73882   0.51034   -2.000
 7086.00    0.68822   0.50911   -2.000
 7087.00    0.66278   0.50850   -2.000
 7088.00    0.64072   0.50806   -2.000
 7089.00    0.58547   0.50756   -2.000
 7090.00    0.52707   0.50714   -2.000
 7091.00    0.57967   0.50671   -2.000
 7092.00    0.63879   0.50624   -2.000
 7093.00    0.67387   0.50630   -2.000
 7094.00    0.70757   0.50650   -2.000
 7095.00    0.63534   0.50591   -2.000
 7096.00    0.56443   0.50577   -2.000
 7097.00    0.52645   0.50636   -2.000
 7098.00    0.49433   0.50600   -2.000
 7099.00    0.53997   0.50518   -2.000
 7100.00    0.57516   0.50560   -2.000
 7101.00    0.51767   0.50621   -2.000
 7102.00    0.47635   0.50528   -2.000
 7103.00    0.54064   0.50450   -2.000
 7104.00    0.59536   0.50525   -2.000
 7105.00    0.60138   0.50518   -2.000
 7106.00    0.60816   0.50387   -2.000
 7107.00    0.61805   0.50352   -2.000
 7108.00    0.62841   0.50420   -2.000
 7109.00    0.64035   0.50378   -2.000
 7110.00    0.63911   0.50229   -2.000
 7111.00    0.59997   0.50223   -2.000
 7112.00    0.57036   0.50270   -2.000
 7113.00    0.56413   0.50175   -2.000
 7114.00    0.57643   0.50037   -2.000
 7115.00    0.62793   0.50052   -2.000
 7116.00    0.67115   0.50104   -2.000
 7117.00    0.69911   0.49962   -2.000
 7118.00    0.69377   0.49854   -2.000
 7119.00    0.63492   0.49914   -2.000
 7120.00    0.58840   0.49903   -2.000
 7121.00    0.55926   0.49753   -2.000
 7122.00    0.59921   0.49734   -2.000
 7123.00    0.72483   0.49833   -2.000
 7124.00    0.78921   0.49754   -2.000
 7125.00    0.78663   0.49661   -2.000
 7126.00    0.74025   0.49730   -2.000
 7127.00    0.65164   0.49760   -2.000
 7128.00    0.61861   0.49674   -2.000
 7129.00    0.63286   0.49703   -2.000
 7130.00    0.66746   0.49803   -2.000
 7131.00    0.71732   0.49763   -2.000
 7132.00    0.75153   0.49730   -2.000
 7133.00    0.77544   0.49810   -2.000
 7134.00    0.68064   0.49857   -2.000
 7135.00    0.51747   0.49805   -2.000
 7136.00    0.47680   0.49808   -2.000
 7137.00    0.49760   0.49897   -2.000
 7138.00    0.54702   0.49933   -2.000
 7139.00    0.60886   0.49883   -2.000
 7140.00    0.64223   0.49889   -2.000
 7141.00    0.66499   0.50005   -2.000
 7142.00    0.62701   0.50018   -2.000
 7143.00    0.56985   0.49906   -2.000
 7144.00    0.61087   0.49954   -2.000
 7145.00    0.67777   0.50126   -2.000
 7146.00    0.67988   0.50071   -2.000
 7147.00    0.66803   0.49974   -2.000
 7148.00    0.62637   0.50127   -2.000
 7149.00    0.57963   0.50231   -2.000
 7150.00    0.62588   0.50097   -2.000
 7151.00    0.68416   0.50089   -2.000
 7152.00    0.68252   0.50274   -2.000
 7153.00    0.67543   0.50252   -2.000
 7154.00    0.66034   0.50155   -2.000
 7155.00    0.64481   0.50269   -2.000
 7156.00    0.60982   0.50379   -2.000
 7157.00    0.57413   0.50305   -2.000
 7158.00    0.51193   0.50283   -2.000
 7159.00    0.45987   0.50401   -2.000
 7160.00    0.63799   0.50408   -2.000
 7161.00    0.81192   0.50351   -2.000
 7162.00    0.93320   0.50419   -2.000
 7163.00    1.02743   0.50513   -2.000
 7164.00    0.89086   0.50465   -2.000
 7165.00    0.73963   0.50413   -2.000
 7166.00    0.49553   0.50511   -2.000
 7167.00    0.33969   0.50555   -2.000
 7168.00    0.62211   0.50445   -2.000
 7169.00    0.82783   0.50402   -2.000
 7170.00    0.72483   0.50485   -2.000
 7171.00    0.64425   0.50462   -2.000
 7172.00    0.63864   0.50347   -2.000
 7173.00    0.61784   0.50374   -2.000
 7174.00    0.55420   0.50413   -2.000
 7175.00    0.54608   0.50259   -2.000
 7176.00    0.67186   0.50122   -2.000
 7177.00    0.75854   0.50156   -2.000
 7178.00    0.76383   0.50161   -2.000
 7179.00    0.77864   0.50079   -2.000
 7180.00    0.81069   0.50043   -2.000
 7181.00    0.79052   0.50009   -2.000
 7182.00    0.68767   0.49911   -2.000
 7183.00    0.62931   0.49861   -2.000
 7184.00    0.63276   0.49864   -2.000
 7185.00    0.60531   0.49834   -2.000
 7186.00    0.54009   0.49852   -2.000
 7187.00    0.54486   0.49872   -2.000
 7188.00    0.62509   0.49790   -2.000
 7189.00    0.65380   0.49738   -2.000
 7190.00    0.63353   0.49801   -2.000
 7191.00    0.61421   0.49824   -2.000
 7192.00    0.59568   0.49778   -2.000
 7193.00    0.55027   0.49836   -2.000
 7194.00    0.48502   0.49889   -2.000
 7195.00    0.47743   0.49802   -2.000
 7196.00    0.50721   0.49776   -2.000
 7197.00    0.51925   0.49849   -2.000
 7198.00    0.52122   0.49873   -2.000
 7199.00    0.57112   0.49894   -2.000
 7200.00    0.64470   0.49956   -2.000
 7201.00    0.70828   0.49954   -2.000
 7202.00    0.76759   0.49886   -2.000
 7203.00    0.71111   0.49926   -2.000
 7204.00    0.61227   0.49986   -2.000
 7205.00    0.47893   0.50008   -2.000
 7206.00    0.33491   0.50109   -2.000
 7207.00    0.38283   0.50181   -2.000
 7208.00    0.48029   0.50155   -2.000
 7209.00    0.43538   0.50159   -2.000
 7210.00    0.36053   0.50259   -2.000
 7211.00    0.45138   0.50314   -2.000
 7212.00    0.56975   0.50363   -2.000
 7213.00    0.59487   0.50503   -2.000
 7214.00    0.60833   0.50578   -2.000
 7215.00    0.65318   0.50601   -2.000
 7216.00    0.70075   0.50676   -2.000
 7217.00    0.62164   0.50751   -2.000
 7218.00    0.53609   0.50809   -2.000
