###################################################################
## OUTPUT of StarlightChains_v04.for    [Cid@UFSC - 01/Apr/2007] ##
###################################################################

## Some input info
KUG0210-078._54_31.txt                   [arq_obs]
Base.CB07.vall.4m                        [arq_base]
Masks.EmLines.NEW.gm                     [arq_masks]
StCv04.C11.config                        [arq_config]
   66                                    [N_base]
    0                                    [N_YAV_components = # of components with extra extinction!]
    0                                    [i_FitPowerLaw (1/0 = Yes/No)]
-9.99                                    [alpha_PowerLaw]
CCM                                      [red_law_option]
 1.458241                                [q_norm = A(l_norm)/A(V)]

## (Re)Sampling Parameters
 3741.00                                 [l_ini (A)]
 7218.00                                 [l_fin (A)]
    1.00                                 [dl    (A)]     (OBS: dl_cushion =    50.00 A)

## Normalization info
 4020.00                                 [l_norm (A) - for base]
 4010.00                                 [llow_norm (A) - window for f_obs]
 4060.00                                 [lupp_norm (A) - window for f_obs]
3.934420E-18                             [fobs_norm (in input units)]

## S/N
 3691.00                                 [llow_SN (A) - window for S/N]
 7268.00                                 [lupp_SN (A) - window for S/N]
   2.811                                 [S/N in S/N window]
   2.321                                 [S/N in norm. window]
   0.005                                 [S/N_err in S/N window]
   0.004                                 [S/N_err in norm. window]
  1.0000                                 [fscale_chi2]

## etc...
    -2008007                             [idum_orig]
  2389                                   [NOl_eff]
  2367                                   [Nl_eff]
    22    NSIGMA                         [Ntot_cliped & clip_method]
  1143030                                [Nglobal_steps]
   7                                     [N_chains]
  36                                     [NEX0s_base = N_base in EX0s-fits]
 0   0   1       22   2.0   7.757E+02    [Clip-Bug, RC-Crash & Burn-In warning-flags, n_censored_weights, wei_nsig_threshold & wei_limit]
    28     27.467     26.670      0.798  [idt_all, wdt_TotTime, wdt_UsrTime & wdt_SysTime (sec)]

## Synthesis Results - Best model ##

 9.30203E-06                             [chi2/Nl_eff]
    77.67380                             [adev (%)]

   129.99998                             [sum-of-x (%)]
 9.00350E-17                             [Flux_tot (units of input spectrum!)]
 4.76853E-14                             [Mini_tot (???)]
 2.87471E-14                             [Mcor_tot (???)]

-216.15                                  [v0_min  (km/s)]
 367.00                                  [vd_min  (km/s)]
 2.1354                                  [AV_min  (mag)]
 0.0000                                  [YAV_min (mag)]

# j     x_j(%)      Mini_j(%)     Mcor_j(%)     age_j(yr)     Z_j      (L/M)_j    YAV?  Mstars   component_j        a/Fe...       SSP_chi2r SSP_adev(%)   SSP_AV   SSP_x(%)
  1      0.0000     0.0000E+00    0.0000E+00    1.000000E+06  0.00400  1.094E-02    0   1.0000   age020_m42            0.0000     8.8776E-06    79.9177   2.6105   136.2899
  2     10.2068     3.6996E-01    6.1363E-01    3.160000E+06  0.00400  4.007E-02    0   0.9999   age045_m42            0.0000     9.0030E-06    80.8746   1.8824   144.9541
  3      7.9058     4.5224E-01    7.1176E-01    5.010000E+06  0.00400  2.539E-02    0   0.9488   age055_m42            0.0000     8.9757E-06    80.7258   2.2085   141.4583
  4      0.0000     0.0000E+00    0.0000E+00    6.610000E+06  0.00400  2.620E-02    0   0.9220   age061_m42            0.0000     9.0687E-06    81.1852   1.8152   144.8731
  5      0.0000     0.0000E+00    0.0000E+00    1.000000E+07  0.00400  1.322E-02    0   0.8862   age070_m42            0.0000     9.1749E-06    82.5605   1.5854   145.6434
  6      0.0000     0.0000E+00    0.0000E+00    1.445000E+07  0.00400  7.883E-03    0   0.8571   age078_m42            0.0000     9.1225E-06    82.2998   1.9033   142.5503
  7      0.0000     0.0000E+00    0.0000E+00    2.512000E+07  0.00400  5.251E-03    0   0.8174   age090_m42            0.0000     9.2076E-06    82.9315   1.4620   146.0638
  8      0.0000     0.0000E+00    0.0000E+00    4.000000E+07  0.00400  3.649E-03    0   0.7851   age104_m42            0.0000     9.1977E-06    82.6250   1.2291   147.4437
  9      0.0000     0.0000E+00    0.0000E+00    5.500000E+07  0.00400  3.098E-03    0   0.7629   age110_m42            0.0000     9.2267E-06    82.4497   1.3598   148.3728
 10      0.0000     0.0000E+00    0.0000E+00    1.015200E+08  0.00400  2.228E-03    0   0.7207   age116_m42            0.0000     9.2847E-06    82.2384   1.3666   149.1104
 11      8.8699     1.1786E+01    1.2998E+01    2.861200E+08  0.00400  1.093E-03    0   0.6648   age125_m42            0.0000     9.3948E-06    82.3765   0.8135   152.2875
 12      0.0000     0.0000E+00    0.0000E+00    5.088000E+08  0.00400  6.597E-04    0   0.6365   age130_m42            0.0000     9.4336E-06    81.7198   0.7839   154.4486
 13      0.0000     0.0000E+00    0.0000E+00    1.434000E+09  0.00400  2.132E-04    0   0.5798   age139_m42            0.0000     9.1671E-06    78.9162  -0.2078   158.2938
 14      0.0000     0.0000E+00    0.0000E+00    4.250000E+09  0.00400  5.895E-05    0   0.5377   age158_m42            0.0000     8.7319E-06    73.9253  -0.6939   154.5183
 15      0.0000     0.0000E+00    0.0000E+00    7.500000E+09  0.00400  3.510E-05    0   0.5212   age171_m42            0.0000     8.6828E-06    72.5029  -0.8998   154.2748
 16      0.0000     0.0000E+00    0.0000E+00    1.300000E+10  0.00400  2.005E-05    0   0.5034   age193_m42            0.0000     8.6803E-06    71.4913  -1.0000   151.9159
 17      0.0000     0.0000E+00    0.0000E+00    1.800000E+10  0.00400  1.525E-05    0   0.4967   age213_m42            0.0000     8.6732E-06    71.5460  -1.0000   150.5865
 18     21.9825     2.5789E+00    4.2779E+00    1.000000E+06  0.00800  1.238E-02    0   1.0000   age020_m52            0.0000     8.8890E-06    79.9064   2.6054   136.5945
 19     12.7390     6.0189E-01    9.9501E-01    3.160000E+06  0.00800  3.074E-02    0   0.9966   age045_m52            0.0000     8.9212E-06    79.9737   2.5269   137.8137
 20      0.0000     0.0000E+00    0.0000E+00    5.010000E+06  0.00800  2.668E-02    0   0.9443   age055_m52            0.0000     8.9745E-06    80.6212   2.2920   140.2585
 21     14.6283     9.9467E-01    1.5141E+00    6.610000E+06  0.00800  2.136E-02    0   0.9177   age061_m52            0.0000     8.9741E-06    80.4730   1.0764   147.8180
 22      0.0000     0.0000E+00    0.0000E+00    1.000000E+07  0.00800  1.215E-02    0   0.8827   age070_m52            0.0000     9.2038E-06    83.0252   1.7709   145.0402
 23      0.0000     0.0000E+00    0.0000E+00    1.445000E+07  0.00800  8.717E-03    0   0.8552   age078_m52            0.0000     9.1484E-06    82.4762   1.8714   144.3730
 24      0.0000     0.0000E+00    0.0000E+00    2.512000E+07  0.00800  5.592E-03    0   0.8162   age090_m52            0.0000     9.2445E-06    83.1857   1.5284   147.6582
 25      0.0000     0.0000E+00    0.0000E+00    4.000000E+07  0.00800  3.896E-03    0   0.7841   age104_m52            0.0000     9.2396E-06    82.8661   1.4251   149.2665
 26      0.0000     0.0000E+00    0.0000E+00    1.015200E+08  0.00800  2.148E-03    0   0.7226   age116_m52            0.0000     9.2450E-06    81.9926   1.3474   149.7130
 27      0.0000     0.0000E+00    0.0000E+00    2.861200E+08  0.00800  9.925E-04    0   0.6683   age125_m52            0.0000     9.4461E-06    81.5278   0.8463   155.9652
 28      0.0000     0.0000E+00    0.0000E+00    9.047900E+08  0.00800  3.141E-04    0   0.6138   age135_m52            0.0000     9.2807E-06    77.3060  -0.0012   164.4437
 29      0.0000     0.0000E+00    0.0000E+00    1.434000E+09  0.00800  1.719E-04    0   0.5853   age139_m52            0.0000     8.9480E-06    75.7856  -0.5867   161.4650
 30      0.0000     0.0000E+00    0.0000E+00    2.500000E+09  0.00800  7.872E-05    0   0.5600   age150_m52            0.0000     8.7391E-06    72.8033  -0.9002   159.4040
 31      0.0000     0.0000E+00    0.0000E+00    4.250000E+09  0.00800  4.336E-05    0   0.5426   age158_m52            0.0000     8.6957E-06    71.9099  -0.9234   158.2507
 32      1.4398     6.6195E+01    5.8404E+01    6.250000E+09  0.00800  3.159E-05    0   0.5319   age166_m52            0.0000     8.7426E-06    70.8154  -1.0000   155.0756
 33      0.0000     0.0000E+00    0.0000E+00    1.300000E+10  0.00800  1.361E-05    0   0.5073   age193_m52            0.0000     9.6300E-06    73.0439  -1.0000   139.3089
 34      0.0000     0.0000E+00    0.0000E+00    1.800000E+10  0.00800  9.886E-06    0   0.4990   age213_m52            0.0000     1.0097E-05    73.0447  -1.0000   134.9514
 35      0.0000     0.0000E+00    0.0000E+00    1.000000E+06  0.02000  1.544E-02    0   1.0000   age020_m62            0.0000     8.9093E-06    79.8763   2.6017   136.9113
 36      0.0000     0.0000E+00    0.0000E+00    3.160000E+06  0.02000  3.762E-02    0   0.9858   age045_m62            0.0000     8.9625E-06    80.0742   2.5419   138.0779
 37      0.0000     0.0000E+00    0.0000E+00    5.010000E+06  0.02000  3.296E-02    0   0.9342   age055_m62            0.0000     9.0327E-06    80.8390   2.1596   143.4463
 38      0.0000     0.0000E+00    0.0000E+00    8.710000E+06  0.02000  1.154E-02    0   0.8861   age067_m62            0.0000     9.5901E-06    85.7608   1.3045   145.3080
 39      0.0000     0.0000E+00    0.0000E+00    1.445000E+07  0.02000  7.663E-03    0   0.8472   age078_m62            0.0000     9.2791E-06    83.7036   1.4411   147.1197
 40      0.0000     0.0000E+00    0.0000E+00    2.512000E+07  0.02000  4.532E-03    0   0.8099   age090_m62            0.0000     9.3338E-06    84.2509   1.4375   146.3848
 41      0.0000     0.0000E+00    0.0000E+00    5.500000E+07  0.02000  2.733E-03    0   0.7595   age110_m62            0.0000     9.2265E-06    82.7389   1.4104   148.1577
 42      0.0000     0.0000E+00    0.0000E+00    1.609000E+08  0.02000  1.369E-03    0   0.6985   age120_m62            0.0000     9.4111E-06    82.3441   1.2232   153.0479
 43      5.4744     8.8217E+00    9.8248E+00    2.861200E+08  0.02000  9.013E-04    0   0.6714   age125_m62            0.0000     9.5781E-06    81.8513   0.9623   157.7586
 44      0.0000     0.0000E+00    0.0000E+00    5.088000E+08  0.02000  5.028E-04    0   0.6449   age130_m62            0.0000     9.5472E-06    79.4482   0.5386   163.9205
 45      0.0000     0.0000E+00    0.0000E+00    9.047900E+08  0.02000  2.428E-04    0   0.6179   age135_m62            0.0000     9.0769E-06    75.2997  -0.0859   164.7739
 46      0.0000     0.0000E+00    0.0000E+00    1.434000E+09  0.02000  1.263E-04    0   0.5908   age139_m62            0.0000     8.8325E-06    73.1996  -0.5492   163.2891
 47      0.0000     0.0000E+00    0.0000E+00    2.500000E+09  0.02000  5.985E-05    0   0.5673   age150_m62            0.0000     8.7162E-06    70.8843  -0.9493   162.8076
 48      0.0000     0.0000E+00    0.0000E+00    4.250000E+09  0.02000  3.271E-05    0   0.5468   age158_m62            0.0000     8.9141E-06    70.2092  -1.0000   154.3868
 49      0.0000     0.0000E+00    0.0000E+00    1.000000E+10  0.02000  1.360E-05    0   0.5167   age181_m62            0.0000     9.8347E-06    71.3179  -1.0000   142.2785
 50      0.0000     0.0000E+00    0.0000E+00    1.800000E+10  0.02000  7.124E-06    0   0.5013   age213_m62            0.0000     1.0784E-05    72.0484  -1.0000   133.5562
 51     35.6492     1.9976E+00    3.3129E+00    1.000000E+06  0.05000  2.592E-02    0   0.9998   age020_m72            0.0000     8.9286E-06    79.6683   2.5972   136.8670
 52      0.0000     0.0000E+00    0.0000E+00    3.160000E+06  0.05000  4.845E-02    0   0.9577   age045_m72            0.0000     8.9770E-06    80.3783   2.4191   139.9462
 53      0.0000     0.0000E+00    0.0000E+00    5.010000E+06  0.05000  3.072E-02    0   0.9147   age055_m72            0.0000     9.1789E-06    82.6887   1.9897   143.2766
 54      0.0000     0.0000E+00    0.0000E+00    6.610000E+06  0.05000  1.455E-02    0   0.8877   age061_m72            0.0000     9.9751E-06    87.9562   1.3584   145.2075
 55      7.0607     1.1301E+00    1.5980E+00    1.000000E+07  0.05000  9.074E-03    0   0.8524   age070_m72            0.0000     9.2560E-06    83.5253   2.1619   142.8624
 56      0.0000     0.0000E+00    0.0000E+00    2.512000E+07  0.05000  4.250E-03    0   0.7902   age090_m72            0.0000     9.2824E-06    83.7472   1.8736   145.0698
 57      0.0000     0.0000E+00    0.0000E+00    4.000000E+07  0.05000  3.087E-03    0   0.7618   age104_m72            0.0000     9.3702E-06    84.1974   1.6534   146.9637
 58      2.5902     2.2130E+00    2.6048E+00    1.015200E+08  0.05000  1.700E-03    0   0.7096   age116_m72            0.0000     9.4448E-06    82.9858   1.3813   151.7080
 59      1.4532     2.8584E+00    3.1451E+00    2.861200E+08  0.05000  7.384E-04    0   0.6633   age125_m72            0.0000     9.5714E-06    80.5938   0.8048   161.0122
 60      0.0000     0.0000E+00    0.0000E+00    5.088000E+08  0.05000  3.819E-04    0   0.6372   age130_m72            0.0000     9.2771E-06    77.3642   0.2640   166.0169
 61      0.0000     0.0000E+00    0.0000E+00    9.047900E+08  0.05000  1.676E-04    0   0.6110   age135_m72            0.0000     8.8616E-06    72.1652  -0.4953   166.2113
 62      0.0000     0.0000E+00    0.0000E+00    1.434000E+09  0.05000  8.837E-05    0   0.5874   age139_m72            0.0000     8.7882E-06    70.5632  -0.9656   165.8158
 63      0.0000     0.0000E+00    0.0000E+00    2.500000E+09  0.05000  4.233E-05    0   0.5598   age150_m72            0.0000     8.9478E-06    69.5794  -1.0000   155.9978
 64      0.0000     0.0000E+00    0.0000E+00    6.250000E+09  0.05000  1.435E-05    0   0.5249   age166_m72            0.0000     1.0176E-05    72.1375  -1.0000   138.3102
 65      0.0000     0.0000E+00    0.0000E+00    1.300000E+10  0.05000  6.513E-06    0   0.5036   age193_m72            0.0000     1.1629E-05    72.8671  -1.0000   128.8849
 66      0.0000     0.0000E+00    0.0000E+00    1.800000E+10  0.05000  4.527E-06    0   0.4945   age213_m72            0.0000     1.2660E-05    73.1410  -1.0000   122.1554


## Synthesis Results - Average & Chains ##

# j      x_j: min, <> & last-chain-values for 1 ...  7 chains
  1      0.0000      1.0807      0.4292      0.0000      0.0151      1.4837      0.5109      0.0000      0.5588
  2     10.2068      0.9244      0.3245      0.8332      0.7064      0.7240      0.7379      0.6118      0.0000
  3      7.9058      0.8214      0.0000      0.4226      0.2427      0.0000      0.4334      0.1047      1.1203
  4      0.0000      1.0291      0.0000      0.0000      1.2798      0.1258      0.0000      0.1923      0.3456
  5      0.0000      0.7322      0.0000      0.0000      1.1258      0.0000      0.4526      0.1948      1.5576
  6      0.0000      0.7991      0.0386      0.0000      0.0000      0.0000      0.0444      0.0154      0.6803
  7      0.0000      0.9390      0.0000      0.3139      1.1570      0.9870      0.6397      0.2041      0.0000
  8      0.0000      0.8656      0.0000      1.4242      0.0000      0.0000      0.4243      0.0000      0.3325
  9      0.0000      0.9601      0.0440      0.0000      0.0000      0.5002      0.3549      0.0901      0.2493
 10      0.0000      0.8328      0.1329      0.0000      0.0000      0.2072      0.4675      0.5015      0.6978
 11      8.8699      1.1341      0.6752      0.5439      0.2040      0.0489      0.3374      0.2523      0.3412
 12      0.0000      0.8303      0.2618      0.0000      0.3164      0.3215      0.0000      0.4343      0.8430
 13      0.0000      0.7231      0.0000      0.1971      0.5471      0.2359      0.2092      0.2310      0.0000
 14      0.0000      0.9084      0.0000      0.1447      0.0000      0.1452      1.1602      0.1992      0.1588
 15      0.0000      0.5580      0.0571      0.0000      0.4963      0.0000      0.0000      0.5654      0.2778
 16      0.0000      0.8392      0.0000      0.0090      0.1566      0.7004      0.3768      0.0477      0.7944
 17      0.0000      1.2146      0.8209      0.3452      0.2745      0.0000      0.0000      1.0092      0.4196
 18     21.9825      1.1745      0.3428      0.5084      0.0000      0.0000      1.4762      1.0828      0.1928
 19     12.7390      1.7599      0.5983      0.9022      0.0000      1.1142      0.7707      1.0635      0.1518
 20      0.0000      0.8037      0.0000      0.0708      0.1427      1.0127      0.1310      0.3113      0.5342
 21     14.6283      1.1193      0.3974      0.3317      0.0812      0.2396      0.6693      0.5120      0.0000
 22      0.0000      1.0374      0.0000      1.4353      0.8119      0.2079      1.8278      0.7525      0.0000
 23      0.0000      1.0548      0.4835      0.0376      0.6262      0.8911      0.0249      0.3121      0.8667
 24      0.0000      0.9289      0.1627      0.9116      1.1601      0.2917      0.1320      0.0000      0.7122
 25      0.0000      1.2367      0.3815      0.0000      0.7443      0.0000      0.7016      0.0745      0.0000
 26      0.0000      0.9728      0.2313      0.2108      0.6512      0.0000      0.5126      0.1837      0.0000
 27      0.0000      0.6276      0.0000      0.9963      0.3028      0.0381      0.0000      0.1404      0.0994
 28      0.0000      1.1506      0.7650      0.8994      0.0000      0.0000      0.3800      0.7019      0.0955
 29      0.0000      0.8088      0.0000      0.4520      0.0421      0.0000      0.1899      0.0000      0.2660
 30      0.0000      0.9436      0.3869      0.0000      0.1821      1.1890      0.0000      0.4888      0.0000
 31      0.0000      0.8237      0.2750      0.3802      0.3735      0.0000      0.0000      0.0000      0.0000
 32      1.4398      1.0819      0.0137      2.3515      0.3950      0.5655      0.3953      0.5376      0.6951
 33      0.0000      0.9969      0.0000      0.4779      0.0000      0.2152      1.4424      0.0000      0.2293
 34      0.0000      1.3100      0.0000      1.0466      0.1006      0.5003      0.0000      0.6555      0.4286
 35      0.0000      0.5975      0.2823      0.0000      0.0000      0.2709      0.1390      0.0000      0.4539
 36      0.0000      1.0944      0.5234      0.0000      0.0424      0.7245      1.1134      1.1866      0.6788
 37      0.0000      0.7301      0.0000      0.2218      0.0000      0.4943      2.3381      1.0237      0.0000
 38      0.0000      1.0519      0.1634      0.0000      0.0000      0.0000      0.1868      1.1140      0.4380
 39      0.0000      0.9376      0.8922      0.1001      0.0000      0.7163      0.0000      0.8100      0.2077
 40      0.0000      0.8697      0.7335      0.0000      1.8598      0.0000      0.1355      0.0239      1.0782
 41      0.0000      1.1427      0.3385      0.7380      0.0000      0.3308      0.3099      0.0000      0.1341
 42      0.0000      0.8037      0.1611      0.2873      0.7268      0.2265      0.0000      0.1913      0.1109
 43      5.4744      1.0393      0.3706      0.6395      0.0000      0.1006      0.1662      0.9626      0.1570
 44      0.0000      0.8008      0.0000      0.4941      0.0000      0.5073      0.0651      0.8144      1.1308
 45      0.0000      1.0439      0.6124      0.6387      1.1020      0.7417      1.1684      0.8124      0.0356
 46      0.0000      0.9809      0.9481      0.1090      0.0000      0.5125      0.0000      0.0000      0.3746
 47      0.0000      1.0115      0.5513      0.0000      0.6626      0.0000      0.5315      0.4066      0.2922
 48      0.0000      1.0718      0.2608      1.3300      0.8200      0.1716      0.9063      0.8383      0.0399
 49      0.0000      0.9064      0.2527      0.3755      1.0049      0.5172      0.1535      0.0000      0.0000
 50      0.0000      1.0283      0.3884      2.4440      0.2275      0.0000      0.0000      0.6430      0.0908
 51     35.6492      1.0669      0.8931      1.2478      0.8548      0.3973      0.1061      0.1159      0.9524
 52      0.0000      1.0002      0.2346      0.0000      0.0000      0.2997      0.0025      0.0000      0.8927
 53      0.0000      0.7261      0.0000      0.1019      0.0000      0.4063      0.6269      0.8651      0.6338
 54      0.0000      0.9541      0.7363      0.0000      0.1149      0.0000      0.9314      0.0000      0.1747
 55      7.0607      0.8836      0.7229      1.2628      1.0866      0.0000      0.2721      0.7323      0.0000
 56      0.0000      1.0834      0.2556      0.2638      0.3178      0.0000      0.0000      0.5121      1.5365
 57      0.0000      1.0326      0.7791      0.8250      0.0128      0.0000      1.1594      0.4452      0.8124
 58      2.5902      0.9019      0.4765      1.5151      0.8257      0.2243      0.2248      0.0000      0.2201
 59      1.4532      0.9442      0.3704      1.0066      0.4963      0.1559      0.2272      0.0000      0.0897
 60      0.0000      0.8808      1.4198      0.2256      0.4921      0.0281      0.5758      0.2470      0.1583
 61      0.0000      2.1151      1.6198      2.6159      1.9638      3.3241      2.6645      2.6924      3.0303
 62      0.0000      9.6373     16.6013     14.9492     16.6537     13.6068     17.4943     15.4881     15.6082
 63      0.0000      1.0287      0.5448      1.0925      0.4366      0.2559      0.0000      0.6994      0.8792
 64      0.0000      0.9325      0.3918      0.4013      0.0000      0.0000      0.8323      0.0000      0.8500
 65      0.0000      3.9090      7.3769      6.0632      5.9653      5.9150      6.3173      7.7571      6.8189
 66      0.0000     31.1672     60.5499     52.7678     58.5410     64.2754     52.9917     56.7419     56.0879

# j      m_j: min, <> & last-chain-values for 1 ...  7 chains
  1  0.0000E+00  2.3515E-03  5.2912E-04  0.0000E+00  1.9431E-05  1.7648E-03  7.1318E-04  0.0000E+00  7.3923E-04
  2  6.1363E-01  5.4908E-04  1.0920E-04  3.0947E-04  2.4828E-04  2.3512E-04  2.8118E-04  2.1561E-04  0.0000E+00
  3  7.1176E-01  7.3065E-04  0.0000E+00  2.3506E-04  1.2773E-04  0.0000E+00  2.4735E-04  5.5269E-05  6.0586E-04
  4  0.0000E+00  8.6206E-04  0.0000E+00  0.0000E+00  6.3429E-04  5.7630E-05  0.0000E+00  9.5558E-05  1.7602E-04
  5  0.0000E+00  1.1683E-03  0.0000E+00  0.0000E+00  1.0629E-03  0.0000E+00  4.6332E-04  1.8440E-04  1.5110E-03
  6  0.0000E+00  2.0682E-03  5.6589E-05  0.0000E+00  0.0000E+00  0.0000E+00  7.3800E-05  2.3607E-05  1.0703E-03
  7  0.0000E+00  3.4794E-03  0.0000E+00  7.2722E-04  2.5366E-03  1.9995E-03  1.5208E-03  4.4874E-04  0.0000E+00
  8  0.0000E+00  4.4330E-03  0.0000E+00  4.5608E-03  0.0000E+00  0.0000E+00  1.3942E-03  0.0000E+00  1.0351E-03
  9  0.0000E+00  5.6277E-03  1.4616E-04  0.0000E+00  0.0000E+00  1.6031E-03  1.3345E-03  3.1325E-04  8.8836E-04
 10  0.0000E+00  6.4128E-03  5.7973E-04  0.0000E+00  0.0000E+00  8.7236E-04  2.3094E-03  2.2911E-03  3.2663E-03
 11  1.2998E+01  1.6420E-02  5.5384E-03  4.9238E-03  1.7472E-03  3.8739E-04  3.1339E-03  2.1671E-03  3.0034E-03
 12  0.0000E+00  1.9069E-02  3.4070E-03  0.0000E+00  4.3000E-03  4.0370E-03  0.0000E+00  5.9173E-03  1.1770E-02
 13  0.0000E+00  4.6810E-02  0.0000E+00  7.9782E-03  2.0954E-02  8.3492E-03  8.6881E-03  8.8736E-03  0.0000E+00
 14  0.0000E+00  1.9724E-01  0.0000E+00  1.9650E-02  0.0000E+00  1.7233E-02  1.6161E-01  2.5659E-02  2.0966E-02
 15  0.0000E+00  1.9723E-01  1.1425E-02  0.0000E+00  1.0380E-01  0.0000E+00  0.0000E+00  1.1856E-01  5.9699E-02
 16  0.0000E+00  5.0155E-01  0.0000E+00  3.3705E-03  5.5366E-02  2.2884E-01  1.4445E-01  1.6927E-02  2.8863E-01
 17  0.0000E+00  9.4170E-01  3.6056E-01  1.6735E-01  1.2593E-01  0.0000E+00  0.0000E+00  4.6418E-01  1.9776E-01
 18  4.2779E+00  2.2582E-03  3.7341E-04  6.1127E-04  0.0000E+00  0.0000E+00  1.8209E-03  1.2352E-03  2.2538E-04
 19  9.9501E-01  1.3582E-03  2.6157E-04  4.3534E-04  0.0000E+00  4.7008E-04  3.8159E-04  4.8692E-04  7.1223E-05
 20  0.0000E+00  6.7713E-04  0.0000E+00  3.7298E-05  7.1133E-05  4.6643E-04  7.0829E-05  1.5560E-04  2.7363E-04
 21  1.5141E+00  1.1447E-03  2.3024E-04  2.1210E-04  4.9143E-05  1.3395E-04  4.3914E-04  3.1067E-04  0.0000E+00
 22  0.0000E+00  1.7941E-03  0.0000E+00  1.5520E-03  8.3079E-04  1.9654E-04  2.0279E-03  7.7207E-04  0.0000E+00
 23  0.0000E+00  2.4634E-03  6.3964E-04  5.4884E-05  8.6527E-04  1.1377E-03  3.7254E-05  4.3245E-04  1.2305E-03
 24  0.0000E+00  3.2275E-03  3.2022E-04  1.9804E-03  2.3849E-03  5.5412E-04  2.9420E-04  0.0000E+00  1.5043E-03
 25  0.0000E+00  5.9245E-03  1.0355E-03  0.0000E+00  2.1097E-03  0.0000E+00  2.1562E-03  2.1182E-04  0.0000E+00
 26  0.0000E+00  7.7901E-03  1.0494E-03  1.0555E-03  3.0851E-03  0.0000E+00  2.6332E-03  8.7271E-04  0.0000E+00
 27  0.0000E+00  1.0060E-02  0.0000E+00  9.9851E-03  2.8712E-03  3.3400E-04  0.0000E+00  1.3352E-03  9.6863E-04
 28  0.0000E+00  5.3522E-02  2.0161E-02  2.6160E-02  0.0000E+00  0.0000E+00  1.1339E-02  1.9370E-02  2.7002E-03
 29  0.0000E+00  6.5555E-02  0.0000E+00  2.2907E-02  2.0169E-03  0.0000E+00  9.8761E-03  0.0000E+00  1.3106E-02
 30  0.0000E+00  1.5978E-01  3.7115E-02  0.0000E+00  1.8247E-02  1.1007E-01  0.0000E+00  4.9103E-02  0.0000E+00
 31  0.0000E+00  2.4536E-01  4.6415E-02  7.0817E-02  6.5822E-02  0.0000E+00  0.0000E+00  0.0000E+00  0.0000E+00
 32  5.8404E+01  4.3364E-01  3.1217E-03  5.8930E-01  9.3676E-02  1.2392E-01  1.0165E-01  1.2784E-01  1.6938E-01
 33  0.0000E+00  8.8447E-01  0.0000E+00  2.6512E-01  0.0000E+00  1.0438E-01  8.2103E-01  0.0000E+00  1.2368E-01
 34  0.0000E+00  1.5740E+00  0.0000E+00  7.8631E-01  7.1520E-02  3.2861E-01  0.0000E+00  4.6728E-01  3.1305E-01
 35  0.0000E+00  9.2123E-04  2.4658E-04  0.0000E+00  0.0000E+00  2.2829E-04  1.3744E-04  0.0000E+00  4.2542E-04
 36  0.0000E+00  6.8265E-04  1.8496E-04  0.0000E+00  1.5657E-05  2.4707E-04  4.4556E-04  4.3910E-04  2.5742E-04
 37  0.0000E+00  4.9259E-04  0.0000E+00  9.3572E-05  0.0000E+00  1.8232E-04  1.0120E-03  4.0976E-04  0.0000E+00
 38  0.0000E+00  1.9226E-03  1.6919E-04  0.0000E+00  0.0000E+00  0.0000E+00  2.1902E-04  1.2080E-03  4.8674E-04
 39  0.0000E+00  2.4676E-03  1.3302E-03  1.6472E-04  0.0000E+00  1.0306E-03  0.0000E+00  1.2646E-03  3.3227E-04
 40  0.0000E+00  3.6995E-03  1.7677E-03  0.0000E+00  4.6811E-03  0.0000E+00  3.6988E-04  6.0206E-05  2.7884E-03
 41  0.0000E+00  7.5593E-03  1.2687E-03  3.0527E-03  0.0000E+00  1.1963E-03  1.3153E-03  0.0000E+00  5.3912E-04
 42  0.0000E+00  9.7607E-03  1.1087E-03  2.1817E-03  5.2226E-03  1.5039E-03  0.0000E+00  1.3787E-03  8.1890E-04
 43  9.8248E+00  1.8429E-02  3.7228E-03  7.0904E-03  0.0000E+00  9.7515E-04  1.8901E-03  1.0127E-02  1.6927E-03
 44  0.0000E+00  2.4449E-02  0.0000E+00  9.4329E-03  0.0000E+00  8.4677E-03  1.2758E-03  1.4752E-02  2.0989E-02
 45  0.0000E+00  6.3236E-02  2.1018E-02  2.4193E-02  3.9499E-02  2.4564E-02  4.5407E-02  2.9197E-02  1.3123E-03
 46  0.0000E+00  1.0922E-01  5.9805E-02  7.5874E-03  0.0000E+00  3.1200E-02  0.0000E+00  0.0000E+00  2.5355E-02
 47  0.0000E+00  2.2822E-01  7.0464E-02  0.0000E+00  8.8455E-02  0.0000E+00  7.6940E-02  5.4434E-02  4.0081E-02
 48  0.0000E+00  4.2649E-01  5.8801E-02  3.3091E-01  1.9307E-01  3.7330E-02  2.3136E-01  1.9789E-01  9.6606E-03
 49  0.0000E+00  8.1976E-01  1.2949E-01  2.1232E-01  5.3771E-01  2.5572E-01  8.9046E-02  0.0000E+00  0.0000E+00
 50  0.0000E+00  1.7225E+00  3.6861E-01  2.5597E+00  2.2547E-01  0.0000E+00  0.0000E+00  6.3902E-01  9.2486E-02
 51  3.3129E+00  9.7957E-04  4.6455E-04  7.1635E-04  4.6438E-04  1.9941E-04  6.2508E-05  6.3155E-05  5.3161E-04
 52  0.0000E+00  4.7062E-04  6.2527E-05  0.0000E+00  0.0000E+00  7.7082E-05  7.5263E-07  0.0000E+00  2.5536E-04
 53  0.0000E+00  5.1467E-04  0.0000E+00  4.5161E-05  0.0000E+00  1.5744E-04  2.8506E-04  3.6375E-04  2.7309E-04
 54  0.0000E+00  1.3856E-03  6.0578E-04  0.0000E+00  9.8719E-05  0.0000E+00  8.6781E-04  0.0000E+00  1.5423E-04
 55  1.5980E+00  1.9758E-03  9.1577E-04  1.7655E-03  1.4376E-03  0.0000E+00  3.9032E-04  9.7151E-04  0.0000E+00
 56  0.0000E+00  4.7949E-03  6.4084E-04  7.3009E-04  8.3229E-04  0.0000E+00  0.0000E+00  1.3447E-03  4.1341E-03
 57  0.0000E+00  6.0657E-03  2.5927E-03  3.0302E-03  4.4578E-05  0.0000E+00  4.3694E-03  1.5516E-03  2.9011E-03
 58  2.6048E+00  8.9612E-03  2.6824E-03  9.4127E-03  4.8539E-03  1.2182E-03  1.4331E-03  0.0000E+00  1.3293E-03
 59  3.1451E+00  2.0190E-02  4.4867E-03  1.3459E-02  6.2789E-03  1.8226E-03  3.1174E-03  0.0000E+00  1.1659E-03
 60  0.0000E+00  3.4983E-02  3.1946E-02  5.6037E-03  1.1564E-02  6.1101E-04  1.4671E-02  5.8204E-03  3.8223E-03
 61  0.0000E+00  1.8355E-01  7.9633E-02  1.4194E-01  1.0083E-01  1.5770E-01  1.4834E-01  1.3861E-01  1.5987E-01
 62  0.0000E+00  1.5249E+00  1.4881E+00  1.4790E+00  1.5591E+00  1.1770E+00  1.7758E+00  1.4539E+00  1.5014E+00
 63  0.0000E+00  3.2383E-01  9.7167E-02  2.1504E-01  8.1311E-02  4.4034E-02  0.0000E+00  1.3062E-01  1.6826E-01
 64  0.0000E+00  8.1196E-01  1.9327E-01  2.1848E-01  0.0000E+00  0.0000E+00  4.6490E-01  0.0000E+00  4.4996E-01
 65  0.0000E+00  7.1948E+00  7.6921E+00  6.9778E+00  6.4963E+00  5.9518E+00  7.4595E+00  8.4704E+00  7.6301E+00
 66  0.0000E+00  8.1040E+01  8.9194E+01  8.5791E+01  9.0063E+01  9.1367E+01  8.8397E+01  8.7531E+01  8.8661E+01

# AV, chi2 & Mass for <> & i_chain = 1 ...  7 solutions
AV       2.1354     -0.7022     -0.6499     -0.5939     -0.6179     -0.6704     -0.5628     -0.5951     -0.5709
chi2 9.3020E-06  1.4035E-05  1.2941E-05  1.2769E-05  1.2892E-05  1.2960E-05  1.2778E-05  1.2819E-05  1.2772E-05
Mass 2.8747E-14  6.4366E-14  1.2187E-13  1.1906E-13  1.2182E-13  1.2286E-13  1.2098E-13  1.2527E-13  1.2630E-13
-216.15                                  [v0_min (km/s) before EX0s...]
 367.00                                  [vd_min (km/s) before EX0s...]


## Synthetic spectrum (Best Model) ##l_obs f_obs f_syn wei
 3478    [Nl_obs]
 3741.00   -0.34387   1.08198    0.000
 3742.00    0.62713   1.07421    0.000
 3743.00    0.94303   1.06464    0.000
 3744.00    1.25979   1.05448    0.000
 3745.00    1.57704   1.04524    0.011
 3746.00    2.52582   1.03842    0.011
 3747.00    3.79529   1.03442    0.011
 3748.00    3.26593   1.03471    0.011
 3749.00    1.94558   1.03862    0.011
 3750.00    0.80477   1.04635    0.010
 3751.00   -0.26825   1.05713    0.000
 3752.00   -0.65822   1.06987    0.000
 3753.00   -0.82928   1.08351    0.000
 3754.00   -0.10719   1.09592    0.000
 3755.00    0.85426   1.10722    0.010
 3756.00    1.32860   1.11532    0.010
 3757.00    1.69602   1.12097    0.010
 3758.00    1.19390   1.12240    0.010
 3759.00    0.53998   1.12017    0.010
 3760.00    0.17827   1.11446    0.010
 3761.00   -0.14463   1.10495    0.000
 3762.00    0.23158   1.09350    0.010
 3763.00    0.67350   1.07993    0.009
 3764.00    1.01913   1.06627    0.009
 3765.00    1.35920   1.05361    0.009
 3766.00    1.26807   1.04384    0.009
 3767.00    1.17207   1.03806    0.009
 3768.00    1.72635   1.03722    0.009
 3769.00    2.26875   1.04196    0.009
 3770.00    2.52229   1.05204    0.009
 3771.00    2.71272   1.06683    0.009
 3772.00    2.07619   1.08553    0.009
 3773.00    1.53432   1.10663    0.009
 3774.00    1.82354   1.12859    0.009
 3775.00    2.04617   1.14945    0.009
 3776.00    1.83706   1.16887    0.009
 3777.00    1.59574   1.18538    0.009
 3778.00    1.19143   1.19879    0.009
 3779.00    0.94311   1.20859    0.009
 3780.00    1.33329   1.21465    0.010
 3781.00    1.48859   1.21699    0.010
 3782.00    0.84722   1.21539    0.010
 3783.00    0.37896   1.21009    0.010
 3784.00    0.40581   1.20103    0.010
 3785.00    0.48181   1.18840    0.010
 3786.00    0.67791   1.17247    0.010
 3787.00    0.79297   1.15362    0.010
 3788.00    0.73726   1.13259    0.010
 3789.00    0.45000   1.11015    0.010
 3790.00   -0.26140   1.08745    0.000
 3791.00   -0.41455   1.06588    0.000
 3792.00    0.32588   1.04685    0.009
 3793.00    0.88547   1.03191    0.009
 3794.00    1.19105   1.02234    0.009
 3795.00    1.25994   1.01868    0.009
 3796.00    1.03630   1.02158    0.009
 3797.00    1.08023   1.03078    0.009
 3798.00    1.41567   1.04559    0.009
 3799.00    1.27252   1.06480    0.009
 3800.00    0.66946   1.08739    0.009
 3801.00   -0.01594   1.11116    0.000
 3802.00   -0.77108   1.13480    0.000
 3803.00   -1.11286   1.15677    0.000
 3804.00   -1.14617   1.17675    0.000
 3805.00   -1.05641   1.19377    0.000
 3806.00   -0.88595   1.20785    0.000
 3807.00   -0.59349   1.21872    0.000
 3808.00   -0.23100   1.22663    0.000
 3809.00    0.56013   1.23180    0.009
 3810.00    1.56551   1.23426    0.009
 3811.00    1.12661   1.23463    0.009
 3812.00    0.06314   1.23308    0.009
 3813.00    0.15648   1.23030    0.009
 3814.00    0.67884   1.22653    0.009
 3815.00    0.81455   1.22236    0.009
 3816.00    0.82870   1.21784    0.009
 3817.00    0.17599   1.21311    0.009
 3818.00   -0.65167   1.20794    0.000
 3819.00   -0.03063   1.20197    0.000
 3820.00    0.90079   1.19478    0.009
 3821.00    1.67263   1.18568    0.009
 3822.00    2.41737   1.17495    0.009
 3823.00    1.97068   1.16090    0.009
 3824.00    1.37109   1.14385    0.009
 3825.00    1.66551   1.12387    0.009
 3826.00    2.04017   1.10159    0.009
 3827.00    0.91919   1.07820    0.009
 3828.00   -0.28218   1.05476    0.000
 3829.00   -0.68774   1.03304    0.000
 3830.00   -1.06793   1.01457    0.000
 3831.00   -0.65381   1.00101    0.000
 3832.00   -0.22921   0.99350    0.000
 3833.00    0.42803   0.99276    0.009
 3834.00    0.99840   0.99901    0.009
 3835.00    0.48859   1.01184    0.009
 3836.00    0.07551   1.03026    0.009
 3837.00    0.48001   1.05308    0.009
 3838.00    0.84612   1.07887    0.009
 3839.00    0.97072   1.10513    0.009
 3840.00    1.01561   1.13108    0.009
 3841.00    0.66714   1.15522    0.009
 3842.00    0.53525   1.17707    0.009
 3843.00    1.27031   1.19629    0.009
 3844.00    1.67849   1.21255    0.009
 3845.00    0.99994   1.22621    0.009
 3846.00    0.48024   1.23714    0.009
 3847.00    0.40662   1.24595    0.000
 3848.00    0.57278   1.25279    0.000
 3849.00    1.31482   1.25795    0.000
 3850.00    1.46651   1.26195    0.000
 3851.00    0.39382   1.26459    0.000
 3852.00   -0.21395   1.26684    0.000
 3853.00    0.01681   1.26808    0.000
 3854.00    0.62159   1.26930    0.000
 3855.00    1.81623   1.26979    0.000
 3856.00    1.99340   1.27046    0.000
 3857.00    0.76202   1.27059    0.000
 3858.00    0.00134   1.27089    0.000
 3859.00   -0.18580   1.27074    0.000
 3860.00   -0.04665   1.27045    0.000
 3861.00    0.44297   1.26966    0.000
 3862.00    0.93972   1.26859    0.000
 3863.00    1.44323   1.26710    0.000
 3864.00    1.83224   1.26495    0.000
 3865.00    2.12561   1.26249    0.000
 3866.00    2.41654   1.25932    0.000
 3867.00    2.70570   1.25576    0.000
 3868.00    2.81872   1.25145    0.000
 3869.00    2.81798   1.24654    0.000
 3870.00    2.34494   1.24085    0.000
 3871.00    1.60499   1.23398    0.000
 3872.00    0.91544   1.22576    0.000
 3873.00    0.25068   1.21588    0.000
 3874.00   -0.03571   1.20423    0.000
 3875.00   -0.16120   1.19024    0.000
 3876.00   -0.31255   1.17378    0.000
 3877.00   -0.47332   1.15466    0.000
 3878.00   -0.55078   1.13320    0.000
 3879.00   -0.60257   1.10965    0.000
 3880.00   -0.47873   1.08494    0.000
 3881.00   -0.30981   1.06009    0.000
 3882.00   -0.08360   1.03649    0.000
 3883.00    0.15458   1.01559    0.008
 3884.00    0.63834   0.99899    0.008
 3885.00    1.16261   0.98814    0.009
 3886.00    0.82001   0.98372    0.009
 3887.00    0.37005   0.98632    0.009
 3888.00   -0.07683   0.99562    0.000
 3889.00   -0.52345   1.01108    0.000
 3890.00   -0.11037   1.03126    0.000
 3891.00    0.34555   1.05532    0.009
 3892.00    0.46358   1.08109    0.009
 3893.00    0.57197   1.10695    0.009
 3894.00    0.41537   1.13175    0.009
 3895.00    0.27833   1.15468    0.009
 3896.00    0.54129   1.17531    0.009
 3897.00    0.81977   1.19337    0.009
 3898.00    1.28187   1.20902    0.009
 3899.00    1.65819   1.22236    0.009
 3900.00    1.33579   1.23355    0.009
 3901.00    1.12236   1.24317    0.008
 3902.00    1.57456   1.25115    0.008
 3903.00    1.87768   1.25803    0.008
 3904.00    1.46339   1.26359    0.008
 3905.00    1.02254   1.26838    0.008
 3906.00    0.47773   1.27208    0.008
 3907.00    0.14884   1.27495    0.008
 3908.00    0.52376   1.27699    0.008
 3909.00    0.87778   1.27810    0.008
 3910.00    1.17416   1.27844    0.008
 3911.00    1.37809   1.27774    0.009
 3912.00    1.36368   1.27649    0.009
 3913.00    1.30989   1.27427    0.009
 3914.00    1.17573   1.27175    0.009
 3915.00    1.00009   1.26853    0.009
 3916.00    0.75080   1.26521    0.009
 3917.00    0.84955   1.26159    0.009
 3918.00    1.48906   1.25795    0.009
 3919.00    1.88155   1.25441    0.009
 3920.00    1.93697   1.25083    0.009
 3921.00    1.87165   1.24755    0.009
 3922.00    1.66129   1.24423    0.009
 3923.00    1.10869   1.24123    0.009
 3924.00    0.19363   1.23807    0.009
 3925.00   -0.75622   1.23524    0.000
 3926.00   -1.73856   1.23249    0.000
 3927.00   -1.21483   1.23029    0.000
 3928.00    0.54927   1.22842    0.009
 3929.00    1.28852   1.22773    0.009
 3930.00    1.28482   1.22757    0.009
 3931.00    0.75551   1.22889    0.009
 3932.00   -0.10831   1.23095    0.000
 3933.00    0.42883   1.23429    0.009
 3934.00    1.74565   1.23810    0.009
 3935.00    1.30083   1.24276    0.009
 3936.00    0.00322   1.24736    0.009
 3937.00   -0.22641   1.25213    0.000
 3938.00   -0.00952   1.25617    0.000
 3939.00    0.75436   1.25982    0.009
 3940.00    1.71390   1.26249    0.009
 3941.00    1.66008   1.26462    0.009
 3942.00    1.29997   1.26578    0.009
 3943.00    0.71978   1.26636    0.009
 3944.00    0.08433   1.26603    0.009
 3945.00    0.32588   1.26517    0.009
 3946.00    0.74627   1.26334    0.009
 3947.00    1.27395   1.26095    0.010
 3948.00    1.81881   1.25735    0.010
 3949.00    0.86245   1.25295    0.010
 3950.00   -0.27315   1.24706    0.000
 3951.00    0.76651   1.24001    0.010
 3952.00    1.98331   1.23100    0.010
 3953.00    2.01068   1.22035    0.010
 3954.00    1.98339   1.20722    0.010
 3955.00    1.15865   1.19195    0.009
 3956.00    0.35554   1.17383    0.009
 3957.00    1.21349   1.15330    0.009
 3958.00    1.98750   1.12999    0.010
 3959.00    1.17157   1.10473    0.009
 3960.00    0.47502   1.07770    0.000
 3961.00    1.12395   1.05024    0.000
 3962.00    1.69580   1.02318    0.000
 3963.00    1.66175   0.99828    0.000
 3964.00    1.48173   0.97693    0.000
 3965.00    0.43558   0.96057    0.000
 3966.00   -0.34156   0.95050    0.000
 3967.00    0.14436   0.94747    0.000
 3968.00    0.39998   0.95178    0.000
 3969.00   -0.22696   0.96309    0.000
 3970.00   -0.66215   0.98064    0.000
 3971.00   -0.48447   1.00307    0.000
 3972.00   -0.12375   1.02908    0.000
 3973.00    0.73271   1.05687    0.000
 3974.00    1.13744   1.08490    0.000
 3975.00    0.49325   1.11200    0.000
 3976.00   -0.11523   1.13707    0.000
 3977.00   -0.65198   1.15979    0.000
 3978.00   -0.79618   1.17970    0.000
 3979.00   -0.25377   1.19707    0.000
 3980.00    0.39668   1.21181    0.000
 3981.00    1.21252   1.22445    0.009
 3982.00    1.75590   1.23507    0.009
 3983.00    1.93285   1.24411    0.009
 3984.00    1.53300   1.25170    0.009
 3985.00    0.45007   1.25813    0.009
 3986.00    0.05032   1.26352    0.009
 3987.00    0.36393   1.26797    0.009
 3988.00    0.72696   1.27166    0.009
 3989.00    1.13549   1.27457    0.009
 3990.00    1.29254   1.27694    0.009
 3991.00    1.24541   1.27869    0.009
 3992.00    1.22832   1.28007    0.009
 3993.00    1.23268   1.28099    0.009
 3994.00    0.95532   1.28165    0.009
 3995.00    0.50132   1.28196    0.009
 3996.00    0.66434   1.28203    0.009
 3997.00    1.16551   1.28184    0.009
 3998.00    1.11156   1.28142    0.009
 3999.00    0.79319   1.28085    0.009
 4000.00    1.04042   1.28013    0.009
 4001.00    1.52013   1.27943    0.009
 4002.00    1.23412   1.27876    0.009
 4003.00    0.67917   1.27835    0.009
 4004.00    0.66059   1.27818    0.009
 4005.00    0.80093   1.27840    0.009
 4006.00    1.51924   1.27899    0.009
 4007.00    2.37954   1.27989    0.009
 4008.00    1.44869   1.28107    0.009
 4009.00    0.16171   1.28219    0.009
 4010.00    0.27141   1.28325    0.009
 4011.00    0.59813   1.28370    0.009
 4012.00    0.23936   1.28359    0.009
 4013.00   -0.19823   1.28238    0.000
 4014.00   -0.16897   1.28023    0.000
 4015.00   -0.10362   1.27670    0.000
 4016.00    0.51187   1.27217    0.009
 4017.00    1.15053   1.26654    0.010
 4018.00    1.42330   1.26046    0.009
 4019.00    1.69337   1.25404    0.009
 4020.00    1.99176   1.24823    0.009
 4021.00    2.22317   1.24313    0.009
 4022.00    1.27379   1.23975    0.009
 4023.00    0.46276   1.23788    0.009
 4024.00    1.14028   1.23828    0.009
 4025.00    1.81216   1.24036    0.009
 4026.00    2.44123   1.24441    0.009
 4027.00    2.73272   1.24957    0.009
 4028.00    1.07718   1.25579    0.009
 4029.00   -0.13120   1.26225    0.000
 4030.00    0.70980   1.26881    0.009
 4031.00    1.25317   1.27484    0.009
 4032.00    0.68009   1.28022    0.009
 4033.00    0.05327   1.28467    0.009
 4034.00   -0.74204   1.28822    0.000
 4035.00   -0.99238   1.29078    0.000
 4036.00    0.20708   1.29256    0.008
 4037.00    1.20574   1.29352    0.008
 4038.00    1.74588   1.29398    0.009
 4039.00    2.10787   1.29392    0.009
 4040.00    2.11765   1.29370    0.009
 4041.00    2.06293   1.29325    0.009
 4042.00    1.89706   1.29289    0.009
 4043.00    1.45922   1.29251    0.009
 4044.00    0.61112   1.29230    0.009
 4045.00    0.32465   1.29209    0.009
 4046.00    0.78266   1.29201    0.009
 4047.00    1.28397   1.29183    0.009
 4048.00    1.83583   1.29167    0.009
 4049.00    1.67020   1.29127    0.009
 4050.00    0.76588   1.29084    0.009
 4051.00    0.32205   1.29011    0.009
 4052.00    0.29639   1.28933    0.009
 4053.00    0.22868   1.28824    0.009
 4054.00    0.12733   1.28703    0.009
 4055.00    0.42365   1.28550    0.009
 4056.00    1.00000   1.28376    0.009
 4057.00    1.10965   1.28168    0.009
 4058.00    0.93103   1.27928    0.009
 4059.00    1.05250   1.27655    0.009
 4060.00    1.33590   1.27349    0.009
 4061.00    1.66708   1.27021    0.009
 4062.00    2.02066   1.26679    0.009
 4063.00    1.58110   1.26337    0.009
 4064.00    0.82110   1.26016    0.009
 4065.00    1.39730   1.25719    0.009
 4066.00    2.43421   1.25480    0.009
 4067.00    2.25136   1.25280    0.009
 4068.00    1.71431   1.25155    0.009
 4069.00    1.04856   1.25071    0.009
 4070.00    0.35189   1.25053    0.009
 4071.00    0.50408   1.25059    0.009
 4072.00    0.82075   1.25105    0.009
 4073.00    2.12187   1.25144    0.009
 4074.00    3.57133   1.25190    0.009
 4075.00    2.53540   1.25195    0.009
 4076.00    1.22456   1.25173    0.009
 4077.00    1.96219   1.25074    0.009
 4078.00    2.84983   1.24921    0.009
 4079.00    2.10174   1.24663    0.009
 4080.00    1.29102   1.24324    0.009
 4081.00    0.86751   1.23865    0.009
 4082.00    0.48312   1.23297    0.009
 4083.00    1.49216   1.22596    0.009
 4084.00    2.43909   1.21750    0.009
 4085.00    2.36239   1.20752    0.009
 4086.00    2.23973   1.19554    0.009
 4087.00    1.64425   1.18175    0.009
 4088.00    1.06489   1.16543    0.009
 4089.00    0.60380   1.14709    0.009
 4090.00    0.22154   1.12617    0.009
 4091.00    0.28155   1.10366    0.008
 4092.00    0.33776   1.07947    0.000
 4093.00    0.37695   1.05519    0.000
 4094.00    0.54373   1.03137    0.000
 4095.00    1.17906   1.00991    0.000
 4096.00    1.76029   0.99177    0.000
 4097.00    2.17514   0.97857    0.000
 4098.00    2.30634   0.97109    0.000
 4099.00    1.69618   0.97003    0.000
 4100.00    1.17492   0.97543    0.000
 4101.00    0.85333   0.98682    0.000
 4102.00    0.83099   1.00335    0.000
 4103.00    1.39100   1.02376    0.000
 4104.00    1.77239   1.04664    0.000
 4105.00    1.85069   1.07064    0.000
 4106.00    1.69276   1.09435    0.000
 4107.00    1.18367   1.11693    0.000
 4108.00    0.93024   1.13745    0.000
 4109.00    1.01086   1.15568    0.000
 4110.00    1.25537   1.17133    0.000
 4111.00    1.68850   1.18461    0.000
 4112.00    1.87477   1.19562    0.000
 4113.00    1.81047   1.20485    0.008
 4114.00    1.96582   1.21251    0.008
 4115.00    2.31784   1.21916    0.009
 4116.00    2.51037   1.22487    0.009
 4117.00    2.57707   1.23014    0.008
 4118.00    2.47547   1.23485    0.008
 4119.00    2.25709   1.23930    0.009
 4120.00    1.92960   1.24335    0.013
 4121.00    1.53571   1.24704    0.049
 4122.00    0.86879   1.25041   -1.000
 4123.00    0.05680   1.25323   -1.000
 4124.00    0.04883   1.25589   -1.000
 4125.00    0.41157   1.25795   -1.000
 4126.00    1.14590   1.25998   -1.000
 4127.00    2.02778   1.26155   -1.000
 4128.00    1.82561   1.26320    0.022
 4129.00    1.25654   1.26452    0.010
 4130.00    1.38770   1.26583    0.008
 4131.00    1.71810   1.26685    0.008
 4132.00    1.78904   1.26762    0.009
 4133.00    1.79907   1.26803    0.009
 4134.00    1.56408   1.26804    0.009
 4135.00    1.28285   1.26764    0.009
 4136.00    1.24022   1.26693    0.009
 4137.00    1.23243   1.26594    0.009
 4138.00    1.25009   1.26495    0.009
 4139.00    1.27046   1.26398    0.009
 4140.00    1.15430   1.26349    0.009
 4141.00    1.02869   1.26322    0.009
 4142.00    0.48519   1.26373    0.009
 4143.00   -0.07272   1.26445    0.000
 4144.00    0.34310   1.26578    0.009
 4145.00    0.75574   1.26715    0.009
 4146.00    0.99937   1.26889    0.009
 4147.00    1.18087   1.27045    0.009
 4148.00    0.40166   1.27214    0.009
 4149.00   -0.16768   1.27357    0.000
 4150.00    1.33187   1.27496    0.009
 4151.00    2.52558   1.27618    0.009
 4152.00    1.54799   1.27735    0.009
 4153.00    0.76795   1.27837    0.009
 4154.00    1.06634   1.27932    0.009
 4155.00    1.40231   1.28018    0.008
 4156.00    1.90253   1.28090    0.008
 4157.00    2.14175   1.28145    0.008
 4158.00    1.44219   1.28177    0.008
 4159.00    0.73893   1.28190    0.008
 4160.00    0.02454   1.28174    0.008
 4161.00   -0.25384   1.28143    0.000
 4162.00    0.58749   1.28085    0.008
 4163.00    1.30789   1.28011    0.008
 4164.00    1.76113   1.27925    0.008
 4165.00    1.90918   1.27826    0.008
 4166.00    1.47264   1.27732    0.008
 4167.00    1.21070   1.27639    0.008
 4168.00    1.24058   1.27562    0.008
 4169.00    1.32053   1.27489    0.008
 4170.00    1.47381   1.27448    0.008
 4171.00    1.36052   1.27419    0.008
 4172.00    0.90392   1.27419    0.008
 4173.00    0.93897   1.27430    0.008
 4174.00    1.53194   1.27459    0.008
 4175.00    1.94796   1.27488    0.008
 4176.00    2.18687   1.27526    0.008
 4177.00    2.00829   1.27557    0.008
 4178.00    1.46118   1.27582    0.008
 4179.00    1.56210   1.27597    0.008
 4180.00    2.16701   1.27596    0.008
 4181.00    2.10764   1.27592    0.008
 4182.00    1.59397   1.27562    0.008
 4183.00    1.08307   1.27538    0.008
 4184.00    0.57384   1.27476    0.008
 4185.00    0.55551   1.27424    0.008
 4186.00    0.79392   1.27327    0.008
 4187.00    1.26481   1.27217    0.008
 4188.00    1.84116   1.27063    0.008
 4189.00    1.63944   1.26873    0.008
 4190.00    1.13411   1.26648    0.008
 4191.00    0.64738   1.26390    0.008
 4192.00    0.16684   1.26120    0.008
 4193.00    0.86206   1.25852    0.008
 4194.00    1.88498   1.25615    0.008
 4195.00    1.60599   1.25430    0.008
 4196.00    1.02831   1.25317    0.008
 4197.00    0.87632   1.25302    0.008
 4198.00    0.80256   1.25376    0.008
 4199.00    0.65090   1.25555    0.008
 4200.00    0.48823   1.25798    0.008
 4201.00    0.85422   1.26111    0.008
 4202.00    1.27411   1.26435    0.008
 4203.00    1.48400   1.26783    0.008
 4204.00    1.68021   1.27096    0.008
 4205.00    1.45462   1.27395    0.008
 4206.00    1.21559   1.27639    0.008
 4207.00    0.67091   1.27849    0.008
 4208.00    0.14096   1.28007    0.008
 4209.00    0.04393   1.28135    0.008
 4210.00    0.00240   1.28226    0.008
 4211.00    0.76897   1.28299    0.008
 4212.00    1.39815   1.28346    0.008
 4213.00    0.72822   1.28374    0.008
 4214.00    0.22011   1.28397    0.008
 4215.00    0.82433   1.28375    0.008
 4216.00    1.30236   1.28371    0.008
 4217.00    1.10968   1.28298    0.008
 4218.00    1.14925   1.28251    0.008
 4219.00    2.18077   1.28137    0.008
 4220.00    2.72751   1.28058    0.008
 4221.00    1.56624   1.27938    0.008
 4222.00    0.71971   1.27860    0.008
 4223.00    0.80527   1.27773    0.008
 4224.00    0.86255   1.27730    0.008
 4225.00    0.84847   1.27700    0.008
 4226.00    0.98560   1.27710    0.008
 4227.00    1.45129   1.27731    0.008
 4228.00    1.82888   1.27779    0.008
 4229.00    2.04035   1.27814    0.008
 4230.00    2.26007   1.27865    0.008
 4231.00    2.49334   1.27903    0.008
 4232.00    2.28779   1.27952    0.008
 4233.00    1.44876   1.27987    0.008
 4234.00    1.16129   1.28042    0.008
 4235.00    1.57408   1.28076    0.008
 4236.00    1.85101   1.28118    0.008
 4237.00    1.97594   1.28155    0.008
 4238.00    1.94185   1.28182    0.007
 4239.00    1.75084   1.28198    0.007
 4240.00    1.45639   1.28202    0.007
 4241.00    1.07192   1.28189    0.007
 4242.00    1.04535   1.28164    0.007
 4243.00    1.29318   1.28128    0.007
 4244.00    1.67273   1.28082    0.008
 4245.00    2.14106   1.28028    0.008
 4246.00    1.62830   1.27978    0.008
 4247.00    0.53628   1.27933    0.008
 4248.00    0.99072   1.27903    0.008
 4249.00    2.24137   1.27874    0.008
 4250.00    2.16927   1.27865    0.008
 4251.00    1.50702   1.27855    0.008
 4252.00    1.47203   1.27860    0.008
 4253.00    1.67755   1.27848    0.008
 4254.00    1.93260   1.27859    0.008
 4255.00    2.20379   1.27844    0.007
 4256.00    1.49998   1.27841    0.007
 4257.00    0.53003   1.27804    0.007
 4258.00    0.46556   1.27766    0.007
 4259.00    0.60400   1.27708    0.007
 4260.00    0.61923   1.27639    0.007
 4261.00    0.61242   1.27559    0.008
 4262.00    1.16484   1.27464    0.008
 4263.00    1.79377   1.27365    0.008
 4264.00    1.31575   1.27244    0.008
 4265.00    0.72960   1.27148    0.008
 4266.00    1.19530   1.27037    0.008
 4267.00    1.72533   1.26974    0.007
 4268.00    1.40897   1.26928    0.007
 4269.00    1.06914   1.26902    0.007
 4270.00    0.60504   1.26899    0.007
 4271.00    0.16701   1.26915    0.007
 4272.00    0.41829   1.26961    0.007
 4273.00    0.65660   1.27007    0.007
 4274.00    0.71647   1.27053    0.007
 4275.00    0.79287   1.27096    0.007
 4276.00    1.01943   1.27130    0.007
 4277.00    1.23275   1.27138    0.007
 4278.00    1.35792   1.27125    0.007
 4279.00    1.51315   1.27084    0.008
 4280.00    1.82401   1.27027    0.007
 4281.00    2.11202   1.26952    0.007
 4282.00    2.30465   1.26861   -2.000
 4283.00    2.28946   1.26771   -2.000
 4284.00    1.55679   1.26666   -2.000
 4285.00    0.95206   1.26563   -2.000
 4286.00    0.71920   1.26465   -2.000
 4287.00    0.67092   1.26352   -2.000
 4288.00    1.08043   1.26244   -2.000
 4289.00    1.37001   1.26116   -2.000
 4290.00    1.40321   1.25999   -2.000
 4291.00    1.32785   1.25861   -2.000
 4292.00    1.05092   1.25713   -2.000
 4293.00    0.80064   1.25533   -2.000
 4294.00    0.59357   1.25348   -2.000
 4295.00    0.67837   1.25163   -2.000
 4296.00    1.17842   1.24974   -2.000
 4297.00    1.78006   1.24793   -2.000
 4298.00    2.50886   1.24621    0.008
 4299.00    2.59081   1.24470    0.008
 4300.00    1.95924   1.24359    0.008
 4301.00    1.29167   1.24276    0.008
 4302.00    0.58908   1.24210    0.007
 4303.00    0.38687   1.24196    0.007
 4304.00    0.61398   1.24206    0.007
 4305.00    0.93825   1.24248    0.007
 4306.00    1.33595   1.24314    0.007
 4307.00    1.17437   1.24400    0.007
 4308.00    0.64141   1.24517    0.007
 4309.00    0.87352   1.24643    0.007
 4310.00    1.55054   1.24768    0.007
 4311.00    1.89234   1.24874    0.007
 4312.00    2.06425   1.24952    0.007
 4313.00    1.85382   1.24980    0.007
 4314.00    1.47562   1.24963    0.007
 4315.00    1.45383   1.24877    0.007
 4316.00    1.56629   1.24702    0.007
 4317.00    1.15500   1.24442    0.007
 4318.00    0.57626   1.24084    0.007
 4319.00    1.60303   1.23640    0.007
 4320.00    3.05890   1.23097    0.008
 4321.00    2.87413   1.22460    0.008
 4322.00    2.33034   1.21702    0.008
 4323.00    1.31023   1.20810    0.008
 4324.00    0.20726   1.19781    0.008
 4325.00    0.50518   1.18578    0.008
 4326.00    0.98839   1.17219    0.008
 4327.00    1.23208   1.15642    0.008
 4328.00    1.45339   1.13864    0.008
 4329.00    1.79527   1.11893    0.008
 4330.00    2.14405   1.09779    0.000
 4331.00    2.26405   1.07590    0.000
 4332.00    2.37381   1.05410    0.000
 4333.00    1.91916   1.03351    0.000
 4334.00    1.48723   1.01527    0.000
 4335.00    1.60084   1.00040    0.000
 4336.00    1.69519   0.98992    0.000
 4337.00    1.53891   0.98453    0.000
 4338.00    1.50258   0.98486    0.000
 4339.00    2.51416   0.99057    0.000
 4340.00    3.16530   1.00193    0.000
 4341.00    1.48836   1.01828    0.000
 4342.00    0.24345   1.03751    0.000
 4343.00    1.17811   1.05856    0.000
 4344.00    1.87173   1.08043    0.000
 4345.00    1.58148   1.10231    0.000
 4346.00    1.31078   1.12330    0.000
 4347.00    1.10620   1.14302    0.000
 4348.00    1.00010   1.16120    0.000
 4349.00    1.17502   1.17751    0.000
 4350.00    1.62207   1.19210    0.000
 4351.00    2.73257   1.20495    0.008
 4352.00    3.19997   1.21651    0.008
 4353.00    2.31464   1.22663    0.008
 4354.00    1.49734   1.23531    0.008
 4355.00    0.80439   1.24294    0.008
 4356.00    0.56282   1.24934    0.009
 4357.00    1.04245   1.25492    0.026
 4358.00    1.30336   1.25941   -1.000
 4359.00    1.25759   1.26334   -1.000
 4360.00    1.32338   1.26643   -1.000
 4361.00    1.52679   1.26892   -1.000
 4362.00    1.68354   1.27083   -1.000
 4363.00    1.78952   1.27219   -1.000
 4364.00    2.06183   1.27333    0.030
 4365.00    2.49368   1.27390    0.010
 4366.00    2.43387   1.27439    0.008
 4367.00    1.95817   1.27456    0.007
 4368.00    1.88051   1.27487    0.007
 4369.00    2.09934   1.27481    0.007
 4370.00    1.99677   1.27482    0.007
 4371.00    1.68389   1.27444    0.007
 4372.00    1.76960   1.27403    0.007
 4373.00    2.08360   1.27319    0.007
 4374.00    2.08316   1.27214    0.007
 4375.00    1.92588   1.27082    0.007
 4376.00    1.83451   1.26928    0.007
 4377.00    1.77157   1.26738    0.007
 4378.00    1.97817   1.26520    0.007
 4379.00    2.28451   1.26309    0.008
 4380.00    1.97679   1.26106    0.007
 4381.00    1.47651   1.25936    0.007
 4382.00    1.45035   1.25796    0.007
 4383.00    1.54823   1.25741    0.007
 4384.00    1.50140   1.25763    0.007
 4385.00    1.42367   1.25878    0.007
 4386.00    1.18877   1.26030    0.007
 4387.00    0.92731   1.26243    0.007
 4388.00    0.88086   1.26536    0.007
 4389.00    0.86188   1.26859    0.007
 4390.00    0.49297   1.27161    0.007
 4391.00    0.09283   1.27472    0.007
 4392.00    0.79375   1.27738    0.007
 4393.00    1.55330   1.27970    0.007
 4394.00    1.21348   1.28165    0.007
 4395.00    0.85919   1.28323    0.007
 4396.00    1.07764   1.28472    0.007
 4397.00    1.32071   1.28561    0.007
 4398.00    2.10508   1.28636    0.007
 4399.00    2.74557   1.28675    0.007
 4400.00    1.60853   1.28717    0.007
 4401.00    0.69191   1.28758    0.007
 4402.00    1.62973   1.28795    0.007
 4403.00    2.52469   1.28815    0.007
 4404.00    3.15107   1.28837    0.007
 4405.00    3.51156   1.28886    0.007
 4406.00    2.56428   1.28915    0.007
 4407.00    1.88998   1.28939    0.007
 4408.00    2.30543   1.28951    0.007
 4409.00    2.51625   1.28979    0.007
 4410.00    2.04852   1.28982    0.007
 4411.00    1.72141   1.29005    0.007
 4412.00    1.78830   1.29034    0.007
 4413.00    1.87072   1.29048    0.007
 4414.00    1.99039   1.29087    0.007
 4415.00    2.16307   1.29147    0.007
 4416.00    2.44548   1.29238    0.007
 4417.00    2.48368   1.29316    0.007
 4418.00    2.08224   1.29425    0.007
 4419.00    1.88894   1.29495    0.007
 4420.00    2.02326   1.29573    0.007
 4421.00    2.14392   1.29603    0.007
 4422.00    2.24570   1.29631    0.007
 4423.00    2.08273   1.29644    0.007
 4424.00    1.59774   1.29631    0.007
 4425.00    1.56201   1.29601    0.007
 4426.00    2.00800   1.29554    0.007
 4427.00    2.14297   1.29499    0.007
 4428.00    1.98377   1.29451    0.007
 4429.00    1.55351   1.29377    0.007
 4430.00    0.89721   1.29316    0.007
 4431.00    0.88517   1.29278    0.007
 4432.00    1.34614   1.29230    0.007
 4433.00    1.59926   1.29211    0.007
 4434.00    1.71837   1.29188    0.007
 4435.00    1.86423   1.29203    0.007
 4436.00    2.02519   1.29214    0.007
 4437.00    2.08482   1.29261    0.007
 4438.00    2.09471   1.29303    0.007
 4439.00    2.20180   1.29352    0.007
 4440.00    2.35013   1.29387    0.007
 4441.00    2.04444   1.29432    0.007
 4442.00    1.57373   1.29483    0.007
 4443.00    1.17556   1.29522    0.007
 4444.00    0.79971   1.29581    0.007
 4445.00    0.88510   1.29600    0.007
 4446.00    1.08858   1.29611    0.007
 4447.00    1.61545   1.29597    0.007
 4448.00    2.20972   1.29588    0.007
 4449.00    1.95680   1.29547    0.007
 4450.00    1.56469   1.29493    0.007
 4451.00    1.33694   1.29445    0.007
 4452.00    1.12945   1.29363    0.006
 4453.00    1.08537   1.29291    0.007
 4454.00    1.05518   1.29170    0.007
 4455.00    1.35048   1.29078    0.007
 4456.00    1.66185   1.28935    0.007
 4457.00    1.96152   1.28774    0.007
 4458.00    2.25365   1.28565    0.007
 4459.00    2.08398   1.28298    0.007
 4460.00    1.92358   1.28031    0.007
 4461.00    1.95066   1.27730    0.000
 4462.00    1.99639   1.27442    0.000
 4463.00    2.26116   1.27136    0.000
 4464.00    2.49109   1.26856    0.000
 4465.00    2.43857   1.26617    0.000
 4466.00    2.38962   1.26433    0.000
 4467.00    2.36246   1.26335    0.000
 4468.00    2.34163   1.26291    0.000
 4469.00    2.35113   1.26348    0.000
 4470.00    2.25814   1.26450    0.000
 4471.00    1.76493   1.26697    0.000
 4472.00    1.41598   1.27064    0.000
 4473.00    1.53610   1.27413    0.000
 4474.00    1.69128   1.27761    0.000
 4475.00    1.94292   1.28091    0.000
 4476.00    2.15867   1.28395    0.000
 4477.00    2.28986   1.28681    0.000
 4478.00    2.26959   1.28936    0.000
 4479.00    1.94086   1.29164    0.000
 4480.00    1.64147   1.29375    0.000
 4481.00    1.39412   1.29604    0.000
 4482.00    1.28120   1.29857    0.007
 4483.00    1.37678   1.30042    0.007
 4484.00    1.50936   1.30244    0.007
 4485.00    1.69233   1.30368    0.006
 4486.00    1.74503   1.30515    0.007
 4487.00    1.64153   1.30604    0.007
 4488.00    1.45898   1.30702    0.007
 4489.00    1.19286   1.30784    0.006
 4490.00    1.22316   1.30865    0.006
 4491.00    1.52988   1.30953    0.006
 4492.00    1.43877   1.31029    0.006
 4493.00    1.02059   1.31113    0.006
 4494.00    0.89477   1.31184    0.006
 4495.00    0.98051   1.31270    0.006
 4496.00    1.34105   1.31346    0.006
 4497.00    1.87616   1.31426    0.006
 4498.00    1.66626   1.31497    0.006
 4499.00    1.04255   1.31551    0.006
 4500.00    0.76806   1.31580    0.006
 4501.00    0.66230   1.31604    0.007
 4502.00    0.88743   1.31610    0.007
 4503.00    1.25060   1.31599    0.007
 4504.00    1.44859   1.31550    0.006
 4505.00    1.58764   1.31481    0.006
 4506.00    1.74183   1.31402    0.006
 4507.00    1.90058   1.31303    0.006
 4508.00    1.84162   1.31216    0.006
 4509.00    1.72813   1.31113    0.006
 4510.00    1.95292   1.31029    0.006
 4511.00    2.24647   1.30929    0.006
 4512.00    1.95399   1.30856    0.006
 4513.00    1.56803   1.30764    0.006
 4514.00    1.38837   1.30690    0.006
 4515.00    1.23322   1.30629    0.006
 4516.00    1.42981   1.30566    0.006
 4517.00    1.65486   1.30485    0.006
 4518.00    1.68472   1.30408    0.006
 4519.00    1.70570   1.30313    0.006
 4520.00    1.65288   1.30221    0.006
 4521.00    1.59583   1.30108    0.006
 4522.00    1.36893   1.29989    0.006
 4523.00    1.16380   1.29874    0.006
 4524.00    1.36717   1.29757    0.006
 4525.00    1.56965   1.29637    0.006
 4526.00    1.76216   1.29529    0.006
 4527.00    1.91923   1.29418    0.006
 4528.00    1.79889   1.29283    0.006
 4529.00    1.66877   1.29170    0.006
 4530.00    1.48078   1.29019    0.006
 4531.00    1.43269   1.28875    0.006
 4532.00    2.03950   1.28720    0.006
 4533.00    2.45571   1.28574    0.006
 4534.00    2.14346   1.28443    0.006
 4535.00    1.86866   1.28331    0.006
 4536.00    1.71327   1.28266    0.006
 4537.00    1.56286   1.28195    0.006
 4538.00    1.42586   1.28172    0.006
 4539.00    1.34187   1.28149    0.006
 4540.00    1.38072   1.28180    0.006
 4541.00    1.32089   1.28298    0.006
 4542.00    1.06326   1.28465    0.006
 4543.00    0.84532   1.28651    0.006
 4544.00    0.69668   1.28839    0.006
 4545.00    0.69302   1.29050    0.006
 4546.00    0.91089   1.29238    0.006
 4547.00    1.04765   1.29445    0.006
 4548.00    1.07554   1.29626    0.006
 4549.00    1.06250   1.29804    0.006
 4550.00    1.00107   1.30035    0.000
 4551.00    1.13504   1.30202    0.000
 4552.00    1.47269   1.30395    0.000
 4553.00    1.75244   1.30563    0.000
 4554.00    1.97896   1.30710    0.000
 4555.00    2.24758   1.30855    0.000
 4556.00    2.55031   1.30996    0.000
 4557.00    2.14975   1.31106    0.000
 4558.00    1.24764   1.31181    0.000
 4559.00    1.31736   1.31257    0.000
 4560.00    1.99529   1.31299    0.000
 4561.00    1.97088   1.31327    0.000
 4562.00    1.56232   1.31327    0.000
 4563.00    1.32108   1.31336    0.000
 4564.00    1.15938   1.31346    0.000
 4565.00    1.31069   1.31366    0.000
 4566.00    1.59038   1.31382    0.000
 4567.00    1.78317   1.31406    0.000
 4568.00    1.94552   1.31427    0.000
 4569.00    2.17638   1.31438    0.000
 4570.00    2.42750   1.31463    0.000
 4571.00    2.57226   1.31448    0.000
 4572.00    2.69095   1.31484    0.000
 4573.00    2.43812   1.31471    0.000
 4574.00    2.11166   1.31456    0.000
 4575.00    1.90249   1.31448    0.000
 4576.00    1.71148   1.31417    0.000
 4577.00    1.69009   1.31400    0.000
 4578.00    1.68811   1.31347    0.000
 4579.00    1.74852   1.31330    0.000
 4580.00    1.81372   1.31285    0.000
 4581.00    1.49268   1.31266    0.000
 4582.00    1.15557   1.31245    0.000
 4583.00    1.26549   1.31215    0.000
 4584.00    1.38085   1.31226    0.000
 4585.00    1.56302   1.31211    0.000
 4586.00    1.73567   1.31223    0.000
 4587.00    1.74181   1.31219    0.000
 4588.00    1.74926   1.31237    0.000
 4589.00    1.77083   1.31260    0.000
 4590.00    1.76296   1.31267    0.000
 4591.00    1.53263   1.31308    0.000
 4592.00    1.37999   1.31338    0.000
 4593.00    1.67394   1.31398    0.000
 4594.00    1.90348   1.31446    0.000
 4595.00    1.83873   1.31498    0.000
 4596.00    1.75706   1.31575    0.000
 4597.00    1.61215   1.31647    0.000
 4598.00    1.50591   1.31731    0.000
 4599.00    1.52061   1.31804    0.000
 4600.00    1.52239   1.31872    0.000
 4601.00    1.48989   1.31947    0.000
 4602.00    1.48277   1.32023    0.000
 4603.00    1.53348   1.32095    0.000
 4604.00    1.64892   1.32158    0.000
 4605.00    1.89205   1.32219    0.000
 4606.00    1.95688   1.32261    0.000
 4607.00    1.71515   1.32320    0.000
 4608.00    1.39795   1.32337    0.000
 4609.00    0.96715   1.32362    0.000
 4610.00    0.74085   1.32371    0.000
 4611.00    0.78513   1.32386    0.000
 4612.00    0.92875   1.32404    0.000
 4613.00    1.18813   1.32408    0.000
 4614.00    1.50717   1.32440    0.000
 4615.00    1.88751   1.32436    0.000
 4616.00    1.84926   1.32458    0.000
 4617.00    1.43155   1.32461    0.000
 4618.00    1.25244   1.32446    0.000
 4619.00    1.26395   1.32450    0.000
 4620.00    1.26952   1.32445    0.000
 4621.00    1.27093   1.32416    0.000
 4622.00    1.64576   1.32387    0.000
 4623.00    2.25084   1.32342    0.000
 4624.00    2.44777   1.32285    0.000
 4625.00    2.42490   1.32218    0.000
 4626.00    2.09160   1.32146    0.000
 4627.00    1.61310   1.32064    0.000
 4628.00    1.34720   1.31980    0.000
 4629.00    1.16701   1.31886    0.000
 4630.00    1.09141   1.31791    0.000
 4631.00    1.05179   1.31705    0.000
 4632.00    1.01859   1.31617    0.000
 4633.00    0.98725   1.31507    0.000
 4634.00    1.41062   1.31392    0.000
 4635.00    1.94291   1.31284    0.000
 4636.00    2.13917   1.31122    0.000
 4637.00    2.27054   1.30957    0.000
 4638.00    1.58065   1.30756    0.000
 4639.00    0.76748   1.30546    0.000
 4640.00    0.87523   1.30361    0.000
 4641.00    1.08435   1.30185    0.000
 4642.00    1.25069   1.30025    0.000
 4643.00    1.41392   1.29892    0.000
 4644.00    1.46552   1.29826    0.000
 4645.00    1.51289   1.29763    0.000
 4646.00    1.39587   1.29725    0.000
 4647.00    1.27812   1.29788    0.000
 4648.00    1.16463   1.29927    0.000
 4649.00    1.07259   1.30073    0.000
 4650.00    1.33125   1.30288    0.000
 4651.00    1.54036   1.30526    0.000
 4652.00    1.24245   1.30770    0.000
 4653.00    1.00538   1.30958    0.000
 4654.00    1.21294   1.31134    0.000
 4655.00    1.45572   1.31310    0.000
 4656.00    1.89534   1.31419    0.000
 4657.00    2.27156   1.31533    0.000
 4658.00    2.36493   1.31572    0.000
 4659.00    2.33777   1.31600    0.000
 4660.00    1.86910   1.31591    0.000
 4661.00    1.49535   1.31582    0.000
 4662.00    1.41286   1.31574    0.000
 4663.00    1.36540   1.31560    0.000
 4664.00    1.40931   1.31568    0.000
 4665.00    1.45986   1.31543    0.000
 4666.00    1.52528   1.31550    0.000
 4667.00    1.58382   1.31570    0.000
 4668.00    1.62902   1.31590    0.000
 4669.00    1.70012   1.31594    0.000
 4670.00    1.81509   1.31569    0.000
 4671.00    1.84138   1.31501    0.000
 4672.00    1.73609   1.31384    0.000
 4673.00    1.62177   1.31244    0.000
 4674.00    1.49565   1.31070    0.000
 4675.00    1.57045   1.30861    0.000
 4676.00    1.87612   1.30611    0.000
 4677.00    1.96699   1.30293    0.000
 4678.00    1.84022   1.30008    0.000
 4679.00    1.68354   1.29845    0.000
 4680.00    1.50014   1.29712    0.000
 4681.00    1.47075   1.29612    0.000
 4682.00    1.56267   1.29594    0.000
 4683.00    1.59598   1.29604    0.000
 4684.00    1.58870   1.29674    0.000
 4685.00    1.69498   1.29828    0.000
 4686.00    1.87024   1.30124    0.000
 4687.00    1.93084   1.30452    0.000
 4688.00    1.93065   1.30751    0.000
 4689.00    1.74591   1.31073    0.000
 4690.00    1.47623   1.31277    0.000
 4691.00    1.68673   1.31501    0.000
 4692.00    2.08747   1.31678    0.000
 4693.00    2.00260   1.31823    0.000
 4694.00    1.75377   1.31926    0.000
 4695.00    1.64113   1.31964    0.000
 4696.00    1.56713   1.32006    0.000
 4697.00    1.43794   1.31957    0.000
 4698.00    1.29582   1.31916    0.000
 4699.00    1.18815   1.31867    0.000
 4700.00    1.08696   1.31824    0.000
 4701.00    1.39956   1.31768    0.000
 4702.00    1.77234   1.31707    0.000
 4703.00    1.84842   1.31712    0.000
 4704.00    1.89312   1.31634    0.000
 4705.00    1.83598   1.31581    0.000
 4706.00    1.77184   1.31574    0.000
 4707.00    1.37614   1.31642    0.000
 4708.00    0.96917   1.31683    0.000
 4709.00    1.44710   1.31785    0.000
 4710.00    1.92115   1.31913    0.000
 4711.00    2.22511   1.32021    0.000
 4712.00    2.48644   1.32158    0.000
 4713.00    2.09387   1.32313    0.000
 4714.00    1.72356   1.32544    0.000
 4715.00    1.57161   1.32702    0.000
 4716.00    1.46374   1.32913    0.000
 4717.00    1.66751   1.33047    0.000
 4718.00    1.84000   1.33166    0.000
 4719.00    1.84235   1.33246    0.000
 4720.00    1.77020   1.33284    0.000
 4721.00    1.37340   1.33326    0.000
 4722.00    1.15422   1.33326    0.000
 4723.00    1.57230   1.33330    0.000
 4724.00    1.92899   1.33313    0.000
 4725.00    2.10085   1.33292    0.000
 4726.00    2.13050   1.33261    0.000
 4727.00    1.79572   1.33244    0.000
 4728.00    1.65963   1.33233    0.000
 4729.00    1.96150   1.33235    0.000
 4730.00    2.20245   1.33271    0.000
 4731.00    2.32690   1.33310    0.000
 4732.00    2.41914   1.33369    0.000
 4733.00    2.45764   1.33416    0.000
 4734.00    2.47307   1.33485    0.000
 4735.00    2.45479   1.33556    0.000
 4736.00    2.36773   1.33611    0.000
 4737.00    2.19227   1.33698    0.000
 4738.00    1.92022   1.33770    0.000
 4739.00    1.53877   1.33839    0.000
 4740.00    1.59462   1.33897    0.000
 4741.00    2.08736   1.33942    0.000
 4742.00    2.12550   1.33998    0.000
 4743.00    1.76306   1.34021    0.000
 4744.00    1.53960   1.34032    0.000
 4745.00    1.42402   1.34047    0.000
 4746.00    1.44273   1.34024    0.000
 4747.00    1.55311   1.34001    0.000
 4748.00    1.65496   1.33950    0.000
 4749.00    1.75172   1.33896    0.000
 4750.00    1.58164   1.33840    0.000
 4751.00    1.27228   1.33757    0.000
 4752.00    1.39529   1.33691    0.000
 4753.00    1.71401   1.33599    0.000
 4754.00    1.88568   1.33505    0.000
 4755.00    2.00009   1.33418    0.000
 4756.00    1.81589   1.33320    0.000
 4757.00    1.53274   1.33254    0.000
 4758.00    1.65290   1.33192    0.000
 4759.00    1.88517   1.33140    0.000
 4760.00    1.84642   1.33110    0.000
 4761.00    1.74567   1.33086    0.006
 4762.00    1.80219   1.33092    0.006
 4763.00    1.88751   1.33106    0.006
 4764.00    1.72712   1.33136    0.006
 4765.00    1.53212   1.33191    0.006
 4766.00    1.87480   1.33250    0.006
 4767.00    2.27202   1.33323    0.006
 4768.00    2.03591   1.33398    0.006
 4769.00    1.75886   1.33472    0.006
 4770.00    1.55971   1.33518    0.006
 4771.00    1.36336   1.33556    0.006
 4772.00    1.38999   1.33594    0.006
 4773.00    1.40822   1.33615    0.006
 4774.00    1.18287   1.33639    0.006
 4775.00    0.99158   1.33629    0.006
 4776.00    1.29222   1.33630    0.006
 4777.00    1.57845   1.33599    0.006
 4778.00    1.72903   1.33560    0.005
 4779.00    1.82544   1.33543    0.005
 4780.00    1.55104   1.33522    0.005
 4781.00    1.32902   1.33519    0.005
 4782.00    1.38455   1.33514    0.005
 4783.00    1.42400   1.33525    0.005
 4784.00    1.39503   1.33543    0.005
 4785.00    1.38175   1.33565    0.005
 4786.00    1.42367   1.33607    0.005
 4787.00    1.51926   1.33670    0.005
 4788.00    1.77339   1.33721    0.005
 4789.00    1.95350   1.33773    0.005
 4790.00    1.94719   1.33813    0.006
 4791.00    1.89668   1.33835    0.006
 4792.00    1.75033   1.33850    0.006
 4793.00    1.53560   1.33865    0.006
 4794.00    1.19219   1.33873    0.005
 4795.00    1.03539   1.33857    0.005
 4796.00    1.18525   1.33834    0.006
 4797.00    1.31175   1.33778    0.006
 4798.00    1.40460   1.33735    0.005
 4799.00    1.51816   1.33678    0.005
 4800.00    1.65796   1.33639    0.006
 4801.00    1.81640   1.33610    0.006
 4802.00    1.99565   1.33558    0.005
 4803.00    1.82097   1.33526    0.005
 4804.00    1.29766   1.33474    0.005
 4805.00    1.26131   1.33457    0.005
 4806.00    1.64800   1.33431    0.006
 4807.00    1.88109   1.33419    0.005
 4808.00    1.99665   1.33413    0.005
 4809.00    1.87885   1.33411    0.005
 4810.00    1.60409   1.33404    0.005
 4811.00    1.72287   1.33376    0.005
 4812.00    2.07358   1.33374    0.005
 4813.00    1.90438   1.33349    0.005
 4814.00    1.46801   1.33330    0.005
 4815.00    1.52129   1.33281    0.005
 4816.00    1.79259   1.33240    0.005
 4817.00    1.80386   1.33179    0.005
 4818.00    1.71566   1.33096    0.006
 4819.00    1.65494   1.33040    0.006
 4820.00    1.60314   1.32966    0.005
 4821.00    1.87464   1.32902    0.005
 4822.00    2.23415   1.32792    0.005
 4823.00    2.00075   1.32698    0.005
 4824.00    1.63488   1.32625    0.005
 4825.00    1.68061   1.32542    0.005
 4826.00    1.79969   1.32443    0.005
 4827.00    1.79361   1.32330    0.005
 4828.00    1.77047   1.32217    0.005
 4829.00    1.71955   1.32071    0.005
 4830.00    1.66593   1.31931    0.005
 4831.00    1.53984   1.31745    0.005
 4832.00    1.40935   1.31561    0.005
 4833.00    1.38710   1.31336    0.005
 4834.00    1.36791   1.31053    0.005
 4835.00    1.38151   1.30763    0.005
 4836.00    1.40454   1.30414    0.005
 4837.00    1.67333   1.30037    0.005
 4838.00    1.90699   1.29579    0.005
 4839.00    1.66103   1.29052    0.005
 4840.00    1.43314   1.28450    0.005
 4841.00    1.36857   1.27734    0.005
 4842.00    1.32455   1.26886    0.005
 4843.00    1.41684   1.25929    0.005
 4844.00    1.51486   1.24851    0.005
 4845.00    1.64244   1.23589    0.005
 4846.00    1.81395   1.22144    0.005
 4847.00    2.16832   1.20491    0.005
 4848.00    2.39212   1.18696    0.000
 4849.00    2.16634   1.16806    0.000
 4850.00    1.92983   1.14890    0.000
 4851.00    1.66218   1.12953    0.000
 4852.00    1.44873   1.10995    0.000
 4853.00    1.36939   1.09109    0.000
 4854.00    1.33786   1.07387    0.000
 4855.00    1.40836   1.05980    0.000
 4856.00    1.53711   1.05054    0.000
 4857.00    1.77380   1.04598    0.000
 4858.00    1.92800   1.04456    0.000
 4859.00    1.94864   1.04686    0.000
 4860.00    1.94149   1.05283    0.000
 4861.00    1.89487   1.06361    0.000
 4862.00    1.89190   1.07871    0.000
 4863.00    1.94346   1.09596    0.000
 4864.00    1.85506   1.11455    0.000
 4865.00    1.61253   1.13309    0.000
 4866.00    1.61273   1.15201    0.000
 4867.00    1.84866   1.17054    0.000
 4868.00    1.97437   1.18882    0.000
 4869.00    2.00567   1.20590    0.000
 4870.00    1.86352   1.22095    0.000
 4871.00    1.59054   1.23469    0.000
 4872.00    1.52421   1.24657    0.000
 4873.00    1.59486   1.25743    0.000
 4874.00    1.68335   1.26666    0.000
 4875.00    1.78220   1.27455    0.005
 4876.00    1.86316   1.28148    0.005
 4877.00    1.93506   1.28705    0.005
 4878.00    1.90630   1.29220    0.005
 4879.00    1.83346   1.29643    0.005
 4880.00    1.80172   1.30008    0.005
 4881.00    1.78543   1.30339    0.005
 4882.00    1.57389   1.30636    0.005
 4883.00    1.30006   1.30901    0.005
 4884.00    1.38644   1.31146    0.005
 4885.00    1.56882   1.31362    0.005
 4886.00    1.47200   1.31617    0.005
 4887.00    1.31426   1.31895    0.005
 4888.00    1.29317   1.32114    0.005
 4889.00    1.29577   1.32368    0.005
 4890.00    1.58980   1.32556    0.005
 4891.00    1.92221   1.32767    0.005
 4892.00    1.78786   1.32993    0.005
 4893.00    1.61015   1.33142    0.005
 4894.00    1.77095   1.33326    0.005
 4895.00    1.95094   1.33445    0.005
 4896.00    2.03774   1.33542    0.006
 4897.00    2.11897   1.33606    0.006
 4898.00    1.82330   1.33629    0.005
 4899.00    1.54853   1.33695    0.005
 4900.00    1.76986   1.33692    0.005
 4901.00    1.96511   1.33698    0.005
 4902.00    1.82313   1.33658    0.005
 4903.00    1.68294   1.33573    0.005
 4904.00    1.55822   1.33535    0.005
 4905.00    1.45443   1.33410    0.005
 4906.00    1.48526   1.33342    0.005
 4907.00    1.50856   1.33205    0.005
 4908.00    1.49403   1.33001    0.005
 4909.00    1.43217   1.32856    0.005
 4910.00    1.17769   1.32583    0.005
 4911.00    1.05398   1.32413    0.005
 4912.00    1.37154   1.32164    0.005
 4913.00    1.56005   1.31904    0.005
 4914.00    1.38117   1.31740    0.005
 4915.00    1.37136   1.31455    0.005
 4916.00    1.77286   1.31368    0.005
 4917.00    1.89744   1.31269    0.005
 4918.00    1.44073   1.31278    0.005
 4919.00    1.15697   1.31323    0.005
 4920.00    1.18876   1.31398    0.005
 4921.00    1.27667   1.31597    0.005
 4922.00    1.45409   1.31764    0.005
 4923.00    1.47789   1.32050    0.005
 4924.00    1.28671   1.32285    0.005
 4925.00    1.18172   1.32568    0.005
 4926.00    1.18288   1.32801    0.005
 4927.00    1.25384   1.32952    0.005
 4928.00    1.40058   1.33149    0.005
 4929.00    1.60059   1.33306    0.005
 4930.00    1.85161   1.33493    0.005
 4931.00    1.87757   1.33552    0.005
 4932.00    1.71349   1.33595    0.005
 4933.00    1.57981   1.33667    0.005
 4934.00    1.46875   1.33727    0.005
 4935.00    1.48449   1.33882    0.005
 4936.00    1.58306   1.33915    0.005
 4937.00    1.50312   1.33999    0.005
 4938.00    1.32112   1.34104    0.005
 4939.00    1.32740   1.34151    0.005
 4940.00    1.42740   1.34300    0.000
 4941.00    1.66869   1.34362    0.000
 4942.00    1.97083   1.34446    0.000
 4943.00    2.07016   1.34527    0.000
 4944.00    2.09462   1.34510    0.000
 4945.00    2.08301   1.34571    0.000
 4946.00    2.06011   1.34526    0.000
 4947.00    2.05149   1.34468    0.000
 4948.00    2.04660   1.34491    0.000
 4949.00    1.84029   1.34399    0.000
 4950.00    1.59110   1.34358    0.000
 4951.00    1.63061   1.34214    0.000
 4952.00    1.71878   1.34083    0.000
 4953.00    1.88494   1.34146    0.000
 4954.00    2.06103   1.34079    0.000
 4955.00    1.89961   1.34032    0.000
 4956.00    1.70826   1.33981    0.000
 4957.00    1.49565   1.33912    0.000
 4958.00    1.28192   1.33994    0.000
 4959.00    1.29880   1.33965    0.000
 4960.00    1.32131   1.33971    0.000
 4961.00    1.44005   1.34020    0.000
 4962.00    1.57030   1.33977    0.000
 4963.00    1.95095   1.34036    0.000
 4964.00    2.27935   1.34031    0.000
 4965.00    1.96612   1.34036    0.000
 4966.00    1.66002   1.34074    0.000
 4967.00    1.41353   1.34010    0.000
 4968.00    1.21340   1.34019    0.000
 4969.00    1.30279   1.33985    0.000
 4970.00    1.37541   1.33918    0.000
 4971.00    1.36581   1.33865    0.000
 4972.00    1.36724   1.33731    0.000
 4973.00    1.41253   1.33655    0.000
 4974.00    1.51922   1.33564    0.000
 4975.00    1.82900   1.33437    0.000
 4976.00    2.02128   1.33327    0.000
 4977.00    1.88506   1.33185    0.000
 4978.00    1.72296   1.33112    0.000
 4979.00    1.49895   1.33062    0.000
 4980.00    1.39473   1.32993    0.000
 4981.00    1.53796   1.32999    0.000
 4982.00    1.63862   1.32976    0.000
 4983.00    1.66277   1.32981    0.000
 4984.00    1.61481   1.33032    0.000
 4985.00    1.45357   1.33030    0.000
 4986.00    1.44479   1.33114    0.000
 4987.00    1.64632   1.33142    0.000
 4988.00    1.65178   1.33142    0.000
 4989.00    1.41918   1.33171    0.000
 4990.00    1.25741   1.33123    0.000
 4991.00    1.17148   1.33118    0.000
 4992.00    1.25519   1.33086    0.000
 4993.00    1.49908   1.32997    0.000
 4994.00    1.39135   1.32894    0.000
 4995.00    0.99094   1.32762    0.000
 4996.00    1.09543   1.32647    0.000
 4997.00    1.56993   1.32570    0.000
 4998.00    1.83058   1.32442    0.000
 4999.00    1.95361   1.32258    0.000
 5000.00    1.77768   1.32105    0.000
 5001.00    1.43345   1.31959    0.000
 5002.00    1.75372   1.31862    0.000
 5003.00    2.39955   1.31747    0.000
 5004.00    2.22952   1.31519    0.000
 5005.00    1.71403   1.31384    0.000
 5006.00    1.79947   1.31245    0.000
 5007.00    2.10282   1.31119    0.000
 5008.00    1.94032   1.31029    0.000
 5009.00    1.63493   1.30839    0.000
 5010.00    1.69157   1.30789    0.000
 5011.00    1.84064   1.30739    0.000
 5012.00    1.66573   1.30726    0.000
 5013.00    1.42351   1.30782    0.000
 5014.00    1.42423   1.30816    0.000
 5015.00    1.46472   1.30947    0.000
 5016.00    1.32639   1.31064    0.000
 5017.00    1.16611   1.31244    0.000
 5018.00    1.14306   1.31464    0.000
 5019.00    1.13161   1.31658    0.000
 5020.00    1.13681   1.31868    0.000
 5021.00    1.14283   1.32028    0.000
 5022.00    1.20877   1.32224    0.000
 5023.00    1.27842   1.32419    0.000
 5024.00    1.51769   1.32528    0.000
 5025.00    1.72822   1.32619    0.000
 5026.00    1.36240   1.32686    0.000
 5027.00    1.03531   1.32749    0.000
 5028.00    1.16081   1.32788    0.000
 5029.00    1.30555   1.32738    0.005
 5030.00    1.60570   1.32653    0.005
 5031.00    1.85949   1.32618    0.005
 5032.00    1.83217   1.32588    0.005
 5033.00    1.78080   1.32519    0.005
 5034.00    1.61438   1.32439    0.005
 5035.00    1.43261   1.32316    0.005
 5036.00    1.19103   1.32275    0.005
 5037.00    1.03457   1.32301    0.005
 5038.00    1.15422   1.32272    0.005
 5039.00    1.22112   1.32308    0.005
 5040.00    1.14325   1.32294    0.005
 5041.00    1.07787   1.32314    0.005
 5042.00    1.04189   1.32429    0.005
 5043.00    1.06442   1.32481    0.005
 5044.00    1.20588   1.32592    0.005
 5045.00    1.31964   1.32655    0.005
 5046.00    1.38439   1.32717    0.005
 5047.00    1.36758   1.32854    0.005
 5048.00    1.22451   1.32935    0.005
 5049.00    1.07867   1.33033    0.005
 5050.00    0.92909   1.33112    0.005
 5051.00    0.81648   1.33182    0.005
 5052.00    0.74812   1.33305    0.005
 5053.00    0.84348   1.33351    0.005
 5054.00    1.11162   1.33402    0.005
 5055.00    1.45103   1.33446    0.005
 5056.00    1.85678   1.33469    0.005
 5057.00    1.95965   1.33522    0.005
 5058.00    1.81399   1.33486    0.005
 5059.00    1.59131   1.33466    0.005
 5060.00    1.31301   1.33448    0.005
 5061.00    1.24118   1.33400    0.005
 5062.00    1.30026   1.33378    0.005
 5063.00    1.22210   1.33292    0.005
 5064.00    1.06785   1.33231    0.005
 5065.00    1.15760   1.33186    0.005
 5066.00    1.36499   1.33112    0.005
 5067.00    1.38434   1.33077    0.005
 5068.00    1.32541   1.32991    0.005
 5069.00    1.30150   1.32930    0.005
 5070.00    1.29004   1.32894    0.005
 5071.00    1.19343   1.32834    0.005
 5072.00    1.07121   1.32828    0.005
 5073.00    1.09702   1.32768    0.005
 5074.00    1.15981   1.32741    0.005
 5075.00    1.14539   1.32751    0.005
 5076.00    1.11533   1.32752    0.005
 5077.00    1.06014   1.32799    0.005
 5078.00    1.00095   1.32819    0.005
 5079.00    0.91786   1.32859    0.005
 5080.00    0.83194   1.32931    0.005
 5081.00    1.15672   1.32994    0.005
 5082.00    1.51451   1.33068    0.005
 5083.00    1.25485   1.33137    0.005
 5084.00    0.96741   1.33187    0.005
 5085.00    0.92727   1.33240    0.005
 5086.00    0.89445   1.33272    0.005
 5087.00    1.08098   1.33282    0.005
 5088.00    1.26076   1.33287    0.005
 5089.00    1.31517   1.33263    0.005
 5090.00    1.36833   1.33227    0.005
 5091.00    1.40754   1.33180    0.005
 5092.00    1.43907   1.33118    0.005
 5093.00    1.41083   1.33047    0.005
 5094.00    1.39921   1.32987    0.005
 5095.00    1.48554   1.32931    0.005
 5096.00    1.53182   1.32874    0.005
 5097.00    1.39114   1.32837    0.005
 5098.00    1.31466   1.32783    0.005
 5099.00    1.48289   1.32767    0.005
 5100.00    1.59626   1.32782    0.005
 5101.00    1.53512   1.32775    0.005
 5102.00    1.50537   1.32808    0.005
 5103.00    1.56020   1.32833    0.005
 5104.00    1.58372   1.32858    0.005
 5105.00    1.53483   1.32937    0.005
 5106.00    1.51011   1.32986    0.005
 5107.00    1.53377   1.33039    0.005
 5108.00    1.39741   1.33112    0.005
 5109.00    0.98223   1.33132    0.005
 5110.00    0.88217   1.33184    0.005
 5111.00    1.26277   1.33230    0.005
 5112.00    1.47027   1.33219    0.005
 5113.00    1.44582   1.33222    0.005
 5114.00    1.39963   1.33180    0.005
 5115.00    1.32781   1.33122    0.005
 5116.00    1.27379   1.33083    0.005
 5117.00    1.23829   1.32987    0.005
 5118.00    1.42912   1.32885    0.005
 5119.00    1.82767   1.32800    0.005
 5120.00    2.00077   1.32692    0.005
 5121.00    1.99151   1.32617    0.005
 5122.00    1.80968   1.32530    0.005
 5123.00    1.50502   1.32427    0.005
 5124.00    1.43697   1.32389    0.005
 5125.00    1.51672   1.32333    0.005
 5126.00    1.29373   1.32297    0.005
 5127.00    0.90547   1.32272    0.005
 5128.00    0.92455   1.32196    0.005
 5129.00    1.13689   1.32208    0.005
 5130.00    1.28950   1.32189    0.005
 5131.00    1.41766   1.32145    0.005
 5132.00    1.46531   1.32136    0.005
 5133.00    1.48480   1.32042    0.005
 5134.00    1.46432   1.32030    0.005
 5135.00    1.43205   1.32032    0.005
 5136.00    1.29561   1.31941    0.005
 5137.00    1.13373   1.31914    0.005
 5138.00    1.14480   1.31861    0.005
 5139.00    1.19004   1.31814    0.005
 5140.00    1.31294   1.31858    0.005
 5141.00    1.44781   1.31803    0.005
 5142.00    1.49410   1.31768    0.005
 5143.00    1.53031   1.31816    0.005
 5144.00    1.45215   1.31809    0.005
 5145.00    1.36528   1.31864    0.005
 5146.00    1.12457   1.31898    0.005
 5147.00    0.87753   1.31899    0.005
 5148.00    0.89705   1.31966    0.005
 5149.00    0.92502   1.32012    0.005
 5150.00    1.21691   1.32027    0.005
 5151.00    1.49285   1.32041    0.005
 5152.00    1.49242   1.32031    0.005
 5153.00    1.46740   1.31955    0.005
 5154.00    1.18064   1.31900    0.005
 5155.00    0.94711   1.31789    0.005
 5156.00    1.11420   1.31609    0.005
 5157.00    1.29563   1.31434    0.005
 5158.00    1.55926   1.31141    0.005
 5159.00    1.76390   1.30892    0.005
 5160.00    1.69987   1.30659    0.005
 5161.00    1.61186   1.30346    0.005
 5162.00    1.43440   1.30074    0.005
 5163.00    1.25608   1.29784    0.005
 5164.00    1.07507   1.29586    0.005
 5165.00    0.95142   1.29469    0.005
 5166.00    0.97970   1.29310    0.005
 5167.00    1.04091   1.29216    0.005
 5168.00    1.17703   1.29195    0.005
 5169.00    1.21998   1.29243    0.005
 5170.00    1.07948   1.29327    0.005
 5171.00    1.02926   1.29377    0.005
 5172.00    1.13400   1.29445    0.005
 5173.00    1.23360   1.29568    0.005
 5174.00    1.32547   1.29672    0.005
 5175.00    1.28521   1.29760    0.005
 5176.00    1.07047   1.29852    0.005
 5177.00    1.04846   1.29883    0.005
 5178.00    1.25069   1.29945    0.005
 5179.00    1.34564   1.30015    0.005
 5180.00    1.33053   1.30073    0.005
 5181.00    1.24131   1.30187    0.005
 5182.00    1.08503   1.30197    0.005
 5183.00    1.18413   1.30236    0.005
 5184.00    1.48690   1.30388    0.005
 5185.00    1.41811   1.30494    0.005
 5186.00    1.08865   1.30603    0.005
 5187.00    1.05405   1.30663    0.005
 5188.00    1.20090   1.30723    0.005
 5189.00    1.37574   1.30885    0.005
 5190.00    1.56562   1.30983    0.000
 5191.00    1.36863   1.31011    0.000
 5192.00    0.99105   1.31072    0.000
 5193.00    0.81219   1.31122    0.000
 5194.00    0.71325   1.31167    0.000
 5195.00    0.76598   1.31191    0.000
 5196.00    0.87075   1.31155    0.000
 5197.00    0.94454   1.31161    0.000
 5198.00    1.00939   1.31172    0.000
 5199.00    1.06113   1.31132    0.000
 5200.00    1.10974   1.31122    0.000
 5201.00    1.27954   1.31105    0.000
 5202.00    1.47268   1.31099    0.000
 5203.00    1.33293   1.31130    0.000
 5204.00    1.14342   1.31144    0.000
 5205.00    1.12010   1.31197    0.000
 5206.00    1.11499   1.31263    0.000
 5207.00    1.25515   1.31319    0.000
 5208.00    1.40579   1.31406    0.000
 5209.00    1.18706   1.31496    0.000
 5210.00    0.95454   1.31588    0.000
 5211.00    1.43248   1.31657    0.005
 5212.00    1.89750   1.31716    0.005
 5213.00    1.77158   1.31763    0.005
 5214.00    1.65428   1.31799    0.005
 5215.00    1.67656   1.31830    0.005
 5216.00    1.69389   1.31792    0.005
 5217.00    1.66078   1.31775    0.005
 5218.00    1.60711   1.31723    0.005
 5219.00    1.40384   1.31663    0.005
 5220.00    1.25358   1.31641    0.005
 5221.00    1.39870   1.31541    0.005
 5222.00    1.53103   1.31530    0.005
 5223.00    1.60646   1.31499    0.005
 5224.00    1.64165   1.31452    0.005
 5225.00    1.52982   1.31501    0.005
 5226.00    1.39317   1.31476    0.005
 5227.00    1.18053   1.31573    0.005
 5228.00    1.11030   1.31675    0.005
 5229.00    1.41067   1.31703    0.005
 5230.00    1.51511   1.31847    0.005
 5231.00    1.18135   1.31932    0.005
 5232.00    1.06138   1.32048    0.005
 5233.00    1.35579   1.32184    0.005
 5234.00    1.52196   1.32237    0.005
 5235.00    1.47136   1.32358    0.005
 5236.00    1.46913   1.32443    0.005
 5237.00    1.53853   1.32460    0.005
 5238.00    1.51244   1.32484    0.005
 5239.00    1.36203   1.32501    0.005
 5240.00    1.33933   1.32519    0.005
 5241.00    1.46310   1.32484    0.005
 5242.00    1.58124   1.32433    0.005
 5243.00    1.69367   1.32384    0.005
 5244.00    1.52566   1.32353    0.005
 5245.00    1.10747   1.32309    0.005
 5246.00    1.14629   1.32196    0.005
 5247.00    1.54438   1.32149    0.005
 5248.00    1.60990   1.32113    0.005
 5249.00    1.44547   1.32031    0.005
 5250.00    1.23950   1.31963    0.005
 5251.00    1.00836   1.31829    0.005
 5252.00    1.05883   1.31727    0.005
 5253.00    1.25834   1.31642    0.005
 5254.00    1.51331   1.31464    0.005
 5255.00    1.79376   1.31292    0.005
 5256.00    1.75616   1.31101    0.005
 5257.00    1.59282   1.30902    0.005
 5258.00    1.67706   1.30760    0.005
 5259.00    1.84470   1.30568    0.005
 5260.00    1.33979   1.30319    0.005
 5261.00    0.64451   1.30138    0.005
 5262.00    0.77229   1.30052    0.005
 5263.00    1.09220   1.30002    0.005
 5264.00    1.36414   1.29936    0.005
 5265.00    1.62708   1.29885    0.005
 5266.00    1.47273   1.29901    0.005
 5267.00    1.25793   1.30011    0.005
 5268.00    1.41465   1.30166    0.005
 5269.00    1.61044   1.30267    0.005
 5270.00    1.42176   1.30444    0.005
 5271.00    1.20688   1.30674    0.005
 5272.00    1.38346   1.30855    0.005
 5273.00    1.57317   1.31106    0.005
 5274.00    1.74537   1.31270    0.005
 5275.00    1.90604   1.31438    0.005
 5276.00    1.69824   1.31740    0.005
 5277.00    1.49410   1.31923    0.005
 5278.00    1.34585   1.32097    0.005
 5279.00    1.21004   1.32246    0.005
 5280.00    1.19554   1.32337    0.005
 5281.00    1.17282   1.32547    0.005
 5282.00    1.09217   1.32688    0.005
 5283.00    1.09145   1.32723    0.005
 5284.00    1.52412   1.32793    0.005
 5285.00    1.88684   1.32858    0.005
 5286.00    1.94558   1.32901    0.005
 5287.00    1.95571   1.32904    0.005
 5288.00    1.79194   1.32837    0.005
 5289.00    1.63358   1.32791    0.005
 5290.00    1.49147   1.32815    0.005
 5291.00    1.31917   1.32777    0.005
 5292.00    1.06968   1.32684    0.005
 5293.00    0.92432   1.32627    0.005
 5294.00    1.00802   1.32589    0.005
 5295.00    0.98560   1.32605    0.005
 5296.00    0.76071   1.32609    0.005
 5297.00    0.76385   1.32565    0.005
 5298.00    1.14667   1.32585    0.005
 5299.00    1.36037   1.32628    0.005
 5300.00    1.32723   1.32669    0.005
 5301.00    1.29852   1.32709    0.005
 5302.00    1.27549   1.32708    0.005
 5303.00    1.47214   1.32735    0.005
 5304.00    1.91722   1.32766    0.005
 5305.00    1.89439   1.32765    0.005
 5306.00    1.40491   1.32743    0.005
 5307.00    1.21636   1.32663    0.005
 5308.00    1.29248   1.32615    0.005
 5309.00    1.28852   1.32594    0.005
 5310.00    1.22249   1.32501    0.005
 5311.00    1.11629   1.32367    0.005
 5312.00    0.98273   1.32235    0.005
 5313.00    1.09047   1.32135    0.005
 5314.00    1.34231   1.32054    0.005
 5315.00    1.43660   1.31876    0.005
 5316.00    1.44882   1.31714    0.005
 5317.00    1.28888   1.31650    0.005
 5318.00    1.05117   1.31529    0.005
 5319.00    1.21828   1.31358    0.005
 5320.00    1.54266   1.31227    0.005
 5321.00    1.49621   1.31173    0.005
 5322.00    1.32719   1.31206    0.004
 5323.00    1.31092   1.31111    0.004
 5324.00    1.33700   1.30989    0.004
 5325.00    1.44826   1.31052    0.004
 5326.00    1.57894   1.31110    0.004
 5327.00    1.51468   1.31151    0.004
 5328.00    1.41482   1.31141    0.004
 5329.00    1.38731   1.31186    0.004
 5330.00    1.36995   1.31355    0.004
 5331.00    1.38494   1.31367    0.005
 5332.00    1.40321   1.31362    0.005
 5333.00    1.23267   1.31449    0.004
 5334.00    1.05003   1.31536    0.004
 5335.00    1.02375   1.31657    0.004
 5336.00    1.00265   1.31612    0.004
 5337.00    1.19121   1.31633    0.004
 5338.00    1.37229   1.31776    0.005
 5339.00    1.33983   1.31816    0.004
 5340.00    1.31742   1.31884    0.004
 5341.00    1.43904   1.31934    0.005
 5342.00    1.53260   1.32044    0.005
 5343.00    1.36352   1.32194    0.005
 5344.00    1.23332   1.32220    0.005
 5345.00    1.36825   1.32318    0.005
 5346.00    1.44875   1.32463    0.005
 5347.00    1.24185   1.32576    0.005
 5348.00    1.11626   1.32672    0.005
 5349.00    1.33591   1.32689    0.005
 5350.00    1.46557   1.32773    0.005
 5351.00    1.27981   1.32847    0.005
 5352.00    1.12701   1.32821    0.005
 5353.00    1.07136   1.32792    0.005
 5354.00    1.05790   1.32752    0.005
 5355.00    1.15047   1.32707    0.005
 5356.00    1.23910   1.32629    0.005
 5357.00    1.31921   1.32484    0.005
 5358.00    1.38036   1.32364    0.005
 5359.00    1.40591   1.32257    0.005
 5360.00    1.35342   1.32127    0.005
 5361.00    1.17293   1.31993    0.005
 5362.00    1.17295   1.31862    0.005
 5363.00    1.43260   1.31787    0.005
 5364.00    1.51259   1.31737    0.005
 5365.00    1.36531   1.31665    0.005
 5366.00    1.28073   1.31638    0.005
 5367.00    1.26606   1.31615    0.005
 5368.00    1.25692   1.31628   -2.000
 5369.00    1.25324   1.31701   -2.000
 5370.00    1.33397   1.31714   -2.000
 5371.00    1.48791   1.31769   -2.000
 5372.00    1.54330   1.31845   -2.000
 5373.00    1.52342   1.31867   -2.000
 5374.00    1.56387   1.31926   -2.000
 5375.00    1.64484   1.31942   -2.000
 5376.00    1.71249   1.31947   -2.000
 5377.00    1.77230   1.31983   -2.000
 5378.00    1.58950   1.31964   -2.000
 5379.00    1.28228   1.31929   -2.000
 5380.00    1.16682   1.31881   -2.000
 5381.00    1.13655   1.31825   -2.000
 5382.00    1.30610   1.31762   -2.000
 5383.00    1.55193   1.31664    0.005
 5384.00    1.46491   1.31576    0.004
 5385.00    1.26994   1.31455    0.004
 5386.00    1.36687   1.31343    0.004
 5387.00    1.54306   1.31241    0.004
 5388.00    1.63071   1.31060    0.004
 5389.00    1.69862   1.30938    0.004
 5390.00    1.69426   1.30826    0.004
 5391.00    1.67706   1.30638    0.004
 5392.00    1.45724   1.30483    0.004
 5393.00    1.20993   1.30266    0.004
 5394.00    1.35065   1.30074    0.004
 5395.00    1.52887   1.29946    0.004
 5396.00    1.39042   1.29669    0.004
 5397.00    1.23292   1.29437    0.004
 5398.00    1.09652   1.29259    0.004
 5399.00    0.96332   1.28986    0.004
 5400.00    1.27050   1.28770    0.004
 5401.00    1.56320   1.28528    0.004
 5402.00    1.48276   1.28304    0.004
 5403.00    1.39440   1.28207    0.005
 5404.00    1.19867   1.28097    0.005
 5405.00    1.02971   1.28014    0.004
 5406.00    1.10146   1.27973    0.004
 5407.00    1.15268   1.27973    0.004
 5408.00    1.06823   1.28087    0.004
 5409.00    1.08543   1.28255    0.004
 5410.00    1.62543   1.28435    0.005
 5411.00    1.97475   1.28638    0.005
 5412.00    1.53261   1.28915    0.005
 5413.00    1.23537   1.29202    0.004
 5414.00    1.43579   1.29406    0.004
 5415.00    1.56607   1.29640    0.004
 5416.00    1.49341   1.29876    0.004
 5417.00    1.46329   1.30056    0.004
 5418.00    1.53819   1.30273    0.004
 5419.00    1.58301   1.30399    0.004
 5420.00    1.56380   1.30442    0.004
 5421.00    1.48829   1.30556    0.004
 5422.00    1.30869   1.30610    0.004
 5423.00    1.22861   1.30642    0.004
 5424.00    1.30934   1.30679    0.004
 5425.00    1.34888   1.30619    0.004
 5426.00    1.33004   1.30668    0.004
 5427.00    1.43483   1.30749    0.004
 5428.00    1.69377   1.30710    0.004
 5429.00    1.74816   1.30740    0.004
 5430.00    1.57770   1.30802    0.004
 5431.00    1.46127   1.30859    0.004
 5432.00    1.39721   1.30918    0.004
 5433.00    1.37065   1.30931    0.004
 5434.00    1.37615   1.30986    0.004
 5435.00    1.34114   1.31048    0.004
 5436.00    1.27563   1.31084    0.004
 5437.00    1.27830   1.31093    0.004
 5438.00    1.32608   1.31074    0.004
 5439.00    1.36509   1.31090    0.004
 5440.00    1.39903   1.31053    0.004
 5441.00    1.22645   1.31003    0.004
 5442.00    0.94962   1.30950    0.004
 5443.00    0.98302   1.30828    0.004
 5444.00    1.15197   1.30817    0.004
 5445.00    1.28809   1.30783    0.004
 5446.00    1.41188   1.30658    0.004
 5447.00    1.32233   1.30634    0.004
 5448.00    1.16490   1.30575    0.004
 5449.00    1.09420   1.30514    0.004
 5450.00    1.04657   1.30495    0.004
 5451.00    0.93757   1.30374    0.004
 5452.00    0.81522   1.30370    0.004
 5453.00    0.88253   1.30431    0.004
 5454.00    0.98259   1.30355    0.004
 5455.00    1.11798   1.30339    0.004
 5456.00    1.25800   1.30363    0.004
 5457.00    1.39811   1.30328    0.004
 5458.00    1.53822   1.30323    0.004
 5459.00    1.34340   1.30278    0.004
 5460.00    1.12974   1.30258    0.004
 5461.00    1.26548   1.30281    0.004
 5462.00    1.40772   1.30223    0.004
 5463.00    1.41362   1.30183    0.004
 5464.00    1.41788   1.30150    0.004
 5465.00    1.38345   1.30088    0.004
 5466.00    1.34612   1.30034    0.004
 5467.00    1.27155   1.29980    0.004
 5468.00    1.20052   1.29951    0.004
 5469.00    1.16023   1.29851    0.004
 5470.00    1.12693   1.29802    0.004
 5471.00    1.13851   1.29834    0.004
 5472.00    1.16394   1.29732    0.004
 5473.00    1.25882   1.29714    0.004
 5474.00    1.35144   1.29775    0.004
 5475.00    1.43489   1.29757    0.004
 5476.00    1.46618   1.29797    0.004
 5477.00    1.32191   1.29826    0.004
 5478.00    1.17295   1.29868   -2.000
 5479.00    1.01072   1.29963   -2.000
 5480.00    0.91810   1.30000   -2.000
 5481.00    0.99447   1.30051   -2.000
 5482.00    1.14897   1.30142   -2.000
 5483.00    1.46711   1.30180   -2.000
 5484.00    1.81789   1.30196   -2.000
 5485.00    2.22813   1.30265   -2.000
 5486.00    2.77899   1.30289   -2.000
 5487.00    3.55371   1.30278   -2.000
 5488.00    3.98372   1.30314   -2.000
 5489.00    3.93219   1.30277   -2.000
 5490.00    3.88474   1.30234   -2.000
 5491.00    3.84231   1.30230   -2.000
 5492.00    3.16927   1.30189   -2.000
 5493.00    1.81282   1.30120   -2.000
 5494.00    1.13433   1.30040   -2.000
 5495.00    1.10387   1.30021   -2.000
 5496.00    1.19965   1.29974   -2.000
 5497.00    1.40184   1.29849   -2.000
 5498.00    1.39933   1.29808   -2.000
 5499.00    1.24489   1.29753   -2.000
 5500.00    1.19917   1.29701   -2.000
 5501.00    1.22433   1.29669   -2.000
 5502.00    1.15031   1.29570    0.004
 5503.00    1.01972   1.29572    0.004
 5504.00    1.14479   1.29604    0.004
 5505.00    1.39690   1.29532    0.004
 5506.00    1.35498   1.29568    0.004
 5507.00    1.18672   1.29600    0.004
 5508.00    1.06209   1.29604    0.004
 5509.00    0.95354   1.29658    0.004
 5510.00    0.96959   1.29669    0.004
 5511.00    1.02452   1.29741    0.004
 5512.00    1.10307   1.29806    0.004
 5513.00    1.18775   1.29783    0.004
 5514.00    1.33115   1.29869    0.004
 5515.00    1.48701   1.29898    0.004
 5516.00    1.45697   1.29860    0.004
 5517.00    1.39571   1.29899    0.004
 5518.00    1.25532   1.29877    0.004
 5519.00    1.10490   1.29860    0.004
 5520.00    1.15563   1.29859    0.004
 5521.00    1.22408   1.29773    0.004
 5522.00    1.33702   1.29778    0.004
 5523.00    1.45228   1.29756    0.004
 5524.00    1.39137   1.29656    0.004
 5525.00    1.32682   1.29687    0.004
 5526.00    1.23548   1.29697    0.004
 5527.00    1.14563   1.29664    0.004
 5528.00    1.08759   1.29684    0.004
 5529.00    1.03987   1.29695    0.004
 5530.00    1.11794   1.29728    0.004
 5531.00    1.19647   1.29734    0.004
 5532.00    1.27875   1.29764    0.004
 5533.00    1.33530   1.29853    0.004
 5534.00    1.23176   1.29862    0.004
 5535.00    1.17059   1.29913    0.004
 5536.00    1.31654   1.29980    0.004
 5537.00    1.43387   1.30003    0.004
 5538.00    1.43761   1.30061    0.004
 5539.00    1.37788   1.30062    0.004
 5540.00    1.10875   1.30089    0.004
 5541.00    0.98081   1.30154    0.004
 5542.00    1.24664   1.30117    0.004
 5543.00    1.45933   1.30144    0.004
 5544.00    1.54520   1.30181    0.004
 5545.00    1.51716   1.30132    0.004
 5546.00    1.25431   1.30143    0.004
 5547.00    1.17267   1.30126    0.006
 5548.00    1.41597   1.30064    0.015
 5549.00    1.60615   1.30057   -1.000
 5550.00    1.71301   1.29983   -1.000
 5551.00    1.73169   1.29919   -1.000
 5552.00    1.62894   1.29911   -1.000
 5553.00    1.52002   1.29816   -1.000
 5554.00    1.40363   1.29737   -1.000
 5555.00    1.36895   1.29704   -1.000
 5556.00    1.42158   1.29613   -1.000
 5557.00    1.43656   1.29542   -1.000
 5558.00    1.41606   1.29478   -1.000
 5559.00    1.37578   1.29391    0.015
 5560.00    1.31907   1.29348    0.005
 5561.00    1.33482   1.29300    0.004
 5562.00    1.40358   1.29219    0.004
 5563.00    1.35663   1.29186    0.004
 5564.00    1.23536   1.29187    0.004
 5565.00    1.23209   1.29114    0.004
 5566.00    1.29513   1.29068    0.004
 5567.00    1.23998   1.29120    0.004
 5568.00    1.12704   1.29067    0.004
 5569.00    1.09097   1.29005    0.004
 5570.00    1.08738   1.29048    0.004
 5571.00    1.08140   1.29007    0.004
 5572.00    1.07456   1.28956    0.004
 5573.00    1.04924   1.28941    0.004
 5574.00    1.01827   1.28856    0.004
 5575.00    1.02701   1.28812    0.004
 5576.00    1.04587   1.28739    0.004
 5577.00    1.14296   1.28596    0.004
 5578.00    1.25626   1.28513    0.004
 5579.00    1.25716   1.28400    0.004
 5580.00    1.23973   1.28248    0.004
 5581.00    1.33024   1.28152    0.004
 5582.00    1.43393   1.28005    0.004
 5583.00    1.43827   1.27864    0.004
 5584.00    1.43428   1.27784    0.004
 5585.00    1.24335   1.27665    0.004
 5586.00    1.04339   1.27621    0.004
 5587.00    0.98989   1.27590    0.004
 5588.00    0.94200   1.27499    0.004
 5589.00    1.09653   1.27524    0.004
 5590.00    1.24960   1.27608    0.004
 5591.00    1.37377   1.27582    0.004
 5592.00    1.47703   1.27694    0.004
 5593.00    1.33758   1.27800    0.004
 5594.00    1.23966   1.27818    0.004
 5595.00    1.47547   1.27958    0.004
 5596.00    1.67269   1.28073    0.004
 5597.00    1.63672   1.28160    0.004
 5598.00    1.57700   1.28299    0.004
 5599.00    1.40406   1.28378    0.004
 5600.00    1.27787   1.28477    0.004
 5601.00    1.33331   1.28599    0.004
 5602.00    1.36814   1.28655    0.004
 5603.00    1.33633   1.28703    0.004
 5604.00    1.32258   1.28766    0.004
 5605.00    1.35832   1.28772    0.004
 5606.00    1.36499   1.28765    0.004
 5607.00    1.30343   1.28786    0.004
 5608.00    1.27364   1.28732    0.004
 5609.00    1.30828   1.28695    0.004
 5610.00    1.30706   1.28695    0.004
 5611.00    1.24254   1.28586    0.004
 5612.00    1.18326   1.28532    0.004
 5613.00    1.13211   1.28554    0.004
 5614.00    1.12090   1.28488    0.004
 5615.00    1.16390   1.28447    0.004
 5616.00    1.19427   1.28445    0.004
 5617.00    1.20956   1.28411    0.004
 5618.00    1.21424   1.28420    0.004
 5619.00    1.20772   1.28435    0.004
 5620.00    1.23823   1.28404    0.004
 5621.00    1.30317   1.28421    0.004
 5622.00    1.29590   1.28466    0.004
 5623.00    1.22949   1.28450    0.004
 5624.00    1.24334   1.28459    0.004
 5625.00    1.31506   1.28500    0.004
 5626.00    1.34521   1.28465    0.004
 5627.00    1.34903   1.28457    0.004
 5628.00    1.33319   1.28462    0.004
 5629.00    1.30646   1.28408    0.004
 5630.00    1.38286   1.28392    0.004
 5631.00    1.50889   1.28354    0.004
 5632.00    1.68753   1.28303    0.004
 5633.00    1.88802   1.28281    0.004
 5634.00    1.77387   1.28217    0.004
 5635.00    1.54794   1.28201    0.004
 5636.00    1.54234   1.28184    0.004
 5637.00    1.60283   1.28104    0.004
 5638.00    1.55253   1.28122    0.004
 5639.00    1.47463   1.28109    0.004
 5640.00    1.40789   1.28050    0.004
 5641.00    1.34341   1.28072    0.004
 5642.00    1.38752   1.28050    0.004
 5643.00    1.44884   1.28012    0.004
 5644.00    1.50873   1.28015    0.004
 5645.00    1.56845   1.27973    0.004
 5646.00    1.57572   1.27946    0.004
 5647.00    1.57880   1.27919    0.004
 5648.00    1.39804   1.27836    0.004
 5649.00    1.20910   1.27824    0.004
 5650.00    1.17596   1.27788    0.004
 5651.00    1.14483   1.27655    0.004
 5652.00    1.12471   1.27640    0.004
 5653.00    1.11278   1.27648    0.004
 5654.00    1.25173   1.27522    0.004
 5655.00    1.37932   1.27491    0.004
 5656.00    1.38104   1.27532    0.004
 5657.00    1.36738   1.27491    0.004
 5658.00    1.23436   1.27492    0.004
 5659.00    1.10439   1.27514    0.004
 5660.00    0.99238   1.27536    0.004
 5661.00    0.89969   1.27603    0.004
 5662.00    0.89689   1.27625    0.004
 5663.00    0.90085   1.27659    0.004
 5664.00    0.93045   1.27755    0.004
 5665.00    0.98733   1.27786    0.004
 5666.00    1.13079   1.27820    0.004
 5667.00    1.26604   1.27899    0.004
 5668.00    1.37921   1.27921    0.004
 5669.00    1.40477   1.27942    0.004
 5670.00    1.22818   1.27974    0.004
 5671.00    1.09894   1.27966    0.004
 5672.00    1.06426   1.27955    0.004
 5673.00    1.06284   1.27955    0.004
 5674.00    1.11930   1.27936    0.004
 5675.00    1.19017   1.27889    0.004
 5676.00    1.28300   1.27853    0.004
 5677.00    1.34145   1.27849    0.004
 5678.00    1.35393   1.27805    0.004
 5679.00    1.32707   1.27754    0.004
 5680.00    1.25386   1.27749    0.004
 5681.00    1.12360   1.27729    0.004
 5682.00    0.93406   1.27702    0.004
 5683.00    0.84788   1.27690    0.004
 5684.00    0.85639   1.27684    0.004
 5685.00    0.95673   1.27681    0.004
 5686.00    1.13122   1.27675    0.004
 5687.00    1.20316   1.27665    0.004
 5688.00    1.20224   1.27639    0.004
 5689.00    1.18352   1.27638    0.004
 5690.00    1.15372   1.27612    0.004
 5691.00    1.09172   1.27532    0.004
 5692.00    1.01217   1.27527    0.004
 5693.00    1.12504   1.27483    0.004
 5694.00    1.32900   1.27363    0.004
 5695.00    1.37600   1.27334    0.004
 5696.00    1.35889   1.27268    0.004
 5697.00    1.28460   1.27165    0.004
 5698.00    1.19036   1.27120    0.004
 5699.00    1.13158   1.27026    0.004
 5700.00    1.08324   1.26972    0.004
 5701.00    0.99989   1.26949    0.004
 5702.00    0.90802   1.26843    0.004
 5703.00    0.92687   1.26858    0.004
 5704.00    0.96753   1.26881    0.004
 5705.00    1.05396   1.26805    0.004
 5706.00    1.14742   1.26895    0.004
 5707.00    1.22709   1.26963    0.004
 5708.00    1.30520   1.26943    0.004
 5709.00    1.31493   1.27079    0.004
 5710.00    1.31949   1.27163    0.004
 5711.00    1.36725   1.27198    0.004
 5712.00    1.41678   1.27346    0.004
 5713.00    1.39420   1.27417    0.004
 5714.00    1.36898   1.27472    0.004
 5715.00    1.25763   1.27604    0.004
 5716.00    1.16187   1.27647    0.004
 5717.00    1.33384   1.27692    0.004
 5718.00    1.48636   1.27791    0.004
 5719.00    1.43314   1.27801    0.004
 5720.00    1.38774   1.27820    0.004
 5721.00    1.40105   1.27874    0.004
 5722.00    1.40904   1.27871    0.004
 5723.00    1.38666   1.27878    0.004
 5724.00    1.37122   1.27882    0.004
 5725.00    1.38732   1.27868    0.004
 5726.00    1.38057   1.27879    0.004
 5727.00    1.28881   1.27866    0.004
 5728.00    1.18665   1.27842    0.004
 5729.00    1.05214   1.27847    0.004
 5730.00    0.99546   1.27833    0.004
 5731.00    1.14451   1.27803    0.004
 5732.00    1.25140   1.27795    0.004
 5733.00    1.26259   1.27779    0.004
 5734.00    1.27326   1.27747    0.004
 5735.00    1.28288   1.27737    0.004
 5736.00    1.29768   1.27713    0.004
 5737.00    1.32135   1.27683    0.004
 5738.00    1.34378   1.27659    0.004
 5739.00    1.36435   1.27638    0.004
 5740.00    1.30343   1.27606    0.000
 5741.00    1.13508   1.27548    0.000
 5742.00    1.04455   1.27538    0.000
 5743.00    1.04440   1.27515    0.000
 5744.00    1.08136   1.27441    0.000
 5745.00    1.15633   1.27427    0.000
 5746.00    1.22129   1.27398    0.000
 5747.00    1.27719   1.27319    0.000
 5748.00    1.32368   1.27317    0.000
 5749.00    1.36266   1.27296    0.000
 5750.00    1.38498   1.27227    0.000
 5751.00    1.39561   1.27240    0.000
 5752.00    1.33878   1.27212    0.000
 5753.00    1.24050   1.27158    0.000
 5754.00    1.21289   1.27190    0.000
 5755.00    1.22319   1.27153    0.000
 5756.00    1.27822   1.27111    0.000
 5757.00    1.35408   1.27167    0.000
 5758.00    1.37456   1.27141    0.000
 5759.00    1.37281   1.27110    0.000
 5760.00    1.35025   1.27155    0.000
 5761.00    1.32056   1.27129    0.000
 5762.00    1.23942   1.27104    0.000
 5763.00    1.14345   1.27125    0.000
 5764.00    1.09327   1.27091    0.000
 5765.00    1.05400   1.27051    0.000
 5766.00    1.09797   1.27040    0.000
 5767.00    1.15792   1.26992    0.000
 5768.00    1.30116   1.26921    0.000
 5769.00    1.45681   1.26875    0.000
 5770.00    1.52754   1.26817    0.000
 5771.00    1.58903   1.26717    0.000
 5772.00    1.56794   1.26642    0.000
 5773.00    1.54094   1.26586    0.000
 5774.00    1.49502   1.26462    0.000
 5775.00    1.44840   1.26376    0.000
 5776.00    1.53497   1.26359    0.000
 5777.00    1.61926   1.26264    0.000
 5778.00    1.60172   1.26176    0.000
 5779.00    1.58252   1.26190    0.000
 5780.00    1.53666   1.26156    0.000
 5781.00    1.48621   1.26098    0.000
 5782.00    1.38935   1.26135    0.000
 5783.00    1.28365   1.26142    0.000
 5784.00    1.11392   1.26112    0.000
 5785.00    1.00400   1.26156    0.000
 5786.00    1.22619   1.26196    0.000
 5787.00    1.38476   1.26183    0.000
 5788.00    1.26119   1.26210    0.000
 5789.00    1.14872   1.26260    0.000
 5790.00    1.07668   1.26247    0.000
 5791.00    1.06891   1.26230   -2.000
 5792.00    1.25738   1.26280   -2.000
 5793.00    1.39391   1.26286   -2.000
 5794.00    1.39559   1.26234   -2.000
 5795.00    1.31403   1.26246   -2.000
 5796.00    1.04667   1.26300   -2.000
 5797.00    0.91228   1.26252   -2.000
 5798.00    1.03508   1.26234   -2.000
 5799.00    1.15872   1.26289   -2.000
 5800.00    1.28380   1.26264   -2.000
 5801.00    1.34066   1.26253   -2.000
 5802.00    1.29667   1.26298   -2.000
 5803.00    1.29640   1.26290   -2.000
 5804.00    1.35298   1.26314   -2.000
 5805.00    1.38076   1.26338   -2.000
 5806.00    1.37558   1.26335   -2.000
 5807.00    1.31125   1.26426   -2.000
 5808.00    1.18719   1.26445   -2.000
 5809.00    1.14253   1.26453   -2.000
 5810.00    1.16857   1.26566   -2.000
 5811.00    1.20441   1.26610    0.000
 5812.00    1.24793   1.26641    0.000
 5813.00    1.25703   1.26756    0.000
 5814.00    1.24238   1.26809    0.000
 5815.00    1.27377   1.26861    0.000
 5816.00    1.33302   1.26964    0.000
 5817.00    1.45141   1.27007    0.000
 5818.00    1.60104   1.27063    0.000
 5819.00    1.69341   1.27145    0.000
 5820.00    1.75954   1.27171    0.000
 5821.00    1.68261   1.27201    0.000
 5822.00    1.54923   1.27251    0.000
 5823.00    1.42384   1.27257    0.000
 5824.00    1.30113   1.27258    0.000
 5825.00    1.28823   1.27274    0.000
 5826.00    1.30632   1.27262    0.000
 5827.00    1.30107   1.27238    0.000
 5828.00    1.29039   1.27222    0.000
 5829.00    1.34329   1.27193    0.000
 5830.00    1.40807   1.27162    0.000
 5831.00    1.36324   1.27120    0.000
 5832.00    1.30260   1.27072    0.000
 5833.00    1.29184   1.27035    0.000
 5834.00    1.28630   1.26973    0.000
 5835.00    1.33126   1.26910    0.000
 5836.00    1.37964   1.26860    0.000
 5837.00    1.34600   1.26769    0.000
 5838.00    1.30965   1.26695    0.000
 5839.00    1.40098   1.26627    0.000
 5840.00    1.48797   1.26507    0.000
 5841.00    1.43543   1.26424    0.000
 5842.00    1.38380   1.26340    0.000
 5843.00    1.34591   1.26197    0.000
 5844.00    1.31009   1.26103    0.000
 5845.00    1.29442   1.26016    0.000
 5846.00    1.29216   1.25875    0.000
 5847.00    1.38391   1.25774    0.000
 5848.00    1.46309   1.25690    0.000
 5849.00    1.47439   1.25578    0.000
 5850.00    1.46874   1.25492    0.000
 5851.00    1.38962   1.25421    0.000
 5852.00    1.30936   1.25335    0.000
 5853.00    1.22505   1.25264    0.000
 5854.00    1.19221   1.25215    0.000
 5855.00    1.31357   1.25143    0.000
 5856.00    1.39579   1.25058    0.000
 5857.00    1.37813   1.25014    0.000
 5858.00    1.35105   1.24927    0.000
 5859.00    1.30330   1.24794    0.000
 5860.00    1.25365   1.24746    0.000
 5861.00    1.20036   1.24601    0.000
 5862.00    1.19164   1.24386    0.000
 5863.00    1.25700   1.24334    0.000
 5864.00    1.29047   1.24111    0.000
 5865.00    1.27750   1.23836    0.000
 5866.00    1.27295   1.23718    0.000
 5867.00    1.27918   1.23489    0.000
 5868.00    1.33816   1.23340    0.000
 5869.00    1.45665   1.23153    0.000
 5870.00    1.52488   1.22946    0.000
 5871.00    1.54306   1.22890    0.000
 5872.00    1.53882   1.22726    0.000
 5873.00    1.51490   1.22582    0.000
 5874.00    1.46375   1.22582    0.000
 5875.00    1.39153   1.22473    0.000
 5876.00    1.34570   1.22375    0.000
 5877.00    1.31782   1.22348    0.000
 5878.00    1.36948   1.22304    0.000
 5879.00    1.46856   1.22194    0.000
 5880.00    1.44944   1.22046    0.000
 5881.00    1.36888   1.22075    0.000
 5882.00    1.39613   1.21968    0.000
 5883.00    1.47199   1.21732    0.000
 5884.00    1.41036   1.21824    0.000
 5885.00    1.29544   1.21712    0.000
 5886.00    1.25706   1.21457    0.000
 5887.00    1.24394   1.21634    0.000
 5888.00    1.27112   1.21605    0.000
 5889.00    1.30946   1.21444    0.000
 5890.00    1.41677   1.21693    0.000
 5891.00    1.53977   1.21760    0.000
 5892.00    1.43963   1.21748    0.000
 5893.00    1.29889   1.22046    0.000
 5894.00    1.19421   1.22189    0.000
 5895.00    1.09456   1.22305    0.000
 5896.00    1.15343   1.22606    0.000
 5897.00    1.22819   1.22772    0.000
 5898.00    1.22467   1.22951    0.000
 5899.00    1.21617   1.23209    0.000
 5900.00    1.23596   1.23341    0.000
 5901.00    1.25647   1.23509    0.004
 5902.00    1.23911   1.23699    0.004
 5903.00    1.22167   1.23771    0.004
 5904.00    1.20204   1.23889    0.004
 5905.00    1.19676   1.24008    0.004
 5906.00    1.39591   1.24024    0.004
 5907.00    1.56430   1.24096    0.004
 5908.00    1.44633   1.24158    0.004
 5909.00    1.33399   1.24137    0.004
 5910.00    1.25994   1.24185    0.004
 5911.00    1.19831   1.24212    0.004
 5912.00    1.20201   1.24179    0.004
 5913.00    1.18881   1.24222    0.004
 5914.00    1.10404   1.24228    0.003
 5915.00    1.01424   1.24200    0.003
 5916.00    0.90686   1.24243    0.003
 5917.00    0.86539   1.24234    0.003
 5918.00    1.01775   1.24215    0.003
 5919.00    1.15459   1.24259    0.003
 5920.00    1.25250   1.24240    0.003
 5921.00    1.33630   1.24224    0.003
 5922.00    1.38959   1.24257    0.003
 5923.00    1.40411   1.24238    0.003
 5924.00    1.34593   1.24228    0.003
 5925.00    1.30374   1.24242    0.003
 5926.00    1.28773   1.24225    0.003
 5927.00    1.29847   1.24221    0.003
 5928.00    1.34760   1.24212    0.003
 5929.00    1.32735   1.24198    0.003
 5930.00    1.21948   1.24199    0.003
 5931.00    1.11380   1.24172    0.003
 5932.00    1.01056   1.24158    0.003
 5933.00    1.00485   1.24155    0.003
 5934.00    1.09486   1.24115    0.003
 5935.00    1.20207   1.24099    0.004
 5936.00    1.32417   1.24083    0.004
 5937.00    1.29781   1.24034    0.004
 5938.00    1.15825   1.24021    0.004
 5939.00    1.13076   1.23994    0.004
 5940.00    1.17838   1.23935    0.004
 5941.00    1.19706   1.23930    0.004
 5942.00    1.19875   1.23902    0.005
 5943.00    1.14493   1.23840    0.004
 5944.00    1.06271   1.23847    0.004
 5945.00    1.05654   1.23827    0.003
 5946.00    1.08410   1.23773    0.003
 5947.00    1.08647   1.23797    0.003
 5948.00    1.07925   1.23795    0.003
 5949.00    1.09690   1.23756    0.003
 5950.00    1.12260   1.23795    0.003
 5951.00    1.24089   1.23815    0.003
 5952.00    1.38426   1.23798    0.003
 5953.00    1.40098   1.23847    0.003
 5954.00    1.38958   1.23883    0.003
 5955.00    1.30887   1.23885    0.003
 5956.00    1.21589   1.23931    0.003
 5957.00    1.12408   1.23972    0.003
 5958.00    1.03243   1.23980    0.003
 5959.00    1.12972   1.24008    0.003
 5960.00    1.24517   1.24041    0.003
 5961.00    1.31335   1.24041    0.003
 5962.00    1.37872   1.24039    0.003
 5963.00    1.27369   1.24053    0.003
 5964.00    1.16451   1.24035    0.003
 5965.00    1.08665   1.23998    0.003
 5966.00    1.01894   1.23989    0.003
 5967.00    1.20977   1.23952    0.003
 5968.00    1.38231   1.23884    0.003
 5969.00    1.30841   1.23857    0.003
 5970.00    1.22811   1.23812    0.003
 5971.00    1.09038   1.23727    0.003
 5972.00    0.96087   1.23696    0.003
 5973.00    0.88540   1.23656    0.003
 5974.00    0.82364   1.23573    0.003
 5975.00    0.83223   1.23549    0.003
 5976.00    0.84838   1.23528    0.003
 5977.00    0.89587   1.23462    0.003
 5978.00    0.97606   1.23454    0.003
 5979.00    1.16830   1.23454    0.003
 5980.00    1.35470   1.23415    0.003
 5981.00    1.52421   1.23420    0.003
 5982.00    1.61859   1.23437    0.003
 5983.00    1.52783   1.23422    0.003
 5984.00    1.43493   1.23431    0.003
 5985.00    1.33746   1.23452    0.003
 5986.00    1.29321   1.23449    0.003
 5987.00    1.34718   1.23451    0.003
 5988.00    1.36263   1.23464    0.003
 5989.00    1.31595   1.23458    0.003
 5990.00    1.27184   1.23444    0.003
 5991.00    1.23135   1.23442    0.003
 5992.00    1.21180   1.23424    0.003
 5993.00    1.21833   1.23394    0.003
 5994.00    1.21056   1.23375    0.003
 5995.00    1.18710   1.23342    0.003
 5996.00    1.16112   1.23304    0.003
 5997.00    1.13271   1.23273    0.003
 5998.00    1.19225   1.23231    0.003
 5999.00    1.32684   1.23195    0.003
 6000.00    1.42589   1.23159    0.003
 6001.00    1.49822   1.23116    0.004
 6002.00    1.39549   1.23091    0.004
 6003.00    1.17714   1.23054    0.003
 6004.00    1.05452   1.23016    0.003
 6005.00    0.98724   1.23007    0.003
 6006.00    0.91644   1.22970    0.003
 6007.00    0.84386   1.22940    0.003
 6008.00    0.84247   1.22944    0.003
 6009.00    0.87213   1.22913    0.003
 6010.00    0.94468   1.22893    0.003
 6011.00    1.03327   1.22904    0.003
 6012.00    1.12952   1.22885    0.003
 6013.00    1.22819   1.22880    0.003
 6014.00    1.27771   1.22894    0.003
 6015.00    1.31419   1.22897    0.003
 6016.00    1.28771   1.22910    0.003
 6017.00    1.24757   1.22926    0.003
 6018.00    1.24279   1.22955    0.003
 6019.00    1.24409   1.22986    0.003
 6020.00    1.21047   1.23007    0.003
 6021.00    1.17229   1.23057    0.003
 6022.00    1.24817   1.23102    0.003
 6023.00    1.33453   1.23126    0.003
 6024.00    1.40033   1.23183    0.003
 6025.00    1.46499   1.23231    0.003
 6026.00    1.44187   1.23257    0.003
 6027.00    1.41642   1.23305    0.003
 6028.00    1.35067   1.23347    0.003
 6029.00    1.28522   1.23370    0.003
 6030.00    1.22681   1.23400    0.003
 6031.00    1.17391   1.23430    0.003
 6032.00    1.19144   1.23447    0.003
 6033.00    1.20433   1.23457    0.004
 6034.00    1.17730   1.23476    0.003
 6035.00    1.15898   1.23489    0.003
 6036.00    1.19625   1.23482    0.003
 6037.00    1.22831   1.23491    0.003
 6038.00    1.23433   1.23500    0.003
 6039.00    1.23509   1.23480    0.003
 6040.00    1.21462   1.23479    0.003
 6041.00    1.18954   1.23483    0.003
 6042.00    1.14902   1.23451    0.003
 6043.00    1.10298   1.23437    0.003
 6044.00    1.04132   1.23434    0.003
 6045.00    1.02843   1.23391    0.003
 6046.00    1.13367   1.23361    0.003
 6047.00    1.22050   1.23350    0.003
 6048.00    1.26884   1.23302    0.003
 6049.00    1.30325   1.23254    0.003
 6050.00    1.31237   1.23240    0.003
 6051.00    1.27208   1.23195    0.003
 6052.00    1.15329   1.23134    0.003
 6053.00    1.07010   1.23123    0.003
 6054.00    1.03654   1.23091    0.003
 6055.00    1.04248   1.23027    0.003
 6056.00    1.09689   1.23025    0.003
 6057.00    1.16449   1.23012    0.003
 6058.00    1.24638   1.22953    0.003
 6059.00    1.29128   1.22963    0.003
 6060.00    1.30090   1.22968    0.003
 6061.00    1.27917   1.22920    0.003
 6062.00    1.23107   1.22935    0.003
 6063.00    1.20954   1.22947    0.003
 6064.00    1.20771   1.22911    0.003
 6065.00    1.22604   1.22918    0.003
 6066.00    1.25750   1.22922    0.003
 6067.00    1.22059   1.22893    0.003
 6068.00    1.14477   1.22879    0.003
 6069.00    1.17478   1.22863    0.003
 6070.00    1.25726   1.22836    0.003
 6071.00    1.29725   1.22796    0.003
 6072.00    1.31901   1.22759    0.003
 6073.00    1.30138   1.22734    0.003
 6074.00    1.26927   1.22677    0.003
 6075.00    1.25513   1.22627    0.003
 6076.00    1.24657   1.22610    0.003
 6077.00    1.25570   1.22550    0.003
 6078.00    1.26941   1.22503    0.003
 6079.00    1.22913   1.22496    0.003
 6080.00    1.17742   1.22443    0.003
 6081.00    1.10568   1.22410    0.003
 6082.00    1.03060   1.22415    0.003
 6083.00    1.00904   1.22368    0.003
 6084.00    0.99423   1.22353    0.003
 6085.00    1.06660   1.22364    0.003
 6086.00    1.14661   1.22316    0.003
 6087.00    1.18589   1.22313    0.003
 6088.00    1.22305   1.22326    0.003
 6089.00    1.14516   1.22267    0.003
 6090.00    1.06568   1.22269    0.003
 6091.00    1.02233   1.22282    0.003
 6092.00    0.98569   1.22208    0.003
 6093.00    1.09206   1.22211    0.003
 6094.00    1.18432   1.22228    0.003
 6095.00    1.10556   1.22146    0.003
 6096.00    1.02585   1.22152    0.003
 6097.00    0.93828   1.22177    0.003
 6098.00    0.87411   1.22100    0.003
 6099.00    0.95491   1.22111    0.003
 6100.00    1.03389   1.22144    0.003
 6101.00    1.10400   1.22083    0.003
 6102.00    1.14540   1.22098    0.003
 6103.00    1.07316   1.22127    0.003
 6104.00    1.01368   1.22084    0.003
 6105.00    0.99618   1.22096    0.003
 6106.00    1.00157   1.22103    0.003
 6107.00    1.07067   1.22075    0.003
 6108.00    1.11154   1.22075    0.003
 6109.00    1.08518   1.22046    0.003
 6110.00    1.07238   1.22027    0.003
 6111.00    1.08745   1.22014    0.003
 6112.00    1.09834   1.21947    0.003
 6113.00    1.10176   1.21934    0.003
 6114.00    1.11331   1.21916    0.003
 6115.00    1.13757   1.21821    0.003
 6116.00    1.15566   1.21814    0.003
 6117.00    1.16525   1.21801    0.003
 6118.00    1.14912   1.21692    0.003
 6119.00    1.10190   1.21687    0.003
 6120.00    1.07006   1.21682    0.003
 6121.00    1.05461   1.21571    0.003
 6122.00    1.09084   1.21560    0.003
 6123.00    1.17569   1.21558    0.003
 6124.00    1.26847   1.21452    0.003
 6125.00    1.36782   1.21429    0.003
 6126.00    1.38032   1.21426    0.003
 6127.00    1.32941   1.21331    0.003
 6128.00    1.27668   1.21300    0.003
 6129.00    1.22281   1.21298    0.003
 6130.00    1.16725   1.21223    0.003
 6131.00    1.11074   1.21194    0.003
 6132.00    1.09100   1.21201    0.003
 6133.00    1.08918   1.21156    0.003
 6134.00    1.11843   1.21138    0.003
 6135.00    1.16076   1.21154    0.003
 6136.00    1.13313   1.21140    0.003
 6137.00    1.08023   1.21133    0.003
 6138.00    1.08184   1.21144    0.003
 6139.00    1.10008   1.21148    0.003
 6140.00    1.15112   1.21140    0.003
 6141.00    1.21050   1.21123    0.003
 6142.00    1.18073   1.21117    0.003
 6143.00    1.13254   1.21097    0.003
 6144.00    1.13317   1.21032    0.003
 6145.00    1.14173   1.20991    0.003
 6146.00    1.15353   1.20947    0.003
 6147.00    1.16572   1.20830    0.003
 6148.00    1.23339   1.20741    0.003
 6149.00    1.30570   1.20671    0.003
 6150.00    1.27267   1.20516    0.003
 6151.00    1.23460   1.20388    0.003
 6152.00    1.23024   1.20298    0.003
 6153.00    1.22712   1.20130    0.003
 6154.00    1.26668   1.19993    0.003
 6155.00    1.29974   1.19903    0.003
 6156.00    1.20474   1.19748    0.003
 6157.00    1.11192   1.19637    0.003
 6158.00    1.04428   1.19572    0.003
 6159.00    0.99357   1.19452    0.003
 6160.00    1.07826   1.19393    0.003
 6161.00    1.15191   1.19379    0.003
 6162.00    1.15907   1.19303    0.003
 6163.00    1.15606   1.19299    0.003
 6164.00    1.10474   1.19343    0.003
 6165.00    1.06317   1.19315    0.003
 6166.00    1.05938   1.19346    0.003
 6167.00    1.05969   1.19436    0.003
 6168.00    1.07320   1.19451    0.003
 6169.00    1.08810   1.19492    0.003
 6170.00    1.10674   1.19594    0.003
 6171.00    1.13048   1.19635    0.003
 6172.00    1.16615   1.19666    0.003
 6173.00    1.17357   1.19748    0.003
 6174.00    1.12380   1.19791    0.003
 6175.00    1.04393   1.19802    0.003
 6176.00    0.91100   1.19848    0.003
 6177.00    0.85633   1.19872    0.003
 6178.00    0.92233   1.19860    0.003
 6179.00    0.96638   1.19876    0.003
 6180.00    0.98068   1.19873    0.003
 6181.00    1.00216   1.19842    0.003
 6182.00    1.03219   1.19848    0.003
 6183.00    1.06615   1.19831    0.003
 6184.00    1.10424   1.19790    0.003
 6185.00    1.16188   1.19806    0.003
 6186.00    1.23764   1.19795    0.003
 6187.00    1.24994   1.19755    0.003
 6188.00    1.21036   1.19789    0.003
 6189.00    1.16513   1.19799    0.003
 6190.00    1.11584   1.19769    0.003
 6191.00    1.13292   1.19816    0.003
 6192.00    1.19194   1.19843    0.003
 6193.00    1.29120   1.19822    0.003
 6194.00    1.41270   1.19870    0.003
 6195.00    1.79530   1.19901    0.003
 6196.00    2.30328   1.19878   -2.000
 6197.00    2.67617   1.19909   -2.000
 6198.00    2.99306   1.19929   -2.000
 6199.00    2.86095   1.19889   -2.000
 6200.00    2.56970   1.19890   -2.000
 6201.00    1.89084   1.19888   -2.000
 6202.00    1.09600   1.19824   -2.000
 6203.00    0.77844   1.19785   -2.000
 6204.00    0.57943   1.19762   -2.000
 6205.00    0.63745   1.19679   -2.000
 6206.00    0.74723   1.19605   -2.000
 6207.00    0.84340   1.19565   -2.000
 6208.00    0.93742   1.19478    0.003
 6209.00    0.97931   1.19385    0.003
 6210.00    1.01508   1.19337    0.003
 6211.00    0.97162   1.19262    0.003
 6212.00    0.92186   1.19172    0.003
 6213.00    1.03083   1.19118    0.003
 6214.00    1.14679   1.19061    0.003
 6215.00    1.19359   1.18992    0.003
 6216.00    1.23865   1.18933    0.003
 6217.00    1.23607   1.18884    0.003
 6218.00    1.23210   1.18845    0.003
 6219.00    1.20271   1.18785    0.003
 6220.00    1.17465   1.18726    0.003
 6221.00    1.16141   1.18716    0.003
 6222.00    1.15643   1.18665    0.003
 6223.00    1.21525   1.18583    0.003
 6224.00    1.27716   1.18591    0.003
 6225.00    1.35707   1.18564    0.003
 6226.00    1.43499   1.18456    0.003
 6227.00    1.50367   1.18468    0.003
 6228.00    1.54175   1.18475    0.003
 6229.00    1.46378   1.18351    0.003
 6230.00    1.35570   1.18348    0.003
 6231.00    1.15231   1.18393    0.003
 6232.00    0.97932   1.18264    0.003
 6233.00    0.88788   1.18235    0.003
 6234.00    0.79922   1.18309    0.003
 6235.00    0.71695   1.18189    0.003
 6236.00    0.67688   1.18126    0.003
 6237.00    0.72088   1.18216    0.003
 6238.00    0.78460   1.18117    0.003
 6239.00    0.88257   1.18023    0.003
 6240.00    0.92326   1.18117    0.003
 6241.00    0.87689   1.18045    0.003
 6242.00    0.87648   1.17931    0.003
 6243.00    0.93743   1.18022    0.003
 6244.00    1.00692   1.17980    0.003
 6245.00    1.08645   1.17860    0.003
 6246.00    1.08937   1.17949    0.003
 6247.00    1.01287   1.17939    0.003
 6248.00    0.97796   1.17829    0.003
 6249.00    0.98108   1.17921    0.003
 6250.00    0.97879   1.17947    0.003
 6251.00    0.97215   1.17860    0.003
 6252.00    0.93178   1.17958    0.003
 6253.00    0.86748   1.18023    0.003
 6254.00    0.83556   1.17967    0.003
 6255.00    0.82381   1.18066    0.003
 6256.00    0.86807   1.18162    0.003
 6257.00    0.94279   1.18137    0.003
 6258.00    1.08171   1.18226    0.003
 6259.00    1.25097   1.18336    0.003
 6260.00    1.38626   1.18335    0.004
 6261.00    1.50771   1.18404    0.004
 6262.00    1.55674   1.18502    0.004
 6263.00    1.58057   1.18514    0.004
 6264.00    1.44604   1.18561    0.004
 6265.00    1.26506   1.18629    0.004
 6266.00    1.21681   1.18644    0.004
 6267.00    1.20080   1.18675    0.004
 6268.00    1.21574   1.18707    0.003
 6269.00    1.23675   1.18717    0.003
 6270.00    1.24095   1.18743    0.003
 6271.00    1.24259   1.18748    0.003
 6272.00    1.14063   1.18750    0.003
 6273.00    1.02700   1.18777    0.003
 6274.00    0.99032   1.18771    0.003
 6275.00    0.95944   1.18765    0.003
 6276.00    1.03379   1.18793    0.003
 6277.00    1.11237   1.18787    0.003
 6278.00    1.12576   1.18772    0.003
 6279.00    1.13604   1.18794    0.003
 6280.00    1.04025   1.18790    0.000
 6281.00    0.95132   1.18763    0.000
 6282.00    0.97941   1.18767    0.000
 6283.00    1.01703   1.18759    0.000
 6284.00    1.15491   1.18720    0.000
 6285.00    1.27286   1.18701    0.000
 6286.00    1.24205   1.18680    0.000
 6287.00    1.19959   1.18633    0.000
 6288.00    1.09091   1.18594    0.000
 6289.00    0.99788   1.18560    0.000
 6290.00    0.97565   1.18514    0.000
 6291.00    0.97741   1.18466    0.000
 6292.00    1.06819   1.18424    0.000
 6293.00    1.14180   1.18395    0.000
 6294.00    1.16205   1.18351    0.000
 6295.00    1.18199   1.18304    0.000
 6296.00    1.20109   1.18302    0.000
 6297.00    1.21222   1.18275    0.000
 6298.00    1.20526   1.18218    0.000
 6299.00    1.16919   1.18240    0.000
 6300.00    1.07603   1.18241    0.000
 6301.00    1.00288   1.18168    0.000
 6302.00    0.96395   1.18197    0.000
 6303.00    0.95685   1.18230    0.000
 6304.00    0.99743   1.18144    0.000
 6305.00    0.98526   1.18159    0.000
 6306.00    0.90368   1.18227    0.000
 6307.00    0.87529   1.18142    0.000
 6308.00    0.90853   1.18131    0.000
 6309.00    0.94716   1.18229    0.000
 6310.00    0.99129   1.18168    0.000
 6311.00    1.02463   1.18133    0.000
 6312.00    1.04824   1.18251    0.000
 6313.00    1.03917   1.18232    0.000
 6314.00    1.00412   1.18187    0.000
 6315.00    0.93243   1.18303    0.000
 6316.00    0.83514   1.18325    0.000
 6317.00    0.82411   1.18287    0.000
 6318.00    0.86597   1.18379    0.000
 6319.00    0.91285   1.18417    0.000
 6320.00    0.96243   1.18390    0.000
 6321.00    0.97382   1.18451    0.003
 6322.00    0.96746   1.18477    0.003
 6323.00    0.96959   1.18452    0.003
 6324.00    0.97513   1.18482    0.003
 6325.00    0.91616   1.18480    0.003
 6326.00    0.83515   1.18446    0.003
 6327.00    0.82603   1.18448    0.003
 6328.00    0.83758   1.18422    0.003
 6329.00    0.89162   1.18371    0.003
 6330.00    0.95574   1.18357    0.003
 6331.00    0.97769   1.18316    0.003
 6332.00    0.99156   1.18261    0.003
 6333.00    0.90777   1.18239    0.003
 6334.00    0.80948   1.18194    0.003
 6335.00    0.82238   1.18142    0.003
 6336.00    0.84734   1.18121    0.003
 6337.00    0.90383   1.18077    0.003
 6338.00    0.96256   1.18033    0.003
 6339.00    1.00689   1.18019    0.003
 6340.00    1.05069   1.17977    0.003
 6341.00    1.10764   1.17936    0.003
 6342.00    1.16357   1.17931    0.003
 6343.00    1.18166   1.17891    0.003
 6344.00    1.19761   1.17843    0.003
 6345.00    1.17927   1.17840    0.003
 6346.00    1.15787   1.17805    0.003
 6347.00    1.10567   1.17744    0.003
 6348.00    1.05877   1.17737    0.003
 6349.00    1.05006   1.17711    0.003
 6350.00    1.04975   1.17643    0.003
 6351.00    1.09588   1.17628    0.003
 6352.00    1.13212   1.17617    0.003
 6353.00    1.12467   1.17559    0.003
 6354.00    1.10734   1.17540    0.003
 6355.00    1.05414   1.17548    0.003
 6356.00    1.01383   1.17516    0.003
 6357.00    1.01280   1.17509    0.003
 6358.00    1.04633   1.17533    0.003
 6359.00    1.16941   1.17538    0.003
 6360.00    1.26952   1.17558    0.003
 6361.00    1.31847   1.17590    0.003
 6362.00    1.35148   1.17624    0.003
 6363.00    1.35371   1.17668    0.003
 6364.00    1.35145   1.17704    0.003
 6365.00    1.34161   1.17749    0.003
 6366.00    1.29475   1.17805    0.003
 6367.00    1.19326   1.17837    0.003
 6368.00    1.09471   1.17883    0.003
 6369.00    0.99998   1.17936    0.003
 6370.00    0.90488   1.17953    0.003
 6371.00    0.80936   1.17987    0.003
 6372.00    0.75998   1.18026    0.003
 6373.00    0.75708   1.18026    0.003
 6374.00    0.81239   1.18043    0.003
 6375.00    0.91944   1.18063    0.003
 6376.00    0.99757   1.18040    0.003
 6377.00    1.05306   1.18044    0.003
 6378.00    1.08368   1.18053    0.003
 6379.00    1.09716   1.17997    0.003
 6380.00    1.13738   1.17978    0.003
 6381.00    1.19376   1.18000    0.003
 6382.00    1.19173   1.17925    0.003
 6383.00    1.15891   1.17872    0.003
 6384.00    1.10274   1.17915    0.003
 6385.00    1.03591   1.17834    0.003
 6386.00    0.98600   1.17734    0.003
 6387.00    0.94275   1.17792    0.003
 6388.00    0.92159   1.17744    0.003
 6389.00    0.90783   1.17616    0.003
 6390.00    0.94128   1.17666    0.003
 6391.00    0.98803   1.17656    0.003
 6392.00    0.98456   1.17531    0.003
 6393.00    0.96944   1.17556    0.003
 6394.00    0.94491   1.17569    0.003
 6395.00    0.91863   1.17483    0.003
 6396.00    0.97060   1.17492    0.003
 6397.00    1.03381   1.17499    0.003
 6398.00    1.04365   1.17455    0.003
 6399.00    1.04793   1.17471    0.003
 6400.00    0.95821   1.17462    0.003
 6401.00    0.86218   1.17441    0.003
 6402.00    0.84506   1.17478    0.003
 6403.00    0.83051   1.17461    0.003
 6404.00    0.80228   1.17438    0.003
 6405.00    0.77536   1.17504    0.003
 6406.00    0.78953   1.17493    0.003
 6407.00    0.80662   1.17443    0.003
 6408.00    0.86751   1.17531    0.003
 6409.00    0.92265   1.17554    0.003
 6410.00    0.92219   1.17474    0.003
 6411.00    0.92897   1.17561    0.003
 6412.00    0.98632   1.17629    0.003
 6413.00    1.03166   1.17541    0.003
 6414.00    1.01228   1.17597    0.003
 6415.00    0.98518   1.17698    0.003
 6416.00    0.92479   1.17621    0.003
 6417.00    0.87662   1.17632    0.003
 6418.00    0.87200   1.17750    0.003
 6419.00    0.86198   1.17698    0.003
 6420.00    0.83584   1.17667    0.003
 6421.00    0.81329   1.17771    0.003
 6422.00    0.79987   1.17754    0.003
 6423.00    0.78854   1.17714    0.003
 6424.00    0.78177   1.17778    0.003
 6425.00    0.76096   1.17771    0.003
 6426.00    0.71344   1.17752    0.003
 6427.00    0.67896   1.17784    0.003
 6428.00    0.66608   1.17763    0.003
 6429.00    0.67307   1.17767    0.003
 6430.00    0.70896   1.17799    0.003
 6431.00    0.76133   1.17775    0.003
 6432.00    0.83476   1.17773    0.003
 6433.00    0.86839   1.17801    0.003
 6434.00    0.85717   1.17785    0.003
 6435.00    0.90508   1.17751    0.003
 6436.00    1.01175   1.17771    0.003
 6437.00    1.08767   1.17783    0.003
 6438.00    1.13662   1.17702    0.003
 6439.00    1.11189   1.17676    0.003
 6440.00    1.03026   1.17724    0.003
 6441.00    0.97450   1.17642    0.003
 6442.00    0.93631   1.17569    0.003
 6443.00    0.88900   1.17625    0.003
 6444.00    0.83627   1.17555    0.003
 6445.00    0.79796   1.17431    0.003
 6446.00    0.76713   1.17482    0.003
 6447.00    0.79402   1.17478    0.003
 6448.00    0.84688   1.17326    0.003
 6449.00    0.89132   1.17344    0.003
 6450.00    0.93250   1.17425    0.003
 6451.00    0.98076   1.17256    0.003
 6452.00    1.03135   1.17206    0.003
 6453.00    1.05238   1.17373    0.003
 6454.00    1.06526   1.17254    0.003
 6455.00    1.05490   1.17147    0.003
 6456.00    1.03926   1.17329    0.003
 6457.00    0.97066   1.17271    0.003
 6458.00    0.89246   1.17118    0.003
 6459.00    0.88679   1.17275    0.003
 6460.00    0.89121   1.17283    0.003
 6461.00    0.88959   1.17105    0.003
 6462.00    0.88736   1.17210    0.003
 6463.00    0.83077   1.17271    0.003
 6464.00    0.77075   1.17072    0.003
 6465.00    0.83482   1.17099    0.003
 6466.00    0.90232   1.17205    0.003
 6467.00    0.92651   1.17021    0.003
 6468.00    0.94951   1.16960    0.003
 6469.00    0.93964   1.17064    0.003
 6470.00    0.92695   1.16909    0.003
 6471.00    0.87447   1.16772    0.003
 6472.00    0.83027   1.16837    0.003
 6473.00    0.86279   1.16739    0.003
 6474.00    0.89835   1.16572    0.003
 6475.00    0.95450   1.16567    0.003
 6476.00    1.00811   1.16490    0.003
 6477.00    1.04834   1.16314    0.003
 6478.00    1.05931   1.16254    0.003
 6479.00    0.94671   1.16175    0.003
 6480.00    0.84501   1.15993    0.003
 6481.00    0.78134   1.15904    0.003
 6482.00    0.76036   1.15818    0.003
 6483.00    0.86462   1.15628    0.003
 6484.00    0.96124   1.15529    0.003
 6485.00    1.03875   1.15446    0.003
 6486.00    1.09199   1.15286    0.003
 6487.00    1.09295   1.15217    0.003
 6488.00    1.09432   1.15146    0.003
 6489.00    1.09647   1.15040    0.003
 6490.00    1.11011   1.15022    0.003
 6491.00    1.14252   1.14992    0.003
 6492.00    1.12363   1.14953    0.003
 6493.00    1.03122   1.14979    0.003
 6494.00    0.94556   1.15006    0.003
 6495.00    0.86842   1.15025    0.003
 6496.00    0.81490   1.15079    0.003
 6497.00    0.78760   1.15150    0.003
 6498.00    0.82916   1.15195    0.003
 6499.00    0.93819   1.15262    0.003
 6500.00    1.01181   1.15352    0.003
 6501.00    1.05485   1.15383    0.003
 6502.00    1.02605   1.15437    0.003
 6503.00    0.94255   1.15524    0.003
 6504.00    0.91589   1.15517    0.003
 6505.00    0.92723   1.15531    0.003
 6506.00    0.92514   1.15598    0.003
 6507.00    0.91518   1.15564    0.003
 6508.00    0.88016   1.15527    0.003
 6509.00    0.83236   1.15557    0.003
 6510.00    0.87355   1.15527    0.003
 6511.00    0.95411   1.15460    0.003
 6512.00    0.98332   1.15444    0.003
 6513.00    0.99301   1.15425    0.003
 6514.00    0.99430   1.15359    0.003
 6515.00    0.99287   1.15307    0.003
 6516.00    0.96887   1.15287    0.003
 6517.00    0.93878   1.15239    0.003
 6518.00    0.87620   1.15177    0.003
 6519.00    0.80644   1.15150    0.003
 6520.00    0.88506   1.15114    0.003
 6521.00    0.98986   1.15051    0.003
 6522.00    0.99817   1.15012    0.003
 6523.00    0.99350   1.14976    0.003
 6524.00    0.90858   1.14908    0.003
 6525.00    0.81599   1.14843    0.003
 6526.00    0.83259   1.14787    0.003
 6527.00    0.85566   1.14706    0.003
 6528.00    0.85885   1.14602    0.000
 6529.00    0.86174   1.14497    0.000
 6530.00    0.89284   1.14372    0.000
 6531.00    0.92349   1.14202    0.000
 6532.00    0.94280   1.14019    0.000
 6533.00    0.96317   1.13824    0.000
 6534.00    0.99789   1.13558    0.000
 6535.00    1.02607   1.13248    0.000
 6536.00    0.99594   1.12942    0.000
 6537.00    0.96277   1.12559    0.000
 6538.00    0.90961   1.12071    0.000
 6539.00    0.86607   1.11589    0.000
 6540.00    0.87172   1.11076    0.000
 6541.00    0.86393   1.10404    0.000
 6542.00    0.80067   1.09695    0.000
 6543.00    0.74216   1.09015    0.000
 6544.00    0.69985   1.08159    0.000
 6545.00    0.69266   1.07214    0.000
 6546.00    0.78660   1.06389    0.000
 6547.00    0.86260   1.05427    0.000
 6548.00    0.89453   1.04293    0.000
 6549.00    0.89069   1.03386    0.000
 6550.00    0.81102   1.02501    0.000
 6551.00    0.74186   1.01325    0.000
 6552.00    0.69204   1.00407    0.000
 6553.00    0.69393   0.99846    0.000
 6554.00    0.77904   0.98938    0.000
 6555.00    0.86594   0.98139    0.000
 6556.00    0.95536   0.98055    0.000
 6557.00    1.06039   0.97828    0.000
 6558.00    1.18482   0.97440    0.000
 6559.00    1.38595   0.97707    0.000
 6560.00    1.67108   0.98077    0.000
 6561.00    1.89074   0.98196    0.000
 6562.00    2.04714   0.98770    0.000
 6563.00    1.94102   0.99625    0.000
 6564.00    1.61126   1.00207    0.000
 6565.00    1.30201   1.00956    0.000
 6566.00    1.00815   1.02035    0.000
 6567.00    0.91692   1.02893    0.000
 6568.00    0.95925   1.03684    0.000
 6569.00    0.94637   1.04757    0.000
 6570.00    0.90160   1.05705    0.000
 6571.00    0.83457   1.06451    0.000
 6572.00    0.75635   1.07319    0.000
 6573.00    0.73890   1.08125    0.000
 6574.00    0.74788   1.08758    0.000
 6575.00    0.76594   1.09390    0.000
 6576.00    0.78737   1.09987    0.000
 6577.00    0.80056   1.10491    0.000
 6578.00    0.81114   1.10904    0.000
 6579.00    0.86598   1.11316    0.000
 6580.00    0.93252   1.11700    0.000
 6581.00    1.05288   1.11962    0.000
 6582.00    1.18486   1.12225    0.000
 6583.00    1.22798   1.12504    0.000
 6584.00    1.25585   1.12675    0.000
 6585.00    1.18728   1.12807    0.000
 6586.00    1.10616   1.12998    0.000
 6587.00    1.02679   1.13169    0.000
 6588.00    0.94758   1.13247    0.000
 6589.00    0.92421   1.13361    0.000
 6590.00    0.90392   1.13504    0.000
 6591.00    0.88219   1.13550    0.000
 6592.00    0.85997   1.13633    0.000
 6593.00    0.79354   1.13759    0.000
 6594.00    0.73030   1.13809    0.000
 6595.00    0.74030   1.13862    0.000
 6596.00    0.75865   1.13949    0.000
 6597.00    0.88288   1.14017    0.000
 6598.00    0.99943   1.14050    0.000
 6599.00    1.05015   1.14111    0.000
 6600.00    1.08842   1.14202    0.000
 6601.00    1.04751   1.14224    0.000
 6602.00    1.00420   1.14259    0.000
 6603.00    0.94901   1.14355    0.000
 6604.00    0.89661   1.14394    0.000
 6605.00    0.85544   1.14408    0.000
 6606.00    0.81681   1.14462    0.000
 6607.00    0.78670   1.14518    0.000
 6608.00    0.74682   1.14538    0.000
 6609.00    0.67936   1.14550    0.003
 6610.00    0.66314   1.14598    0.003
 6611.00    0.77076   1.14618    0.003
 6612.00    0.86551   1.14602    0.003
 6613.00    0.93340   1.14628    0.003
 6614.00    0.94481   1.14639    0.003
 6615.00    0.85378   1.14605    0.003
 6616.00    0.82461   1.14594    0.003
 6617.00    0.89359   1.14595    0.003
 6618.00    0.93747   1.14558    0.003
 6619.00    0.94645   1.14509    0.003
 6620.00    0.95348   1.14506    0.003
 6621.00    0.95812   1.14484    0.003
 6622.00    0.97326   1.14396    0.003
 6623.00    0.99975   1.14384    0.003
 6624.00    0.99041   1.14393    0.003
 6625.00    0.94695   1.14288    0.003
 6626.00    0.95311   1.14249    0.003
 6627.00    1.00094   1.14295    0.003
 6628.00    1.03337   1.14231    0.003
 6629.00    1.05442   1.14161    0.003
 6630.00    0.99235   1.14225    0.003
 6631.00    0.87628   1.14209    0.003
 6632.00    0.83239   1.14103    0.003
 6633.00    0.82952   1.14175    0.003
 6634.00    0.88606   1.14225    0.003
 6635.00    0.97200   1.14093    0.003
 6636.00    0.98722   1.14119    0.003
 6637.00    0.97217   1.14224    0.003
 6638.00    0.92164   1.14134    0.003
 6639.00    0.85812   1.14097    0.003
 6640.00    0.85634   1.14199    0.003
 6641.00    0.87373   1.14168    0.003
 6642.00    0.87490   1.14093    0.003
 6643.00    0.87188   1.14160    0.003
 6644.00    0.88753   1.14163    0.003
 6645.00    0.90712   1.14061    0.003
 6646.00    0.92320   1.14083    0.003
 6647.00    0.93869   1.14122    0.003
 6648.00    0.93661   1.14016    0.003
 6649.00    0.93233   1.13972    0.003
 6650.00    0.88817   1.14020    0.003
 6651.00    0.84052   1.13949    0.003
 6652.00    0.76064   1.13852    0.003
 6653.00    0.67910   1.13872    0.003
 6654.00    0.72913   1.13842    0.003
 6655.00    0.78096   1.13709    0.003
 6656.00    0.79509   1.13678    0.003
 6657.00    0.80553   1.13693    0.003
 6658.00    0.73829   1.13577    0.003
 6659.00    0.68005   1.13476    0.003
 6660.00    0.73012   1.13483    0.003
 6661.00    0.78044   1.13417    0.003
 6662.00    0.83287   1.13296    0.003
 6663.00    0.88438   1.13252    0.003
 6664.00    0.93028   1.13220    0.003
 6665.00    0.96741   1.13111    0.003
 6666.00    0.96195   1.13002    0.003
 6667.00    0.95248   1.12989    0.003
 6668.00    0.92716   1.12932    0.003
 6669.00    0.91729   1.12775    0.003
 6670.00    0.95814   1.12729    0.003
 6671.00    0.97809   1.12732    0.003
 6672.00    0.94001   1.12665    0.003
 6673.00    0.91892   1.12604    0.003
 6674.00    0.93820   1.12604    0.003
 6675.00    0.93384   1.12639    0.003
 6676.00    0.88094   1.12613    0.003
 6677.00    0.85239   1.12619    0.003
 6678.00    0.86736   1.12691    0.003
 6679.00    0.88123   1.12710    0.003
 6680.00    0.89339   1.12743    0.003
 6681.00    0.89034   1.12826    0.003
 6682.00    0.86639   1.12880    0.003
 6683.00    0.88112   1.12915    0.003
 6684.00    0.94256   1.12975    0.003
 6685.00    0.95356   1.13072    0.003
 6686.00    0.91085   1.13125    0.003
 6687.00    0.85420   1.13155    0.003
 6688.00    0.78447   1.13204    0.003
 6689.00    0.76221   1.13242    0.003
 6690.00    0.77927   1.13278    0.003
 6691.00    0.81524   1.13302    0.003
 6692.00    0.86498   1.13313    0.003
 6693.00    0.88346   1.13325    0.003
 6694.00    0.88191   1.13346    0.003
 6695.00    0.87162   1.13340    0.003
 6696.00    0.85643   1.13309    0.000
 6697.00    0.84557   1.13320    0.000
 6698.00    0.83681   1.13316    0.000
 6699.00    0.83110   1.13249    0.000
 6700.00    0.82667   1.13239    0.000
 6701.00    0.84461   1.13247    0.000
 6702.00    0.87059   1.13173    0.000
 6703.00    0.82777   1.13122    0.000
 6704.00    0.76400   1.13131    0.000
 6705.00    0.71144   1.13083    0.000
 6706.00    0.66171   1.12993    0.000
 6707.00    0.54300   1.12980    0.000
 6708.00    0.41008   1.12975    0.000
 6709.00    0.48680   1.12872    0.000
 6710.00    0.59745   1.12823    0.000
 6711.00    0.81699   1.12864    0.000
 6712.00    1.04972   1.12814    0.000
 6713.00    1.18108   1.12737    0.000
 6714.00    1.30403   1.12764    0.000
 6715.00    1.24231   1.12789    0.000
 6716.00    1.17184   1.12734    0.000
 6717.00    1.15213   1.12716    0.000
 6718.00    1.13113   1.12773    0.000
 6719.00    0.99689   1.12769    0.000
 6720.00    0.86835   1.12730    0.000
 6721.00    0.85091   1.12769    0.000
 6722.00    0.84328   1.12807    0.000
 6723.00    0.94817   1.12781    0.000
 6724.00    1.04383   1.12780    0.000
 6725.00    1.06605   1.12832    0.000
 6726.00    1.07647   1.12838    0.000
 6727.00    1.01611   1.12790    0.000
 6728.00    0.98824   1.12809    0.000
 6729.00    1.11428   1.12850    0.000
 6730.00    1.19648   1.12798    0.000
 6731.00    1.10927   1.12767    0.000
 6732.00    1.03420   1.12801    0.000
 6733.00    0.99822   1.12790    0.000
 6734.00    0.93348   1.12731    0.000
 6735.00    0.79032   1.12717    0.000
 6736.00    0.67743   1.12757    0.000
 6737.00    0.63528   1.12718    0.000
 6738.00    0.63459   1.12654    0.000
 6739.00    0.71766   1.12703    0.000
 6740.00    0.81036   1.12712    0.000
 6741.00    0.92001   1.12649    0.000
 6742.00    0.98279   1.12662    0.000
 6743.00    0.97341   1.12715    0.000
 6744.00    0.95205   1.12684    0.000
 6745.00    0.91448   1.12647    0.000
 6746.00    0.91534   1.12729    0.000
 6747.00    0.96195   1.12752    0.000
 6748.00    0.97354   1.12689    0.000
 6749.00    0.94838   1.12745    0.000
 6750.00    0.93002   1.12803    0.000
 6751.00    0.91797   1.12768    0.000
 6752.00    1.00991   1.12778    0.000
 6753.00    1.18674   1.12828    0.003
 6754.00    1.22674   1.12825    0.004
 6755.00    1.16846   1.12811    0.004
 6756.00    1.04577   1.12841    0.004
 6757.00    0.88245   1.12850    0.004
 6758.00    0.75659   1.12835    0.004
 6759.00    0.65136   1.12844    0.004
 6760.00    0.73911   1.12844    0.004
 6761.00    0.91934   1.12847    0.004
 6762.00    1.00049   1.12847    0.004
 6763.00    1.04066   1.12821    0.004
 6764.00    1.04675   1.12832    0.004
 6765.00    1.04079   1.12850    0.004
 6766.00    0.96267   1.12815    0.004
 6767.00    0.86301   1.12804    0.004
 6768.00    0.81924   1.12824    0.004
 6769.00    0.78931   1.12803    0.004
 6770.00    0.79145   1.12780    0.004
 6771.00    0.80003   1.12788    0.004
 6772.00    0.86446   1.12766    0.003
 6773.00    0.93767   1.12734    0.003
 6774.00    0.96908   1.12740    0.003
 6775.00    0.99560   1.12713    0.003
 6776.00    0.96573   1.12670    0.003
 6777.00    0.93140   1.12676    0.003
 6778.00    0.97330   1.12648    0.003
 6779.00    1.01853   1.12597    0.004
 6780.00    1.06291   1.12617    0.004
 6781.00    1.10501   1.12611    0.004
 6782.00    1.04047   1.12549    0.004
 6783.00    0.97079   1.12567    0.004
 6784.00    0.80807   1.12601    0.003
 6785.00    0.66270   1.12539    0.003
 6786.00    0.70726   1.12531    0.003
 6787.00    0.74948   1.12602    0.003
 6788.00    0.77368   1.12567    0.003
 6789.00    0.80348   1.12527    0.003
 6790.00    0.86587   1.12612    0.003
 6791.00    0.92323   1.12625    0.003
 6792.00    0.95724   1.12565    0.003
 6793.00    0.99144   1.12626    0.003
 6794.00    1.02633   1.12682    0.003
 6795.00    1.03509   1.12620    0.003
 6796.00    0.96130   1.12631    0.003
 6797.00    0.93984   1.12720    0.003
 6798.00    1.05851   1.12684    0.003
 6799.00    1.15465   1.12638    0.004
 6800.00    1.19902   1.12723    0.004
 6801.00    1.20331   1.12733    0.004
 6802.00    1.12788   1.12664    0.004
 6803.00    1.04508   1.12713    0.004
 6804.00    0.94949   1.12761    0.004
 6805.00    0.89566   1.12699    0.003
 6806.00    0.90519   1.12693    0.003
 6807.00    0.90955   1.12758    0.003
 6808.00    0.90704   1.12740    0.003
 6809.00    0.87312   1.12698    0.003
 6810.00    0.80233   1.12734    0.003
 6811.00    0.81083   1.12755    0.003
 6812.00    0.90138   1.12721    0.003
 6813.00    0.97648   1.12723    0.004
 6814.00    1.03747   1.12752    0.004
 6815.00    1.08606   1.12731    0.004
 6816.00    1.12467   1.12716    0.004
 6817.00    1.04030   1.12739    0.003
 6818.00    0.86885   1.12734    0.003
 6819.00    0.82027   1.12715    0.003
 6820.00    0.84800   1.12706    0.003
 6821.00    0.88556   1.12704    0.003
 6822.00    0.92846   1.12691    0.003
 6823.00    1.00298   1.12662    0.003
 6824.00    1.09241   1.12642    0.003
 6825.00    1.05763   1.12630    0.003
 6826.00    0.97233   1.12612    0.003
 6827.00    0.81671   1.12579    0.003
 6828.00    0.63667   1.12546    0.003
 6829.00    0.69274   1.12543    0.003
 6830.00    0.81789   1.12509    0.003
 6831.00    0.97917   1.12470    0.003
 6832.00    1.14920   1.12465    0.003
 6833.00    1.03225   1.12429    0.003
 6834.00    0.85914   1.12387    0.003
 6835.00    0.80973   1.12391    0.003
 6836.00    0.77917   1.12372    0.003
 6837.00    0.91751   1.12331    0.004
 6838.00    1.07480   1.12335    0.004
 6839.00    0.97793   1.12344    0.004
 6840.00    0.86206   1.12300    0.004
 6841.00    0.76825   1.12297    0.004
 6842.00    0.67531   1.12322    0.004
 6843.00    0.70848   1.12267    0.004
 6844.00    0.74642   1.12252    0.004
 6845.00    0.93943   1.12304    0.004
 6846.00    1.11210   1.12253    0.004
 6847.00    0.94113   1.12197    0.003
 6848.00    0.78873   1.12266    0.003
 6849.00    0.83070   1.12262    0.003
 6850.00    0.85576   1.12154    0.003
 6851.00    0.75523   1.12191    0.003
 6852.00    0.67544   1.12254    0.003
 6853.00    0.71321   1.12144    0.003
 6854.00    0.77660   1.12125    0.003
 6855.00    0.95570   1.12232    0.003
 6856.00    1.11306   1.12173    0.003
 6857.00    1.18990   1.12078    0.003
 6858.00    1.23289   1.12174    0.003
 6859.00    1.17102   1.12228    0.003
 6860.00    1.05946   1.12112    0.004
 6861.00    0.81719   1.12123    0.004
 6862.00    0.69789   1.12234    0.004
 6863.00    0.85644   1.12170    0.004
 6864.00    0.95312   1.12105    0.004
 6865.00    0.92866   1.12208    0.004
 6866.00    0.85049   1.12239    0.004
 6867.00    0.68068   1.12132    0.004
 6868.00    0.56975   1.12142    0.004
 6869.00    0.54681   1.12246    0.004
 6870.00    0.58322   1.12199    0.004
 6871.00    0.69759   1.12111    0.004
 6872.00    0.77341   1.12185    0.004
 6873.00    0.80462   1.12234    0.004
 6874.00    0.84465   1.12120    0.003
 6875.00    0.89369   1.12111    0.003
 6876.00    0.88112   1.12214    0.003
 6877.00    0.81309   1.12148    0.003
 6878.00    0.75945   1.12058    0.003
 6879.00    0.71721   1.12151    0.003
 6880.00    0.73432   1.12207    0.003
 6881.00    0.79286   1.12098    0.003
 6882.00    0.78254   1.12115    0.003
 6883.00    0.73009   1.12236    0.003
 6884.00    0.67125   1.12190    0.003
 6885.00    0.60900   1.12150    0.003
 6886.00    0.64391   1.12269    0.003
 6887.00    0.72391   1.12318    0.004
 6888.00    0.83489   1.12276    0.004
 6889.00    0.95824   1.12339    0.004
 6890.00    0.97303   1.12442    0.004
 6891.00    0.95082   1.12446    0.004
 6892.00    0.94715   1.12464    0.004
 6893.00    0.94880   1.12555    0.004
 6894.00    0.99242   1.12609    0.004
 6895.00    1.04598   1.12611    0.003
 6896.00    0.97092   1.12651    0.003
 6897.00    0.87133   1.12718    0.003
 6898.00    0.96260   1.12742    0.003
 6899.00    1.08206   1.12748    0.003
 6900.00    0.92803   1.12769    0.003
 6901.00    0.74450   1.12794    0.003
 6902.00    0.75638   1.12799    0.003
 6903.00    0.78207   1.12796    0.003
 6904.00    0.83278   1.12798    0.003
 6905.00    0.88439   1.12794    0.003
 6906.00    0.84905   1.12778    0.003
 6907.00    0.81341   1.12766    0.004
 6908.00    0.77778   1.12754    0.003
 6909.00    0.74154   1.12722    0.003
 6910.00    0.69574   1.12706    0.003
 6911.00    0.65988   1.12682    0.004
 6912.00    0.72356   1.12662    0.004
 6913.00    0.79500   1.12667    0.004
 6914.00    0.92220   1.12629    0.004
 6915.00    1.02767   1.12612    0.004
 6916.00    1.01330   1.12624    0.004
 6917.00    0.97617   1.12608    0.003
 6918.00    0.83870   1.12567    0.003
 6919.00    0.72467   1.12573    0.003
 6920.00    0.69558   1.12599    0.003
 6921.00    0.69957   1.12536    0.003
 6922.00    0.80413   1.12548    0.003
 6923.00    0.87832   1.12614    0.003
 6924.00    0.87401   1.12571    0.003
 6925.00    0.84247   1.12532    0.003
 6926.00    0.75041   1.12583    0.004
 6927.00    0.74966   1.12605    0.004
 6928.00    0.92486   1.12530    0.004
 6929.00    0.94608   1.12547    0.004
 6930.00    0.70847   1.12607    0.004
 6931.00    0.60867   1.12569    0.004
 6932.00    0.71182   1.12543    0.004
 6933.00    0.76194   1.12557    0.004
 6934.00    0.74339   1.12573    0.004
 6935.00    0.75778   1.12562    0.004
 6936.00    0.80972   1.12540    0.004
 6937.00    0.81228   1.12551    0.004
 6938.00    0.76515   1.12574    0.004
 6939.00    0.77277   1.12544    0.004
 6940.00    0.82897   1.12495    0.004
 6941.00    0.85257   1.12547    0.004
 6942.00    0.85068   1.12593    0.004
 6943.00    0.89779   1.12530    0.004
 6944.00    0.97859   1.12546    0.003
 6945.00    1.00955   1.12635    0.003
 6946.00    1.01046   1.12592    0.004
 6947.00    0.99403   1.12546    0.004
 6948.00    0.96847   1.12644    0.004
 6949.00    0.94179   1.12691    0.004
 6950.00    0.91459   1.12625    0.004
 6951.00    0.80627   1.12672    0.004
 6952.00    0.66608   1.12776    0.004
 6953.00    0.63741   1.12747    0.004
 6954.00    0.64604   1.12722    0.004
 6955.00    0.76305   1.12815    0.004
 6956.00    0.91048   1.12843    0.004
 6957.00    0.87803   1.12794    0.004
 6958.00    0.80394   1.12841    0.004
 6959.00    0.79913   1.12894    0.004
 6960.00    0.80717   1.12855    0.004
 6961.00    0.71401   1.12851    0.004
 6962.00    0.60635   1.12899    0.004
 6963.00    0.63629   1.12877    0.004
 6964.00    0.68048   1.12845    0.004
 6965.00    0.76282   1.12880    0.004
 6966.00    0.84770   1.12847    0.004
 6967.00    0.85251   1.12790    0.004
 6968.00    0.85472   1.12847    0.004
 6969.00    0.75915   1.12869    0.004
 6970.00    0.66628   1.12788    0.004
 6971.00    0.65630   1.12805    0.004
 6972.00    0.64865   1.12877    0.004
 6973.00    0.67570   1.12805    0.004
 6974.00    0.69080   1.12762    0.004
 6975.00    0.59111   1.12891    0.004
 6976.00    0.53318   1.12923    0.004
 6977.00    0.76577   1.12841    0.004
 6978.00    0.98804   1.12911    0.004
 6979.00    1.15495   1.13013    0.004
 6980.00    1.24132   1.12961    0.004
 6981.00    0.98075   1.12947    0.004
 6982.00    0.80931   1.13056    0.004
 6983.00    0.95432   1.13073    0.004
 6984.00    1.05968   1.13004    0.004
 6985.00    1.04675   1.13054    0.004
 6986.00    1.01313   1.13127    0.004
 6987.00    0.92693   1.13079    0.004
 6988.00    0.88631   1.13039    0.004
 6989.00    0.94537   1.13079    0.004
 6990.00    0.93216   1.13079    0.004
 6991.00    0.78187   1.13018    0.004
 6992.00    0.64296   1.13006    0.004
 6993.00    0.52289   1.13021    0.004
 6994.00    0.49089   1.12965    0.004
 6995.00    0.58673   1.12914    0.004
 6996.00    0.67628   1.12923    0.004
 6997.00    0.75780   1.12909    0.004
 6998.00    0.82004   1.12864    0.004
 6999.00    0.86061   1.12838    0.004
 7000.00    0.87445   1.12822    0.004
 7001.00    0.86177   1.12782    0.004
 7002.00    0.83310   1.12779    0.004
 7003.00    0.79046   1.12792    0.004
 7004.00    0.68914   1.12733    0.004
 7005.00    0.54261   1.12706    0.004
 7006.00    0.53479   1.12764    0.004
 7007.00    0.62097   1.12753    0.004
 7008.00    0.68457   1.12693    0.004
 7009.00    0.73476   1.12748    0.004
 7010.00    0.75939   1.12809    0.004
 7011.00    0.77079   1.12710    0.004
 7012.00    0.80438   1.12672    0.004
 7013.00    0.84792   1.12825    0.004
 7014.00    0.81925   1.12861    0.004
 7015.00    0.76270   1.12762    0.004
 7016.00    0.62832   1.12828    0.004
 7017.00    0.46838   1.12962    0.004
 7018.00    0.55064   1.12900    0.004
 7019.00    0.69954   1.12832    0.004
 7020.00    0.74724   1.12987    0.004
 7021.00    0.77205   1.13084    0.004
 7022.00    0.74016   1.12992    0.004
 7023.00    0.69801   1.13019    0.004
 7024.00    0.53424   1.13196    0.004
 7025.00    0.35362   1.13211    0.004
 7026.00    0.62205   1.13103    0.004
 7027.00    0.93506   1.13199    0.004
 7028.00    0.78238   1.13363    0.004
 7029.00    0.60052   1.13318    0.004
 7030.00    0.60382   1.13282    0.004
 7031.00    0.61225   1.13440    0.004
 7032.00    0.58663   1.13513    0.004
 7033.00    0.56240   1.13385    0.004
 7034.00    0.57622   1.13396    0.004
 7035.00    0.59507   1.13564    0.004
 7036.00    0.68459   1.13554    0.004
 7037.00    0.76009   1.13425    0.004
 7038.00    0.70630   1.13477    0.004
 7039.00    0.63948   1.13559    0.004
 7040.00    0.48491   1.13408    0.004
 7041.00    0.39714   1.13275    0.004
 7042.00    0.65854   1.13341    0.004
 7043.00    0.87694   1.13298    0.004
 7044.00    0.91431   1.13073    0.004
 7045.00    0.92149   1.13001    0.004
 7046.00    0.82368   1.13029    0.004
 7047.00    0.75277   1.12834    0.004
 7048.00    0.76063   1.12605    0.004
 7049.00    0.72970   1.12583    0.004
 7050.00    0.60199   1.12495   -2.000
 7051.00    0.50638   1.12268   -2.000
 7052.00    0.47980   1.12182   -2.000
 7053.00    0.50730   1.12161   -2.000
 7054.00    0.63580   1.11989   -2.000
 7055.00    0.79379   1.11831   -2.000
 7056.00    0.99990   1.11803   -2.000
 7057.00    1.05528   1.11724   -2.000
 7058.00    0.89508   1.11608   -2.000
 7059.00    0.88235   1.11595   -2.000
 7060.00    1.05516   1.11567   -2.000
 7061.00    1.09510   1.11474   -2.000
 7062.00    0.98768   1.11441   -2.000
 7063.00    0.91746   1.11435   -2.000
 7064.00    0.88362   1.11372   -2.000
 7065.00    0.92713   1.11328   -2.000
 7066.00    1.03738   1.11348   -2.000
 7067.00    1.12585   1.11313   -2.000
 7068.00    1.19778   1.11232   -2.000
 7069.00    1.06578   1.11213   -2.000
 7070.00    0.79761   1.11189   -2.000
 7071.00    0.86578   1.11086   -2.000
 7072.00    1.13065   1.10982   -2.000
 7073.00    1.29138   1.10951   -2.000
 7074.00    1.39902   1.10882   -2.000
 7075.00    1.37013   1.10731   -2.000
 7076.00    1.28095   1.10630   -2.000
 7077.00    1.08916   1.10571   -2.000
 7078.00    0.85845   1.10422   -2.000
 7079.00    0.69400   1.10245   -2.000
 7080.00    0.55088   1.10186   -2.000
 7081.00    0.61096   1.10106   -2.000
 7082.00    0.72578   1.09941   -2.000
 7083.00    0.69309   1.09836   -2.000
 7084.00    0.62783   1.09804   -2.000
 7085.00    0.78795   1.09692   -2.000
 7086.00    0.98770   1.09573   -2.000
 7087.00    0.86516   1.09599   -2.000
 7088.00    0.69945   1.09563   -2.000
 7089.00    0.84631   1.09488   -2.000
 7090.00    1.02287   1.09500   -2.000
 7091.00    0.86045   1.09536   -2.000
 7092.00    0.67814   1.09506   -2.000
 7093.00    0.86260   1.09509   -2.000
 7094.00    1.05406   1.09623   -2.000
 7095.00    0.96910   1.09625   -2.000
 7096.00    0.89148   1.09635   -2.000
 7097.00    0.99662   1.09736   -2.000
 7098.00    1.08417   1.09786   -2.000
 7099.00    0.93827   1.09782   -2.000
 7100.00    0.80852   1.09845   -2.000
 7101.00    0.82196   1.09959   -2.000
 7102.00    0.83726   1.09950   -2.000
 7103.00    0.86472   1.09962   -2.000
 7104.00    0.87059   1.10067   -2.000
 7105.00    0.76653   1.10106   -2.000
 7106.00    0.70845   1.10066   -2.000
 7107.00    0.83959   1.10098   -2.000
 7108.00    0.91460   1.10191   -2.000
 7109.00    0.79825   1.10174   -2.000
 7110.00    0.76675   1.10119   -2.000
 7111.00    0.97907   1.10178   -2.000
 7112.00    1.03402   1.10230   -2.000
 7113.00    0.70284   1.10155   -2.000
 7114.00    0.54150   1.10105   -2.000
 7115.00    0.73960   1.10174   -2.000
 7116.00    0.82696   1.10173   -2.000
 7117.00    0.71069   1.10068   -2.000
 7118.00    0.71293   1.10066   -2.000
 7119.00    0.90555   1.10115   -2.000
 7120.00    1.23014   1.10058   -2.000
 7121.00    1.74076   1.09975   -2.000
 7122.00    1.91196   1.10007   -2.000
 7123.00    1.66215   1.10031   -2.000
 7124.00   -0.12987   1.09959   -2.000
 7125.00   -3.60803   1.09942   -2.000
 7126.00   -3.70753   1.09972   -2.000
 7127.00   -0.54879   1.09968   -2.000
 7128.00    0.82054   1.09931   -2.000
 7129.00    0.66820   1.09943   -2.000
 7130.00    0.80193   1.09984   -2.000
 7131.00    1.14990   1.09976   -2.000
 7132.00    1.17773   1.09971   -2.000
 7133.00    0.99492   1.09989   -2.000
 7134.00    0.83367   1.10031   -2.000
 7135.00    0.68483   1.10031   -2.000
 7136.00    0.84234   1.10010   -2.000
 7137.00    1.15355   1.10067   -2.000
 7138.00    0.99677   1.10114   -2.000
 7139.00    0.63677   1.10082   -2.000
 7140.00    0.59931   1.10088   -2.000
 7141.00    0.68200   1.10179   -2.000
 7142.00    0.71160   1.10189   -2.000
 7143.00    0.72444   1.10124   -2.000
 7144.00    0.73344   1.10191   -2.000
 7145.00    0.74144   1.10280   -2.000
 7146.00    0.64742   1.10227   -2.000
 7147.00    0.53142   1.10217   -2.000
 7148.00    0.62695   1.10318   -2.000
 7149.00    0.75863   1.10327   -2.000
 7150.00    0.87179   1.10265   -2.000
 7151.00    0.98254   1.10313   -2.000
 7152.00    0.84685   1.10376   -2.000
 7153.00    0.68878   1.10325   -2.000
 7154.00    0.63201   1.10319   -2.000
 7155.00    0.58079   1.10379   -2.000
 7156.00    0.76404   1.10363   -2.000
 7157.00    0.95181   1.10334   -2.000
 7158.00    1.10349   1.10366   -2.000
 7159.00    1.23567   1.10381   -2.000
 7160.00    0.92530   1.10332   -2.000
 7161.00    0.75579   1.10338   -2.000
 7162.00    2.36028   1.10382   -2.000
 7163.00    3.60363   1.10366   -2.000
 7164.00    1.76607   1.10332   -2.000
 7165.00    0.25444   1.10348   -2.000
 7166.00    0.80853   1.10375   -2.000
 7167.00    1.41357   1.10343   -2.000
 7168.00    2.27164   1.10307   -2.000
 7169.00    2.78348   1.10339   -2.000
 7170.00    1.90177   1.10360   -2.000
 7171.00    1.22379   1.10298   -2.000
 7172.00    1.22648   1.10267   -2.000
 7173.00    1.11104   1.10317   -2.000
 7174.00    0.66238   1.10318   -2.000
 7175.00    0.40704   1.10235   -2.000
 7176.00    0.61801   1.10235   -2.000
 7177.00    0.70879   1.10279   -2.000
 7178.00    0.54932   1.10225   -2.000
 7179.00    0.56675   1.10194   -2.000
 7180.00    0.90446   1.10245   -2.000
 7181.00    1.05143   1.10252   -2.000
 7182.00    0.89647   1.10187   -2.000
 7183.00    0.89125   1.10208   -2.000
 7184.00    1.09407   1.10245   -2.000
 7185.00    1.06038   1.10206   -2.000
 7186.00    0.73747   1.10233   -2.000
 7187.00    0.63540   1.10291   -2.000
 7188.00    0.77139   1.10278   -2.000
 7189.00    0.76718   1.10256   -2.000
 7190.00    0.62967   1.10316   -2.000
 7191.00    0.70828   1.10335   -2.000
 7192.00    0.96809   1.10310   -2.000
 7193.00    1.16130   1.10372   -2.000
 7194.00    1.30536   1.10415   -2.000
 7195.00    1.20314   1.10404   -2.000
 7196.00    0.94124   1.10423   -2.000
 7197.00    0.93141   1.10475   -2.000
 7198.00    1.06455   1.10470   -2.000
 7199.00    1.00031   1.10496   -2.000
 7200.00    0.83859   1.10574   -2.000
 7201.00    0.84939   1.10585   -2.000
 7202.00    0.93387   1.10597   -2.000
 7203.00    1.06968   1.10661   -2.000
 7204.00    1.22427   1.10707   -2.000
 7205.00    1.17421   1.10709   -2.000
 7206.00    1.06074   1.10794   -2.000
 7207.00    0.96104   1.10877   -2.000
 7208.00    0.86488   1.10891   -2.000
 7209.00    0.72633   1.10944   -2.000
 7210.00    0.57887   1.11027   -2.000
 7211.00    0.56265   1.11081   -2.000
 7212.00    0.56823   1.11121   -2.000
 7213.00    0.58550   1.11228   -2.000
 7214.00    0.60423   1.11294   -2.000
 7215.00    0.63084   1.11334   -2.000
 7216.00    0.65812   1.11412   -2.000
 7217.00    0.87459   1.11477   -2.000
 7218.00    1.10067   1.11534   -2.000
