###################################################################
## OUTPUT of StarlightChains_v04.for    [Cid@UFSC - 01/Apr/2007] ##
###################################################################

## Some input info
KUG0210-078._25_28.txt                   [arq_obs]
Base.CB07.vall.4m                        [arq_base]
Masks.EmLines.NEW.gm                     [arq_masks]
StCv04.C11.config                        [arq_config]
   66                                    [N_base]
    0                                    [N_YAV_components = # of components with extra extinction!]
    0                                    [i_FitPowerLaw (1/0 = Yes/No)]
-9.99                                    [alpha_PowerLaw]
CCM                                      [red_law_option]
 1.458241                                [q_norm = A(l_norm)/A(V)]

## (Re)Sampling Parameters
 3741.00                                 [l_ini (A)]
 7218.00                                 [l_fin (A)]
    1.00                                 [dl    (A)]     (OBS: dl_cushion =    50.00 A)

## Normalization info
 4020.00                                 [l_norm (A) - for base]
 4010.00                                 [llow_norm (A) - window for f_obs]
 4060.00                                 [lupp_norm (A) - window for f_obs]
1.318269E-17                             [fobs_norm (in input units)]

## S/N
 3691.00                                 [llow_SN (A) - window for S/N]
 7268.00                                 [lupp_SN (A) - window for S/N]
   5.342                                 [S/N in S/N window]
   4.217                                 [S/N in norm. window]
   0.026                                 [S/N_err in S/N window]
   0.021                                 [S/N_err in norm. window]
  1.0000                                 [fscale_chi2]

## etc...
    -2007301                             [idum_orig]
  2425                                   [NOl_eff]
  2056                                   [Nl_eff]
   369    NSIGMA                         [Ntot_cliped & clip_method]
 10881990                                [Nglobal_steps]
   7                                     [N_chains]
  39                                     [NEX0s_base = N_base in EX0s-fits]
 0   0   1      369   2.0   1.130E+04    [Clip-Bug, RC-Crash & Burn-In warning-flags, n_censored_weights, wei_nsig_threshold & wei_limit]
    64     63.375     62.820      0.555  [idt_all, wdt_TotTime, wdt_UsrTime & wdt_SysTime (sec)]

## Synthesis Results - Best model ##

 9.35026E-06                             [chi2/Nl_eff]
     8.46937                             [adev (%)]

   129.99998                             [sum-of-x (%)]
 1.49128E-16                             [Flux_tot (units of input spectrum!)]
 2.10896E-13                             [Mini_tot (???)]
 1.23704E-13                             [Mcor_tot (???)]

  35.10                                  [v0_min  (km/s)]
 115.51                                  [vd_min  (km/s)]
 1.6109                                  [AV_min  (mag)]
 0.0000                                  [YAV_min (mag)]

# j     x_j(%)      Mini_j(%)     Mcor_j(%)     age_j(yr)     Z_j      (L/M)_j    YAV?  Mstars   component_j        a/Fe...       SSP_chi2r SSP_adev(%)   SSP_AV   SSP_x(%)
  1      0.0000     0.0000E+00    0.0000E+00    1.000000E+06  0.00400  1.094E-02    0   1.0000   age020_m42            0.0000     1.2134E-05    10.5769   2.9312   123.7061
  2      0.0000     0.0000E+00    0.0000E+00    3.160000E+06  0.00400  4.007E-02    0   0.9999   age045_m42            0.0000     1.0992E-05    10.0019   2.2624   128.7922
  3      1.8744     4.0156E-02    6.4954E-02    5.010000E+06  0.00400  2.539E-02    0   0.9488   age055_m42            0.0000     1.1322E-05    10.1834   2.5543   127.2734
  4      0.0000     0.0000E+00    0.0000E+00    6.610000E+06  0.00400  2.620E-02    0   0.9220   age061_m42            0.0000     1.0687E-05     9.8415   2.1833   129.3872
  5      0.0000     0.0000E+00    0.0000E+00    1.000000E+07  0.00400  1.322E-02    0   0.8862   age070_m42            0.0000     9.4213E-06     9.0501   1.8567   134.9909
  6      0.0000     0.0000E+00    0.0000E+00    1.445000E+07  0.00400  7.883E-03    0   0.8571   age078_m42            0.0000     9.8426E-06     9.3124   2.1760   131.9686
  7     33.0569     3.4243E+00    4.7719E+00    2.512000E+07  0.00400  5.251E-03    0   0.8174   age090_m42            0.0000     9.1517E-06     8.8711   1.7252   135.8996
  8     16.0457     2.3918E+00    3.2014E+00    4.000000E+07  0.00400  3.649E-03    0   0.7851   age104_m42            0.0000     9.0751E-06     8.8227   1.5109   136.2240
  9      0.0000     0.0000E+00    0.0000E+00    5.500000E+07  0.00400  3.098E-03    0   0.7629   age110_m42            0.0000     9.4714E-06     9.0717   1.6941   134.3104
 10      0.0000     0.0000E+00    0.0000E+00    1.015200E+08  0.00400  2.228E-03    0   0.7207   age116_m42            0.0000     9.6722E-06     9.2047   1.7311   133.4877
 11      0.0000     0.0000E+00    0.0000E+00    2.861200E+08  0.00400  1.093E-03    0   0.6648   age125_m42            0.0000     9.2357E-06     8.9397   1.1442   138.2336
 12      0.0000     0.0000E+00    0.0000E+00    5.088000E+08  0.00400  6.597E-04    0   0.6365   age130_m42            0.0000     9.4308E-06     9.0479   1.1665   137.4067
 13      0.1210     3.0866E-01    3.0510E-01    1.434000E+09  0.00400  2.132E-04    0   0.5798   age139_m42            0.0000     8.8806E-06     8.6033   0.2309   138.2167
 14      0.0000     0.0000E+00    0.0000E+00    4.250000E+09  0.00400  5.895E-05    0   0.5377   age158_m42            0.0000     9.9866E-06     9.1697  -0.1916   131.8793
 15      0.0000     0.0000E+00    0.0000E+00    7.500000E+09  0.00400  3.510E-05    0   0.5212   age171_m42            0.0000     1.0478E-05     9.3493  -0.3676   130.2356
 16      0.0000     0.0000E+00    0.0000E+00    1.300000E+10  0.00400  2.005E-05    0   0.5034   age193_m42            0.0000     1.1076E-05     9.5702  -0.5267   129.0690
 17      0.0000     0.0000E+00    0.0000E+00    1.800000E+10  0.00400  1.525E-05    0   0.4967   age213_m42            0.0000     1.0973E-05     9.5164  -0.5534   128.7345
 18      0.0000     0.0000E+00    0.0000E+00    1.000000E+06  0.00800  1.238E-02    0   1.0000   age020_m52            0.0000     1.2142E-05    10.5776   2.9275   123.9461
 19      0.0000     0.0000E+00    0.0000E+00    3.160000E+06  0.00800  3.074E-02    0   0.9966   age045_m52            0.0000     1.2030E-05    10.5325   2.8589   124.6399
 20      0.0000     0.0000E+00    0.0000E+00    5.010000E+06  0.00800  2.668E-02    0   0.9443   age055_m52            0.0000     1.1351E-05    10.1795   2.6297   126.5798
 21      3.7519     9.5543E-02    1.4948E-01    6.610000E+06  0.00800  2.136E-02    0   0.9177   age061_m52            0.0000     9.3509E-06     9.0151   1.3584   136.6187
 22      0.0000     0.0000E+00    0.0000E+00    1.000000E+07  0.00800  1.215E-02    0   0.8827   age070_m52            0.0000     9.2886E-06     8.9380   2.0148   135.8806
 23      0.0000     0.0000E+00    0.0000E+00    1.445000E+07  0.00800  8.717E-03    0   0.8552   age078_m52            0.0000     9.6220E-06     9.1527   2.1455   133.5799
 24      0.0000     0.0000E+00    0.0000E+00    2.512000E+07  0.00800  5.592E-03    0   0.8162   age090_m52            0.0000     8.9805E-06     8.7208   1.7909   137.3011
 25      0.0000     0.0000E+00    0.0000E+00    4.000000E+07  0.00800  3.896E-03    0   0.7841   age104_m52            0.0000     9.0586E-06     8.7755   1.7220   137.0685
 26      0.0000     0.0000E+00    0.0000E+00    1.015200E+08  0.00800  2.148E-03    0   0.7226   age116_m52            0.0000     9.3906E-06     8.9931   1.6896   135.0604
 27      0.0000     0.0000E+00    0.0000E+00    2.861200E+08  0.00800  9.925E-04    0   0.6683   age125_m52            0.0000     9.2773E-06     8.9337   1.2337   138.5514
 28      0.0000     0.0000E+00    0.0000E+00    9.047900E+08  0.00800  3.141E-04    0   0.6138   age135_m52            0.0000     9.2539E-06     8.7848   0.5008   140.0080
 29      0.0000     0.0000E+00    0.0000E+00    1.434000E+09  0.00800  1.719E-04    0   0.5853   age139_m52            0.0000     9.4322E-06     8.8401  -0.0945   138.0634
 30      0.0000     0.0000E+00    0.0000E+00    2.500000E+09  0.00800  7.872E-05    0   0.5600   age150_m52            0.0000     1.0398E-05     9.2258  -0.3249   132.3882
 31      0.0000     0.0000E+00    0.0000E+00    4.250000E+09  0.00800  4.336E-05    0   0.5426   age158_m52            0.0000     1.0576E-05     9.3088  -0.3396   131.1185
 32      0.0000     0.0000E+00    0.0000E+00    6.250000E+09  0.00800  3.159E-05    0   0.5319   age166_m52            0.0000     1.1304E-05     9.5288  -0.5207   129.8714
 33      0.0000     0.0000E+00    0.0000E+00    1.300000E+10  0.00800  1.361E-05    0   0.5073   age193_m52            0.0000     1.2394E-05     9.7861  -0.9579   127.2937
 34      0.0000     0.0000E+00    0.0000E+00    1.800000E+10  0.00800  9.886E-06    0   0.4990   age213_m52            0.0000     1.3300E-05     9.9152  -1.0000   123.4177
 35      0.0000     0.0000E+00    0.0000E+00    1.000000E+06  0.02000  1.544E-02    0   1.0000   age020_m62            0.0000     1.2175E-05    10.5918   2.9224   124.3109
 36      0.0000     0.0000E+00    0.0000E+00    3.160000E+06  0.02000  3.762E-02    0   0.9858   age045_m62            0.0000     1.2128E-05    10.6029   2.8626   125.3134
 37      0.0000     0.0000E+00    0.0000E+00    5.010000E+06  0.02000  3.296E-02    0   0.9342   age055_m62            0.0000     1.1271E-05    10.1382   2.5278   128.0637
 38      0.0000     0.0000E+00    0.0000E+00    8.710000E+06  0.02000  1.154E-02    0   0.8861   age067_m62            0.0000     8.1838E-06     8.0986   1.3561   147.1356
 39     28.3309     2.0110E+00    2.9046E+00    1.445000E+07  0.02000  7.663E-03    0   0.8472   age078_m62            0.0000     8.7639E-06     8.6115   1.6311   140.7748
 40      0.0000     0.0000E+00    0.0000E+00    2.512000E+07  0.02000  4.532E-03    0   0.8099   age090_m62            0.0000     8.7276E-06     8.5803   1.6187   140.6005
 41     38.0891     7.5807E+00    9.8157E+00    5.500000E+07  0.02000  2.733E-03    0   0.7595   age110_m62            0.0000     9.0268E-06     8.7618   1.6964   136.6556
 42      0.0000     0.0000E+00    0.0000E+00    1.609000E+08  0.02000  1.369E-03    0   0.6985   age120_m62            0.0000     9.2398E-06     8.9029   1.5809   137.4402
 43      0.0000     0.0000E+00    0.0000E+00    2.861200E+08  0.02000  9.013E-04    0   0.6714   age125_m62            0.0000     9.1823E-06     8.8248   1.3615   139.4440
 44      0.0000     0.0000E+00    0.0000E+00    5.088000E+08  0.02000  5.028E-04    0   0.6449   age130_m62            0.0000     9.5504E-06     8.9999   1.0414   139.4000
 45      0.0000     0.0000E+00    0.0000E+00    9.047900E+08  0.02000  2.428E-04    0   0.6179   age135_m62            0.0000     9.6035E-06     8.9518   0.4754   137.3051
 46      0.0000     0.0000E+00    0.0000E+00    1.434000E+09  0.02000  1.263E-04    0   0.5908   age139_m62            0.0000     9.9825E-06     9.0260   0.0386   134.9416
 47      0.0000     0.0000E+00    0.0000E+00    2.500000E+09  0.02000  5.985E-05    0   0.5673   age150_m62            0.0000     1.1069E-05     9.4408  -0.3054   131.8132
 48      4.9457     8.2242E+01    7.6667E+01    4.250000E+09  0.02000  3.271E-05    0   0.5468   age158_m62            0.0000     1.2431E-05     9.8288  -0.5786   128.8849
 49      0.0000     0.0000E+00    0.0000E+00    1.000000E+10  0.02000  1.360E-05    0   0.5167   age181_m62            0.0000     1.3923E-05    10.1394  -0.8823   125.7821
 50      0.0000     0.0000E+00    0.0000E+00    1.800000E+10  0.02000  7.124E-06    0   0.5013   age213_m62            0.0000     1.5233E-05    10.2624  -1.0000   120.2934
 51      0.6939     1.4561E-02    2.4819E-02    1.000000E+06  0.05000  2.592E-02    0   0.9998   age020_m72            0.0000     1.2225E-05    10.5975   2.9083   124.6895
 52      0.0000     0.0000E+00    0.0000E+00    3.160000E+06  0.05000  4.845E-02    0   0.9577   age045_m72            0.0000     1.1919E-05    10.4902   2.7671   125.7534
 53      0.0000     0.0000E+00    0.0000E+00    5.010000E+06  0.05000  3.072E-02    0   0.9147   age055_m72            0.0000     1.0077E-05     9.5106   2.2231   134.5715
 54      0.0000     0.0000E+00    0.0000E+00    6.610000E+06  0.05000  1.455E-02    0   0.8877   age061_m72            0.0000     1.0916E-05    10.0339   1.3155   152.6507
 55      1.8402     1.1031E-01    1.6030E-01    1.000000E+07  0.05000  9.074E-03    0   0.8524   age070_m72            0.0000     1.1523E-05    10.5575   2.3747   134.9828
 56      0.0000     0.0000E+00    0.0000E+00    2.512000E+07  0.05000  4.250E-03    0   0.7902   age090_m72            0.0000     1.0134E-05     9.5735   2.1162   135.6980
 57      0.0000     0.0000E+00    0.0000E+00    4.000000E+07  0.05000  3.087E-03    0   0.7618   age104_m72            0.0000     9.7955E-06     9.3291   1.8914   137.8327
 58      0.0000     0.0000E+00    0.0000E+00    1.015200E+08  0.05000  1.700E-03    0   0.7096   age116_m72            0.0000     9.1981E-06     8.8419   1.7014   138.0607
 59      0.0000     0.0000E+00    0.0000E+00    2.861200E+08  0.05000  7.384E-04    0   0.6633   age125_m72            0.0000     9.2502E-06     8.8048   1.2633   139.1603
 60      1.2504     1.7809E+00    1.9346E+00    5.088000E+08  0.05000  3.819E-04    0   0.6372   age130_m72            0.0000     9.5293E-06     8.9095   0.8231   138.2824
 61      0.0000     0.0000E+00    0.0000E+00    9.047900E+08  0.05000  1.676E-04    0   0.6110   age135_m72            0.0000     1.0729E-05     9.3834   0.1679   133.5157
 62      0.0000     0.0000E+00    0.0000E+00    1.434000E+09  0.05000  8.837E-05    0   0.5874   age139_m72            0.0000     1.1120E-05     9.3856  -0.2922   132.8710
 63      0.0000     0.0000E+00    0.0000E+00    2.500000E+09  0.05000  4.233E-05    0   0.5598   age150_m72            0.0000     1.2729E-05     9.8936  -0.5630   129.0224
 64      0.0000     0.0000E+00    0.0000E+00    6.250000E+09  0.05000  1.435E-05    0   0.5249   age166_m72            0.0000     1.4348E-05    10.2449  -0.9667   124.5494
 65      0.0000     0.0000E+00    0.0000E+00    1.300000E+10  0.05000  6.513E-06    0   0.5036   age193_m72            0.0000     1.6992E-05    10.2464  -1.0000   114.3501
 66      0.0000     0.0000E+00    0.0000E+00    1.800000E+10  0.05000  4.527E-06    0   0.4945   age213_m72            0.0000     1.9452E-05    10.6169  -1.0000   107.0054


## Synthesis Results - Average & Chains ##

# j      x_j: min, <> & last-chain-values for 1 ...  7 chains
  1      0.0000     30.9825     29.0665     32.8030     31.6053     30.0628     32.9249     28.8511     31.3625
  2      0.0000      0.3057      0.0658      0.2342      0.1294      1.7241      0.0082      0.1792      0.0000
  3      1.8744      0.2731      0.0000      0.1050      0.2813      0.0000      0.6264      0.0928      1.4646
  4      0.0000      0.3050      0.0884      0.0481      0.4742      0.7972      0.0000      0.2315      0.8946
  5      0.0000      0.2619      0.0000      0.0418      0.3767      0.9917      0.0000      0.0000      0.1776
  6      0.0000      0.3071      0.0609      0.2472      0.4690      0.9801      0.2049      0.1075      0.4896
  7     33.0569      0.2596      0.0234      0.2301      0.8358      1.0521      0.0879      0.2803      0.5491
  8     16.0457      0.2463      0.0895      0.2190      0.2397      1.4674      1.1341      0.0439      0.9335
  9      0.0000      0.1876      0.0416      0.0510      0.9447      0.4316      0.0000      0.0595      0.5617
 10      0.0000      0.2089      0.0171      0.5044      0.2793      0.4748      0.6676      0.0539      0.0000
 11      0.0000      0.2689      0.0017      0.2339      0.7302      2.0059      0.1914      0.1239      0.5527
 12      0.0000      0.3588      0.0154      0.1712      0.9791      0.0000      0.0000      0.0000      3.6108
 13      0.1210      0.2399      0.0031      0.7010      0.2509      0.0000      0.5314      0.0000      0.7102
 14      0.0000      1.4533      0.4312      1.5611      1.1865      0.8086      2.0794      0.2389      1.5524
 15      0.0000      0.6285      0.0202      1.2490      0.8824      0.2080      0.5090      0.0000      0.9514
 16      0.0000     21.1461     28.5239     20.6457     19.5129     12.8307     18.4609     27.9567     13.3231
 17      0.0000      0.5776      0.0529      1.2791      0.7477      0.7410      0.1482      0.0743      0.4985
 18      0.0000      0.3033      0.2711      0.1911      0.4714      4.9154      0.0000      0.1299      0.0000
 19      0.0000      2.7865      3.1803      3.0561      3.4785      3.0478      4.3887      3.2393      4.3083
 20      0.0000      0.2695      0.0318      0.3575      0.6504      2.4992      0.7488      0.0000      0.4957
 21      3.7519      0.2422      0.0435      0.0000      0.0000      0.8341      0.0000      0.0365      0.5542
 22      0.0000      0.3305      0.0998      0.0000      0.3516      0.3703      0.0846      0.1895      0.0000
 23      0.0000      0.2194      0.0082      0.2354      0.0000      0.8914      0.0000      0.0770      0.0000
 24      0.0000      0.4100      0.0182      0.1994      0.0749      3.1964      0.0000      0.0000      0.3634
 25      0.0000      0.2503      0.0000      0.1293      0.0000      0.5577      0.0000      0.2028      0.0000
 26      0.0000      0.3001      0.0000      0.2551      0.3701      1.4439      0.3156      0.0319      0.0000
 27      0.0000      0.2697      0.0513      0.3652      0.1959      0.3031      0.6438      0.0781      0.0005
 28      0.0000      0.2666      0.0890      0.2528      0.4713      0.1803      0.3241      0.0000      1.9260
 29      0.0000      0.2204      0.0000      0.2203      0.0000      0.0000      0.4778      0.1035      0.0000
 30      0.0000      0.3096      0.0320      0.2223      1.2627      1.7323      0.2728      0.0001      0.7755
 31      0.0000      0.3702      0.0878      0.0000      0.5051      1.2889      0.2546      0.0210      0.0000
 32      0.0000      0.2454      0.0000      0.0622      0.0000      0.1213      0.8132      0.0283      0.2148
 33      0.0000      0.2049      0.0029      0.0000      0.0826      0.8197      0.0000      0.0000      0.3171
 34      0.0000      0.1769      0.0000      0.0000      0.0000      0.1369      0.0000      0.0199      0.5072
 35      0.0000      0.3511      0.0318      0.1516      0.1677      0.5470      0.2171      0.0057      0.6494
 36      0.0000     25.5854     32.9954     25.2686     23.1001     18.4878     25.1153     32.2330     19.3806
 37      0.0000      0.3411      0.0000      0.0000      0.9808      1.1487      0.3224      0.0948      0.0000
 38      0.0000      0.2587      0.0161      0.1505      0.8230      0.2658      0.1022      0.0168      0.0601
 39     28.3309      0.2494      0.0071      0.4705      0.1195      0.0000      0.0123      0.0618      0.7306
 40      0.0000      0.2623      0.1667      0.0369      0.6818      0.0000      0.4780      0.0540      0.0000
 41     38.0891      0.2688      0.0007      0.3043      0.0000      0.4348      0.3220      0.0532      0.4211
 42      0.0000      0.3104      0.0662      0.5826      0.4476      1.0473      0.1075      0.0789      1.0768
 43      0.0000      0.2870      0.0777      0.2583      0.3076      0.3184      0.5544      0.1866      0.1140
 44      0.0000      0.2331      0.0899      0.1877      0.0000      0.0000      0.1990      0.0555      0.0126
 45      0.0000      0.3610      0.1030      0.4793      0.0000      0.9777      0.1603      0.0000      0.0000
 46      0.0000      0.3539      0.0261      0.0000      0.0000      1.4106      0.0088      0.0000      0.0000
 47      0.0000      0.2438      0.0000      0.1820      0.3985      0.6942      0.2160      0.1182      0.3204
 48      4.9457      0.2604      0.0000      0.0000      0.0000      0.9492      0.2687      0.0254      1.4320
 49      0.0000      0.2609      0.0208      0.0381      0.0000      0.0000      0.5927      0.0232      0.0000
 50      0.0000      0.2376      0.0197      0.0000      0.1583      0.0000      0.1714      0.0851      0.1009
 51      0.6939      0.2363      0.1529      0.2741      0.2021      0.9481      0.3878      0.1627      1.0324
 52      0.0000      0.6603      0.6031      1.4059      0.1004      0.3607      1.1400      0.4592      0.8163
 53      0.0000      0.3188      0.0000      0.0891      0.4614      0.8498      0.3317      0.1365      1.2990
 54      0.0000      0.7152      0.4146      0.4074      0.8578      0.4737      0.5874      0.3354      2.8154
 55      1.8402     27.2668     29.6367     29.2636     26.8020     16.1443     29.1712     30.6098     19.7056
 56      0.0000      0.2858      0.0921      0.0719      0.8382      2.0766      0.3069      0.0641      0.7080
 57      0.0000      0.2342      0.0680      0.4271      0.4465      0.0540      0.0455      0.0000      2.7874
 58      0.0000      0.2924      0.0041      0.1367      0.2246      0.0000      0.4492      0.0000      1.1538
 59      0.0000      0.2506      0.0221      0.5087      0.7459      0.0000      0.0000      0.0000      2.7624
 60      1.2504      0.2716      0.1602      0.2087      0.8115      0.0000      0.2994      0.0120      0.7563
 61      0.0000      0.5230      0.4280      0.0877      0.3837      1.4747      0.3845      0.2317      0.2934
 62      0.0000      0.2504      0.1828      0.0000      0.0217      1.0459      0.0000      0.0395      0.0000
 63      0.0000      0.2997      0.0409      0.5643      0.4046      0.5188      0.0000      0.0000      0.6873
 64      0.0000      0.2481      0.0212      0.0646      0.2789      0.0000      0.0000      0.1488      1.2032
 65      0.0000      0.2874      0.0000      0.0000      0.0000      0.0000      0.0000      0.0341      0.3205
 66      0.0000      0.2697      0.0000      0.1869      0.0000      0.2066      0.0000      0.0243      0.3679

# j      m_j: min, <> & last-chain-values for 1 ...  7 chains
  1  0.0000E+00  3.9596E-01  3.6024E-01  4.6630E-01  4.8003E-01  5.4011E-01  5.2812E-01  3.5831E-01  4.7736E-01
  2  0.0000E+00  1.0664E-03  2.2252E-04  9.0872E-04  5.3649E-04  8.4562E-03  3.5984E-05  6.0769E-04  0.0000E+00
  3  6.4954E-02  1.4268E-03  0.0000E+00  6.1045E-04  1.7467E-03  0.0000E+00  4.1076E-03  4.7102E-04  9.1132E-03
  4  0.0000E+00  1.5004E-03  4.2202E-04  2.6313E-04  2.7726E-03  5.5142E-03  0.0000E+00  1.1067E-03  5.2420E-03
  5  0.0000E+00  2.4551E-03  0.0000E+00  4.3620E-04  4.1958E-03  1.3067E-02  0.0000E+00  0.0000E+00  1.9826E-03
  6  0.0000E+00  4.6682E-03  8.9812E-04  4.1793E-03  8.4726E-03  2.0946E-02  3.9093E-03  1.5886E-03  8.8645E-03
  7  4.7719E+00  5.6496E-03  4.9456E-04  5.5702E-03  2.1619E-02  3.2191E-02  2.3999E-03  5.9275E-03  1.4232E-02
  8  3.2014E+00  7.4081E-03  2.6097E-03  7.3274E-03  8.5705E-03  6.2053E-02  4.2817E-02  1.2838E-03  3.3442E-02
  9  0.0000E+00  6.4606E-03  1.3888E-03  1.9514E-03  3.8654E-02  2.0891E-02  0.0000E+00  1.9891E-03  2.3031E-02
 10  0.0000E+00  9.4459E-03  7.5000E-04  2.5374E-02  1.5013E-02  3.0188E-02  3.7893E-02  2.3674E-03  0.0000E+00
 11  0.0000E+00  2.2867E-02  1.3837E-04  2.2125E-02  7.3799E-02  2.3980E-01  2.0430E-02  1.0242E-02  5.5977E-02
 12  0.0000E+00  4.8405E-02  2.0141E-03  2.5691E-02  1.5697E-01  0.0000E+00  0.0000E+00  0.0000E+00  5.8011E-01
 13  3.0510E-01  9.1219E-02  1.1433E-03  2.9646E-01  1.1335E-01  0.0000E+00  2.5361E-01  0.0000E+00  3.2160E-01
 14  0.0000E+00  1.8533E+00  5.3328E-01  2.2144E+00  1.7983E+00  1.4497E+00  3.3282E+00  2.9607E-01  2.3578E+00
 15  0.0000E+00  1.3048E+00  4.0609E-02  2.8843E+00  2.1771E+00  6.0698E-01  1.3264E+00  0.0000E+00  2.3523E+00
 16  0.0000E+00  7.4231E+01  9.7101E+01  8.0611E+01  8.1405E+01  6.3317E+01  8.1334E+01  9.5367E+01  5.5700E+01
 17  0.0000E+00  2.6302E+00  2.3366E-01  6.4788E+00  4.0467E+00  4.7439E+00  8.4693E-01  3.2889E-01  2.7036E+00
 18  0.0000E+00  3.4255E-03  2.9696E-03  2.4001E-03  6.3265E-03  7.8039E-02  0.0000E+00  1.4253E-03  0.0000E+00
 19  0.0000E+00  1.2631E-02  1.3980E-02  1.5408E-02  1.8739E-02  1.9421E-02  2.4968E-02  1.4268E-02  2.3258E-02
 20  0.0000E+00  1.3338E-03  1.5280E-04  1.9679E-03  3.8248E-03  1.7386E-02  4.6505E-03  0.0000E+00  2.9214E-03
 21  1.4948E-01  1.4547E-03  2.5363E-04  0.0000E+00  0.0000E+00  7.0433E-03  0.0000E+00  2.1286E-04  3.9647E-03
 22  0.0000E+00  3.3573E-03  9.8333E-04  0.0000E+00  4.2441E-03  5.2878E-03  1.0780E-03  1.8701E-03  0.0000E+00
 23  0.0000E+00  3.0096E-03  1.0906E-04  3.5910E-03  0.0000E+00  1.7190E-02  0.0000E+00  1.0260E-03  0.0000E+00
 24  0.0000E+00  8.3662E-03  3.5978E-04  4.5269E-03  1.8177E-03  9.1697E-02  0.0000E+00  0.0000E+00  8.8331E-03
 25  0.0000E+00  7.0437E-03  0.0000E+00  4.0457E-03  0.0000E+00  2.2062E-02  0.0000E+00  5.5454E-03  0.0000E+00
 26  0.0000E+00  1.4117E-02  0.0000E+00  1.3347E-02  2.0687E-02  9.5473E-02  1.8628E-02  1.4595E-03  0.0000E+00
 27  0.0000E+00  2.5387E-02  4.6832E-03  3.8238E-02  2.1915E-02  4.0120E-02  7.6069E-02  7.1460E-03  6.1339E-05
 28  0.0000E+00  7.2842E-02  2.3570E-02  7.6811E-02  1.5304E-01  6.9233E-02  1.1113E-01  0.0000E+00  6.2671E-01
 29  0.0000E+00  1.0491E-01  0.0000E+00  1.1664E-01  0.0000E+00  0.0000E+00  2.8548E-01  4.7864E-02  0.0000E+00
 30  0.0000E+00  3.0792E-01  3.0866E-02  2.4591E-01  1.4926E+00  2.4222E+00  3.4056E-01  1.3028E-04  9.1858E-01
 31  0.0000E+00  6.4768E-01  1.4894E-01  0.0000E+00  1.0502E+00  3.1701E+00  5.5914E-01  3.5785E-02  0.0000E+00
 32  0.0000E+00  5.7779E-01  0.0000E+00  1.6295E-01  0.0000E+00  4.0155E-01  2.4027E+00  6.4727E-02  6.0231E-01
 33  0.0000E+00  1.0678E+00  1.4756E-02  0.0000E+00  5.1158E-01  6.0055E+00  0.0000E+00  0.0000E+00  1.9684E+00
 34  0.0000E+00  1.2483E+00  0.0000E+00  0.0000E+00  0.0000E+00  1.3582E+00  0.0000E+00  1.3680E-01  4.2629E+00
 35  0.0000E+00  3.1790E-03  2.7915E-04  1.5269E-03  1.8047E-03  6.9634E-03  2.4674E-03  4.9744E-05  7.0031E-03
 36  0.0000E+00  9.3738E-02  1.1723E-01  1.0297E-01  1.0058E-01  9.5220E-02  1.1549E-01  1.1476E-01  8.4564E-02
 37  0.0000E+00  1.3517E-03  0.0000E+00  0.0000E+00  4.6192E-03  6.3995E-03  1.6037E-03  3.6505E-04  0.0000E+00
 38  0.0000E+00  2.7774E-03  1.6798E-04  1.7977E-03  1.0500E-02  4.0110E-03  1.3771E-03  1.7480E-04  7.6890E-04
 39  2.9046E+00  3.8545E-03  1.0624E-04  8.0894E-03  2.1952E-03  0.0000E+00  2.3768E-04  9.2900E-04  1.3450E-02
 40  0.0000E+00  6.5544E-03  4.0390E-03  1.0266E-03  2.0247E-02  0.0000E+00  1.4991E-02  1.3111E-03  0.0000E+00
 41  9.8157E+00  1.0443E-02  2.5690E-05  1.3152E-02  0.0000E+00  2.3748E-02  1.5701E-02  2.0072E-03  1.9485E-02
 42  0.0000E+00  2.2142E-02  4.5764E-03  4.6227E-02  3.7946E-02  1.0503E-01  9.6246E-03  5.4719E-03  9.1489E-02
 43  0.0000E+00  2.9888E-02  7.8489E-03  2.9925E-02  3.8072E-02  4.6615E-02  7.2464E-02  1.8891E-02  1.4135E-02
 44  0.0000E+00  4.1796E-02  1.5638E-02  3.7432E-02  0.0000E+00  0.0000E+00  4.4779E-02  9.6634E-03  2.6953E-03
 45  0.0000E+00  1.2845E-01  3.5555E-02  1.8969E-01  0.0000E+00  4.8902E-01  7.1586E-02  0.0000E+00  0.0000E+00
 46  0.0000E+00  2.3145E-01  1.6535E-02  0.0000E+00  0.0000E+00  1.2969E+00  7.1961E-03  0.0000E+00  0.0000E+00
 47  0.0000E+00  3.2312E-01  0.0000E+00  2.6834E-01  6.2760E-01  1.2934E+00  3.5933E-01  1.5218E-01  5.0571E-01
 48  7.6667E+01  6.0868E-01  0.0000E+00  0.0000E+00  0.0000E+00  3.1187E+00  7.8817E-01  5.7673E-02  3.9859E+00
 49  0.0000E+00  1.3857E+00  1.0719E-01  2.2538E-01  0.0000E+00  0.0000E+00  3.9514E+00  1.1988E-01  0.0000E+00
 50  0.0000E+00  2.3375E+00  1.8794E-01  0.0000E+00  1.8511E+00  0.0000E+00  2.1159E+00  8.1320E-01  1.1828E+00
 51  2.4819E-02  1.2742E-03  7.9979E-04  1.6444E-03  1.2952E-03  7.1880E-03  2.6246E-03  8.5279E-04  6.6308E-03
 52  0.0000E+00  1.8249E-03  1.6164E-03  4.3217E-03  3.2961E-04  1.4013E-03  3.9542E-03  1.2332E-03  2.6868E-03
 53  0.0000E+00  1.3271E-03  0.0000E+00  4.1239E-04  2.2829E-03  4.9736E-03  1.7329E-03  5.5210E-04  6.4405E-03
 54  0.0000E+00  6.1009E-03  3.4300E-03  3.8653E-03  8.6963E-03  5.6799E-03  6.2887E-03  2.7801E-03  2.8602E-02
 55  1.6030E-01  3.5812E-01  3.7748E-01  4.2750E-01  4.1835E-01  2.9808E-01  4.8086E-01  3.9068E-01  3.0824E-01
 56  0.0000E+00  7.4291E-03  2.3216E-03  2.0775E-03  2.5895E-02  7.5887E-02  1.0013E-02  1.6190E-03  2.1920E-02
 57  0.0000E+00  8.0823E-03  2.2759E-03  1.6392E-02  1.8310E-02  2.6214E-03  1.9697E-03  0.0000E+00  1.1454E-01
 58  0.0000E+00  1.7066E-02  2.3303E-04  8.8753E-03  1.5575E-02  0.0000E+00  3.2904E-02  0.0000E+00  8.0192E-02
 59  0.0000E+00  3.1476E-02  2.6951E-03  7.1063E-02  1.1133E-01  0.0000E+00  0.0000E+00  0.0000E+00  4.1320E-01
 60  1.9346E+00  6.3351E-02  3.6242E-02  5.4160E-02  2.2499E-01  0.0000E+00  8.7666E-02  2.7142E-03  2.1011E-01
 61  0.0000E+00  2.6659E-01  2.1156E-01  4.9703E-02  2.3240E-01  1.0566E+00  2.4597E-01  1.1477E-01  1.7812E-01
 62  0.0000E+00  2.3275E-01  1.6473E-01  0.0000E+00  2.3916E-02  1.3664E+00  0.0000E+00  3.5629E-02  0.0000E+00
 63  0.0000E+00  5.5422E-01  7.3268E-02  1.1605E+00  8.8906E-01  1.3485E+00  0.0000E+00  0.0000E+00  1.5135E+00
 64  0.0000E+00  1.2687E+00  1.0527E-01  3.6747E-01  1.6951E+00  0.0000E+00  0.0000E+00  7.3930E-01  7.3282E+00
 65  0.0000E+00  3.1066E+00  0.0000E+00  0.0000E+00  0.0000E+00  0.0000E+00  0.0000E+00  3.5843E-01  4.1263E+00
 66  0.0000E+00  4.1197E+00  0.0000E+00  3.1751E+00  0.0000E+00  4.4349E+00  0.0000E+00  3.6128E-01  6.6910E+00

# AV, chi2 & Mass for <> & i_chain = 1 ...  7 solutions
AV       1.6109      1.4792      1.3770      1.4511      1.4546      1.4899      1.5199      1.3922      1.4266
chi2 9.3503E-06  1.1473E-05  1.0234E-05  1.0227E-05  1.0213E-05  1.0104E-05  1.0170E-05  1.0256E-05  1.0077E-05
Mass 1.2370E-13  6.8746E-13  6.1798E-13  5.9517E-13  5.5965E-13  4.9611E-13  5.7857E-13  6.2943E-13  5.3790E-13
  35.10                                  [v0_min (km/s) before EX0s...]
 115.51                                  [vd_min (km/s) before EX0s...]


## Synthetic spectrum (Best Model) ##l_obs f_obs f_syn wei
 3478    [Nl_obs]
 3741.00    1.04293   1.01382    0.000
 3742.00    1.28257   1.02713    0.000
 3743.00    1.53275   1.02332    0.000
 3744.00    1.38528   1.00509    0.000
 3745.00    1.00613   0.97386   -1.000
 3746.00    0.71511   0.92978   -1.000
 3747.00    0.46885   0.87421   -1.000
 3748.00    0.50243   0.81221   -1.000
 3749.00    0.65906   0.75540   -1.000
 3750.00    0.95934   0.72203   -1.000
 3751.00    1.31385   0.72688   -1.000
 3752.00    1.33023   0.76942   -1.000
 3753.00    1.23824   0.83427   -1.000
 3754.00    1.30977   0.90294   -1.000
 3755.00    1.42512   0.96252   -1.000
 3756.00    1.23630   1.00656   -1.000
 3757.00    0.98071   1.03491   -1.000
 3758.00    0.76672   1.05217   -1.000
 3759.00    0.56000   1.06426   -1.000
 3760.00    0.81642   1.07455   -1.000
 3761.00    1.13435   1.08196   -1.000
 3762.00    1.13077   1.08299   -1.000
 3763.00    1.09697   1.07500   -1.000
 3764.00    1.00223   1.05639   -1.000
 3765.00    0.90397   1.02615   -1.000
 3766.00    0.64067   0.98341   -1.000
 3767.00    0.37771   0.92799   -1.000
 3768.00    0.63300   0.86356   -1.000
 3769.00    0.87963   0.79896   -1.000
 3770.00    0.91612   0.74841   -1.000
 3771.00    0.93750   0.72879   -1.000
 3772.00    0.76086   0.74969   -1.000
 3773.00    0.62460   0.80387   -1.000
 3774.00    0.84281   0.87266   -1.000
 3775.00    1.03813   0.93998   -1.000
 3776.00    1.08502   0.99856   -1.000
 3777.00    1.12077   1.04739   -1.000
 3778.00    1.10017   1.08767   -1.000
 3779.00    1.21224   1.12066   -1.000
 3780.00    1.86733   1.14726   -1.000
 3781.00    2.27293   1.16739   -1.000
 3782.00    1.83234   1.18050   -1.000
 3783.00    1.43270   1.18672   -1.000
 3784.00    1.15019   1.18638   -1.000
 3785.00    1.11786   1.17999   -1.000
 3786.00    1.69679   1.16907   -1.000
 3787.00    1.87759   1.15574   -1.000
 3788.00    1.21925   1.14087   -1.000
 3789.00    0.99383   1.12377   -1.000
 3790.00    1.56136   1.10284   -1.000
 3791.00    2.12403   1.07588   -1.000
 3792.00    2.67892   1.04008   -1.000
 3793.00    2.75092   0.99267   -1.000
 3794.00    2.14465   0.93267   -1.000
 3795.00    1.61418   0.86262   -1.000
 3796.00    1.17742   0.79005   -1.000
 3797.00    0.69087   0.72820   -1.000
 3798.00    0.15009   0.69438   -1.000
 3799.00    0.24009   0.70217   -1.000
 3800.00    0.93626   0.75030   -1.000
 3801.00    1.32145   0.82229   -1.000
 3802.00    1.44313   0.89853   -1.000
 3803.00    1.39746   0.96605   -1.000
 3804.00    1.22690   1.01940   -1.000
 3805.00    0.69155   1.05839   -1.000
 3806.00   -0.08294   1.08748    0.000
 3807.00   -0.14302   1.11357    0.000
 3808.00    0.20685   1.14087   -1.000
 3809.00    0.19139   1.16778   -1.000
 3810.00   -0.00668   1.18991    0.000
 3811.00    0.16026   1.20394   -1.000
 3812.00    0.48505   1.20874   -1.000
 3813.00    0.91048   1.20607   -1.000
 3814.00    1.37323   1.19951   -1.000
 3815.00    1.37887   1.19142   -1.000
 3816.00    1.24080   1.18000   -1.000
 3817.00    1.51063   1.16013   -1.000
 3818.00    1.88745   1.12925   -1.000
 3819.00    1.46897   1.09436   -1.000
 3820.00    0.88009   1.07248   -1.000
 3821.00    0.50492   1.07744   -1.000
 3822.00    0.16602   1.10294   -1.000
 3823.00    1.01741   1.12820   -1.000
 3824.00    2.02153   1.13875   -1.000
 3825.00    1.89029   1.13333   -1.000
 3826.00    1.65714   1.11764   -1.000
 3827.00    1.48602   1.09625   -1.000
 3828.00    1.31824   1.06981   -1.000
 3829.00    0.75197   1.03675   -1.000
 3830.00    0.18972   0.99457   -1.000
 3831.00    0.64094   0.94071   -1.000
 3832.00    1.06220   0.87446   -1.000
 3833.00    0.81794   0.80051   -1.000
 3834.00    0.64779   0.73096   -1.000
 3835.00    1.39935   0.68249   -1.000
 3836.00    1.99822   0.67009   -1.000
 3837.00    1.30647   0.69783   -1.000
 3838.00    0.74391   0.75494   -1.000
 3839.00    0.99413   0.82479   -1.000
 3840.00    1.16860   0.89491   -1.000
 3841.00    0.96927   0.95911   -1.000
 3842.00    0.90940   1.01568   -1.000
 3843.00    1.40784   1.06385   -1.000
 3844.00    1.66360   1.10288   -1.000
 3845.00    1.11258   1.13314   -1.000
 3846.00    0.76886   1.15630   -1.000
 3847.00    1.00726   1.17414    0.000
 3848.00    1.28525   1.18759    0.000
 3849.00    1.65831   1.19734    0.000
 3850.00    2.03356   1.20500    0.000
 3851.00    2.41338   1.21255    0.000
 3852.00    2.50995   1.22006    0.000
 3853.00    2.09565   1.22497    0.000
 3854.00    1.66074   1.22544    0.000
 3855.00    1.19330   1.22293    0.000
 3856.00    1.23465   1.22071    0.000
 3857.00    1.98035   1.22130    0.000
 3858.00    2.48857   1.22438    0.000
 3859.00    2.70743   1.22688    0.000
 3860.00    2.54318   1.22785    0.000
 3861.00    1.96740   1.22931    0.000
 3862.00    1.54231   1.23228    0.000
 3863.00    1.26002   1.23539    0.000
 3864.00    0.98102   1.23683    0.000
 3865.00    0.70478   1.23453    0.000
 3866.00    0.38564   1.22773    0.000
 3867.00    0.03496   1.21902    0.000
 3868.00    0.18676   1.21253    0.000
 3869.00    0.66311   1.20923    0.000
 3870.00    1.11503   1.20453    0.000
 3871.00    1.55315   1.19506    0.000
 3872.00    1.21310   1.18503    0.000
 3873.00    0.49025   1.18118    0.000
 3874.00    0.54585   1.18367    0.000
 3875.00    0.93247   1.18529    0.000
 3876.00    0.86860   1.17970    0.000
 3877.00    0.64064   1.16653    0.000
 3878.00    0.80823   1.14949    0.000
 3879.00    1.09775   1.13179    0.000
 3880.00    1.12576   1.11339    0.000
 3881.00    1.08664   1.09102   -1.000
 3882.00    0.78675   1.06154   -1.000
 3883.00    0.43235   1.02415   -1.000
 3884.00    0.47504   0.97816   -1.000
 3885.00    0.58320   0.92122   -1.000
 3886.00    0.87783   0.85269   -1.000
 3887.00    1.19555   0.77904   -1.000
 3888.00    1.67588   0.71473   -1.000
 3889.00    2.17012   0.67789   -1.000
 3890.00    1.49678   0.68236   -1.000
 3891.00    0.76524   0.72734   -1.000
 3892.00    1.27785   0.79636   -1.000
 3893.00    1.80419   0.86988   -1.000
 3894.00    1.90096   0.93592   -1.000
 3895.00    1.96117   0.99120   -1.000
 3896.00    1.27343   1.03688   -1.000
 3897.00    0.65847   1.07454   -1.000
 3898.00    0.90420   1.10469   -1.000
 3899.00    1.11607   1.12823   -1.000
 3900.00    1.05198   1.14789   -1.000
 3901.00    0.94752   1.16605   -1.000
 3902.00    0.59641   1.18260   -1.000
 3903.00    0.34116   1.19579   -1.000
 3904.00    0.54720   1.20505   -1.000
 3905.00    0.77973   1.21172   -1.000
 3906.00    1.11603   1.21822   -1.000
 3907.00    1.28051   1.22728   -1.000
 3908.00    0.88498   1.23914   -1.000
 3909.00    0.61316   1.25092   -1.000
 3910.00    0.68248   1.25961   -1.000
 3911.00    0.81990   1.26418   -1.000
 3912.00    1.11812   1.26549   -1.000
 3913.00    1.24625   1.26523   -1.000
 3914.00    1.02728   1.26486   -1.000
 3915.00    0.84818   1.26464   -1.000
 3916.00    0.73989   1.26287   -1.000
 3917.00    0.80438   1.25701   -1.000
 3918.00    1.13733   1.24636   -1.000
 3919.00    1.36777   1.23313   -1.000
 3920.00    1.45832   1.22255   -1.000
 3921.00    1.09881   1.21929   -1.000
 3922.00    0.19865   1.22326   -1.000
 3923.00    0.22477   1.22858   -1.000
 3924.00    1.23187   1.22809   -1.000
 3925.00    1.61676   1.21966   -1.000
 3926.00    1.42038   1.20645   -1.000
 3927.00    1.47509   1.19479   -1.000
 3928.00    1.73659   1.18936   -1.000
 3929.00    1.54277   1.18752   -1.000
 3930.00    1.01887   1.18266   -1.000
 3931.00    0.75419   1.17032   -1.000
 3932.00    0.65448   1.15080   -1.000
 3933.00    0.95286   1.13048   -1.000
 3934.00    1.47278   1.11951   -1.000
 3935.00    1.35958   1.12516   -1.000
 3936.00    0.93989   1.14515   -1.000
 3937.00    0.80985   1.17069   -1.000
 3938.00    0.80091   1.19410   -1.000
 3939.00    1.09588   1.21174   -1.000
 3940.00    1.49956   1.22346   -1.000
 3941.00    1.45803   1.23017   -1.000
 3942.00    1.28193   1.23252   -1.000
 3943.00    1.66124   1.23203   -1.000
 3944.00    2.18006   1.23117   -1.000
 3945.00    2.44156   1.23212   -1.000
 3946.00    2.65059   1.23505   -1.000
 3947.00    2.12977   1.23783   -1.000
 3948.00    1.49208   1.23890   -1.000
 3949.00    1.37065   1.23870   -1.000
 3950.00    1.31086   1.23775   -1.000
 3951.00    0.87993   1.23540   -1.000
 3952.00    0.41878   1.23091   -1.000
 3953.00    0.80880   1.22455   -1.000
 3954.00    1.23793   1.21712   -1.000
 3955.00    1.76251   1.20856   -1.000
 3956.00    2.26871   1.19835   -1.000
 3957.00    1.75080   1.18690   -1.000
 3958.00    1.23519   1.17450   -1.000
 3959.00    0.76337   1.15911   -1.000
 3960.00    0.33218   1.13726    0.000
 3961.00    0.35877   1.10681    0.000
 3962.00    0.39198   1.06839    0.000
 3963.00    0.47727   1.02399    0.000
 3964.00    0.50363   0.97414    0.000
 3965.00    0.18035   0.91844    0.000
 3966.00   -0.08936   0.85696    0.000
 3967.00   -0.10759   0.78969    0.000
 3968.00    0.02694   0.72045    0.000
 3969.00    0.74687   0.66138    0.000
 3970.00    1.28265   0.62928    0.000
 3971.00    1.22980   0.63626    0.000
 3972.00    1.15309   0.68107    0.000
 3973.00    1.01176   0.74962    0.000
 3974.00    0.80110   0.82552    0.000
 3975.00    0.42950   0.89768    0.000
 3976.00    0.10418   0.96105    0.000
 3977.00   -0.12814   1.01476    0.000
 3978.00    0.03988   1.05986    0.000
 3979.00    0.90820   1.09722    0.000
 3980.00    1.19878   1.12700    0.000
 3981.00    0.60487   1.14943   -1.000
 3982.00    0.40201   1.16585   -1.000
 3983.00    0.72503   1.17916   -1.000
 3984.00    0.83249   1.19203   -1.000
 3985.00    0.68467   1.20526   -1.000
 3986.00    0.67704   1.21826   -1.000
 3987.00    0.81578   1.23000   -1.000
 3988.00    1.05479   1.23990   -1.000
 3989.00    1.38615   1.24759   -1.000
 3990.00    1.75488   1.25322   -1.000
 3991.00    2.15397   1.25793   -1.000
 3992.00    1.82621   1.26211   -1.000
 3993.00    0.97914   1.26467   -1.000
 3994.00    0.66343   1.26460   -1.000
 3995.00    0.68088   1.26239   -1.000
 3996.00    0.72692   1.26018   -1.000
 3997.00    0.78861   1.25991   -1.000
 3998.00    1.35003   1.26253   -1.000
 3999.00    2.14950   1.26795   -1.000
 4000.00    2.33713   1.27450   -1.000
 4001.00    2.27327   1.27928   -1.000
 4002.00    1.66105   1.28016   -1.000
 4003.00    0.85622   1.27659   -1.000
 4004.00    0.33398   1.26906   -1.000
 4005.00   -0.10454   1.25869    0.000
 4006.00   -0.12105   1.24738    0.000
 4007.00   -0.03389   1.23657    0.000
 4008.00    0.30318   1.22698   -1.000
 4009.00    0.68994   1.22093   -1.000
 4010.00    1.15545   1.22291   -1.000
 4011.00    1.63320   1.23473   -1.000
 4012.00    1.86347   1.25191   -1.000
 4013.00    2.06529   1.26810   -1.000
 4014.00    1.88900   1.27996   -1.000
 4015.00    1.68348   1.28714   -1.000
 4016.00    1.33452   1.29082   -1.000
 4017.00    0.97952   1.29233   -1.000
 4018.00    1.34624   1.29296   -1.000
 4019.00    1.70519   1.29318   -1.000
 4020.00    1.43556   1.29144   -1.000
 4021.00    1.16891   1.28479   -1.000
 4022.00    0.95488   1.27049   -1.000
 4023.00    0.77104   1.24641   -1.000
 4024.00    0.91193   1.21287   -1.000
 4025.00    0.96457   1.17703   -1.000
 4026.00    0.34726   1.15248   -1.000
 4027.00   -0.15182   1.15145    0.000
 4028.00    0.03105   1.17358   -1.000
 4029.00    0.22408   1.20465   -1.000
 4030.00    0.46365   1.22998   -1.000
 4031.00    0.67464   1.24445   -1.000
 4032.00    0.77841   1.25138   -1.000
 4033.00    0.99068   1.25621   -1.000
 4034.00    1.54309   1.26253   -1.000
 4035.00    1.88316   1.27186   -1.000
 4036.00    1.65835   1.28380   -1.000
 4037.00    1.58272   1.29605   -1.000
 4038.00    1.84777   1.30496   -1.000
 4039.00    1.76635   1.30814   -1.000
 4040.00    1.00000   1.30641   -1.000
 4041.00    0.85950   1.30213   -1.000
 4042.00    1.79715   1.29658   -1.000
 4043.00    2.06914   1.28895   -1.000
 4044.00    1.33696   1.27847   -1.000
 4045.00    0.84874   1.26799   -1.000
 4046.00    0.68392   1.26307   -1.000
 4047.00    0.70523   1.26696   -1.000
 4048.00    0.94383   1.27729   -1.000
 4049.00    0.98732   1.28830   -1.000
 4050.00    0.82994   1.29575   -1.000
 4051.00    0.85705   1.29840   -1.000
 4052.00    1.05169   1.29671   -1.000
 4053.00    1.15025   1.29217   -1.000
 4054.00    1.17189   1.28671   -1.000
 4055.00    0.91350   1.28191   -1.000
 4056.00    0.45792   1.27847   -1.000
 4057.00    0.65629   1.27632   -1.000
 4058.00    1.25861   1.27554   -1.000
 4059.00    1.25380   1.27645   -1.000
 4060.00    0.92138   1.27782   -1.000
 4061.00    1.06057   1.27676   -1.000
 4062.00    1.42080   1.27147   -1.000
 4063.00    1.49704   1.26378   -1.000
 4064.00    1.45855   1.25819   -1.000
 4065.00    1.46539   1.25772   -1.000
 4066.00    1.48786   1.26112   -1.000
 4067.00    1.49060   1.26497   -1.000
 4068.00    1.48761   1.26725   -1.000
 4069.00    1.71176   1.26687   -1.000
 4070.00    1.99047   1.26293   -1.000
 4071.00    2.02884   1.25670   -1.000
 4072.00    2.02064   1.25146   -1.000
 4073.00    1.46062   1.24928   -1.000
 4074.00    0.81745   1.24797   -1.000
 4075.00    0.68398   1.24340   -1.000
 4076.00    0.60688   1.23543   -1.000
 4077.00    0.75980   1.22836   -1.000
 4078.00    0.92957   1.22691   -1.000
 4079.00    0.84044   1.23230   -1.000
 4080.00    0.74139   1.24136   -1.000
 4081.00    0.79364   1.24882   -1.000
 4082.00    0.85614   1.25061   -1.000
 4083.00    1.27311   1.24607   -1.000
 4084.00    1.64052   1.23799   -1.000
 4085.00    1.19104   1.23022   -1.000
 4086.00    0.81854   1.22501   -1.000
 4087.00    1.23823   1.22188   -1.000
 4088.00    1.64503   1.21830   -1.000
 4089.00    1.95716   1.21167   -1.000
 4090.00    2.26719   1.20063   -1.000
 4091.00    2.56540   1.18522   -1.000
 4092.00    2.59907   1.16574    0.000
 4093.00    1.44888   1.14199    0.000
 4094.00    0.64186   1.11302    0.000
 4095.00    1.09518   1.07719    0.000
 4096.00    1.26369   1.03373    0.000
 4097.00    0.55629   0.98322    0.000
 4098.00    0.15376   0.92572    0.000
 4099.00    0.54809   0.86135    0.000
 4100.00    0.80908   0.79460    0.000
 4101.00    0.77064   0.73808    0.000
 4102.00    0.84392   0.70941    0.000
 4103.00    1.13457   0.72034    0.000
 4104.00    1.36199   0.76694    0.000
 4105.00    1.48213   0.83309    0.000
 4106.00    1.43359   0.90204    0.000
 4107.00    1.13431   0.96317    0.000
 4108.00    0.98486   1.01295    0.000
 4109.00    1.03118   1.05235    0.000
 4110.00    1.02520   1.08394    0.000
 4111.00    0.95902   1.11068    0.000
 4112.00    0.97601   1.13478    0.000
 4113.00    1.07742   1.15699   -1.000
 4114.00    1.16436   1.17675   -1.000
 4115.00    1.23835   1.19301   -1.000
 4116.00    1.14602   1.20456   -1.000
 4117.00    0.92246   1.21005   -1.000
 4118.00    0.69672   1.20862   -1.000
 4119.00    0.46947   1.20188   -1.000
 4120.00    0.58028   1.19479   -1.000
 4121.00    0.89681   1.19348   -1.000
 4122.00    1.19213   1.20157   -1.000
 4123.00    1.47619   1.21697   -1.000
 4124.00    1.50018   1.23341   -1.000
 4125.00    1.40424   1.24485   -1.000
 4126.00    1.41832   1.24785   -1.000
 4127.00    1.47608   1.24308   -1.000
 4128.00    1.32369   1.23432   -1.000
 4129.00    1.10018   1.22597   -1.000
 4130.00    1.19683   1.22023   -1.000
 4131.00    1.38457   1.21740   -1.000
 4132.00    1.80217   1.21867   -1.000
 4133.00    2.27372   1.22500   -1.000
 4134.00    2.27275   1.23560   -1.000
 4135.00    2.18258   1.24801   -1.000
 4136.00    1.66470   1.25922   -1.000
 4137.00    1.08435   1.26696   -1.000
 4138.00    0.89712   1.27056   -1.000
 4139.00    0.75166   1.26970   -1.000
 4140.00    0.78593   1.26201   -1.000
 4141.00    0.83263   1.24415   -1.000
 4142.00    0.80596   1.21643   -1.000
 4143.00    0.77675   1.18716   -1.000
 4144.00    1.20840   1.17050   -1.000
 4145.00    1.62660   1.17583   -1.000
 4146.00    1.57033   1.19877   -1.000
 4147.00    1.51709   1.22574   -1.000
 4148.00    1.51072   1.24583   -1.000
 4149.00    1.49179   1.25600   -1.000
 4150.00    1.34905   1.25913   -1.000
 4151.00    1.25474   1.25919   -1.000
 4152.00    1.50432   1.25813   -1.000
 4153.00    1.69350   1.25647   -1.000
 4154.00    1.55292   1.25509   -1.000
 4155.00    1.48251   1.25511   -1.000
 4156.00    1.71880   1.25719   -1.000
 4157.00    1.83844   1.26133   -1.000
 4158.00    1.53853   1.26688   -1.000
 4159.00    1.33839   1.27245   -1.000
 4160.00    1.43932   1.27642   -1.000
 4161.00    1.46973   1.27809   -1.000
 4162.00    1.31903   1.27796   -1.000
 4163.00    1.18150   1.27703   -1.000
 4164.00    1.07306   1.27574   -1.000
 4165.00    0.89617   1.27375   -1.000
 4166.00    0.58817   1.27049   -1.000
 4167.00    0.58114   1.26596   -1.000
 4168.00    1.07712   1.26128   -1.000
 4169.00    1.39615   1.25780   -1.000
 4170.00    1.45596   1.25531   -1.000
 4171.00    1.40192   1.25188   -1.000
 4172.00    1.20122   1.24661   -1.000
 4173.00    1.19293   1.24177   -1.000
 4174.00    1.40298   1.24047   -1.000
 4175.00    1.31922   1.24313   -1.000
 4176.00    0.94142   1.24723   -1.000
 4177.00    0.88360   1.25031   -1.000
 4178.00    1.10824   1.25227   -1.000
 4179.00    1.44025   1.25461   -1.000
 4180.00    1.85578   1.25797   -1.000
 4181.00    1.82565   1.26131   -1.000
 4182.00    1.49075   1.26364   -1.000
 4183.00    1.21307   1.26529   -1.000
 4184.00    0.96970   1.26674   -1.000
 4185.00    1.14000   1.26725   -1.000
 4186.00    1.52666   1.26577   -1.000
 4187.00    1.55853   1.26259    0.083
 4188.00    1.42947   1.25989    0.034
 4189.00    1.42600   1.25978    0.029
 4190.00    1.47153   1.26253    0.028
 4191.00    1.52578   1.26717    0.028
 4192.00    1.58292   1.27241    0.029
 4193.00    1.42834   1.27658    0.029
 4194.00    1.21474   1.27756    0.029
 4195.00    1.31346   1.27400    0.029
 4196.00    1.48383   1.26675    0.029
 4197.00    1.53326   1.25825    0.029
 4198.00    1.56047   1.25094    0.029
 4199.00    1.38198   1.24626    0.029
 4200.00    1.17441   1.24455    0.028
 4201.00    1.15419   1.24516    0.028
 4202.00    1.15307   1.24740    0.029
 4203.00    1.39180   1.25114    0.028
 4204.00    1.64614   1.25617    0.028
 4205.00    1.63987   1.26194    0.028
 4206.00    1.62516   1.26792    0.028
 4207.00    1.33991   1.27342    0.028
 4208.00    1.07062   1.27755    0.027
 4209.00    1.27034   1.27979    0.028
 4210.00    1.44252   1.28055    0.029
 4211.00    1.21380   1.28073    0.029
 4212.00    1.02296   1.28027    0.028
 4213.00    1.19033   1.27775    0.029
 4214.00    1.31989   1.27239    0.029
 4215.00    1.18946   1.26612    0.029
 4216.00    1.09317   1.26295    0.029
 4217.00    1.17835   1.26580    0.029
 4218.00    1.26043   1.27353    0.028
 4219.00    1.32931   1.28204    0.028
 4220.00    1.39984   1.28745    0.028
 4221.00    1.47619   1.28771    0.028
 4222.00    1.53101   1.28224    0.028
 4223.00    1.52207   1.27114    0.028
 4224.00    1.48264   1.25534    0.028
 4225.00    1.36629   1.23742    0.029
 4226.00    1.25207   1.22247    0.028
 4227.00    1.14249   1.21664    0.028
 4228.00    1.15864   1.22313    0.028
 4229.00    1.41189   1.23876    0.028
 4230.00    1.54658   1.25548    0.028
 4231.00    1.48608   1.26597    0.028
 4232.00    1.41157   1.26783    0.027
 4233.00    1.31684   1.26374    0.027
 4234.00    1.25581   1.25848    0.027
 4235.00    1.23756   1.25511    0.027
 4236.00    1.20284   1.25392    0.026
 4237.00    1.14972   1.25441    0.026
 4238.00    1.23188   1.25650    0.026
 4239.00    1.44754   1.26001    0.026
 4240.00    1.42026   1.26439    0.026
 4241.00    1.18156   1.26904    0.026
 4242.00    1.12390   1.27376    0.027
 4243.00    1.20504   1.27855    0.027
 4244.00    1.40708   1.28261    0.027
 4245.00    1.69059   1.28381    0.027
 4246.00    1.65893   1.28043    0.028
 4247.00    1.44117   1.27323    0.028
 4248.00    1.26029   1.26491    0.028
 4249.00    1.09840   1.25792    0.028
 4250.00    0.93398   1.25348    0.028
 4251.00    0.76845   1.25182    0.028
 4252.00    0.95364   1.25203    0.028
 4253.00    1.27332   1.25249    0.028
 4254.00    1.42617   1.25283    0.028
 4255.00    1.52466   1.25462    0.028
 4256.00    1.35922   1.25869    0.027
 4257.00    1.12173   1.26279    0.027
 4258.00    1.28377   1.26328    0.027
 4259.00    1.53534   1.25920    0.027
 4260.00    1.38524   1.25399    0.027
 4261.00    1.16331   1.25271    0.028
 4262.00    1.29716   1.25774    0.028
 4263.00    1.47970   1.26656    0.028
 4264.00    1.45819   1.27307    0.027
 4265.00    1.41674   1.27182    0.027
 4266.00    1.08734   1.26206    0.027
 4267.00    0.74033   1.24870    0.027
 4268.00    0.96579   1.23845    0.026
 4269.00    1.20645   1.23377    0.026
 4270.00    1.39914   1.23156    0.026
 4271.00    1.58207   1.22845    0.026
 4272.00    1.50715   1.22499    0.026
 4273.00    1.43025   1.22397    0.026
 4274.00    1.32600   1.22685    0.026
 4275.00    1.20359   1.23334    0.026
 4276.00    0.91613   1.24263    0.026
 4277.00    0.69879   1.25310    0.026
 4278.00    0.94851   1.26186    0.026
 4279.00    1.15291   1.26614    0.026
 4280.00    1.12268   1.26550    0.026
 4281.00    1.08021   1.26196    0.026
 4282.00    0.98669   1.25811   -2.000
 4283.00    1.05239   1.25529   -2.000
 4284.00    1.66774   1.25322   -2.000
 4285.00    2.10486   1.25109   -2.000
 4286.00    2.02391   1.24830   -2.000
 4287.00    1.79659   1.24420   -2.000
 4288.00    1.20624   1.23807   -2.000
 4289.00    0.85145   1.23061   -2.000
 4290.00    1.00026   1.22501   -2.000
 4291.00    1.22491   1.22475   -2.000
 4292.00    1.59036   1.22980   -2.000
 4293.00    1.82342   1.23616   -2.000
 4294.00    1.84176   1.23962   -2.000
 4295.00    1.74387   1.23908   -2.000
 4296.00    1.48065   1.23549   -2.000
 4297.00    1.37707   1.22920   -2.000
 4298.00    1.47330   1.21983    0.028
 4299.00    1.47086   1.20836    0.028
 4300.00    1.35957   1.19787    0.028
 4301.00    1.36932   1.19121    0.028
 4302.00    1.49684   1.18893    0.028
 4303.00    1.52748   1.18971    0.027
 4304.00    1.47500   1.19176    0.027
 4305.00    1.37944   1.19324    0.027
 4306.00    1.25132   1.19235    0.027
 4307.00    1.22006   1.18865    0.027
 4308.00    1.25313   1.18436    0.027
 4309.00    1.07629   1.18307    0.027
 4310.00    0.77738   1.18673    0.027
 4311.00    0.93285   1.19422    0.027
 4312.00    1.31861   1.20276    0.027
 4313.00    1.39868   1.21082    0.027
 4314.00    1.34463   1.21944    0.026
 4315.00    1.37901   1.23045    0.026
 4316.00    1.44671   1.24343    0.027
 4317.00    1.39241   1.25494    0.027
 4318.00    1.29911   1.26111    0.027
 4319.00    1.31981   1.26060    0.027
 4320.00    1.37097   1.25486    0.027
 4321.00    1.34504   1.24565    0.027
 4322.00    1.30223   1.23307    0.027
 4323.00    1.21377   1.21614    0.027
 4324.00    1.11736   1.19564    0.027
 4325.00    1.23524   1.17606    0.027
 4326.00    1.38147   1.16387    0.028
 4327.00    1.30219   1.16211    0.027
 4328.00    1.20184   1.16701    0.027
 4329.00    1.21336   1.17054    0.027
 4330.00    1.23127   1.16659    0.000
 4331.00    1.34998   1.15431    0.000
 4332.00    1.47057   1.13607    0.000
 4333.00    1.53730   1.11354    0.000
 4334.00    1.60481   1.08565    0.000
 4335.00    1.69069   1.04899    0.000
 4336.00    1.76976   0.99991    0.000
 4337.00    1.76011   0.93762    0.000
 4338.00    1.68972   0.86705    0.000
 4339.00    1.08867   0.79958    0.000
 4340.00    0.58654   0.75123    0.000
 4341.00    0.72336   0.73618    0.000
 4342.00    0.83841   0.75862    0.000
 4343.00    0.84362   0.80961    0.000
 4344.00    0.90209   0.87322    0.000
 4345.00    1.17791   0.93579    0.000
 4346.00    1.43585   0.99085    0.000
 4347.00    1.63330   1.03705    0.000
 4348.00    1.74947   1.07451    0.000
 4349.00    1.63373   1.10262    0.000
 4350.00    1.45820   1.12066    0.000
 4351.00    1.13691   1.13072    0.026
 4352.00    1.02461   1.13891    0.026
 4353.00    1.35185   1.15150    0.026
 4354.00    1.56187   1.17016    0.026
 4355.00    1.55759   1.19148    0.026
 4356.00    1.46336   1.21055    0.026
 4357.00    1.22544   1.22430    0.026
 4358.00    1.20692   1.23252    0.026
 4359.00    1.49600   1.23751    0.026
 4360.00    1.63359   1.24260    0.026
 4361.00    1.58428   1.24985    0.026
 4362.00    1.58412   1.25882    0.025
 4363.00    1.63740   1.26761    0.025
 4364.00    1.63840   1.27436    0.025
 4365.00    1.58924   1.27744    0.025
 4366.00    1.45333   1.27598    0.026
 4367.00    1.24403   1.27102    0.026
 4368.00    1.16652   1.26556    0.026
 4369.00    1.18717   1.26255    0.026
 4370.00    1.21718   1.26241    0.025
 4371.00    1.25332   1.26303    0.025
 4372.00    1.26106   1.26168    0.025
 4373.00    1.25253   1.25731    0.025
 4374.00    1.28748   1.25162    0.025
 4375.00    1.34413   1.24855    0.026
 4376.00    1.43974   1.25135    0.025
 4377.00    1.55216   1.25968    0.025
 4378.00    1.46583   1.26940    0.025
 4379.00    1.30594   1.27536    0.025
 4380.00    1.13264   1.27407    0.025
 4381.00    0.95512   1.26408    0.025
 4382.00    0.97386   1.24594    0.025
 4383.00    1.04395   1.22337    0.025
 4384.00    1.21908   1.20259    0.025
 4385.00    1.41665   1.18844    0.025
 4386.00    1.51940   1.18085    0.025
 4387.00    1.60611   1.17725    0.025
 4388.00    1.50072   1.17799    0.025
 4389.00    1.37078   1.18597    0.025
 4390.00    1.44356   1.20214    0.025
 4391.00    1.53443   1.22280    0.025
 4392.00    1.50730   1.24168    0.025
 4393.00    1.47388   1.25466    0.025
 4394.00    1.47170   1.26169    0.025
 4395.00    1.47029   1.26605    0.025
 4396.00    1.48255   1.27155    0.025
 4397.00    1.49368   1.27858    0.025
 4398.00    1.47980   1.28393    0.025
 4399.00    1.45843   1.28447    0.025
 4400.00    1.34442   1.28077    0.025
 4401.00    1.23022   1.27623    0.025
 4402.00    1.11434   1.27232    0.025
 4403.00    1.03252   1.26748    0.025
 4404.00    1.16420   1.26059    0.025
 4405.00    1.28485   1.25390    0.025
 4406.00    1.35120   1.25107    0.025
 4407.00    1.41322   1.25344    0.025
 4408.00    1.45793   1.25972    0.025
 4409.00    1.49387   1.26827    0.025
 4410.00    1.50072   1.27799    0.025
 4411.00    1.50037   1.28703    0.025
 4412.00    1.47986   1.29205    0.025
 4413.00    1.45669   1.28983    0.025
 4414.00    1.42713   1.28036    0.025
 4415.00    1.42614   1.26808    0.025
 4416.00    1.48429   1.25954    0.025
 4417.00    1.44065   1.25945    0.025
 4418.00    1.21380   1.26761    0.025
 4419.00    1.06349   1.27925    0.025
 4420.00    1.03366   1.28878    0.025
 4421.00    1.04284   1.29293    0.025
 4422.00    1.10595   1.29220    0.025
 4423.00    1.10669   1.28985    0.025
 4424.00    1.03159   1.28845    0.025
 4425.00    1.06038   1.28837    0.025
 4426.00    1.20056   1.28848    0.025
 4427.00    1.44322   1.28805    0.025
 4428.00    1.78280   1.28723    0.025
 4429.00    1.79811   1.28593    0.025
 4430.00    1.54302   1.28416    0.026
 4431.00    1.32901   1.28215    0.026
 4432.00    1.14516   1.27940    0.025
 4433.00    1.16550   1.27500    0.026
 4434.00    1.31748   1.26867    0.026
 4435.00    1.28199   1.26249    0.026
 4436.00    1.14074   1.26028    0.026
 4437.00    1.19144   1.26455    0.026
 4438.00    1.33635   1.27426    0.026
 4439.00    1.47211   1.28471    0.026
 4440.00    1.60397   1.29037    0.026
 4441.00    1.64733   1.28870    0.026
 4442.00    1.65853   1.28212    0.026
 4443.00    1.61379   1.27646    0.026
 4444.00    1.55186   1.27656    0.026
 4445.00    1.46533   1.28254    0.026
 4446.00    1.37250   1.29071    0.026
 4447.00    1.52667   1.29723    0.026
 4448.00    1.73232   1.30055    0.027
 4449.00    1.46967   1.30118    0.026
 4450.00    1.13008   1.30031    0.025
 4451.00    1.14057   1.29831    0.025
 4452.00    1.19423   1.29464    0.025
 4453.00    1.32784   1.28869    0.025
 4454.00    1.46826   1.28063    0.026
 4455.00    1.22234   1.27258    0.025
 4456.00    0.95735   1.26730    0.025
 4457.00    1.03837   1.26555    0.025
 4458.00    1.12590   1.26578    0.025
 4459.00    1.27642   1.26568    0.025
 4460.00    1.41698   1.26442    0.025
 4461.00    1.35575   1.26314    0.000
 4462.00    1.28918   1.26397    0.000
 4463.00    1.15992   1.26762    0.000
 4464.00    1.06796   1.27252    0.000
 4465.00    1.27857   1.27571    0.000
 4466.00    1.45303   1.27415    0.000
 4467.00    1.40747   1.26600    0.000
 4468.00    1.35710   1.25039    0.000
 4469.00    1.28368   1.22794    0.000
 4470.00    1.26066   1.20294    0.000
 4471.00    1.43444   1.18481    0.000
 4472.00    1.60706   1.18364    0.000
 4473.00    1.77595   1.20217    0.000
 4474.00    1.86897   1.23357    0.000
 4475.00    1.75329   1.26611    0.000
 4476.00    1.61935   1.29059    0.000
 4477.00    1.44242   1.30348    0.000
 4478.00    1.31660   1.30395    0.000
 4479.00    1.29489   1.29247    0.000
 4480.00    1.29123   1.27345    0.000
 4481.00    1.31956   1.25659    0.000
 4482.00    1.47114   1.25190    0.024
 4483.00    1.81386   1.26251    0.025
 4484.00    1.93161   1.28293    0.025
 4485.00    1.74293   1.30307    0.025
 4486.00    1.56194   1.31511    0.025
 4487.00    1.39018   1.31705    0.024
 4488.00    1.33833   1.31133    0.024
 4489.00    1.41326   1.30311    0.024
 4490.00    1.37270   1.29745    0.024
 4491.00    1.22445   1.29664    0.024
 4492.00    1.09853   1.29906    0.024
 4493.00    0.99095   1.30094    0.024
 4494.00    1.05769   1.30020    0.024
 4495.00    1.25056   1.29812    0.024
 4496.00    1.35215   1.29777    0.024
 4497.00    1.39576   1.30121    0.024
 4498.00    1.44913   1.30731    0.024
 4499.00    1.50791   1.31312    0.024
 4500.00    1.54950   1.31662    0.024
 4501.00    1.58277   1.31869    0.024
 4502.00    1.53391   1.32233    0.024
 4503.00    1.45078   1.32889    0.024
 4504.00    1.64707   1.33658    0.024
 4505.00    1.94308   1.34172    0.024
 4506.00    1.85774   1.34198    0.024
 4507.00    1.65743   1.33855    0.024
 4508.00    1.51770   1.33460    0.024
 4509.00    1.39315   1.33246    0.024
 4510.00    1.50695   1.33210    0.024
 4511.00    1.66920   1.33131    0.024
 4512.00    1.67141   1.32828    0.024
 4513.00    1.64808   1.32307    0.024
 4514.00    1.63145   1.31746    0.024
 4515.00    1.61560   1.31367    0.023
 4516.00    1.46341   1.31231    0.023
 4517.00    1.30018   1.31271    0.023
 4518.00    1.31517   1.31428    0.023
 4519.00    1.33826   1.31630    0.023
 4520.00    1.34453   1.31795    0.023
 4521.00    1.35282   1.31780    0.023
 4522.00    1.47412   1.31445    0.023
 4523.00    1.58713   1.30846    0.023
 4524.00    1.54451   1.30116    0.023
 4525.00    1.50393   1.29370    0.023
 4526.00    1.48621   1.28631    0.023
 4527.00    1.47191   1.27864    0.023
 4528.00    1.48430   1.27179    0.023
 4529.00    1.46246   1.26793    0.023
 4530.00    1.23822   1.26822    0.022
 4531.00    1.09328   1.27193    0.022
 4532.00    1.31952   1.27603    0.023
 4533.00    1.49919   1.27773    0.023
 4534.00    1.50087   1.27777    0.023
 4535.00    1.47767   1.27971    0.023
 4536.00    1.37510   1.28698    0.023
 4537.00    1.35696   1.29875    0.023
 4538.00    1.56693   1.31014    0.023
 4539.00    1.68975   1.31654    0.023
 4540.00    1.61065   1.31694    0.022
 4541.00    1.52226   1.31447    0.022
 4542.00    1.41524   1.31256    0.022
 4543.00    1.38604   1.31191    0.023
 4544.00    1.49268   1.31144    0.022
 4545.00    1.54288   1.31004    0.022
 4546.00    1.50685   1.30726    0.022
 4547.00    1.49976   1.30315    0.022
 4548.00    1.53154   1.29766    0.023
 4549.00    1.52647   1.29180    0.023
 4550.00    1.47785   1.28781    0.000
 4551.00    1.44558   1.28621    0.000
 4552.00    1.43036   1.28604    0.000
 4553.00    1.43663   1.28592    0.000
 4554.00    1.46266   1.28554    0.000
 4555.00    1.43259   1.28741    0.000
 4556.00    1.35704   1.29353    0.000
 4557.00    1.30025   1.30305    0.000
 4558.00    1.25684   1.31359    0.000
 4559.00    1.32003   1.32249    0.000
 4560.00    1.44994   1.32782    0.000
 4561.00    1.50333   1.32919    0.000
 4562.00    1.51488   1.32642    0.000
 4563.00    1.52200   1.32022    0.000
 4564.00    1.52702   1.31327    0.000
 4565.00    1.49165   1.30894    0.000
 4566.00    1.43971   1.30964    0.000
 4567.00    1.35550   1.31464    0.000
 4568.00    1.25997   1.32055    0.000
 4569.00    1.31632   1.32395    0.000
 4570.00    1.41755   1.32310    0.000
 4571.00    1.48548   1.31956    0.000
 4572.00    1.54526   1.31692    0.000
 4573.00    1.50922   1.31717    0.000
 4574.00    1.45420   1.32006    0.000
 4575.00    1.49379   1.32362    0.000
 4576.00    1.54803   1.32535    0.000
 4577.00    1.54818   1.32437    0.000
 4578.00    1.54214   1.32068    0.000
 4579.00    1.51081   1.31468    0.000
 4580.00    1.47753   1.30793    0.000
 4581.00    1.51242   1.30247    0.000
 4582.00    1.55015   1.29929    0.000
 4583.00    1.52210   1.29815    0.000
 4584.00    1.49246   1.29864    0.000
 4585.00    1.41890   1.30063    0.000
 4586.00    1.35075   1.30450    0.000
 4587.00    1.37742   1.31007    0.000
 4588.00    1.41100   1.31565    0.000
 4589.00    1.51858   1.31934    0.000
 4590.00    1.60894   1.31975    0.000
 4591.00    1.56907   1.31702    0.000
 4592.00    1.54037   1.31288    0.000
 4593.00    1.57584   1.30916    0.000
 4594.00    1.59873   1.30676    0.000
 4595.00    1.56413   1.30577    0.000
 4596.00    1.49975   1.30611    0.000
 4597.00    1.32392   1.30758    0.000
 4598.00    1.20370   1.30982    0.000
 4599.00    1.25738   1.31150    0.000
 4600.00    1.33721   1.31157    0.000
 4601.00    1.48644   1.31073    0.000
 4602.00    1.56496   1.31019    0.000
 4603.00    1.48238   1.31099    0.000
 4604.00    1.41676   1.31312    0.000
 4605.00    1.38463   1.31601    0.000
 4606.00    1.41362   1.31998    0.000
 4607.00    1.54771   1.32547    0.000
 4608.00    1.60975   1.33214    0.000
 4609.00    1.56332   1.33810    0.000
 4610.00    1.49729   1.34125    0.000
 4611.00    1.40534   1.34091    0.000
 4612.00    1.45288   1.33819    0.000
 4613.00    1.66298   1.33528    0.000
 4614.00    1.82427   1.33393    0.000
 4615.00    1.93539   1.33382    0.000
 4616.00    1.89644   1.33389    0.000
 4617.00    1.72143   1.33290    0.000
 4618.00    1.62986   1.33011    0.000
 4619.00    1.60494   1.32736    0.000
 4620.00    1.58189   1.32662    0.000
 4621.00    1.56015   1.32845    0.000
 4622.00    1.56224   1.33247    0.000
 4623.00    1.57903   1.33677    0.000
 4624.00    1.58108   1.33932    0.000
 4625.00    1.57521   1.33988    0.000
 4626.00    1.55176   1.33882    0.000
 4627.00    1.52010   1.33648    0.000
 4628.00    1.58057   1.33338    0.000
 4629.00    1.67818   1.33068    0.000
 4630.00    1.71135   1.32947    0.000
 4631.00    1.72236   1.32965    0.000
 4632.00    1.70553   1.33010    0.000
 4633.00    1.68064   1.32939    0.000
 4634.00    1.71110   1.32686    0.000
 4635.00    1.75482   1.32336    0.000
 4636.00    1.61350   1.31992    0.000
 4637.00    1.43644   1.31648    0.000
 4638.00    1.31047   1.31306    0.000
 4639.00    1.19217   1.31030    0.000
 4640.00    1.22449   1.30956    0.000
 4641.00    1.27340   1.31124    0.000
 4642.00    1.39464   1.31392    0.000
 4643.00    1.52114   1.31572    0.000
 4644.00    1.53688   1.31467    0.000
 4645.00    1.54844   1.30978    0.000
 4646.00    1.42660   1.30237    0.000
 4647.00    1.30829   1.29514    0.000
 4648.00    1.34558   1.29093    0.000
 4649.00    1.38881   1.29194    0.000
 4650.00    1.52919   1.29779    0.000
 4651.00    1.64906   1.30597    0.000
 4652.00    1.55901   1.31352    0.000
 4653.00    1.45197   1.31774    0.000
 4654.00    1.22078   1.31802    0.000
 4655.00    1.03361   1.31643    0.000
 4656.00    1.09255   1.31604    0.000
 4657.00    1.15676   1.31995    0.000
 4658.00    1.24451   1.32818    0.000
 4659.00    1.31213   1.33739    0.000
 4660.00    1.30599   1.34327    0.000
 4661.00    1.29377   1.34312    0.000
 4662.00    1.26293   1.33748    0.000
 4663.00    1.24139   1.32907    0.000
 4664.00    1.24412   1.32020    0.000
 4665.00    1.29557   1.31095    0.000
 4666.00    1.45621   1.30097    0.000
 4667.00    1.54489   1.29188    0.000
 4668.00    1.49381   1.28689    0.000
 4669.00    1.44732   1.28859    0.000
 4670.00    1.40859   1.29674    0.000
 4671.00    1.41458   1.30731    0.000
 4672.00    1.48691   1.31578    0.000
 4673.00    1.55443   1.32071    0.000
 4674.00    1.61568   1.32310    0.000
 4675.00    1.58460   1.32491    0.000
 4676.00    1.44745   1.32689    0.000
 4677.00    1.39633   1.32777    0.000
 4678.00    1.43239   1.32625    0.000
 4679.00    1.49713   1.32236    0.000
 4680.00    1.58749   1.31769    0.000
 4681.00    1.57132   1.31465    0.000
 4682.00    1.47124   1.31473    0.000
 4683.00    1.34253   1.31739    0.000
 4684.00    1.19400   1.32102    0.000
 4685.00    1.18699   1.32393    0.000
 4686.00    1.26593   1.32504    0.000
 4687.00    1.41923   1.32468    0.000
 4688.00    1.61195   1.32400    0.000
 4689.00    1.62805   1.32342    0.000
 4690.00    1.56288   1.32299    0.000
 4691.00    1.47510   1.32308    0.000
 4692.00    1.37837   1.32409    0.000
 4693.00    1.39006   1.32638    0.000
 4694.00    1.43835   1.33009    0.000
 4695.00    1.40401   1.33364    0.000
 4696.00    1.34621   1.33474    0.000
 4697.00    1.32642   1.33182    0.000
 4698.00    1.31551   1.32533    0.000
 4699.00    1.24624   1.31767    0.000
 4700.00    1.16600   1.31113    0.000
 4701.00    1.23226   1.30702    0.000
 4702.00    1.31984   1.30520    0.000
 4703.00    1.37514   1.30490    0.000
 4704.00    1.42703   1.30581    0.000
 4705.00    1.50589   1.30737    0.000
 4706.00    1.58660   1.30850    0.000
 4707.00    1.56899   1.30827    0.000
 4708.00    1.54802   1.30689    0.000
 4709.00    1.36968   1.30559    0.000
 4710.00    1.20113   1.30497    0.000
 4711.00    1.35931   1.30303    0.000
 4712.00    1.50848   1.29845    0.000
 4713.00    1.51962   1.29341    0.000
 4714.00    1.52385   1.29129    0.000
 4715.00    1.46018   1.29542    0.000
 4716.00    1.40661   1.30634    0.000
 4717.00    1.42442   1.32039    0.000
 4718.00    1.43129   1.33294    0.000
 4719.00    1.37859   1.34221    0.000
 4720.00    1.34473   1.34756    0.000
 4721.00    1.39295   1.34976    0.000
 4722.00    1.43003   1.35015    0.000
 4723.00    1.42715   1.34999    0.000
 4724.00    1.39535   1.34943    0.000
 4725.00    1.27650   1.34724    0.000
 4726.00    1.19845   1.34154    0.000
 4727.00    1.22496   1.33204    0.000
 4728.00    1.28355   1.32128    0.000
 4729.00    1.41287   1.31261    0.000
 4730.00    1.47456   1.30859    0.000
 4731.00    1.40694   1.30983    0.000
 4732.00    1.39705   1.31451    0.000
 4733.00    1.48345   1.32032    0.000
 4734.00    1.52437   1.32576    0.000
 4735.00    1.49880   1.32913    0.000
 4736.00    1.43514   1.33029    0.000
 4737.00    1.32252   1.33096    0.000
 4738.00    1.32551   1.33171    0.000
 4739.00    1.45946   1.33267    0.000
 4740.00    1.48775   1.33384    0.000
 4741.00    1.41049   1.33464    0.000
 4742.00    1.31959   1.33553    0.000
 4743.00    1.21667   1.33719    0.000
 4744.00    1.23780   1.33944    0.000
 4745.00    1.35522   1.34197    0.000
 4746.00    1.43178   1.34433    0.000
 4747.00    1.48046   1.34626    0.000
 4748.00    1.48803   1.34783    0.000
 4749.00    1.47102   1.34862    0.000
 4750.00    1.43049   1.34803    0.000
 4751.00    1.37768   1.34602    0.000
 4752.00    1.37628   1.34278    0.000
 4753.00    1.39814   1.33861    0.000
 4754.00    1.46363   1.33433    0.000
 4755.00    1.54610   1.33103    0.000
 4756.00    1.56913   1.32929    0.000
 4757.00    1.57245   1.32934    0.000
 4758.00    1.65174   1.33069    0.000
 4759.00    1.75216   1.33218    0.000
 4760.00    1.57747   1.33210    0.000
 4761.00    1.33985   1.32900    0.021
 4762.00    1.32599   1.32317    0.021
 4763.00    1.35312   1.31606    0.021
 4764.00    1.38014   1.30952    0.021
 4765.00    1.40716   1.30573    0.020
 4766.00    1.38982   1.30565    0.020
 4767.00    1.36799   1.30912    0.020
 4768.00    1.36553   1.31531    0.020
 4769.00    1.36432   1.32228    0.021
 4770.00    1.32689   1.32741    0.021
 4771.00    1.28885   1.32992    0.021
 4772.00    1.49887   1.33105    0.021
 4773.00    1.69380   1.33258    0.021
 4774.00    1.45113   1.33564    0.021
 4775.00    1.22501   1.33961    0.021
 4776.00    1.23807   1.34308    0.021
 4777.00    1.24668   1.34471    0.021
 4778.00    1.21341   1.34410    0.020
 4779.00    1.19531   1.34207    0.020
 4780.00    1.28110   1.33918    0.020
 4781.00    1.37214   1.33561    0.020
 4782.00    1.49097   1.33175    0.020
 4783.00    1.57541   1.32826    0.019
 4784.00    1.51334   1.32536    0.020
 4785.00    1.42803   1.32276    0.020
 4786.00    1.26106   1.32089    0.020
 4787.00    1.13904   1.31994    0.020
 4788.00    1.14982   1.31932    0.020
 4789.00    1.17697   1.31981    0.020
 4790.00    1.24536   1.32194    0.020
 4791.00    1.31798   1.32551    0.020
 4792.00    1.39980   1.33108    0.021
 4793.00    1.44320   1.33838    0.021
 4794.00    1.41432   1.34555    0.021
 4795.00    1.40410   1.35054    0.021
 4796.00    1.42453   1.35155    0.021
 4797.00    1.40092   1.34810    0.021
 4798.00    1.31387   1.34188    0.020
 4799.00    1.29128   1.33588    0.020
 4800.00    1.35037   1.33279    0.021
 4801.00    1.35505   1.33332    0.021
 4802.00    1.29896   1.33594    0.021
 4803.00    1.32734   1.33811    0.021
 4804.00    1.43894   1.33776    0.021
 4805.00    1.52580   1.33499    0.021
 4806.00    1.59118   1.33125    0.021
 4807.00    1.64547   1.32802    0.021
 4808.00    1.69127   1.32657    0.021
 4809.00    1.60060   1.32687    0.021
 4810.00    1.41814   1.32808    0.021
 4811.00    1.38381   1.32952    0.021
 4812.00    1.43679   1.33065    0.021
 4813.00    1.50187   1.33133    0.021
 4814.00    1.57316   1.33203    0.021
 4815.00    1.56848   1.33361    0.021
 4816.00    1.52998   1.33643    0.021
 4817.00    1.40365   1.33985    0.021
 4818.00    1.24374   1.34285    0.021
 4819.00    1.25448   1.34435    0.021
 4820.00    1.32072   1.34348    0.021
 4821.00    1.35415   1.33983    0.021
 4822.00    1.37865   1.33346    0.021
 4823.00    1.34050   1.32627    0.021
 4824.00    1.28835   1.32105    0.021
 4825.00    1.26947   1.31904    0.021
 4826.00    1.25653   1.32002    0.021
 4827.00    1.23791   1.32198    0.021
 4828.00    1.21851   1.32248    0.021
 4829.00    1.12102   1.32111    0.021
 4830.00    1.01594   1.31851    0.021
 4831.00    1.22135   1.31563    0.021
 4832.00    1.44559   1.31385    0.021
 4833.00    1.47216   1.31351    0.021
 4834.00    1.49268   1.31413    0.021
 4835.00    1.36802   1.31512    0.021
 4836.00    1.24846   1.31509    0.021
 4837.00    1.26210   1.31266    0.021
 4838.00    1.28320   1.30764    0.021
 4839.00    1.40626   1.30107    0.021
 4840.00    1.52072   1.29447    0.021
 4841.00    1.55747   1.28881    0.021
 4842.00    1.58440   1.28453    0.020
 4843.00    1.54617   1.28181    0.020
 4844.00    1.51021   1.28006    0.020
 4845.00    1.48597   1.27770    0.020
 4846.00    1.44197   1.27322    0.020
 4847.00    1.31579   1.26548    0.020
 4848.00    1.25291   1.25474    0.000
 4849.00    1.40804   1.24277    0.000
 4850.00    1.49631   1.23053    0.000
 4851.00    1.39071   1.21750    0.000
 4852.00    1.29718   1.20188    0.000
 4853.00    1.23348   1.18094    0.000
 4854.00    1.18817   1.15360    0.000
 4855.00    1.18205   1.12158    0.000
 4856.00    1.21015   1.08609    0.000
 4857.00    1.30164   1.04603    0.000
 4858.00    1.31765   0.99968    0.000
 4859.00    1.21148   0.94665    0.000
 4860.00    1.14139   0.89256    0.000
 4861.00    1.12253   0.85187    0.000
 4862.00    1.10795   0.83833    0.000
 4863.00    1.09871   0.85568    0.000
 4864.00    1.02668   0.89852    0.000
 4865.00    0.88552   0.95419    0.000
 4866.00    0.94202   1.00897    0.000
 4867.00    1.19052   1.05598    0.000
 4868.00    1.27473   1.09362    0.000
 4869.00    1.21824   1.12143    0.000
 4870.00    1.13263   1.14059    0.000
 4871.00    1.02506   1.15503    0.000
 4872.00    1.02201   1.16889    0.000
 4873.00    1.08824   1.18427    0.000
 4874.00    1.12537   1.20152    0.000
 4875.00    1.14562   1.21943    0.020
 4876.00    1.19167   1.23606    0.020
 4877.00    1.25077   1.25062    0.020
 4878.00    1.19477   1.26367    0.020
 4879.00    1.08837   1.27463    0.020
 4880.00    1.20374   1.28184    0.020
 4881.00    1.40245   1.28546    0.020
 4882.00    1.41475   1.28649    0.020
 4883.00    1.36759   1.28560    0.020
 4884.00    1.31292   1.28386    0.020
 4885.00    1.25625   1.28225    0.020
 4886.00    1.05226   1.28119    0.020
 4887.00    0.81612   1.28082    0.020
 4888.00    0.96286   1.28087    0.020
 4889.00    1.17597   1.28041    0.020
 4890.00    1.24925   1.27953    0.020
 4891.00    1.30411   1.28127    0.020
 4892.00    1.35083   1.28857    0.020
 4893.00    1.39680   1.30172    0.020
 4894.00    1.27261   1.31876    0.020
 4895.00    1.13877   1.33509    0.020
 4896.00    0.95411   1.34645    0.020
 4897.00    0.77208   1.35164    0.020
 4898.00    1.00480   1.35105    0.020
 4899.00    1.23226   1.34658    0.020
 4900.00    1.33513   1.34121    0.020
 4901.00    1.43797   1.33661    0.020
 4902.00    1.54058   1.33348    0.020
 4903.00    1.61436   1.33277    0.020
 4904.00    1.43747   1.33461    0.020
 4905.00    1.28724   1.33786    0.019
 4906.00    1.30851   1.34075    0.019
 4907.00    1.33771   1.34111    0.020
 4908.00    1.40675   1.33746    0.020
 4909.00    1.43808   1.33063    0.020
 4910.00    1.31594   1.32391    0.019
 4911.00    1.22474   1.32070    0.019
 4912.00    1.23793   1.32209    0.019
 4913.00    1.25702   1.32714    0.019
 4914.00    1.29292   1.33341    0.019
 4915.00    1.32735   1.33705    0.020
 4916.00    1.35821   1.33437    0.020
 4917.00    1.39229   1.32316    0.019
 4918.00    1.43314   1.30337    0.019
 4919.00    1.42607   1.27780    0.019
 4920.00    1.33154   1.25159    0.019
 4921.00    1.27220   1.23197    0.019
 4922.00    1.26896   1.22425    0.019
 4923.00    1.29466   1.22930    0.019
 4924.00    1.36086   1.24528    0.019
 4925.00    1.40491   1.26841    0.019
 4926.00    1.42168   1.29327    0.019
 4927.00    1.37931   1.31576    0.019
 4928.00    1.27275   1.33421    0.020
 4929.00    1.23967   1.34685    0.020
 4930.00    1.27696   1.35303    0.020
 4931.00    1.40266   1.35321    0.019
 4932.00    1.60300   1.34789    0.020
 4933.00    1.55578   1.33962    0.019
 4934.00    1.32447   1.33204    0.019
 4935.00    1.20903   1.32627    0.019
 4936.00    1.16925   1.32148    0.019
 4937.00    1.09699   1.31675    0.019
 4938.00    1.00615   1.31222    0.019
 4939.00    1.07928   1.31025    0.019
 4940.00    1.23404   1.31338    0.000
 4941.00    1.33306   1.32129    0.000
 4942.00    1.40808   1.33179    0.000
 4943.00    1.45288   1.34168    0.000
 4944.00    1.48652   1.34818    0.000
 4945.00    1.50516   1.35148    0.000
 4946.00    1.51912   1.35345    0.000
 4947.00    1.49187   1.35519    0.000
 4948.00    1.45386   1.35723    0.000
 4949.00    1.42028   1.35975    0.000
 4950.00    1.38764   1.36196    0.000
 4951.00    1.45094   1.36246    0.000
 4952.00    1.53040   1.36069    0.000
 4953.00    1.44610   1.35665    0.000
 4954.00    1.34098   1.34987    0.000
 4955.00    1.18364   1.33966    0.000
 4956.00    1.02167   1.32659    0.000
 4957.00    1.15453   1.31477    0.000
 4958.00    1.30294   1.30961    0.000
 4959.00    1.33358   1.31281    0.000
 4960.00    1.36305   1.32243    0.000
 4961.00    1.47791   1.33427    0.000
 4962.00    1.58373   1.34309    0.000
 4963.00    1.49299   1.34586    0.000
 4964.00    1.41371   1.34301    0.000
 4965.00    1.47510   1.33716    0.000
 4966.00    1.52457   1.33086    0.000
 4967.00    1.47418   1.32585    0.000
 4968.00    1.42562   1.32371    0.000
 4969.00    1.38850   1.32487    0.000
 4970.00    1.35667   1.32858    0.000
 4971.00    1.35075   1.33398    0.000
 4972.00    1.37239   1.34003    0.000
 4973.00    1.50372   1.34567    0.000
 4974.00    1.58226   1.34970    0.000
 4975.00    1.48617   1.35099    0.000
 4976.00    1.40734   1.34917    0.000
 4977.00    1.37672   1.34424    0.000
 4978.00    1.35709   1.33697    0.000
 4979.00    1.36372   1.32829    0.000
 4980.00    1.31918   1.31814    0.000
 4981.00    1.16893   1.30666    0.000
 4982.00    1.09809   1.29571    0.000
 4983.00    1.16994   1.28800    0.000
 4984.00    1.22346   1.28565    0.000
 4985.00    1.24817   1.28981    0.000
 4986.00    1.26906   1.29935    0.000
 4987.00    1.28470   1.31046    0.000
 4988.00    1.26106   1.31928    0.000
 4989.00    1.18972   1.32396    0.000
 4990.00    1.20469   1.32461    0.000
 4991.00    1.31202   1.32331    0.000
 4992.00    1.40072   1.32209    0.000
 4993.00    1.47184   1.32209    0.000
 4994.00    1.46200   1.32401    0.000
 4995.00    1.38478   1.32684    0.000
 4996.00    1.38662   1.32873    0.000
 4997.00    1.44638   1.32848    0.000
 4998.00    1.36448   1.32478    0.000
 4999.00    1.19142   1.31755    0.000
 5000.00    1.23773   1.30873    0.000
 5001.00    1.40754   1.30070    0.000
 5002.00    1.37412   1.29510    0.000
 5003.00    1.24112   1.29160    0.000
 5004.00    1.23592   1.28863    0.000
 5005.00    1.28482   1.28582    0.000
 5006.00    1.20622   1.28481    0.000
 5007.00    1.08138   1.28712    0.000
 5008.00    1.07109   1.29228    0.000
 5009.00    1.09594   1.29795    0.000
 5010.00    1.16449   1.30065    0.000
 5011.00    1.24419   1.29729    0.000
 5012.00    1.12614   1.28766    0.000
 5013.00    0.96700   1.27416    0.000
 5014.00    0.98788   1.26019    0.000
 5015.00    1.03822   1.25024    0.000
 5016.00    1.05771   1.24683    0.000
 5017.00    1.07341   1.24951    0.000
 5018.00    1.12449   1.25703    0.000
 5019.00    1.17857   1.26742    0.000
 5020.00    1.17957   1.27735    0.000
 5021.00    1.17798   1.28527    0.000
 5022.00    1.14202   1.29203    0.000
 5023.00    1.10586   1.29807    0.000
 5024.00    1.09006   1.30295    0.000
 5025.00    1.07447   1.30652    0.000
 5026.00    1.06340   1.30830    0.000
 5027.00    1.06339   1.30884    0.000
 5028.00    1.19264   1.31006    0.000
 5029.00    1.30581   1.31299    0.019
 5030.00    1.28915   1.31775    0.019
 5031.00    1.28163   1.32380    0.019
 5032.00    1.32958   1.32932    0.019
 5033.00    1.36731   1.33182    0.018
 5034.00    1.35616   1.32968    0.018
 5035.00    1.33227   1.32334    0.019
 5036.00    1.25874   1.31471    0.019
 5037.00    1.20583   1.30455    0.019
 5038.00    1.21985   1.29277    0.019
 5039.00    1.20154   1.27960    0.019
 5040.00    1.09451   1.26717    0.019
 5041.00    1.05299   1.26043    0.019
 5042.00    1.16555   1.26361    0.019
 5043.00    1.24896   1.27609    0.019
 5044.00    1.27309   1.29397    0.019
 5045.00    1.28949   1.31055    0.019
 5046.00    1.29221   1.31905    0.019
 5047.00    1.27468   1.31817    0.019
 5048.00    1.22580   1.31185    0.019
 5049.00    1.21050   1.30468    0.019
 5050.00    1.24088   1.29977    0.020
 5051.00    1.27644   1.29912    0.020
 5052.00    1.31821   1.30254    0.019
 5053.00    1.33678   1.30766    0.019
 5054.00    1.33086   1.31167    0.019
 5055.00    1.30165   1.31433    0.019
 5056.00    1.25075   1.31707    0.019
 5057.00    1.25729   1.32116    0.019
 5058.00    1.31097   1.32651    0.020
 5059.00    1.30561   1.33309    0.020
 5060.00    1.25761   1.33944    0.019
 5061.00    1.19904   1.34300    0.019
 5062.00    1.13378   1.34193    0.019
 5063.00    1.16724   1.33597    0.019
 5064.00    1.25542   1.32687    0.019
 5065.00    1.36865   1.31801    0.020
 5066.00    1.49396   1.31160    0.020
 5067.00    1.42103   1.30845    0.020
 5068.00    1.26559   1.30873    0.020
 5069.00    1.21947   1.31112    0.020
 5070.00    1.21229   1.31308    0.020
 5071.00    1.25313   1.31365    0.020
 5072.00    1.30841   1.31382    0.020
 5073.00    1.18546   1.31399    0.019
 5074.00    1.01799   1.31378    0.019
 5075.00    1.14351   1.31344    0.019
 5076.00    1.32840   1.31269    0.019
 5077.00    1.28185   1.30949    0.020
 5078.00    1.19852   1.30237    0.020
 5079.00    1.15716   1.29334    0.020
 5080.00    1.12077   1.28582    0.019
 5081.00    1.20834   1.28183    0.019
 5082.00    1.30588   1.28229    0.019
 5083.00    1.32171   1.28739    0.019
 5084.00    1.33386   1.29526    0.019
 5085.00    1.26886   1.30311    0.019
 5086.00    1.20380   1.30962    0.019
 5087.00    1.18114   1.31485    0.018
 5088.00    1.15806   1.31901    0.018
 5089.00    1.12714   1.32218    0.018
 5090.00    1.10519   1.32498    0.018
 5091.00    1.18307   1.32808    0.018
 5092.00    1.25464   1.33117    0.018
 5093.00    1.27700   1.33301    0.019
 5094.00    1.29225   1.33232    0.019
 5095.00    1.26563   1.32818    0.018
 5096.00    1.23994   1.32038    0.018
 5097.00    1.21858   1.31007    0.018
 5098.00    1.19802   1.29995    0.019
 5099.00    1.18050   1.29349    0.018
 5100.00    1.20119   1.29250    0.018
 5101.00    1.34341   1.29596    0.018
 5102.00    1.45297   1.30137    0.018
 5103.00    1.47444   1.30611    0.018
 5104.00    1.44025   1.30836    0.019
 5105.00    1.27740   1.30741    0.019
 5106.00    1.15117   1.30398    0.018
 5107.00    1.09821   1.29990    0.018
 5108.00    1.07749   1.29657    0.018
 5109.00    1.11295   1.29459    0.018
 5110.00    1.11748   1.29525    0.018
 5111.00    1.07484   1.29893    0.018
 5112.00    1.10352   1.30430    0.018
 5113.00    1.22778   1.31037    0.018
 5114.00    1.25289   1.31665    0.019
 5115.00    1.16100   1.32252    0.018
 5116.00    1.11831   1.32779    0.018
 5117.00    1.12682   1.33202    0.019
 5118.00    1.19382   1.33396    0.019
 5119.00    1.31452   1.33251    0.019
 5120.00    1.36535   1.32713    0.019
 5121.00    1.35967   1.31821    0.018
 5122.00    1.35300   1.30707    0.018
 5123.00    1.34562   1.29609    0.018
 5124.00    1.30300   1.28758    0.018
 5125.00    1.23836   1.28234    0.018
 5126.00    1.23515   1.27990    0.018
 5127.00    1.26548   1.27968    0.018
 5128.00    1.21488   1.28096    0.018
 5129.00    1.12590   1.28320    0.018
 5130.00    1.15063   1.28658    0.019
 5131.00    1.22191   1.29092    0.019
 5132.00    1.16983   1.29564    0.019
 5133.00    1.07461   1.30055    0.019
 5134.00    1.11857   1.30521    0.019
 5135.00    1.20356   1.30782    0.018
 5136.00    1.20517   1.30734    0.019
 5137.00    1.18641   1.30402    0.019
 5138.00    1.29947   1.29865    0.019
 5139.00    1.43856   1.29329    0.019
 5140.00    1.38232   1.28942    0.019
 5141.00    1.29595   1.28622    0.019
 5142.00    1.32297   1.28373    0.019
 5143.00    1.36291   1.28261    0.019
 5144.00    1.34721   1.28182    0.019
 5145.00    1.32727   1.28101    0.019
 5146.00    1.26058   1.28119    0.019
 5147.00    1.19197   1.28213    0.019
 5148.00    1.29174   1.28318    0.019
 5149.00    1.38586   1.28373    0.019
 5150.00    1.18364   1.28338    0.019
 5151.00    0.99630   1.28225    0.019
 5152.00    1.06677   1.28102    0.019
 5153.00    1.12841   1.28068    0.019
 5154.00    1.09610   1.28292    0.019
 5155.00    1.08271   1.28869    0.019
 5156.00    1.21165   1.29718    0.020
 5157.00    1.31042   1.30660    0.020
 5158.00    1.23638   1.31485    0.020
 5159.00    1.16570   1.32059    0.020
 5160.00    1.11036   1.32280    0.020
 5161.00    1.08164   1.32089    0.019
 5162.00    1.15219   1.31517    0.019
 5163.00    1.17943   1.30546    0.019
 5164.00    1.07150   1.29010    0.019
 5165.00    0.98478   1.26868    0.019
 5166.00    0.95426   1.24380    0.019
 5167.00    0.92630   1.22045    0.019
 5168.00    0.90415   1.20406    0.019
 5169.00    0.93038   1.19664    0.019
 5170.00    1.05186   1.19502    0.019
 5171.00    1.10776   1.19513    0.019
 5172.00    1.05112   1.19742    0.019
 5173.00    0.98614   1.20471    0.019
 5174.00    0.90863   1.21816    0.018
 5175.00    0.88789   1.23677    0.018
 5176.00    0.94213   1.25802    0.018
 5177.00    0.99625   1.27674    0.018
 5178.00    1.05021   1.28769    0.018
 5179.00    1.09624   1.28924    0.018
 5180.00    1.13415   1.28214    0.018
 5181.00    1.13197   1.26691    0.018
 5182.00    1.09353   1.24611    0.018
 5183.00    1.05628   1.22740    0.017
 5184.00    1.01998   1.21910    0.017
 5185.00    1.00824   1.22393    0.017
 5186.00    1.01374   1.23922    0.017
 5187.00    1.05251   1.25947    0.017
 5188.00    1.11174   1.27819    0.017
 5189.00    1.10270   1.28994    0.018
 5190.00    1.05696   1.29228    0.000
 5191.00    1.03751   1.28749    0.000
 5192.00    1.03032   1.28089    0.000
 5193.00    1.09485   1.27587    0.000
 5194.00    1.18822   1.27352    0.000
 5195.00    1.22381   1.27532    0.000
 5196.00    1.23956   1.28109    0.000
 5197.00    1.21654   1.28844    0.000
 5198.00    1.18232   1.29566    0.000
 5199.00    1.20701   1.30170    0.000
 5200.00    1.24576   1.30530    0.000
 5201.00    1.21305   1.30543    0.000
 5202.00    1.16659   1.30181    0.000
 5203.00    1.15699   1.29373    0.000
 5204.00    1.15290   1.28211    0.000
 5205.00    1.13018   1.26976    0.000
 5206.00    1.10541   1.25909    0.000
 5207.00    1.01760   1.25122    0.000
 5208.00    0.92525   1.24814    0.000
 5209.00    1.04657   1.25124    0.000
 5210.00    1.17588   1.25947    0.000
 5211.00    1.13342   1.27107    0.019
 5212.00    1.09082   1.28405    0.018
 5213.00    1.07246   1.29525    0.018
 5214.00    1.05393   1.30173    0.018
 5215.00    1.03246   1.30367    0.018
 5216.00    1.02167   1.30386    0.018
 5217.00    1.11965   1.30521    0.019
 5218.00    1.21871   1.30924    0.019
 5219.00    1.32563   1.31567    0.020
 5220.00    1.40359   1.32259    0.019
 5221.00    1.32015   1.32658    0.019
 5222.00    1.24576   1.32473    0.019
 5223.00    1.21164   1.31605    0.019
 5224.00    1.17587   1.30163    0.019
 5225.00    1.13409   1.28431    0.019
 5226.00    1.11393   1.26949    0.019
 5227.00    1.15990   1.26306    0.019
 5228.00    1.18854   1.26666    0.019
 5229.00    1.17207   1.27747    0.019
 5230.00    1.15576   1.29086    0.019
 5231.00    1.13980   1.30117    0.019
 5232.00    1.13926   1.30493    0.019
 5233.00    1.16863   1.30383    0.019
 5234.00    1.18803   1.30228    0.019
 5235.00    1.19058   1.30385    0.019
 5236.00    1.24247   1.30957    0.019
 5237.00    1.36744   1.31807    0.019
 5238.00    1.40770   1.32662    0.019
 5239.00    1.33768   1.33319    0.019
 5240.00    1.28616   1.33716    0.018
 5241.00    1.25588   1.33878    0.018
 5242.00    1.22516   1.33906    0.018
 5243.00    1.19402   1.33893    0.018
 5244.00    1.20892   1.33770    0.018
 5245.00    1.26489   1.33326    0.018
 5246.00    1.22495   1.32557    0.018
 5247.00    1.10961   1.31693    0.018
 5248.00    1.09138   1.30869    0.018
 5249.00    1.14029   1.30150    0.018
 5250.00    1.17542   1.29738    0.018
 5251.00    1.20218   1.29719    0.018
 5252.00    1.17599   1.29933    0.018
 5253.00    1.12178   1.30208    0.018
 5254.00    1.10935   1.30566    0.018
 5255.00    1.11610   1.31119    0.018
 5256.00    1.15796   1.31864    0.018
 5257.00    1.21369   1.32670    0.018
 5258.00    1.25236   1.33315    0.018
 5259.00    1.28528   1.33514    0.018
 5260.00    1.27426   1.33013    0.018
 5261.00    1.25079   1.31762    0.018
 5262.00    1.19302   1.29958    0.018
 5263.00    1.12723   1.27970    0.019
 5264.00    1.10162   1.26173    0.019
 5265.00    1.08354   1.24883    0.019
 5266.00    1.01508   1.24236    0.019
 5267.00    0.93931   1.23983    0.019
 5268.00    0.89670   1.23743    0.019
 5269.00    0.85758   1.23577    0.019
 5270.00    0.99318   1.23811    0.019
 5271.00    1.14069   1.24511    0.019
 5272.00    1.12436   1.25559    0.019
 5273.00    1.10254   1.26820    0.020
 5274.00    1.06774   1.28028    0.019
 5275.00    1.03996   1.29052    0.019
 5276.00    1.23748   1.30041    0.019
 5277.00    1.41835   1.31077    0.019
 5278.00    1.34570   1.32004    0.019
 5279.00    1.26812   1.32593    0.019
 5280.00    1.14248   1.32677    0.019
 5281.00    1.05123   1.32269    0.019
 5282.00    1.20219   1.31622    0.019
 5283.00    1.31032   1.31179    0.019
 5284.00    1.18627   1.31328    0.019
 5285.00    1.08686   1.32099    0.019
 5286.00    1.09460   1.33202    0.019
 5287.00    1.11407   1.34302    0.019
 5288.00    1.17549   1.35184    0.019
 5289.00    1.24887   1.35736    0.019
 5290.00    1.35815   1.35948    0.020
 5291.00    1.41763   1.35896    0.020
 5292.00    1.34976   1.35654    0.019
 5293.00    1.31018   1.35230    0.019
 5294.00    1.33287   1.34537    0.019
 5295.00    1.30591   1.33508    0.019
 5296.00    1.18421   1.32223    0.019
 5297.00    1.15893   1.30981    0.019
 5298.00    1.29418   1.30133    0.019
 5299.00    1.34574   1.29832    0.019
 5300.00    1.27513   1.30042    0.019
 5301.00    1.19640   1.30688    0.019
 5302.00    1.10724   1.31640    0.018
 5303.00    1.12920   1.32703    0.018
 5304.00    1.27682   1.33686    0.019
 5305.00    1.34392   1.34458    0.019
 5306.00    1.33072   1.34964    0.018
 5307.00    1.33200   1.35256    0.018
 5308.00    1.34599   1.35442    0.018
 5309.00    1.35385   1.35603    0.018
 5310.00    1.35696   1.35741    0.018
 5311.00    1.35049   1.35799    0.018
 5312.00    1.33748   1.35688    0.017
 5313.00    1.30800   1.35375    0.017
 5314.00    1.26869   1.34866    0.018
 5315.00    1.30116   1.34238    0.018
 5316.00    1.37104   1.33668    0.018
 5317.00    1.43388   1.33317    0.018
 5318.00    1.49354   1.33186    0.017
 5319.00    1.42350   1.33187    0.017
 5320.00    1.30307   1.33230    0.018
 5321.00    1.23931   1.33163    0.018
 5322.00    1.19429   1.32837    0.018
 5323.00    1.21828   1.32230    0.018
 5324.00    1.26142   1.31459    0.018
 5325.00    1.22891   1.30507    0.018
 5326.00    1.17916   1.29260    0.018
 5327.00    1.16275   1.27860    0.018
 5328.00    1.15243   1.26829    0.018
 5329.00    1.15312   1.26585    0.018
 5330.00    1.15535   1.27169    0.018
 5331.00    1.11074   1.28383    0.018
 5332.00    1.06139   1.29916    0.018
 5333.00    1.23556   1.31404    0.018
 5334.00    1.42407   1.32545    0.019
 5335.00    1.28509   1.33230    0.019
 5336.00    1.13703   1.33509    0.019
 5337.00    1.26678   1.33425    0.018
 5338.00    1.39363   1.32954    0.018
 5339.00    1.43763   1.32190    0.018
 5340.00    1.47481   1.31466    0.019
 5341.00    1.41428   1.31097    0.019
 5342.00    1.35979   1.31131    0.019
 5343.00    1.36191   1.31434    0.019
 5344.00    1.37962   1.31777    0.019
 5345.00    1.50367   1.32000    0.019
 5346.00    1.58560   1.32044    0.019
 5347.00    1.44518   1.31947    0.019
 5348.00    1.32463   1.31862    0.019
 5349.00    1.28843   1.32007    0.019
 5350.00    1.25350   1.32466    0.019
 5351.00    1.22301   1.33150    0.019
 5352.00    1.19194   1.33948    0.019
 5353.00    1.15918   1.34807    0.019
 5354.00    1.17127   1.35632    0.019
 5355.00    1.29606   1.36315    0.018
 5356.00    1.39070   1.36822    0.018
 5357.00    1.42007   1.37145    0.019
 5358.00    1.43665   1.37248    0.019
 5359.00    1.42920   1.37074    0.018
 5360.00    1.46017   1.36605    0.018
 5361.00    1.55413   1.35910    0.018
 5362.00    1.56799   1.35122    0.018
 5363.00    1.46662   1.34346    0.018
 5364.00    1.44186   1.33661    0.018
 5365.00    1.51399   1.33120    0.018
 5366.00    1.48441   1.32687    0.018
 5367.00    1.34141   1.32232    0.018
 5368.00    1.26132   1.31608   -2.000
 5369.00    1.24309   1.30789   -2.000
 5370.00    1.16930   1.29988   -2.000
 5371.00    1.04733   1.29589   -2.000
 5372.00    0.99925   1.29867   -2.000
 5373.00    1.00762   1.30800   -2.000
 5374.00    1.09810   1.32122   -2.000
 5375.00    1.24372   1.33442   -2.000
 5376.00    1.38044   1.34436   -2.000
 5377.00    1.51194   1.34990   -2.000
 5378.00    1.59270   1.35140   -2.000
 5379.00    1.64744   1.35003   -2.000
 5380.00    1.57129   1.34707   -2.000
 5381.00    1.43698   1.34359   -2.000
 5382.00    1.37443   1.34036   -2.000
 5383.00    1.33928   1.33840    0.018
 5384.00    1.26386   1.33821    0.018
 5385.00    1.17539   1.33912    0.018
 5386.00    1.19052   1.33993    0.018
 5387.00    1.23379   1.33943    0.018
 5388.00    1.27187   1.33686    0.018
 5389.00    1.30878   1.33228    0.018
 5390.00    1.25238   1.32672    0.018
 5391.00    1.17940   1.32121    0.018
 5392.00    1.26141   1.31630    0.018
 5393.00    1.36444   1.31195    0.018
 5394.00    1.38381   1.30758    0.018
 5395.00    1.39509   1.30248    0.019
 5396.00    1.33349   1.29745    0.019
 5397.00    1.26750   1.29495    0.018
 5398.00    1.17701   1.29606    0.019
 5399.00    1.08699   1.29988    0.019
 5400.00    1.18210   1.30476    0.019
 5401.00    1.27286   1.30845    0.019
 5402.00    1.25126   1.30812    0.018
 5403.00    1.22995   1.30236    0.018
 5404.00    1.21248   1.29296    0.019
 5405.00    1.19771   1.28384    0.019
 5406.00    1.20710   1.27830    0.018
 5407.00    1.22351   1.27712    0.018
 5408.00    1.28628   1.27936    0.018
 5409.00    1.32422   1.28405    0.018
 5410.00    1.23441   1.29082    0.018
 5411.00    1.15344   1.29910    0.018
 5412.00    1.10917   1.30794    0.018
 5413.00    1.09169   1.31651    0.018
 5414.00    1.16623   1.32439    0.018
 5415.00    1.22108   1.33126    0.018
 5416.00    1.21895   1.33662    0.018
 5417.00    1.23699   1.34004    0.017
 5418.00    1.30484   1.34142    0.017
 5419.00    1.33636   1.34086    0.017
 5420.00    1.29054   1.33894    0.017
 5421.00    1.26872   1.33626    0.017
 5422.00    1.29126   1.33299    0.017
 5423.00    1.33942   1.32979    0.017
 5424.00    1.42898   1.32793    0.017
 5425.00    1.45382   1.32784    0.017
 5426.00    1.38692   1.32822    0.017
 5427.00    1.31239   1.32655    0.017
 5428.00    1.22832   1.32152    0.017
 5429.00    1.22847   1.31460    0.017
 5430.00    1.32117   1.30771    0.018
 5431.00    1.37139   1.30167    0.018
 5432.00    1.38042   1.29700    0.018
 5433.00    1.36760   1.29405    0.018
 5434.00    1.33612   1.29325    0.018
 5435.00    1.27023   1.29520    0.018
 5436.00    1.17844   1.30088    0.018
 5437.00    1.16174   1.31077    0.018
 5438.00    1.19472   1.32348    0.018
 5439.00    1.26744   1.33638    0.018
 5440.00    1.36317   1.34695    0.018
 5441.00    1.36329   1.35350    0.018
 5442.00    1.31515   1.35501    0.018
 5443.00    1.28078   1.35085    0.018
 5444.00    1.25242   1.34129    0.018
 5445.00    1.33640   1.32830    0.018
 5446.00    1.46251   1.31591    0.019
 5447.00    1.47143   1.30846    0.018
 5448.00    1.44307   1.30768    0.018
 5449.00    1.37422   1.31239    0.018
 5450.00    1.29461   1.31927    0.019
 5451.00    1.27543   1.32432    0.019
 5452.00    1.26939   1.32456    0.019
 5453.00    1.30122   1.31929    0.018
 5454.00    1.33958   1.31093    0.018
 5455.00    1.28349   1.30411    0.018
 5456.00    1.21501   1.30241    0.018
 5457.00    1.29632   1.30636    0.018
 5458.00    1.39147   1.31364    0.018
 5459.00    1.39635   1.32068    0.018
 5460.00    1.39615   1.32456    0.018
 5461.00    1.32281   1.32404    0.018
 5462.00    1.24824   1.32042    0.018
 5463.00    1.21554   1.31667    0.018
 5464.00    1.18642   1.31485    0.018
 5465.00    1.24154   1.31535    0.018
 5466.00    1.29305   1.31772    0.018
 5467.00    1.29802   1.32086    0.018
 5468.00    1.29577   1.32335    0.017
 5469.00    1.23106   1.32415    0.017
 5470.00    1.18116   1.32310    0.017
 5471.00    1.22622   1.32025    0.017
 5472.00    1.26004   1.31562    0.017
 5473.00    1.23753   1.30969    0.017
 5474.00    1.20838   1.30283    0.017
 5475.00    1.15222   1.29560    0.017
 5476.00    1.10372   1.28990    0.017
 5477.00    1.08099   1.28779    0.017
 5478.00    1.06624   1.28939   -2.000
 5479.00    1.07415   1.29286   -2.000
 5480.00    1.10973   1.29640   -2.000
 5481.00    1.21245   1.29975   -2.000
 5482.00    1.29971   1.30346   -2.000
 5483.00    1.35459   1.30805   -2.000
 5484.00    1.32695   1.31335   -2.000
 5485.00    1.14900   1.31798   -2.000
 5486.00    0.81418   1.32048   -2.000
 5487.00    0.22965   1.32066   -2.000
 5488.00   -0.99662   1.31953   -2.000
 5489.00   -3.11937   1.31848   -2.000
 5490.00   -3.01000   1.31859   -2.000
 5491.00   -0.15650   1.31980   -2.000
 5492.00    1.84916   1.32125   -2.000
 5493.00    2.93600   1.32229   -2.000
 5494.00    2.96985   1.32264   -2.000
 5495.00    1.99715   1.32214   -2.000
 5496.00    1.44629   1.32116   -2.000
 5497.00    1.25099   1.32068   -2.000
 5498.00    1.26673   1.32103   -2.000
 5499.00    1.43909   1.32123   -2.000
 5500.00    1.37190   1.32031   -2.000
 5501.00    1.14854   1.31825   -2.000
 5502.00    1.09659   1.31557    0.018
 5503.00    1.14243   1.31264    0.018
 5504.00    1.12734   1.30946    0.018
 5505.00    1.08197   1.30647    0.018
 5506.00    1.23461   1.30466    0.018
 5507.00    1.47234   1.30446    0.018
 5508.00    1.41686   1.30523    0.018
 5509.00    1.25338   1.30600    0.018
 5510.00    1.22880   1.30556    0.018
 5511.00    1.24756   1.30335    0.018
 5512.00    1.27871   1.30007    0.018
 5513.00    1.31308   1.29737    0.017
 5514.00    1.31278   1.29705    0.017
 5515.00    1.30511   1.30003    0.017
 5516.00    1.22408   1.30615    0.017
 5517.00    1.13073   1.31440    0.018
 5518.00    1.14830   1.32293    0.018
 5519.00    1.17992   1.33003    0.017
 5520.00    1.32551   1.33476    0.017
 5521.00    1.48115   1.33695    0.017
 5522.00    1.43219   1.33688    0.017
 5523.00    1.37253   1.33475    0.017
 5524.00    1.39860   1.33056    0.017
 5525.00    1.42508   1.32441    0.017
 5526.00    1.36145   1.31683    0.017
 5527.00    1.29628   1.30946    0.017
 5528.00    1.19823   1.30465    0.017
 5529.00    1.10981   1.30380    0.017
 5530.00    1.13905   1.30647    0.017
 5531.00    1.16990   1.31085    0.018
 5532.00    1.21412   1.31477    0.017
 5533.00    1.25920   1.31678    0.017
 5534.00    1.30962   1.31692    0.018
 5535.00    1.35606   1.31641    0.018
 5536.00    1.38311   1.31666    0.018
 5537.00    1.38853   1.31847    0.018
 5538.00    1.30802   1.32198    0.018
 5539.00    1.27981   1.32641    0.018
 5540.00    1.42421   1.33042    0.018
 5541.00    1.47559   1.33266    0.018
 5542.00    1.26758   1.33264    0.018
 5543.00    1.19619   1.33098    0.018
 5544.00    1.45088   1.32879    0.019
 5545.00    1.59418   1.32733    0.019
 5546.00    1.50789   1.32774    0.019
 5547.00    1.40314   1.33029    0.018
 5548.00    1.26531   1.33425    0.018
 5549.00    1.26145   1.33840    0.018
 5550.00    1.46770   1.34142    0.018
 5551.00    1.55649   1.34232    0.018
 5552.00    1.48356   1.34084    0.018
 5553.00    1.43002   1.33769    0.018
 5554.00    1.39998   1.33419    0.018
 5555.00    1.34861   1.33136    0.018
 5556.00    1.27444   1.32965    0.018
 5557.00    1.23531   1.32903    0.018
 5558.00    1.22920   1.32903    0.018
 5559.00    1.27641   1.32890    0.017
 5560.00    1.36793   1.32793    0.017
 5561.00    1.38024   1.32574    0.017
 5562.00    1.33460   1.32254    0.017
 5563.00    1.31600   1.31883    0.017
 5564.00    1.31478   1.31509    0.017
 5565.00    1.29669   1.31188    0.017
 5566.00    1.26913   1.30964    0.017
 5567.00    1.25331   1.30838    0.017
 5568.00    1.24321   1.30796    0.017
 5569.00    1.26843   1.30839    0.017
 5570.00    1.30858   1.30923    0.017
 5571.00    1.31947   1.30987    0.017
 5572.00    1.31977   1.31053    0.017
 5573.00    1.31451   1.31169    0.017
 5574.00    1.30754   1.31343    0.017
 5575.00    1.25980   1.31573    0.017
 5576.00    1.20167   1.31837    0.017
 5577.00    1.17786   1.32086    0.017
 5578.00    1.16115   1.32300    0.017
 5579.00    1.27635   1.32455    0.017
 5580.00    1.41306   1.32518    0.018
 5581.00    1.42659   1.32482    0.018
 5582.00    1.42507   1.32331    0.018
 5583.00    1.41480   1.32008    0.018
 5584.00    1.40380   1.31443    0.018
 5585.00    1.36293   1.30605    0.018
 5586.00    1.32062   1.29571    0.018
 5587.00    1.20153   1.28542    0.018
 5588.00    1.08329   1.27759    0.018
 5589.00    1.08350   1.27401    0.018
 5590.00    1.08478   1.27491    0.019
 5591.00    1.10738   1.27901    0.018
 5592.00    1.13110   1.28452    0.018
 5593.00    1.16771   1.29026    0.019
 5594.00    1.21052   1.29596    0.019
 5595.00    1.30309   1.30121    0.019
 5596.00    1.37331   1.30491    0.019
 5597.00    1.30839   1.30612    0.019
 5598.00    1.25761   1.30463    0.019
 5599.00    1.27422   1.30081    0.019
 5600.00    1.30022   1.29588    0.019
 5601.00    1.36270   1.29178    0.019
 5602.00    1.38440   1.29056    0.018
 5603.00    1.27412   1.29356    0.018
 5604.00    1.20458   1.30060    0.018
 5605.00    1.24666   1.31023    0.018
 5606.00    1.29842   1.32036    0.018
 5607.00    1.37290   1.32905    0.017
 5608.00    1.41129   1.33519    0.017
 5609.00    1.37645   1.33867    0.017
 5610.00    1.36413   1.33991    0.017
 5611.00    1.39158   1.33904    0.017
 5612.00    1.41363   1.33534    0.017
 5613.00    1.42731   1.32795    0.017
 5614.00    1.37762   1.31763    0.017
 5615.00    1.24192   1.30717    0.017
 5616.00    1.19785   1.29947    0.017
 5617.00    1.26324   1.29614    0.017
 5618.00    1.26331   1.29714    0.017
 5619.00    1.19456   1.30101    0.017
 5620.00    1.15772   1.30565    0.017
 5621.00    1.15052   1.30898    0.017
 5622.00    1.15403   1.30943    0.017
 5623.00    1.16629   1.30695    0.017
 5624.00    1.21711   1.30321    0.017
 5625.00    1.29573   1.30042    0.018
 5626.00    1.25125   1.30029    0.018
 5627.00    1.12888   1.30352    0.018
 5628.00    1.12097   1.30951    0.018
 5629.00    1.17640   1.31661    0.018
 5630.00    1.22923   1.32303    0.018
 5631.00    1.28079   1.32743    0.018
 5632.00    1.31685   1.32914    0.018
 5633.00    1.34646   1.32822    0.018
 5634.00    1.37088   1.32508    0.018
 5635.00    1.39345   1.32035    0.018
 5636.00    1.31271   1.31495    0.018
 5637.00    1.20097   1.30977    0.018
 5638.00    1.13211   1.30535    0.018
 5639.00    1.07393   1.30191    0.017
 5640.00    1.18868   1.29971    0.017
 5641.00    1.33836   1.29895    0.017
 5642.00    1.29298   1.29955    0.017
 5643.00    1.21671   1.30122    0.017
 5644.00    1.16496   1.30350    0.017
 5645.00    1.11609   1.30588    0.017
 5646.00    1.12897   1.30804    0.017
 5647.00    1.14677   1.30986    0.017
 5648.00    1.23089   1.31142    0.016
 5649.00    1.31796   1.31307    0.016
 5650.00    1.29142   1.31509    0.016
 5651.00    1.26426   1.31719    0.016
 5652.00    1.26949   1.31858    0.016
 5653.00    1.27568   1.31840    0.016
 5654.00    1.29947   1.31620    0.017
 5655.00    1.31677   1.31164    0.017
 5656.00    1.26229   1.30460    0.017
 5657.00    1.20796   1.29619    0.016
 5658.00    1.15469   1.28861    0.016
 5659.00    1.11800   1.28355    0.016
 5660.00    1.17856   1.28159    0.017
 5661.00    1.22440   1.28261    0.017
 5662.00    1.20173   1.28588    0.017
 5663.00    1.18664   1.29038    0.017
 5664.00    1.20040   1.29511    0.017
 5665.00    1.22939   1.29912    0.017
 5666.00    1.30677   1.30180    0.017
 5667.00    1.33447   1.30325    0.017
 5668.00    1.22850   1.30411    0.017
 5669.00    1.18359   1.30529    0.017
 5670.00    1.27955   1.30768    0.017
 5671.00    1.35246   1.31165    0.018
 5672.00    1.37936   1.31664    0.017
 5673.00    1.36243   1.32154    0.017
 5674.00    1.26928   1.32544    0.017
 5675.00    1.22559   1.32789    0.017
 5676.00    1.25724   1.32870    0.018
 5677.00    1.29027   1.32796    0.018
 5678.00    1.32516   1.32602    0.018
 5679.00    1.33963   1.32315    0.018
 5680.00    1.33004   1.31944    0.017
 5681.00    1.34491   1.31525    0.017
 5682.00    1.38519   1.31126    0.017
 5683.00    1.40512   1.30798    0.017
 5684.00    1.40641   1.30550    0.017
 5685.00    1.35272   1.30359    0.017
 5686.00    1.25462   1.30211    0.017
 5687.00    1.23251   1.30130    0.017
 5688.00    1.26440   1.30180    0.016
 5689.00    1.28096   1.30414    0.016
 5690.00    1.28797   1.30834    0.016
 5691.00    1.28298   1.31366    0.016
 5692.00    1.27147   1.31878    0.016
 5693.00    1.29009   1.32244    0.016
 5694.00    1.32297   1.32399    0.016
 5695.00    1.27374   1.32330    0.016
 5696.00    1.19099   1.32064    0.016
 5697.00    1.21213   1.31658    0.016
 5698.00    1.26950   1.31172    0.016
 5699.00    1.35494   1.30649    0.016
 5700.00    1.44863   1.30151    0.017
 5701.00    1.42947   1.29759    0.016
 5702.00    1.38283   1.29519    0.016
 5703.00    1.41726   1.29401    0.017
 5704.00    1.46767   1.29306    0.017
 5705.00    1.38439   1.29111    0.017
 5706.00    1.28059   1.28729    0.017
 5707.00    1.27814   1.28169    0.017
 5708.00    1.28717   1.27558    0.016
 5709.00    1.30230   1.27065    0.017
 5710.00    1.31788   1.26843    0.017
 5711.00    1.25947   1.27003    0.017
 5712.00    1.19805   1.27551    0.016
 5713.00    1.23603   1.28377    0.017
 5714.00    1.27249   1.29328    0.017
 5715.00    1.21416   1.30242    0.017
 5716.00    1.16272   1.31002    0.017
 5717.00    1.22939   1.31585    0.017
 5718.00    1.29325   1.32029    0.017
 5719.00    1.32725   1.32392    0.017
 5720.00    1.35473   1.32721    0.017
 5721.00    1.33328   1.33022    0.016
 5722.00    1.31425   1.33257    0.016
 5723.00    1.30907   1.33377    0.016
 5724.00    1.30684   1.33327    0.016
 5725.00    1.31797   1.33095    0.016
 5726.00    1.33246   1.32757    0.016
 5727.00    1.35948   1.32424    0.016
 5728.00    1.39298   1.32169    0.016
 5729.00    1.44666   1.32003    0.016
 5730.00    1.45536   1.31921    0.016
 5731.00    1.34518   1.31920    0.016
 5732.00    1.25088   1.32003    0.017
 5733.00    1.19260   1.32173    0.017
 5734.00    1.14344   1.32398    0.017
 5735.00    1.11222   1.32606    0.017
 5736.00    1.11929   1.32724    0.017
 5737.00    1.19194   1.32718    0.016
 5738.00    1.26238   1.32613    0.016
 5739.00    1.32948   1.32467    0.016
 5740.00    1.34830   1.32335    0.000
 5741.00    1.30344   1.32251    0.000
 5742.00    1.31983   1.32243    0.000
 5743.00    1.40736   1.32318    0.000
 5744.00    1.42974   1.32436    0.000
 5745.00    1.38542   1.32518    0.000
 5746.00    1.37417   1.32498    0.000
 5747.00    1.39280   1.32385    0.000
 5748.00    1.41988   1.32228    0.000
 5749.00    1.45370   1.32064    0.000
 5750.00    1.47586   1.31878    0.000
 5751.00    1.48985   1.31615    0.000
 5752.00    1.42243   1.31259    0.000
 5753.00    1.30500   1.30910    0.000
 5754.00    1.31010   1.30731    0.000
 5755.00    1.38093   1.30846    0.000
 5756.00    1.36854   1.31238    0.000
 5757.00    1.31739   1.31736    0.000
 5758.00    1.31514   1.32095    0.000
 5759.00    1.33251   1.32138    0.000
 5760.00    1.34246   1.31845    0.000
 5761.00    1.34989   1.31378    0.000
 5762.00    1.32699   1.30999    0.000
 5763.00    1.29537   1.30911    0.000
 5764.00    1.29739   1.31176    0.000
 5765.00    1.30744   1.31710    0.000
 5766.00    1.31455   1.32325    0.000
 5767.00    1.32110   1.32834    0.000
 5768.00    1.31954   1.33132    0.000
 5769.00    1.31677   1.33207    0.000
 5770.00    1.34319   1.33103    0.000
 5771.00    1.37280   1.32895    0.000
 5772.00    1.34271   1.32645    0.000
 5773.00    1.30835   1.32407    0.000
 5774.00    1.29426   1.32227    0.000
 5775.00    1.28092   1.32111    0.000
 5776.00    1.37254   1.32018    0.000
 5777.00    1.46125   1.31855    0.000
 5778.00    1.43016   1.31499    0.000
 5779.00    1.39823   1.30877    0.000
 5780.00    1.35288   1.30044    0.000
 5781.00    1.31224   1.29147    0.000
 5782.00    1.31935   1.28354    0.000
 5783.00    1.32205   1.27804    0.000
 5784.00    1.29274   1.27591    0.000
 5785.00    1.26552   1.27725    0.000
 5786.00    1.24984   1.28142    0.000
 5787.00    1.23875   1.28743    0.000
 5788.00    1.24800   1.29383    0.000
 5789.00    1.25676   1.29931    0.000
 5790.00    1.26370   1.30343    0.000
 5791.00    1.25573   1.30648   -2.000
 5792.00    1.20222   1.30925   -2.000
 5793.00    1.16364   1.31228   -2.000
 5794.00    1.16383   1.31528   -2.000
 5795.00    1.14008   1.31736   -2.000
 5796.00    1.06291   1.31814   -2.000
 5797.00    1.08319   1.31824   -2.000
 5798.00    1.29198   1.31883   -2.000
 5799.00    1.42514   1.32081   -2.000
 5800.00    1.43071   1.32424   -2.000
 5801.00    1.38859   1.32791   -2.000
 5802.00    1.27599   1.33007   -2.000
 5803.00    1.26436   1.32981   -2.000
 5804.00    1.38393   1.32741   -2.000
 5805.00    1.44543   1.32411   -2.000
 5806.00    1.44043   1.32136   -2.000
 5807.00    1.40772   1.32013   -2.000
 5808.00    1.34704   1.32064   -2.000
 5809.00    1.34708   1.32239   -2.000
 5810.00    1.40122   1.32451   -2.000
 5811.00    1.40637   1.32618    0.000
 5812.00    1.37306   1.32672    0.000
 5813.00    1.37230   1.32576    0.000
 5814.00    1.39402   1.32357    0.000
 5815.00    1.41434   1.32117    0.000
 5816.00    1.43382   1.31984    0.000
 5817.00    1.41334   1.32046    0.000
 5818.00    1.37174   1.32313    0.000
 5819.00    1.36244   1.32705    0.000
 5820.00    1.36794   1.33090    0.000
 5821.00    1.36855   1.33356    0.000
 5822.00    1.36722   1.33470    0.000
 5823.00    1.40747   1.33471    0.000
 5824.00    1.46169   1.33422    0.000
 5825.00    1.49591   1.33384    0.000
 5826.00    1.52448   1.33386    0.000
 5827.00    1.53176   1.33426    0.000
 5828.00    1.53407   1.33478    0.000
 5829.00    1.47313   1.33511    0.000
 5830.00    1.40038   1.33502    0.000
 5831.00    1.40161   1.33429    0.000
 5832.00    1.41352   1.33286    0.000
 5833.00    1.38364   1.33100    0.000
 5834.00    1.34938   1.32922    0.000
 5835.00    1.29198   1.32784    0.000
 5836.00    1.23302   1.32704    0.000
 5837.00    1.29155   1.32695    0.000
 5838.00    1.35397   1.32760    0.000
 5839.00    1.41935   1.32896    0.000
 5840.00    1.48252   1.33086    0.000
 5841.00    1.47584   1.33294    0.000
 5842.00    1.46992   1.33451    0.000
 5843.00    1.47531   1.33488    0.000
 5844.00    1.47795   1.33360    0.000
 5845.00    1.45385   1.33081    0.000
 5846.00    1.42533   1.32718    0.000
 5847.00    1.36575   1.32354    0.000
 5848.00    1.31890   1.32040    0.000
 5849.00    1.34086   1.31776    0.000
 5850.00    1.36010   1.31505    0.000
 5851.00    1.36758   1.31166    0.000
 5852.00    1.37212   1.30756    0.000
 5853.00    1.36617   1.30317    0.000
 5854.00    1.36726   1.29886    0.000
 5855.00    1.38945   1.29483    0.000
 5856.00    1.40209   1.29132    0.000
 5857.00    1.39038   1.28875    0.000
 5858.00    1.38119   1.28770    0.000
 5859.00    1.37753   1.28868    0.000
 5860.00    1.34346   1.29161    0.000
 5861.00    1.25149   1.29572    0.000
 5862.00    1.19149   1.29990    0.000
 5863.00    1.18465   1.30315    0.000
 5864.00    1.22655   1.30504    0.000
 5865.00    1.33943   1.30586    0.000
 5866.00    1.36839   1.30633    0.000
 5867.00    1.28985   1.30718    0.000
 5868.00    1.24504   1.30881    0.000
 5869.00    1.23833   1.31091    0.000
 5870.00    1.23942   1.31242    0.000
 5871.00    1.24827   1.31180    0.000
 5872.00    1.24957   1.30764    0.000
 5873.00    1.24425   1.29965    0.000
 5874.00    1.27001   1.28929    0.000
 5875.00    1.31981   1.27930    0.000
 5876.00    1.34358   1.27254    0.000
 5877.00    1.34964   1.27043    0.000
 5878.00    1.37812   1.27278    0.000
 5879.00    1.41996   1.27785    0.000
 5880.00    1.39960   1.28346    0.000
 5881.00    1.34690   1.28801    0.000
 5882.00    1.28133   1.29092    0.000
 5883.00    1.20995   1.29209    0.000
 5884.00    1.19920   1.29108    0.000
 5885.00    1.21195   1.28654    0.000
 5886.00    1.20316   1.27635    0.000
 5887.00    1.18727   1.25887    0.000
 5888.00    1.16937   1.23514    0.000
 5889.00    1.15091   1.20968    0.000
 5890.00    1.13297   1.18858    0.000
 5891.00    1.11514   1.17663    0.000
 5892.00    1.13892   1.17453    0.000
 5893.00    1.17027   1.17842    0.000
 5894.00    1.11523   1.18345    0.000
 5895.00    1.04813   1.18738    0.000
 5896.00    1.04425   1.19128    0.000
 5897.00    1.04672   1.19815    0.000
 5898.00    1.08678   1.21018    0.000
 5899.00    1.12924   1.22666    0.000
 5900.00    1.15429   1.24466    0.000
 5901.00    1.17874   1.26104    0.015
 5902.00    1.17084   1.27390    0.015
 5903.00    1.16395   1.28282    0.015
 5904.00    1.18572   1.28852    0.015
 5905.00    1.20983   1.29215    0.014
 5906.00    1.26736   1.29470    0.015
 5907.00    1.31811   1.29686    0.015
 5908.00    1.30581   1.29889    0.015
 5909.00    1.29082   1.30063    0.015
 5910.00    1.25746   1.30154    0.014
 5911.00    1.23679   1.30101    0.014
 5912.00    1.28286   1.29871    0.015
 5913.00    1.32032   1.29494    0.015
 5914.00    1.32131   1.29061    0.014
 5915.00    1.32117   1.28706    0.014
 5916.00    1.31706   1.28542    0.014
 5917.00    1.31036   1.28608    0.015
 5918.00    1.29602   1.28858    0.015
 5919.00    1.28397   1.29183    0.015
 5920.00    1.27770   1.29483    0.015
 5921.00    1.27682   1.29709    0.015
 5922.00    1.28760   1.29864    0.014
 5923.00    1.31644   1.29985    0.014
 5924.00    1.37916   1.30098    0.015
 5925.00    1.39655   1.30191    0.015
 5926.00    1.33975   1.30218    0.015
 5927.00    1.27488   1.30136    0.015
 5928.00    1.19842   1.29954    0.015
 5929.00    1.17550   1.29741    0.015
 5930.00    1.22019   1.29578    0.015
 5931.00    1.27081   1.29511    0.015
 5932.00    1.32802   1.29523    0.015
 5933.00    1.31779   1.29572    0.015
 5934.00    1.24138   1.29623    0.015
 5935.00    1.23114   1.29684    0.015
 5936.00    1.27817   1.29785    0.015
 5937.00    1.32729   1.29922    0.015
 5938.00    1.37799   1.30032    0.014
 5939.00    1.39466   1.30040    0.014
 5940.00    1.38851   1.29922    0.014
 5941.00    1.39407   1.29729    0.014
 5942.00    1.40651   1.29567    0.014
 5943.00    1.39944   1.29532    0.014
 5944.00    1.38238   1.29638    0.014
 5945.00    1.34676   1.29808    0.014
 5946.00    1.30292   1.29925    0.014
 5947.00    1.28103   1.29913    0.014
 5948.00    1.26751   1.29770    0.014
 5949.00    1.24647   1.29550    0.014
 5950.00    1.22301   1.29326    0.014
 5951.00    1.20943   1.29153    0.014
 5952.00    1.19853   1.29041    0.015
 5953.00    1.23613   1.28960    0.015
 5954.00    1.28449   1.28883    0.015
 5955.00    1.30469   1.28806    0.015
 5956.00    1.31990   1.28747    0.015
 5957.00    1.33213   1.28757    0.015
 5958.00    1.34396   1.28897    0.015
 5959.00    1.34766   1.29203    0.015
 5960.00    1.35058   1.29643    0.015
 5961.00    1.37152   1.30118    0.015
 5962.00    1.39354   1.30512    0.015
 5963.00    1.40860   1.30742    0.015
 5964.00    1.42304   1.30808    0.015
 5965.00    1.36974   1.30771    0.015
 5966.00    1.31875   1.30723    0.015
 5967.00    1.32672   1.30745    0.015
 5968.00    1.33308   1.30870    0.015
 5969.00    1.31766   1.31072    0.014
 5970.00    1.30047   1.31287    0.014
 5971.00    1.26739   1.31437    0.014
 5972.00    1.23856   1.31452    0.013
 5973.00    1.23773   1.31282    0.014
 5974.00    1.23008   1.30919    0.014
 5975.00    1.18752   1.30403    0.014
 5976.00    1.16189   1.29830    0.014
 5977.00    1.20640   1.29331    0.014
 5978.00    1.26166   1.29017    0.014
 5979.00    1.35375   1.28926    0.014
 5980.00    1.41564   1.28995    0.014
 5981.00    1.39030   1.29087    0.014
 5982.00    1.34941   1.29083    0.014
 5983.00    1.27022   1.28947    0.014
 5984.00    1.23145   1.28746    0.014
 5985.00    1.27855   1.28608    0.014
 5986.00    1.31555   1.28633    0.014
 5987.00    1.33391   1.28832    0.014
 5988.00    1.34812   1.29129    0.014
 5989.00    1.35565   1.29432    0.015
 5990.00    1.34585   1.29689    0.015
 5991.00    1.31152   1.29897    0.015
 5992.00    1.27253   1.30081    0.014
 5993.00    1.22773   1.30251    0.014
 5994.00    1.20837   1.30372    0.014
 5995.00    1.21691   1.30389    0.014
 5996.00    1.21099   1.30270    0.014
 5997.00    1.19105   1.30044    0.014
 5998.00    1.20481   1.29790    0.014
 5999.00    1.24732   1.29578    0.014
 6000.00    1.24957   1.29438    0.014
 6001.00    1.22155   1.29356    0.014
 6002.00    1.22557   1.29287    0.014
 6003.00    1.25074   1.29191    0.014
 6004.00    1.27597   1.29046    0.014
 6005.00    1.30122   1.28845    0.014
 6006.00    1.31412   1.28607    0.014
 6007.00    1.32078   1.28388    0.014
 6008.00    1.34806   1.28262    0.014
 6009.00    1.38433   1.28283    0.014
 6010.00    1.38385   1.28428    0.014
 6011.00    1.36961   1.28613    0.014
 6012.00    1.34718   1.28734    0.014
 6013.00    1.32215   1.28737    0.015
 6014.00    1.26849   1.28649    0.015
 6015.00    1.20723   1.28530    0.015
 6016.00    1.21635   1.28413    0.015
 6017.00    1.24073   1.28303    0.015
 6018.00    1.27450   1.28191    0.015
 6019.00    1.30989   1.28080    0.015
 6020.00    1.29717   1.27987    0.015
 6021.00    1.27816   1.27949    0.015
 6022.00    1.26841   1.28007    0.015
 6023.00    1.25950   1.28177    0.015
 6024.00    1.25133   1.28443    0.014
 6025.00    1.24319   1.28777    0.014
 6026.00    1.31309   1.29139    0.014
 6027.00    1.38404   1.29495    0.014
 6028.00    1.38895   1.29823    0.014
 6029.00    1.39397   1.30114    0.014
 6030.00    1.40163   1.30366    0.014
 6031.00    1.40806   1.30584    0.014
 6032.00    1.39872   1.30776    0.014
 6033.00    1.39046   1.30950    0.014
 6034.00    1.39152   1.31103    0.013
 6035.00    1.39530   1.31215    0.013
 6036.00    1.41649   1.31266    0.013
 6037.00    1.43056   1.31239    0.014
 6038.00    1.40899   1.31136    0.014
 6039.00    1.39090   1.30983    0.014
 6040.00    1.38688   1.30832    0.014
 6041.00    1.38618   1.30739    0.014
 6042.00    1.39658   1.30745    0.014
 6043.00    1.40301   1.30857    0.014
 6044.00    1.39820   1.31044    0.014
 6045.00    1.40838   1.31251    0.014
 6046.00    1.45484   1.31429    0.014
 6047.00    1.48642   1.31553    0.014
 6048.00    1.48692   1.31618    0.015
 6049.00    1.45909   1.31629    0.015
 6050.00    1.37981   1.31586    0.014
 6051.00    1.34705   1.31476    0.014
 6052.00    1.38822   1.31286    0.014
 6053.00    1.40516   1.31018    0.014
 6054.00    1.38832   1.30704    0.014
 6055.00    1.37227   1.30400    0.014
 6056.00    1.35719   1.30173    0.014
 6057.00    1.35447   1.30069    0.014
 6058.00    1.36512   1.30093    0.014
 6059.00    1.35290   1.30195    0.014
 6060.00    1.31886   1.30285    0.014
 6061.00    1.31480   1.30261    0.014
 6062.00    1.33596   1.30066    0.014
 6063.00    1.33499   1.29727    0.014
 6064.00    1.31765   1.29359    0.014
 6065.00    1.29737   1.29120    0.014
 6066.00    1.27519   1.29148    0.014
 6067.00    1.29471   1.29482    0.013
 6068.00    1.33797   1.30045    0.013
 6069.00    1.39354   1.30685    0.013
 6070.00    1.45523   1.31253    0.014
 6071.00    1.47704   1.31667    0.014
 6072.00    1.48174   1.31908    0.014
 6073.00    1.43465   1.31988    0.014
 6074.00    1.36852   1.31921    0.014
 6075.00    1.34214   1.31710    0.014
 6076.00    1.32814   1.31365    0.014
 6077.00    1.34973   1.30917    0.014
 6078.00    1.38056   1.30415    0.014
 6079.00    1.45561   1.29922    0.014
 6080.00    1.54001   1.29491    0.014
 6081.00    1.50110   1.29148    0.014
 6082.00    1.44157   1.28902    0.014
 6083.00    1.38738   1.28759    0.014
 6084.00    1.33386   1.28719    0.014
 6085.00    1.33723   1.28765    0.014
 6086.00    1.34560   1.28858    0.014
 6087.00    1.33911   1.28939    0.014
 6088.00    1.33185   1.28956    0.014
 6089.00    1.34395   1.28882    0.014
 6090.00    1.35663   1.28743    0.014
 6091.00    1.38610   1.28612    0.014
 6092.00    1.41346   1.28572    0.014
 6093.00    1.39590   1.28670    0.014
 6094.00    1.38022   1.28895    0.014
 6095.00    1.38730   1.29185    0.014
 6096.00    1.39545   1.29461    0.013
 6097.00    1.41249   1.29654    0.013
 6098.00    1.42317   1.29703    0.013
 6099.00    1.39442   1.29558    0.013
 6100.00    1.36613   1.29189    0.013
 6101.00    1.34005   1.28628    0.014
 6102.00    1.31293   1.28004    0.014
 6103.00    1.28170   1.27525    0.014
 6104.00    1.25195   1.27363    0.014
 6105.00    1.22707   1.27560    0.014
 6106.00    1.20698   1.28005    0.014
 6107.00    1.20023   1.28518    0.014
 6108.00    1.20186   1.28961    0.014
 6109.00    1.22346   1.29284    0.014
 6110.00    1.25139   1.29504    0.014
 6111.00    1.29232   1.29658    0.014
 6112.00    1.32374   1.29781    0.014
 6113.00    1.33813   1.29889    0.014
 6114.00    1.35477   1.29968    0.014
 6115.00    1.37490   1.29982    0.014
 6116.00    1.38968   1.29890    0.014
 6117.00    1.39709   1.29661    0.014
 6118.00    1.41527   1.29276    0.014
 6119.00    1.44650   1.28742    0.014
 6120.00    1.44508   1.28112    0.014
 6121.00    1.40882   1.27498    0.014
 6122.00    1.35126   1.27053    0.014
 6123.00    1.27367   1.26888    0.014
 6124.00    1.22038   1.27006    0.014
 6125.00    1.18727   1.27295    0.013
 6126.00    1.22295   1.27614    0.013
 6127.00    1.30887   1.27880    0.013
 6128.00    1.34034   1.28106    0.013
 6129.00    1.33690   1.28350    0.013
 6130.00    1.32339   1.28636    0.013
 6131.00    1.30422   1.28892    0.013
 6132.00    1.30079   1.28964    0.013
 6133.00    1.30503   1.28683    0.013
 6134.00    1.32823   1.27970    0.013
 6135.00    1.35942   1.26912    0.014
 6136.00    1.34571   1.25769    0.014
 6137.00    1.31579   1.24887    0.014
 6138.00    1.29679   1.24538    0.014
 6139.00    1.28112   1.24773    0.014
 6140.00    1.31485   1.25423    0.015
 6141.00    1.36112   1.26230    0.015
 6142.00    1.38254   1.27012    0.015
 6143.00    1.39884   1.27703    0.015
 6144.00    1.35577   1.28291    0.014
 6145.00    1.30306   1.28747    0.014
 6146.00    1.31464   1.29006    0.014
 6147.00    1.33404   1.29029    0.014
 6148.00    1.34971   1.28846    0.014
 6149.00    1.36507   1.28557    0.014
 6150.00    1.33916   1.28287    0.014
 6151.00    1.31126   1.28124    0.014
 6152.00    1.31888   1.28080    0.014
 6153.00    1.32811   1.28099    0.013
 6154.00    1.40061   1.28101    0.014
 6155.00    1.46933   1.28027    0.014
 6156.00    1.46347   1.27843    0.014
 6157.00    1.44953   1.27511    0.014
 6158.00    1.34231   1.26974    0.014
 6159.00    1.24368   1.26172    0.014
 6160.00    1.21375   1.25110    0.014
 6161.00    1.19196   1.23927    0.014
 6162.00    1.21925   1.22880    0.014
 6163.00    1.23711   1.22245    0.014
 6164.00    1.21017   1.22156    0.014
 6165.00    1.18270   1.22530    0.014
 6166.00    1.15312   1.23112    0.014
 6167.00    1.12572   1.23623    0.014
 6168.00    1.10537   1.23901    0.014
 6169.00    1.09772   1.23975    0.014
 6170.00    1.12480   1.24010    0.014
 6171.00    1.16532   1.24179    0.014
 6172.00    1.23731   1.24544    0.014
 6173.00    1.26723   1.25046    0.014
 6174.00    1.21199   1.25563    0.014
 6175.00    1.16690   1.26001    0.014
 6176.00    1.13970   1.26334    0.014
 6177.00    1.14753   1.26593    0.014
 6178.00    1.20936   1.26822    0.014
 6179.00    1.24843   1.27050    0.014
 6180.00    1.25667   1.27286    0.014
 6181.00    1.24997   1.27515    0.013
 6182.00    1.22543   1.27704    0.013
 6183.00    1.20354   1.27800    0.013
 6184.00    1.18444   1.27751    0.013
 6185.00    1.16725   1.27517    0.013
 6186.00    1.15184   1.27097    0.013
 6187.00    1.18276   1.26525    0.013
 6188.00    1.25158   1.25863    0.013
 6189.00    1.27576   1.25186    0.014
 6190.00    1.26783   1.24594    0.014
 6191.00    1.24582   1.24214    0.014
 6192.00    1.21492   1.24162    0.014
 6193.00    1.21260   1.24482    0.014
 6194.00    1.22608   1.25093    0.014
 6195.00    1.11282   1.25805    0.015
 6196.00    0.93870   1.26402   -2.000
 6197.00    0.50581   1.26732   -2.000
 6198.00   -0.03433   1.26770   -2.000
 6199.00   -0.23565   1.26617   -2.000
 6200.00   -0.31687   1.26449   -2.000
 6201.00    0.42860   1.26422   -2.000
 6202.00    1.42146   1.26599   -2.000
 6203.00    2.11457   1.26936   -2.000
 6204.00    2.73322   1.27324   -2.000
 6205.00    2.64134   1.27662   -2.000
 6206.00    2.40637   1.27890   -2.000
 6207.00    1.95260   1.27986   -2.000
 6208.00    1.46431   1.27939    0.015
 6209.00    1.35143   1.27726    0.014
 6210.00    1.28253   1.27322    0.013
 6211.00    1.31614   1.26718    0.014
 6212.00    1.35789   1.25946    0.014
 6213.00    1.30680   1.25098    0.013
 6214.00    1.25162   1.24309    0.013
 6215.00    1.21526   1.23717    0.013
 6216.00    1.17957   1.23393    0.013
 6217.00    1.16615   1.23314    0.013
 6218.00    1.15351   1.23383    0.013
 6219.00    1.15491   1.23505    0.013
 6220.00    1.15562   1.23634    0.013
 6221.00    1.14870   1.23785    0.013
 6222.00    1.14708   1.23985    0.013
 6223.00    1.18643   1.24233    0.014
 6224.00    1.22618   1.24487    0.014
 6225.00    1.26826   1.24681    0.014
 6226.00    1.28713   1.24741    0.014
 6227.00    1.19836   1.24603    0.014
 6228.00    1.12007   1.24235    0.014
 6229.00    1.08146   1.23682    0.014
 6230.00    1.07390   1.23088    0.014
 6231.00    1.16457   1.22659    0.015
 6232.00    1.24302   1.22578    0.015
 6233.00    1.28863   1.22902    0.014
 6234.00    1.31336   1.23520    0.014
 6235.00    1.29004   1.24199    0.014
 6236.00    1.26116   1.24690    0.013
 6237.00    1.22120   1.24834    0.013
 6238.00    1.21008   1.24614    0.013
 6239.00    1.24903   1.24133    0.013
 6240.00    1.28417   1.23543    0.013
 6241.00    1.31354   1.22982    0.013
 6242.00    1.32381   1.22532    0.013
 6243.00    1.30857   1.22236    0.013
 6244.00    1.26708   1.22118    0.013
 6245.00    1.19471   1.22202    0.013
 6246.00    1.13273   1.22488    0.013
 6247.00    1.08153   1.22929    0.013
 6248.00    1.07000   1.23411    0.013
 6249.00    1.09473   1.23777    0.013
 6250.00    1.10560   1.23888    0.014
 6251.00    1.10531   1.23680    0.014
 6252.00    1.13450   1.23201    0.014
 6253.00    1.18460   1.22578    0.014
 6254.00    1.22226   1.21946    0.014
 6255.00    1.25217   1.21394    0.014
 6256.00    1.25544   1.20964    0.014
 6257.00    1.24423   1.20693    0.014
 6258.00    1.15786   1.20640    0.014
 6259.00    1.03598   1.20870    0.015
 6260.00    0.87268   1.21393    0.015
 6261.00    0.69250   1.22132    0.016
 6262.00    0.73191   1.22940    0.016
 6263.00    0.84774   1.23654    0.016
 6264.00    1.17228   1.24166    0.017
 6265.00    1.55805   1.24460    0.017
 6266.00    1.73862   1.24592    0.016
 6267.00    1.86936   1.24648    0.015
 6268.00    1.81687   1.24692    0.015
 6269.00    1.72841   1.24760    0.014
 6270.00    1.60087   1.24866    0.013
 6271.00    1.46735   1.25013    0.013
 6272.00    1.40835   1.25191    0.013
 6273.00    1.35776   1.25373    0.013
 6274.00    1.33227   1.25526    0.013
 6275.00    1.30867   1.25616    0.013
 6276.00    1.30809   1.25616    0.013
 6277.00    1.30842   1.25512    0.014
 6278.00    1.32374   1.25306    0.014
 6279.00    1.33850   1.25034    0.014
 6280.00    1.32634   1.24770    0.000
 6281.00    1.31525   1.24607    0.000
 6282.00    1.32232   1.24615    0.000
 6283.00    1.32628   1.24813    0.000
 6284.00    1.29749   1.25160    0.000
 6285.00    1.27150   1.25589    0.000
 6286.00    1.26638   1.26030    0.000
 6287.00    1.26127   1.26419    0.000
 6288.00    1.25629   1.26699    0.000
 6289.00    1.25763   1.26823    0.000
 6290.00    1.28756   1.26770    0.000
 6291.00    1.32421   1.26565    0.000
 6292.00    1.38579   1.26266    0.000
 6293.00    1.43219   1.25929    0.000
 6294.00    1.43145   1.25581    0.000
 6295.00    1.41313   1.25222    0.000
 6296.00    1.34847   1.24853    0.000
 6297.00    1.27731   1.24500    0.000
 6298.00    1.19146   1.24202    0.000
 6299.00    1.14456   1.23987    0.000
 6300.00    1.17407   1.23859    0.000
 6301.00    1.21614   1.23816    0.000
 6302.00    1.27966   1.23870    0.000
 6303.00    1.33035   1.24049    0.000
 6304.00    1.36184   1.24369    0.000
 6305.00    1.37645   1.24809    0.000
 6306.00    1.36885   1.25313    0.000
 6307.00    1.33780   1.25795    0.000
 6308.00    1.27956   1.26163    0.000
 6309.00    1.24030   1.26346    0.000
 6310.00    1.22043   1.26315    0.000
 6311.00    1.23963   1.26095    0.000
 6312.00    1.29408   1.25745    0.000
 6313.00    1.32008   1.25331    0.000
 6314.00    1.32348   1.24900    0.000
 6315.00    1.29892   1.24483    0.000
 6316.00    1.25483   1.24112    0.000
 6317.00    1.22982   1.23830    0.000
 6318.00    1.21649   1.23689    0.000
 6319.00    1.21548   1.23729    0.000
 6320.00    1.22105   1.23961    0.000
 6321.00    1.23539   1.24350    0.013
 6322.00    1.25381   1.24832    0.013
 6323.00    1.28920   1.25332    0.013
 6324.00    1.33139   1.25789    0.013
 6325.00    1.34585   1.26164    0.013
 6326.00    1.35085   1.26435    0.013
 6327.00    1.32162   1.26604    0.013
 6328.00    1.28256   1.26693    0.013
 6329.00    1.25821   1.26729    0.013
 6330.00    1.23736   1.26730    0.013
 6331.00    1.27854   1.26687    0.014
 6332.00    1.33159   1.26560    0.014
 6333.00    1.36047   1.26299    0.014
 6334.00    1.38576   1.25886    0.013
 6335.00    1.36386   1.25378    0.013
 6336.00    1.33684   1.24910    0.013
 6337.00    1.33749   1.24629    0.014
 6338.00    1.34011   1.24617    0.014
 6339.00    1.30772   1.24834    0.014
 6340.00    1.27405   1.25146    0.014
 6341.00    1.24873   1.25385    0.014
 6342.00    1.22613   1.25431    0.014
 6343.00    1.29854   1.25264    0.014
 6344.00    1.36640   1.24960    0.013
 6345.00    1.36185   1.24658    0.013
 6346.00    1.35405   1.24493    0.013
 6347.00    1.31352   1.24552    0.013
 6348.00    1.27748   1.24839    0.013
 6349.00    1.27384   1.25283    0.013
 6350.00    1.27718   1.25760    0.013
 6351.00    1.31908   1.26131    0.013
 6352.00    1.35320   1.26295    0.013
 6353.00    1.35294   1.26214    0.013
 6354.00    1.34797   1.25917    0.013
 6355.00    1.32589   1.25477    0.013
 6356.00    1.30497   1.24964    0.013
 6357.00    1.28761   1.24424    0.013
 6358.00    1.26735   1.23881    0.013
 6359.00    1.23963   1.23363    0.013
 6360.00    1.22248   1.22912    0.014
 6361.00    1.22888   1.22582    0.014
 6362.00    1.22739   1.22427    0.014
 6363.00    1.21064   1.22488    0.014
 6364.00    1.19060   1.22774    0.014
 6365.00    1.16501   1.23255    0.014
 6366.00    1.17154   1.23856    0.014
 6367.00    1.22547   1.24469    0.014
 6368.00    1.26599   1.24996    0.014
 6369.00    1.28912   1.25380    0.014
 6370.00    1.31744   1.25638    0.013
 6371.00    1.35169   1.25841    0.013
 6372.00    1.36350   1.26066    0.013
 6373.00    1.35268   1.26344    0.013
 6374.00    1.34394   1.26638    0.013
 6375.00    1.33705   1.26872    0.013
 6376.00    1.33583   1.26976    0.013
 6377.00    1.33906   1.26926    0.013
 6378.00    1.35226   1.26751    0.013
 6379.00    1.37233   1.26519    0.013
 6380.00    1.38167   1.26307    0.013
 6381.00    1.38452   1.26173    0.013
 6382.00    1.37518   1.26140    0.013
 6383.00    1.35940   1.26196    0.013
 6384.00    1.37452   1.26315    0.013
 6385.00    1.40377   1.26467    0.014
 6386.00    1.38191   1.26627    0.014
 6387.00    1.33993   1.26759    0.014
 6388.00    1.31064   1.26817    0.014
 6389.00    1.28560   1.26748    0.013
 6390.00    1.30583   1.26515    0.014
 6391.00    1.33880   1.26125    0.014
 6392.00    1.31549   1.25650    0.014
 6393.00    1.27912   1.25222    0.014
 6394.00    1.25640   1.24972    0.014
 6395.00    1.23621   1.24952    0.014
 6396.00    1.25643   1.25093    0.014
 6397.00    1.28246   1.25236    0.014
 6398.00    1.34686   1.25245    0.014
 6399.00    1.41527   1.25105    0.013
 6400.00    1.41128   1.24942    0.013
 6401.00    1.40243   1.24933    0.013
 6402.00    1.33036   1.25174    0.014
 6403.00    1.25623   1.25613    0.016
 6404.00    1.14287   1.26077    0.032
 6405.00    1.03380   1.26388   -1.000
 6406.00    1.05872   1.26456   -1.000
 6407.00    1.08559   1.26310   -1.000
 6408.00    1.14167   1.26054   -1.000
 6409.00    1.19618   1.25793   -1.000
 6410.00    1.23565   1.25594   -1.000
 6411.00    1.27579   1.25477   -1.000
 6412.00    1.32060   1.25446   -1.000
 6413.00    1.36506   1.25498   -1.000
 6414.00    1.40762   1.25618   -1.000
 6415.00    1.44504   1.25761    0.144
 6416.00    1.46025   1.25857    0.023
 6417.00    1.46563   1.25840    0.014
 6418.00    1.43605   1.25681    0.014
 6419.00    1.41390   1.25427    0.014
 6420.00    1.41400   1.25193    0.014
 6421.00    1.41223   1.25114    0.014
 6422.00    1.40570   1.25284    0.013
 6423.00    1.38991   1.25697    0.013
 6424.00    1.35381   1.26249    0.013
 6425.00    1.32074   1.26785    0.013
 6426.00    1.29342   1.27161    0.013
 6427.00    1.28450   1.27279    0.013
 6428.00    1.30609   1.27110    0.013
 6429.00    1.31600   1.26700    0.013
 6430.00    1.30892   1.26177    0.013
 6431.00    1.31205   1.25717    0.013
 6432.00    1.32820   1.25474    0.013
 6433.00    1.35660   1.25507    0.013
 6434.00    1.39878   1.25743    0.013
 6435.00    1.42222   1.26021    0.013
 6436.00    1.42704   1.26186    0.014
 6437.00    1.41000   1.26173    0.014
 6438.00    1.37380   1.26039    0.014
 6439.00    1.36527   1.25934    0.014
 6440.00    1.37809   1.26006    0.014
 6441.00    1.38435   1.26316    0.014
 6442.00    1.38615   1.26804    0.014
 6443.00    1.38436   1.27328    0.014
 6444.00    1.38043   1.27731    0.014
 6445.00    1.37749   1.27885    0.014
 6446.00    1.37505   1.27710    0.013
 6447.00    1.35608   1.27188    0.013
 6448.00    1.32966   1.26386    0.014
 6449.00    1.27615   1.25476    0.014
 6450.00    1.21217   1.24696    0.014
 6451.00    1.18831   1.24253    0.013
 6452.00    1.17766   1.24216    0.013
 6453.00    1.20198   1.24489    0.013
 6454.00    1.23596   1.24894    0.013
 6455.00    1.22306   1.25286    0.013
 6456.00    1.19953   1.25620    0.013
 6457.00    1.16181   1.25917    0.013
 6458.00    1.12153   1.26177    0.013
 6459.00    1.17027   1.26328    0.013
 6460.00    1.23139   1.26274    0.014
 6461.00    1.30507   1.25978    0.014
 6462.00    1.38000   1.25538    0.014
 6463.00    1.36062   1.25150    0.014
 6464.00    1.33529   1.25003    0.014
 6465.00    1.28566   1.25166    0.014
 6466.00    1.23562   1.25558    0.014
 6467.00    1.27200   1.25999    0.014
 6468.00    1.30684   1.26320    0.014
 6469.00    1.29888   1.26439    0.014
 6470.00    1.29123   1.26379    0.014
 6471.00    1.28792   1.26228    0.014
 6472.00    1.28496   1.26083    0.014
 6473.00    1.28520   1.26005    0.014
 6474.00    1.28617   1.26008    0.014
 6475.00    1.29215   1.26076    0.014
 6476.00    1.30188   1.26174    0.014
 6477.00    1.33131   1.26258    0.013
 6478.00    1.34889   1.26269    0.013
 6479.00    1.31645   1.26149    0.013
 6480.00    1.29027   1.25873    0.014
 6481.00    1.28587   1.25484    0.013
 6482.00    1.28678   1.25094    0.013
 6483.00    1.30326   1.24842    0.013
 6484.00    1.31939   1.24816    0.014
 6485.00    1.33462   1.25009    0.014
 6486.00    1.34832   1.25318    0.014
 6487.00    1.35872   1.25591    0.014
 6488.00    1.34400   1.25686    0.014
 6489.00    1.28228   1.25500    0.014
 6490.00    1.23627   1.24982    0.014
 6491.00    1.21593   1.24116    0.014
 6492.00    1.19168   1.22938    0.014
 6493.00    1.16181   1.21549    0.014
 6494.00    1.15424   1.20132    0.014
 6495.00    1.17478   1.18929    0.014
 6496.00    1.17543   1.18170    0.014
 6497.00    1.15400   1.17990    0.014
 6498.00    1.16857   1.18383    0.013
 6499.00    1.21841   1.19223    0.014
 6500.00    1.23960   1.20325    0.014
 6501.00    1.23603   1.21507    0.013
 6502.00    1.22754   1.22627    0.013
 6503.00    1.21530   1.23595    0.013
 6504.00    1.21645   1.24362    0.013
 6505.00    1.22654   1.24917    0.013
 6506.00    1.24195   1.25277    0.013
 6507.00    1.26048   1.25478    0.013
 6508.00    1.27819   1.25575    0.014
 6509.00    1.29548   1.25623    0.014
 6510.00    1.28185   1.25659    0.014
 6511.00    1.25453   1.25688    0.014
 6512.00    1.28400   1.25680    0.014
 6513.00    1.33505   1.25591    0.014
 6514.00    1.35259   1.25387    0.014
 6515.00    1.35932   1.25076    0.014
 6516.00    1.35215   1.24712    0.014
 6517.00    1.34122   1.24384    0.014
 6518.00    1.29344   1.24183    0.014
 6519.00    1.23749   1.24168    0.014
 6520.00    1.22466   1.24340    0.014
 6521.00    1.21944   1.24636    0.014
 6522.00    1.22867   1.24953    0.013
 6523.00    1.23985   1.25194    0.013
 6524.00    1.27694   1.25295    0.013
 6525.00    1.31651   1.25250    0.013
 6526.00    1.35552   1.25096    0.013
 6527.00    1.39450   1.24901    0.014
 6528.00    1.37996   1.24718    0.000
 6529.00    1.36414   1.24571    0.000
 6530.00    1.35723   1.24450    0.000
 6531.00    1.34938   1.24333    0.000
 6532.00    1.31798   1.24218    0.000
 6533.00    1.28668   1.24132    0.000
 6534.00    1.25668   1.24108    0.000
 6535.00    1.22774   1.24162    0.000
 6536.00    1.20820   1.24270    0.000
 6537.00    1.19653   1.24389    0.000
 6538.00    1.23653   1.24473    0.000
 6539.00    1.28115   1.24483    0.000
 6540.00    1.34941   1.24381    0.000
 6541.00    1.40612   1.24133    0.000
 6542.00    1.41518   1.23712    0.000
 6543.00    1.40466   1.23123    0.000
 6544.00    1.32725   1.22407    0.000
 6545.00    1.27348   1.21646    0.000
 6546.00    1.28777   1.20936    0.000
 6547.00    1.31031   1.20352    0.000
 6548.00    1.35311   1.19904    0.000
 6549.00    1.37517   1.19532    0.000
 6550.00    1.35328   1.19120    0.000
 6551.00    1.33985   1.18555    0.000
 6552.00    1.34201   1.17769    0.000
 6553.00    1.32978   1.16753    0.000
 6554.00    1.29437   1.15543    0.000
 6555.00    1.24976   1.14180    0.000
 6556.00    1.19214   1.12661    0.000
 6557.00    1.16567   1.10903    0.000
 6558.00    1.17791   1.08744    0.000
 6559.00    1.21520   1.06024    0.000
 6560.00    1.27993   1.02735    0.000
 6561.00    1.31557   0.99182    0.000
 6562.00    1.32311   0.96001    0.000
 6563.00    1.31387   0.93992    0.000
 6564.00    1.29032   0.93766    0.000
 6565.00    1.27461   0.95434    0.000
 6566.00    1.26479   0.98536    0.000
 6567.00    1.21643   1.02277    0.000
 6568.00    1.14268   1.05878    0.000
 6569.00    1.09044   1.08852    0.000
 6570.00    1.05063   1.11053    0.000
 6571.00    1.06934   1.12581    0.000
 6572.00    1.11748   1.13636    0.000
 6573.00    1.17102   1.14425    0.000
 6574.00    1.22691   1.15129    0.000
 6575.00    1.23296   1.15875    0.000
 6576.00    1.22039   1.16714    0.000
 6577.00    1.21440   1.17614    0.000
 6578.00    1.21049   1.18487    0.000
 6579.00    1.19532   1.19238    0.000
 6580.00    1.17718   1.19821    0.000
 6581.00    1.19999   1.20258    0.000
 6582.00    1.23166   1.20614    0.000
 6583.00    1.27531   1.20960    0.000
 6584.00    1.32102   1.21335    0.000
 6585.00    1.37217   1.21742    0.000
 6586.00    1.42402   1.22155    0.000
 6587.00    1.42866   1.22534    0.000
 6588.00    1.42898   1.22817    0.000
 6589.00    1.43836   1.22931    0.000
 6590.00    1.44823   1.22815    0.000
 6591.00    1.45387   1.22461    0.000
 6592.00    1.45903   1.21954    0.000
 6593.00    1.42643   1.21458    0.000
 6594.00    1.39459   1.21148    0.000
 6595.00    1.37989   1.21127    0.000
 6596.00    1.36341   1.21382    0.000
 6597.00    1.32420   1.21811    0.000
 6598.00    1.28542   1.22300    0.000
 6599.00    1.25032   1.22774    0.000
 6600.00    1.22222   1.23204    0.000
 6601.00    1.23873   1.23564    0.000
 6602.00    1.24797   1.23813    0.000
 6603.00    1.22106   1.23901    0.000
 6604.00    1.20790   1.23804    0.000
 6605.00    1.25025   1.23543    0.000
 6606.00    1.27602   1.23186    0.000
 6607.00    1.24620   1.22825    0.000
 6608.00    1.22849   1.22557    0.000
 6609.00    1.24502   1.22458    0.015
 6610.00    1.26290   1.22562    0.015
 6611.00    1.28406   1.22848    0.015
 6612.00    1.30693   1.23245    0.015
 6613.00    1.33336   1.23669    0.015
 6614.00    1.34246   1.24058    0.015
 6615.00    1.32011   1.24386    0.015
 6616.00    1.31725   1.24652    0.014
 6617.00    1.34531   1.24864    0.014
 6618.00    1.36241   1.25021    0.014
 6619.00    1.36425   1.25114    0.014
 6620.00    1.34493   1.25123    0.014
 6621.00    1.29971   1.25029    0.014
 6622.00    1.25736   1.24820    0.014
 6623.00    1.21810   1.24517    0.014
 6624.00    1.19371   1.24174    0.014
 6625.00    1.18347   1.23870    0.014
 6626.00    1.17760   1.23664    0.014
 6627.00    1.17540   1.23566    0.014
 6628.00    1.21745   1.23530    0.014
 6629.00    1.29223   1.23480    0.014
 6630.00    1.36128   1.23351    0.015
 6631.00    1.42660   1.23125    0.015
 6632.00    1.41005   1.22843    0.015
 6633.00    1.34697   1.22587    0.015
 6634.00    1.26439   1.22454    0.015
 6635.00    1.17218   1.22502    0.015
 6636.00    1.19205   1.22722    0.015
 6637.00    1.25989   1.23041    0.015
 6638.00    1.28054   1.23354    0.015
 6639.00    1.28387   1.23572    0.015
 6640.00    1.27263   1.23650    0.015
 6641.00    1.25688   1.23595    0.015
 6642.00    1.28805   1.23448    0.015
 6643.00    1.33137   1.23275    0.015
 6644.00    1.25251   1.23143    0.014
 6645.00    1.14787   1.23103    0.014
 6646.00    1.07434   1.23169    0.014
 6647.00    1.00600   1.23317    0.014
 6648.00    1.08170   1.23502    0.014
 6649.00    1.17548   1.23677    0.014
 6650.00    1.22480   1.23814    0.014
 6651.00    1.27025   1.23902    0.015
 6652.00    1.30047   1.23946    0.015
 6653.00    1.32991   1.23956    0.015
 6654.00    1.31786   1.23946    0.015
 6655.00    1.30439   1.23927    0.015
 6656.00    1.24324   1.23897    0.015
 6657.00    1.18718   1.23842    0.015
 6658.00    1.23863   1.23736    0.015
 6659.00    1.29108   1.23555    0.016
 6660.00    1.35570   1.23280    0.015
 6661.00    1.40309   1.22919    0.015
 6662.00    1.30827   1.22513    0.015
 6663.00    1.22072   1.22131    0.015
 6664.00    1.17810   1.21851    0.015
 6665.00    1.13590   1.21730    0.015
 6666.00    1.09572   1.21788    0.015
 6667.00    1.07769   1.22004    0.015
 6668.00    1.14710   1.22336    0.014
 6669.00    1.21419   1.22731    0.014
 6670.00    1.27365   1.23127    0.014
 6671.00    1.31768   1.23453    0.015
 6672.00    1.31889   1.23633    0.015
 6673.00    1.29902   1.23590    0.015
 6674.00    1.22907   1.23266    0.015
 6675.00    1.19289   1.22646    0.015
 6676.00    1.22605   1.21796    0.015
 6677.00    1.25697   1.20882    0.015
 6678.00    1.28391   1.20135    0.015
 6679.00    1.29014   1.19772    0.015
 6680.00    1.26401   1.19893    0.015
 6681.00    1.21485   1.20437    0.015
 6682.00    1.13410   1.21218    0.015
 6683.00    1.14325   1.22018    0.015
 6684.00    1.26096   1.22682    0.016
 6685.00    1.32472   1.23147    0.016
 6686.00    1.33103   1.23426    0.015
 6687.00    1.32145   1.23573    0.015
 6688.00    1.29695   1.23645    0.015
 6689.00    1.30101   1.23684    0.015
 6690.00    1.32873   1.23707    0.015
 6691.00    1.32241   1.23707    0.015
 6692.00    1.29129   1.23661    0.015
 6693.00    1.24057   1.23543    0.015
 6694.00    1.17729   1.23345    0.015
 6695.00    1.09821   1.23091    0.015
 6696.00    1.01028   1.22834    0.000
 6697.00    1.01417   1.22642    0.000
 6698.00    1.06278   1.22566    0.000
 6699.00    1.16687   1.22614    0.000
 6700.00    1.29430   1.22742    0.000
 6701.00    1.29852   1.22876    0.000
 6702.00    1.25837   1.22951    0.000
 6703.00    1.32072   1.22946    0.000
 6704.00    1.41429   1.22886    0.000
 6705.00    1.35014   1.22821    0.000
 6706.00    1.24605   1.22789    0.000
 6707.00    1.18597   1.22796    0.000
 6708.00    1.13495   1.22814    0.000
 6709.00    1.19408   1.22806    0.000
 6710.00    1.27106   1.22740    0.000
 6711.00    1.25461   1.22603    0.000
 6712.00    1.22686   1.22388    0.000
 6713.00    1.20619   1.22091    0.000
 6714.00    1.18611   1.21720    0.000
 6715.00    1.12719   1.21305    0.000
 6716.00    1.06643   1.20909    0.000
 6717.00    1.14177   1.20618    0.000
 6718.00    1.21735   1.20509    0.000
 6719.00    1.19893   1.20613    0.000
 6720.00    1.18133   1.20896    0.000
 6721.00    1.17981   1.21276    0.000
 6722.00    1.17936   1.21656    0.000
 6723.00    1.19137   1.21968    0.000
 6724.00    1.20003   1.22182    0.000
 6725.00    1.18203   1.22313    0.000
 6726.00    1.17387   1.22397    0.000
 6727.00    1.22475   1.22473    0.000
 6728.00    1.26802   1.22570    0.000
 6729.00    1.27518   1.22689    0.000
 6730.00    1.27654   1.22806    0.000
 6731.00    1.25554   1.22891    0.000
 6732.00    1.26295   1.22921    0.000
 6733.00    1.36179   1.22895    0.000
 6734.00    1.42123   1.22823    0.000
 6735.00    1.37320   1.22716    0.000
 6736.00    1.32596   1.22577    0.000
 6737.00    1.28059   1.22408    0.000
 6738.00    1.23895   1.22214    0.000
 6739.00    1.20486   1.22018    0.000
 6740.00    1.17859   1.21845    0.000
 6741.00    1.16608   1.21715    0.000
 6742.00    1.14410   1.21634    0.000
 6743.00    1.10756   1.21593    0.000
 6744.00    1.06678   1.21575    0.000
 6745.00    1.02027   1.21564    0.000
 6746.00    1.00900   1.21538    0.000
 6747.00    1.03967   1.21483    0.000
 6748.00    1.07284   1.21393    0.000
 6749.00    1.10864   1.21280    0.000
 6750.00    1.12154   1.21173    0.000
 6751.00    1.11325   1.21109    0.000
 6752.00    1.10478   1.21119    0.000
 6753.00    1.09618   1.21224    0.018
 6754.00    1.05248   1.21431    0.018
 6755.00    0.98356   1.21727    0.019
 6756.00    0.97598   1.22084    0.019
 6757.00    1.00707   1.22461    0.019
 6758.00    1.12660   1.22811    0.019
 6759.00    1.29487   1.23095    0.019
 6760.00    1.43219   1.23286    0.019
 6761.00    1.55469   1.23371    0.020
 6762.00    1.57018   1.23348    0.020
 6763.00    1.54142   1.23223    0.020
 6764.00    1.52254   1.23007    0.020
 6765.00    1.50717   1.22712    0.020
 6766.00    1.43060   1.22369    0.020
 6767.00    1.33577   1.22024    0.020
 6768.00    1.38111   1.21734    0.020
 6769.00    1.46117   1.21551    0.020
 6770.00    1.47109   1.21502    0.020
 6771.00    1.46695   1.21590    0.020
 6772.00    1.37592   1.21802    0.019
 6773.00    1.27125   1.22113    0.019
 6774.00    1.28114   1.22488    0.019
 6775.00    1.30438   1.22876    0.019
 6776.00    1.27535   1.23225    0.019
 6777.00    1.24220   1.23487    0.018
 6778.00    1.40547   1.23628    0.019
 6779.00    1.57729   1.23624    0.020
 6780.00    1.42975   1.23464    0.020
 6781.00    1.28234   1.23153    0.020
 6782.00    1.29634   1.22724    0.020
 6783.00    1.31090   1.22242    0.019
 6784.00    1.33576   1.21802    0.019
 6785.00    1.35403   1.21493    0.018
 6786.00    1.30029   1.21372    0.018
 6787.00    1.23860   1.21436    0.019
 6788.00    1.11576   1.21629    0.019
 6789.00    1.03806   1.21867    0.019
 6790.00    1.22352   1.22071    0.019
 6791.00    1.36328   1.22193    0.020
 6792.00    1.29171   1.22224    0.019
 6793.00    1.25672   1.22190    0.019
 6794.00    1.36006   1.22132    0.020
 6795.00    1.43472   1.22095    0.020
 6796.00    1.41884   1.22108    0.020
 6797.00    1.35187   1.22179    0.020
 6798.00    1.14808   1.22296    0.019
 6799.00    1.04915   1.22437    0.019
 6800.00    1.19117   1.22574    0.019
 6801.00    1.30315   1.22682    0.019
 6802.00    1.35537   1.22741    0.019
 6803.00    1.33973   1.22746    0.019
 6804.00    1.20652   1.22701    0.019
 6805.00    1.12535   1.22621    0.018
 6806.00    1.12313   1.22527    0.018
 6807.00    1.17979   1.22438    0.018
 6808.00    1.31490   1.22366    0.018
 6809.00    1.38813   1.22315    0.018
 6810.00    1.38872   1.22279    0.018
 6811.00    1.33643   1.22247    0.019
 6812.00    1.22940   1.22212    0.019
 6813.00    1.14878   1.22175    0.019
 6814.00    1.09229   1.22145    0.019
 6815.00    1.13405   1.22140    0.019
 6816.00    1.25488   1.22175    0.020
 6817.00    1.29225   1.22249    0.020
 6818.00    1.27053   1.22346    0.019
 6819.00    1.26546   1.22450    0.019
 6820.00    1.27072   1.22556    0.019
 6821.00    1.27636   1.22673    0.019
 6822.00    1.28222   1.22802    0.019
 6823.00    1.24388   1.22931    0.019
 6824.00    1.18471   1.23029    0.019
 6825.00    1.16750   1.23055    0.018
 6826.00    1.16735   1.22989    0.018
 6827.00    1.12515   1.22843    0.018
 6828.00    1.06835   1.22664    0.018
 6829.00    1.11215   1.22513    0.018
 6830.00    1.18539   1.22439    0.018
 6831.00    1.18355   1.22453    0.018
 6832.00    1.16353   1.22532    0.018
 6833.00    1.19443   1.22635    0.018
 6834.00    1.23529   1.22713    0.018
 6835.00    1.37457   1.22717    0.019
 6836.00    1.52886   1.22611    0.019
 6837.00    1.37892   1.22373    0.020
 6838.00    1.19482   1.22010    0.020
 6839.00    1.07400   1.21559    0.020
 6840.00    0.95792   1.21094    0.020
 6841.00    0.92236   1.20712    0.020
 6842.00    0.88999   1.20504    0.020
 6843.00    1.13305   1.20522    0.020
 6844.00    1.37131   1.20756    0.019
 6845.00    1.34293   1.21141    0.019
 6846.00    1.30915   1.21581    0.019
 6847.00    1.18409   1.21984    0.019
 6848.00    1.07210   1.22287    0.019
 6849.00    1.09678   1.22467    0.018
 6850.00    1.12677   1.22527    0.018
 6851.00    1.19624   1.22481    0.018
 6852.00    1.25861   1.22340    0.018
 6853.00    1.28066   1.22114    0.018
 6854.00    1.27979   1.21825    0.018
 6855.00    1.17549   1.21513    0.018
 6856.00    1.11668   1.21230    0.018
 6857.00    1.22623   1.21016    0.018
 6858.00    1.26920   1.20888    0.018
 6859.00    1.10594   1.20837    0.018
 6860.00    0.98924   1.20849    0.019
 6861.00    0.99502   1.20911    0.019
 6862.00    1.02144   1.21024    0.019
 6863.00    1.09448   1.21185    0.019
 6864.00    1.14108   1.21367    0.019
 6865.00    1.13591   1.21515    0.019
 6866.00    1.11269   1.21582    0.019
 6867.00    1.05871   1.21547    0.019
 6868.00    1.06150   1.21433    0.019
 6869.00    1.14918   1.21295    0.019
 6870.00    1.23951   1.21186    0.019
 6871.00    1.33333   1.21134    0.019
 6872.00    1.40258   1.21140    0.018
 6873.00    1.44340   1.21201    0.018
 6874.00    1.44329   1.21312    0.018
 6875.00    1.40142   1.21470    0.018
 6876.00    1.36086   1.21668    0.018
 6877.00    1.32148   1.21878    0.018
 6878.00    1.29880   1.22046    0.018
 6879.00    1.28936   1.22120    0.018
 6880.00    1.28526   1.22079    0.018
 6881.00    1.28489   1.21941    0.019
 6882.00    1.23589   1.21758    0.019
 6883.00    1.15714   1.21606    0.018
 6884.00    1.19833   1.21554    0.019
 6885.00    1.30362   1.21634    0.019
 6886.00    1.30467   1.21837    0.019
 6887.00    1.25736   1.22127    0.019
 6888.00    1.32271   1.22453    0.019
 6889.00    1.43310   1.22763    0.020
 6890.00    1.43947   1.23020    0.019
 6891.00    1.41038   1.23208    0.019
 6892.00    1.34436   1.23310    0.019
 6893.00    1.26775   1.23325    0.019
 6894.00    1.19053   1.23275    0.018
 6895.00    1.11317   1.23193    0.018
 6896.00    1.18168   1.23110    0.018
 6897.00    1.27799   1.23053    0.018
 6898.00    1.26038   1.23036    0.018
 6899.00    1.22593   1.23053    0.018
 6900.00    1.18372   1.23099    0.019
 6901.00    1.14066   1.23168    0.019
 6902.00    1.19006   1.23249    0.019
 6903.00    1.24600   1.23333    0.019
 6904.00    1.24798   1.23417    0.019
 6905.00    1.24802   1.23499    0.019
 6906.00    1.21985   1.23573    0.019
 6907.00    1.19274   1.23623    0.019
 6908.00    1.20566   1.23640    0.019
 6909.00    1.21346   1.23604    0.019
 6910.00    1.14008   1.23488    0.019
 6911.00    1.07876   1.23280    0.019
 6912.00    1.13831   1.22996    0.019
 6913.00    1.18949   1.22680    0.019
 6914.00    1.18058   1.22392    0.019
 6915.00    1.17771   1.22191    0.019
 6916.00    1.20810   1.22119    0.018
 6917.00    1.22124   1.22187    0.018
 6918.00    1.15834   1.22369    0.018
 6919.00    1.11219   1.22612    0.018
 6920.00    1.12679   1.22842    0.018
 6921.00    1.13154   1.22989    0.018
 6922.00    1.10632   1.23013    0.018
 6923.00    1.12143   1.22907    0.019
 6924.00    1.24078   1.22709    0.019
 6925.00    1.32269   1.22493    0.019
 6926.00    1.32135   1.22341    0.019
 6927.00    1.33862   1.22301    0.019
 6928.00    1.39176   1.22375    0.019
 6929.00    1.38380   1.22521    0.019
 6930.00    1.27316   1.22672    0.020
 6931.00    1.22468   1.22773    0.020
 6932.00    1.26777   1.22808    0.020
 6933.00    1.27222   1.22808    0.020
 6934.00    1.22664   1.22817    0.020
 6935.00    1.18874   1.22867    0.019
 6936.00    1.15961   1.22968    0.019
 6937.00    1.13237   1.23108    0.019
 6938.00    1.10703   1.23258    0.019
 6939.00    1.10944   1.23375    0.019
 6940.00    1.13648   1.23421    0.019
 6941.00    1.23801   1.23377    0.018
 6942.00    1.39779   1.23231    0.019
 6943.00    1.40965   1.22997    0.019
 6944.00    1.31980   1.22723    0.019
 6945.00    1.20686   1.22485    0.019
 6946.00    1.07999   1.22352    0.019
 6947.00    1.05987   1.22351    0.019
 6948.00    1.09590   1.22451    0.019
 6949.00    1.17376   1.22582    0.019
 6950.00    1.27070   1.22664    0.019
 6951.00    1.20238   1.22655    0.019
 6952.00    1.06914   1.22573    0.020
 6953.00    1.17384   1.22483    0.020
 6954.00    1.35813   1.22449    0.020
 6955.00    1.26461   1.22513    0.020
 6956.00    1.09307   1.22673    0.020
 6957.00    1.10704   1.22891    0.019
 6958.00    1.16395   1.23122    0.019
 6959.00    1.20695   1.23328    0.019
 6960.00    1.24736   1.23488    0.019
 6961.00    1.23730   1.23598    0.019
 6962.00    1.22000   1.23669    0.018
 6963.00    1.27206   1.23718    0.019
 6964.00    1.33130   1.23754    0.019
 6965.00    1.26042   1.23786    0.019
 6966.00    1.18087   1.23820    0.019
 6967.00    1.17222   1.23860    0.019
 6968.00    1.16584   1.23897    0.019
 6969.00    1.14449   1.23915    0.019
 6970.00    1.12592   1.23896    0.019
 6971.00    1.19285   1.23814    0.019
 6972.00    1.25680   1.23648    0.020
 6973.00    1.27638   1.23378    0.020
 6974.00    1.27442   1.22993    0.020
 6975.00    1.06573   1.22490    0.020
 6976.00    0.89960   1.21886    0.020
 6977.00    1.02953   1.21253    0.020
 6978.00    1.13401   1.20718    0.019
 6979.00    1.10187   1.20429    0.019
 6980.00    1.07351   1.20477    0.019
 6981.00    1.06143   1.20866    0.019
 6982.00    1.05530   1.21511    0.019
 6983.00    1.07025   1.22261    0.019
 6984.00    1.07354   1.22938    0.019
 6985.00    1.04199   1.23423    0.019
 6986.00    1.02662   1.23690    0.019
 6987.00    1.05234   1.23774    0.019
 6988.00    1.08121   1.23738    0.019
 6989.00    1.11694   1.23660    0.019
 6990.00    1.17536   1.23603    0.019
 6991.00    1.27678   1.23603    0.019
 6992.00    1.29420   1.23664    0.019
 6993.00    1.17254   1.23760    0.019
 6994.00    1.06075   1.23846    0.019
 6995.00    0.96326   1.23875    0.020
 6996.00    0.99312   1.23821    0.020
 6997.00    1.18553   1.23687    0.020
 6998.00    1.22103   1.23493    0.020
 6999.00    1.08002   1.23266    0.020
 7000.00    0.99164   1.23036    0.020
 7001.00    0.95547   1.22836    0.019
 7002.00    1.01507   1.22691    0.019
 7003.00    1.15845   1.22608    0.020
 7004.00    1.16075   1.22576    0.020
 7005.00    1.05429   1.22568    0.019
 7006.00    1.03213   1.22576    0.019
 7007.00    1.06709   1.22618    0.019
 7008.00    1.04168   1.22714    0.019
 7009.00    0.98042   1.22844    0.019
 7010.00    1.05574   1.22957    0.019
 7011.00    1.20179   1.22999    0.020
 7012.00    1.24842   1.22931    0.020
 7013.00    1.25043   1.22733    0.021
 7014.00    1.18368   1.22429    0.021
 7015.00    1.09039   1.22092    0.021
 7016.00    1.12383   1.21818    0.020
 7017.00    1.19887   1.21691    0.020
 7018.00    1.13227   1.21764    0.020
 7019.00    1.02671   1.22024    0.021
 7020.00    1.03645   1.22384    0.021
 7021.00    1.07227   1.22692    0.021
 7022.00    1.13217   1.22816    0.021
 7023.00    1.19643   1.22754    0.021
 7024.00    1.17493   1.22596    0.020
 7025.00    1.14155   1.22451    0.020
 7026.00    1.00007   1.22409    0.020
 7027.00    0.84785   1.22510    0.020
 7028.00    0.88191   1.22729    0.020
 7029.00    0.92764   1.22992    0.020
 7030.00    1.03097   1.23231    0.020
 7031.00    1.13578   1.23419    0.019
 7032.00    1.20149   1.23547    0.019
 7033.00    1.26445   1.23612    0.019
 7034.00    1.25173   1.23613    0.020
 7035.00    1.23812   1.23564    0.020
 7036.00    1.21205   1.23499    0.021
 7037.00    1.18764   1.23463    0.021
 7038.00    1.17846   1.23512    0.021
 7039.00    1.16304   1.23697    0.021
 7040.00    1.10552   1.24032    0.021
 7041.00    1.06048   1.24493    0.022
 7042.00    1.08066   1.25028    0.021
 7043.00    1.10921   1.25525    0.021
 7044.00    1.17300   1.25873    0.021
 7045.00    1.18108   1.26056    0.021
 7046.00    0.99531   1.26131    0.021
 7047.00    0.89300   1.26147    0.021
 7048.00    1.03498   1.26119    0.022
 7049.00    0.72021   1.26016    0.019
 7050.00   -0.73475   1.25770   -2.000
 7051.00   -1.23620   1.25339   -2.000
 7052.00    0.31323   1.24756   -2.000
 7053.00    1.32507   1.24110   -2.000
 7054.00    1.33297   1.23512   -2.000
 7055.00    1.34293   1.23047   -2.000
 7056.00    1.35625   1.22754   -2.000
 7057.00    1.37826   1.22605   -2.000
 7058.00    1.41268   1.22519   -2.000
 7059.00    1.41257   1.22428   -2.000
 7060.00    1.36901   1.22306   -2.000
 7061.00    1.31084   1.22164   -2.000
 7062.00    1.23648   1.22034   -2.000
 7063.00    1.23775   1.21938   -2.000
 7064.00    1.31300   1.21865   -2.000
 7065.00    1.30794   1.21770   -2.000
 7066.00    1.23361   1.21633   -2.000
 7067.00    1.24578   1.21483   -2.000
 7068.00    1.32365   1.21378   -2.000
 7069.00    1.33081   1.21388   -2.000
 7070.00    1.29075   1.21564   -2.000
 7071.00    1.27594   1.21897   -2.000
 7072.00    1.27592   1.22330   -2.000
 7073.00    1.32158   1.22771   -2.000
 7074.00    1.39055   1.23128   -2.000
 7075.00    1.40569   1.23374   -2.000
 7076.00    1.39707   1.23527   -2.000
 7077.00    1.41649   1.23605   -2.000
 7078.00    1.44654   1.23614   -2.000
 7079.00    1.47071   1.23549   -2.000
 7080.00    1.49298   1.23380   -2.000
 7081.00    1.47034   1.23071   -2.000
 7082.00    1.43561   1.22594   -2.000
 7083.00    1.31878   1.21967   -2.000
 7084.00    1.18382   1.21248   -2.000
 7085.00    1.22121   1.20517   -2.000
 7086.00    1.28890   1.19867   -2.000
 7087.00    1.29417   1.19362   -2.000
 7088.00    1.29107   1.19022   -2.000
 7089.00    1.26249   1.18802   -2.000
 7090.00    1.23149   1.18641   -2.000
 7091.00    1.18328   1.18526   -2.000
 7092.00    1.13407   1.18466   -2.000
 7093.00    1.19813   1.18464   -2.000
 7094.00    1.26468   1.18524   -2.000
 7095.00    1.28965   1.18639   -2.000
 7096.00    1.31069   1.18807   -2.000
 7097.00    1.23418   1.19033   -2.000
 7098.00    1.15930   1.19308   -2.000
 7099.00    1.10610   1.19604   -2.000
 7100.00    1.06734   1.19890   -2.000
 7101.00    1.15658   1.20131   -2.000
 7102.00    1.21705   1.20308   -2.000
 7103.00    1.08953   1.20409   -2.000
 7104.00    1.00540   1.20462   -2.000
 7105.00    1.14226   1.20492   -2.000
 7106.00    1.24387   1.20502   -2.000
 7107.00    1.20038   1.20470   -2.000
 7108.00    1.15689   1.20371   -2.000
 7109.00    1.11339   1.20213   -2.000
 7110.00    1.09442   1.20048   -2.000
 7111.00    1.14591   1.19931   -2.000
 7112.00    1.17997   1.19889   -2.000
 7113.00    1.17128   1.19942   -2.000
 7114.00    1.16602   1.20099   -2.000
 7115.00    1.16805   1.20334   -2.000
 7116.00    1.15888   1.20576   -2.000
 7117.00    1.12912   1.20760   -2.000
 7118.00    1.12946   1.20854   -2.000
 7119.00    1.17815   1.20859   -2.000
 7120.00    1.26806   1.20788   -2.000
 7121.00    1.41606   1.20664   -2.000
 7122.00    1.47142   1.20513   -2.000
 7123.00    1.41187   1.20349   -2.000
 7124.00    1.24292   1.20170   -2.000
 7125.00    0.95435   1.19973   -2.000
 7126.00    0.86301   1.19749   -2.000
 7127.00    0.96188   1.19475   -2.000
 7128.00    0.99791   1.19166   -2.000
 7129.00    0.98049   1.18880   -2.000
 7130.00    0.97537   1.18673   -2.000
 7131.00    0.97945   1.18576   -2.000
 7132.00    0.95081   1.18610   -2.000
 7133.00    0.90063   1.18796   -2.000
 7134.00    1.00683   1.19123   -2.000
 7135.00    1.20312   1.19511   -2.000
 7136.00    1.25258   1.19860   -2.000
 7137.00    1.22836   1.20113   -2.000
 7138.00    1.17263   1.20264   -2.000
 7139.00    1.10321   1.20344   -2.000
 7140.00    1.06599   1.20388   -2.000
 7141.00    1.04077   1.20414   -2.000
 7142.00    1.07788   1.20441   -2.000
 7143.00    1.13469   1.20455   -2.000
 7144.00    1.15086   1.20400   -2.000
 7145.00    1.15632   1.20249   -2.000
 7146.00    1.19916   1.20021   -2.000
 7147.00    1.25006   1.19764   -2.000
 7148.00    1.19166   1.19546   -2.000
 7149.00    1.11459   1.19434   -2.000
 7150.00    1.07438   1.19480   -2.000
 7151.00    1.03894   1.19712   -2.000
 7152.00    1.06245   1.20090   -2.000
 7153.00    1.09132   1.20507   -2.000
 7154.00    1.06908   1.20882   -2.000
 7155.00    1.04405   1.21176   -2.000
 7156.00    1.13559   1.21366   -2.000
 7157.00    1.22951   1.21460   -2.000
 7158.00    1.31695   1.21488   -2.000
 7159.00    1.38904   1.21457   -2.000
 7160.00    1.11267   1.21336   -2.000
 7161.00    0.72153   1.21117   -2.000
 7162.00   -1.11521   1.20842   -2.000
 7163.00   -2.55186   1.20566   -2.000
 7164.00   -0.57520   1.20329   -2.000
 7165.00    1.19012   1.20172   -2.000
 7166.00    1.61593   1.20146   -2.000
 7167.00    1.89978   1.20310   -2.000
 7168.00    1.47874   1.20671   -2.000
 7169.00    1.12298   1.21142   -2.000
 7170.00    1.02993   1.21604   -2.000
 7171.00    0.96999   1.21979   -2.000
 7172.00    1.02065   1.22248   -2.000
 7173.00    1.09020   1.22410   -2.000
 7174.00    1.21306   1.22460   -2.000
 7175.00    1.27803   1.22387   -2.000
 7176.00    1.20341   1.22201   -2.000
 7177.00    1.16296   1.21936   -2.000
 7178.00    1.19367   1.21638   -2.000
 7179.00    1.23256   1.21354   -2.000
 7180.00    1.28628   1.21109   -2.000
 7181.00    1.26378   1.20903   -2.000
 7182.00    1.12063   1.20754   -2.000
 7183.00    1.05232   1.20696   -2.000
 7184.00    1.08800   1.20710   -2.000
 7185.00    1.12246   1.20704   -2.000
 7186.00    1.15543   1.20575   -2.000
 7187.00    1.15941   1.20310   -2.000
 7188.00    1.13213   1.19993   -2.000
 7189.00    1.11747   1.19736   -2.000
 7190.00    1.11480   1.19641   -2.000
 7191.00    1.09061   1.19744   -2.000
 7192.00    1.04838   1.19991   -2.000
 7193.00    1.10607   1.20293   -2.000
 7194.00    1.23752   1.20570   -2.000
 7195.00    1.26900   1.20792   -2.000
 7196.00    1.23567   1.20973   -2.000
 7197.00    1.20963   1.21123   -2.000
 7198.00    1.18773   1.21230   -2.000
 7199.00    1.06595   1.21303   -2.000
 7200.00    0.89483   1.21383   -2.000
 7201.00    0.76481   1.21466   -2.000
 7202.00    0.65233   1.21506   -2.000
 7203.00    0.69842   1.21474   -2.000
 7204.00    0.80252   1.21369   -2.000
 7205.00    0.94257   1.21199   -2.000
 7206.00    1.09374   1.20963   -2.000
 7207.00    1.06918   1.20680   -2.000
 7208.00    0.99926   1.20419   -2.000
 7209.00    0.97987   1.20293   -2.000
 7210.00    0.97110   1.20392   -2.000
 7211.00    1.06543   1.20682   -2.000
 7212.00    1.17687   1.21043   -2.000
 7213.00    0.93738   1.21363   -2.000
 7214.00    0.65403   1.21579   -2.000
 7215.00    0.67741   1.21710   -2.000
 7216.00    0.72736   1.21826   -2.000
 7217.00    0.81507   1.21968   -2.000
 7218.00    0.90470   1.22132   -2.000
