###################################################################
## OUTPUT of StarlightChains_v04.for    [Cid@UFSC - 01/Apr/2007] ##
###################################################################

## Some input info
KUG0210-078._60_41.txt                   [arq_obs]
Base.CB07.vall.4m                        [arq_base]
Masks.EmLines.NEW.gm                     [arq_masks]
StCv04.C11.config                        [arq_config]
   66                                    [N_base]
    0                                    [N_YAV_components = # of components with extra extinction!]
    0                                    [i_FitPowerLaw (1/0 = Yes/No)]
-9.99                                    [alpha_PowerLaw]
CCM                                      [red_law_option]
 1.458241                                [q_norm = A(l_norm)/A(V)]

## (Re)Sampling Parameters
 3741.00                                 [l_ini (A)]
 7218.00                                 [l_fin (A)]
    1.00                                 [dl    (A)]     (OBS: dl_cushion =    50.00 A)

## Normalization info
 4020.00                                 [l_norm (A) - for base]
 4010.00                                 [llow_norm (A) - window for f_obs]
 4060.00                                 [lupp_norm (A) - window for f_obs]
6.592704E-18                             [fobs_norm (in input units)]

## S/N
 3691.00                                 [llow_SN (A) - window for S/N]
 7268.00                                 [lupp_SN (A) - window for S/N]
   1.881                                 [S/N in S/N window]
   2.768                                 [S/N in norm. window]
   0.005                                 [S/N_err in S/N window]
   0.007                                 [S/N_err in norm. window]
  1.0000                                 [fscale_chi2]

## etc...
    -2008033                             [idum_orig]
  2430                                   [NOl_eff]
  2400                                   [Nl_eff]
    30    NSIGMA                         [Ntot_cliped & clip_method]
   803460                                [Nglobal_steps]
   7                                     [N_chains]
  27                                     [NEX0s_base = N_base in EX0s-fits]
 0   0   1       30   2.0   1.514E+03    [Clip-Bug, RC-Crash & Burn-In warning-flags, n_censored_weights, wei_nsig_threshold & wei_limit]
    15     14.705     14.085      0.619  [idt_all, wdt_TotTime, wdt_UsrTime & wdt_SysTime (sec)]

## Synthesis Results - Best model ##

 8.92738E-06                             [chi2/Nl_eff]
    34.71114                             [adev (%)]

   129.10881                             [sum-of-x (%)]
 3.21690E-18                             [Flux_tot (units of input spectrum!)]
 1.08230E-14                             [Mini_tot (???)]
 6.48465E-15                             [Mcor_tot (???)]

 487.78                                  [v0_min  (km/s)]
  38.21                                  [vd_min  (km/s)]
-0.7245                                  [AV_min  (mag)]
 0.0000                                  [YAV_min (mag)]

# j     x_j(%)      Mini_j(%)     Mcor_j(%)     age_j(yr)     Z_j      (L/M)_j    YAV?  Mstars   component_j        a/Fe...       SSP_chi2r SSP_adev(%)   SSP_AV   SSP_x(%)
  1      0.0000     0.0000E+00    0.0000E+00    1.000000E+06  0.00400  1.094E-02    0   1.0000   age020_m42            0.0000     9.6658E-06    37.7609   1.5854   107.0174
  2     28.6813     1.6478E-01    2.7500E-01    3.160000E+06  0.00400  4.007E-02    0   0.9999   age045_m42            0.0000     9.0233E-06    35.6120   0.7545   117.1948
  3      0.0000     0.0000E+00    0.0000E+00    5.010000E+06  0.00400  2.539E-02    0   0.9488   age055_m42            0.0000     9.1844E-06    36.4950   1.1222   113.0855
  4      0.0000     0.0000E+00    0.0000E+00    6.610000E+06  0.00400  2.620E-02    0   0.9220   age061_m42            0.0000     8.9961E-06    35.7055   0.6891   117.2390
  5      0.0000     0.0000E+00    0.0000E+00    1.000000E+07  0.00400  1.322E-02    0   0.8862   age070_m42            0.0000     9.2128E-06    37.9280   0.4940   116.9974
  6      0.0000     0.0000E+00    0.0000E+00    1.445000E+07  0.00400  7.883E-03    0   0.8571   age078_m42            0.0000     9.3006E-06    38.2293   0.8376   113.6673
  7      0.0000     0.0000E+00    0.0000E+00    2.512000E+07  0.00400  5.251E-03    0   0.8174   age090_m42            0.0000     9.2150E-06    38.2225   0.3731   117.4021
  8      0.0000     0.0000E+00    0.0000E+00    4.000000E+07  0.00400  3.649E-03    0   0.7851   age104_m42            0.0000     9.1595E-06    37.6645   0.1232   119.0521
  9      0.0000     0.0000E+00    0.0000E+00    5.500000E+07  0.00400  3.098E-03    0   0.7629   age110_m42            0.0000     9.0836E-06    36.2286   0.2167   120.8079
 10     15.3402     1.5851E+00    1.9066E+00    1.015200E+08  0.00400  2.228E-03    0   0.7207   age116_m42            0.0000     9.0568E-06    35.2754   0.1955   122.2522
 11     11.2590     2.3715E+00    2.6313E+00    2.861200E+08  0.00400  1.093E-03    0   0.6648   age125_m42            0.0000     9.0765E-06    35.7991  -0.3740   125.6275
 12      1.9919     6.9510E-01    7.3843E-01    5.088000E+08  0.00400  6.597E-04    0   0.6365   age130_m42            0.0000     9.0845E-06    34.3287  -0.4510   128.7543
 13      0.0000     0.0000E+00    0.0000E+00    1.434000E+09  0.00400  2.132E-04    0   0.5798   age139_m42            0.0000     9.4266E-06    44.4640  -1.0000   125.1064
 14      0.0000     0.0000E+00    0.0000E+00    4.250000E+09  0.00400  5.895E-05    0   0.5377   age158_m42            0.0000     1.0904E-05    59.0231  -1.0000   111.8960
 15      0.0000     0.0000E+00    0.0000E+00    7.500000E+09  0.00400  3.510E-05    0   0.5212   age171_m42            0.0000     1.2069E-05    65.6853  -1.0000   107.0026
 16      0.0000     0.0000E+00    0.0000E+00    1.300000E+10  0.00400  2.005E-05    0   0.5034   age193_m42            0.0000     1.3334E-05    71.4925  -1.0000   102.4661
 17      0.0000     0.0000E+00    0.0000E+00    1.800000E+10  0.00400  1.525E-05    0   0.4967   age213_m42            0.0000     1.3405E-05    72.3994  -1.0000   101.4945
 18      0.0000     0.0000E+00    0.0000E+00    1.000000E+06  0.00800  1.238E-02    0   1.0000   age020_m52            0.0000     9.6353E-06    37.6584   1.5772   107.3184
 19      1.7906     1.3410E-02    2.2305E-02    3.160000E+06  0.00800  3.074E-02    0   0.9966   age045_m52            0.0000     9.4939E-06    37.3542   1.4922   108.5422
 20      0.0000     0.0000E+00    0.0000E+00    5.010000E+06  0.00800  2.668E-02    0   0.9443   age055_m52            0.0000     9.2582E-06    36.8576   1.2269   111.4782
 21      0.0000     0.0000E+00    0.0000E+00    6.610000E+06  0.00800  2.136E-02    0   0.9177   age061_m52            0.0000     9.2869E-06    37.8264  -0.0001   117.9442
 22      0.0000     0.0000E+00    0.0000E+00    1.000000E+07  0.00800  1.215E-02    0   0.8827   age070_m52            0.0000     9.3185E-06    39.0464   0.7134   115.5745
 23      3.2057     8.4663E-02    1.2084E-01    1.445000E+07  0.00800  8.717E-03    0   0.8552   age078_m52            0.0000     9.2530E-06    38.1188   0.7978   115.3468
 24      0.0000     0.0000E+00    0.0000E+00    2.512000E+07  0.00800  5.592E-03    0   0.8162   age090_m52            0.0000     9.2056E-06    38.3540   0.4387   118.7361
 25      0.0000     0.0000E+00    0.0000E+00    4.000000E+07  0.00800  3.896E-03    0   0.7841   age104_m52            0.0000     9.1046E-06    37.3915   0.3096   120.7629
 26      0.0000     0.0000E+00    0.0000E+00    1.015200E+08  0.00800  2.148E-03    0   0.7226   age116_m52            0.0000     8.9798E-06    35.8988   0.1907   122.2803
 27      0.0000     0.0000E+00    0.0000E+00    2.861200E+08  0.00800  9.925E-04    0   0.6683   age125_m52            0.0000     9.1669E-06    34.3583  -0.3780   129.5978
 28      1.1372     8.3353E-01    8.5390E-01    9.047900E+08  0.00800  3.141E-04    0   0.6138   age135_m52            0.0000     9.3658E-06    38.1774  -1.0000   133.6602
 29      0.0000     0.0000E+00    0.0000E+00    1.434000E+09  0.00800  1.719E-04    0   0.5853   age139_m52            0.0000     1.0559E-05    55.9633  -1.0000   119.6205
 30      0.0000     0.0000E+00    0.0000E+00    2.500000E+09  0.00800  7.872E-05    0   0.5600   age150_m52            0.0000     1.2094E-05    65.0069  -1.0000   110.7139
 31      0.0000     0.0000E+00    0.0000E+00    4.250000E+09  0.00800  4.336E-05    0   0.5426   age158_m52            0.0000     1.2266E-05    65.4812  -1.0000   109.1989
 32      0.0000     0.0000E+00    0.0000E+00    6.250000E+09  0.00800  3.159E-05    0   0.5319   age166_m52            0.0000     1.3907E-05    72.3753  -1.0000   104.2371
 33      0.1244     2.1042E+00    1.7816E+00    1.300000E+10  0.00800  1.361E-05    0   0.5073   age193_m52            0.0000     1.8241E-05    87.2509  -1.0000    90.8053
 34      0.0000     0.0000E+00    0.0000E+00    1.800000E+10  0.00800  9.886E-06    0   0.4990   age213_m52            0.0000     1.9763E-05    89.8310  -1.0000    87.1471
 35      0.0000     0.0000E+00    0.0000E+00    1.000000E+06  0.02000  1.544E-02    0   1.0000   age020_m62            0.0000     9.6229E-06    37.6443   1.5735   107.5536
 36      0.0000     0.0000E+00    0.0000E+00    3.160000E+06  0.02000  3.762E-02    0   0.9858   age045_m62            0.0000     9.5696E-06    37.4336   1.5083   108.6217
 37      0.0000     0.0000E+00    0.0000E+00    5.010000E+06  0.02000  3.296E-02    0   0.9342   age055_m62            0.0000     9.0782E-06    35.7982   1.0552   115.2217
 38      0.0000     0.0000E+00    0.0000E+00    8.710000E+06  0.02000  1.154E-02    0   0.8861   age067_m62            0.0000     1.0093E-05    44.8695   0.3430   113.3994
 39      0.0000     0.0000E+00    0.0000E+00    1.445000E+07  0.02000  7.663E-03    0   0.8472   age078_m62            0.0000     9.5131E-06    40.7009   0.4080   116.6397
 40      0.0000     0.0000E+00    0.0000E+00    2.512000E+07  0.02000  4.532E-03    0   0.8099   age090_m62            0.0000     9.4636E-06    40.7549   0.3988   116.3048
 41      0.0000     0.0000E+00    0.0000E+00    5.500000E+07  0.02000  2.733E-03    0   0.7595   age110_m62            0.0000     9.1172E-06    37.5336   0.3037   119.5655
 42      0.0000     0.0000E+00    0.0000E+00    1.609000E+08  0.02000  1.369E-03    0   0.6985   age120_m62            0.0000     9.1040E-06    34.4743  -0.0003   126.4700
 43      0.0000     0.0000E+00    0.0000E+00    2.861200E+08  0.02000  9.013E-04    0   0.6714   age125_m62            0.0000     9.3075E-06    33.8966  -0.2820   131.7103
 44      0.4123     1.8877E-01    2.0319E-01    5.088000E+08  0.02000  5.028E-04    0   0.6449   age130_m62            0.0000     9.4103E-06    32.1605  -0.7663   138.3882
 45     24.4117     2.3146E+01    2.3871E+01    9.047900E+08  0.02000  2.428E-04    0   0.6179   age135_m62            0.0000     9.4092E-06    39.2257  -1.0000   132.0863
 46      0.0000     0.0000E+00    0.0000E+00    1.434000E+09  0.02000  1.263E-04    0   0.5908   age139_m62            0.0000     1.0544E-05    52.7464  -1.0000   121.4301
 47      8.5007     3.2698E+01    3.0960E+01    2.500000E+09  0.02000  5.985E-05    0   0.5673   age150_m62            0.0000     1.2601E-05    65.1956  -1.0000   111.5694
 48      0.8417     5.9241E+00    5.4064E+00    4.250000E+09  0.02000  3.271E-05    0   0.5468   age158_m62            0.0000     1.5196E-05    75.2873  -1.0000   102.8293
 49      0.0000     0.0000E+00    0.0000E+00    1.000000E+10  0.02000  1.360E-05    0   0.5167   age181_m62            0.0000     1.9003E-05    85.5046  -1.0000    92.3917
 50      0.0000     0.0000E+00    0.0000E+00    1.800000E+10  0.02000  7.124E-06    0   0.5013   age213_m62            0.0000     2.1739E-05    90.6824  -1.0000    85.3087
 51      0.0000     0.0000E+00    0.0000E+00    1.000000E+06  0.05000  2.592E-02    0   0.9998   age020_m72            0.0000     9.6241E-06    37.8753   1.5749   107.3572
 52      0.0000     0.0000E+00    0.0000E+00    3.160000E+06  0.05000  4.845E-02    0   0.9577   age045_m72            0.0000     9.3044E-06    36.6145   1.3584   110.9848
 53      0.0000     0.0000E+00    0.0000E+00    5.010000E+06  0.05000  3.072E-02    0   0.9147   age055_m72            0.0000     9.4859E-06    39.6322   0.9604   113.1325
 54      0.0000     0.0000E+00    0.0000E+00    6.610000E+06  0.05000  1.455E-02    0   0.8877   age061_m72            0.0000     1.0481E-05    47.5392   0.4339   112.4097
 55      0.0000     0.0000E+00    0.0000E+00    1.000000E+07  0.05000  9.074E-03    0   0.8524   age070_m72            0.0000     9.5288E-06    40.2063   1.1396   112.7803
 56      0.0000     0.0000E+00    0.0000E+00    2.512000E+07  0.05000  4.250E-03    0   0.7902   age090_m72            0.0000     9.2591E-06    39.0111   0.8020   116.0145
 57      0.0000     0.0000E+00    0.0000E+00    4.000000E+07  0.05000  3.087E-03    0   0.7618   age104_m72            0.0000     9.2374E-06    38.9616   0.5665   118.1083
 58      0.0074     9.9670E-04    1.1804E-03    1.015200E+08  0.05000  1.700E-03    0   0.7096   age116_m72            0.0000     9.1175E-06    36.1041   0.2114   124.4256
 59      0.0000     0.0000E+00    0.0000E+00    2.861200E+08  0.05000  7.384E-04    0   0.6633   age125_m72            0.0000     9.3718E-06    32.8849  -0.4769   135.3805
 60     16.7991     1.0127E+01    1.0770E+01    5.088000E+08  0.05000  3.819E-04    0   0.6372   age130_m72            0.0000     9.2226E-06    32.2085  -1.0000   139.1011
 61     14.6058     2.0062E+01    2.0459E+01    9.047900E+08  0.05000  1.676E-04    0   0.6110   age135_m72            0.0000     1.0518E-05    49.5908  -1.0000   124.6638
 62      0.0000     0.0000E+00    0.0000E+00    1.434000E+09  0.05000  8.837E-05    0   0.5874   age139_m72            0.0000     1.2790E-05    65.2614  -1.0000   113.2412
 63      0.0000     0.0000E+00    0.0000E+00    2.500000E+09  0.05000  4.233E-05    0   0.5598   age150_m72            0.0000     1.5456E-05    75.1541  -1.0000   103.7190
 64      0.0000     0.0000E+00    0.0000E+00    6.250000E+09  0.05000  1.435E-05    0   0.5249   age166_m72            0.0000     2.0098E-05    88.1600  -1.0000    89.2106
 65      0.0000     0.0000E+00    0.0000E+00    1.300000E+10  0.05000  6.513E-06    0   0.5036   age193_m72            0.0000     2.3849E-05    94.5526  -1.0000    81.3027
 66      0.0000     0.0000E+00    0.0000E+00    1.800000E+10  0.05000  4.527E-06    0   0.4945   age213_m72            0.0000     2.6133E-05    97.5685  -1.0000    76.0667


## Synthesis Results - Average & Chains ##

# j      x_j: min, <> & last-chain-values for 1 ...  7 chains
  1      0.0000      1.1916      0.0000      0.0000      0.0615      2.2246      0.3829      0.9573      0.0000
  2     28.6813     12.6998     27.8735     29.0575     27.2003     25.9889     27.7510     26.4489     31.7167
  3      0.0000      1.1115      0.8185      0.7427      0.4559      0.0000      0.0000      0.2878      0.8411
  4      0.0000      1.3976      1.7337      0.0000      0.7436      0.1165      0.2742      0.0000      0.6259
  5      0.0000      1.4167      0.1435      0.0775      0.3122      1.2615      0.3812      0.0000      0.0000
  6      0.0000      1.2114      0.4199      0.1835      0.0225      0.8454      0.0000      0.5254      0.2914
  7      0.0000      0.8870      0.2287      0.1575      0.0000      0.1791      1.1414      0.0000      0.0000
  8      0.0000      1.5483      0.0000      0.3208      0.0000      0.6971      0.2049      0.0000      0.9466
  9      0.0000      1.4155      0.0000      0.5572      0.0000      0.7920      0.5893      1.3348      0.1860
 10     15.3402     15.3987     32.6419     32.6333     30.8050     31.1604     36.6793     36.2763     33.5071
 11     11.2590      1.1921      0.2181      0.0000      0.3898      0.6887      0.0000      2.9432      0.1972
 12      1.9919     13.3917     32.5023     33.6501     32.8347     30.5378     33.1433     33.1268     30.9648
 13      0.0000      1.2025      0.4918      0.3288      0.2269      0.6023      0.0000      0.0000      0.2560
 14      0.0000      0.9874      0.0000      0.0000      0.0000      0.2249      0.3445      0.3859      0.0000
 15      0.0000      1.7271      0.5460      0.6326      0.0107      0.6939      0.3626      0.2862      0.1549
 16      0.0000      1.3498      0.0000      0.3636      1.5376      2.1324      0.0000      0.0000      0.4512
 17      0.0000      1.2547      0.0000      0.4883      0.0000      0.3239      0.2874      0.0000      1.0448
 18      0.0000      1.2038      0.7643      0.6263      0.0015      0.5086      0.1883      0.0000      0.5173
 19      1.7906      0.8702      0.0897      0.2838      0.2808      1.2083      0.0000      0.3910      0.0000
 20      0.0000      1.3939      1.4463      1.1049      0.4357      0.7467      0.1794      0.1775      0.5481
 21      0.0000      1.3766      0.0000      0.7337      0.0000      0.5525      0.1941      0.1880      0.9815
 22      0.0000      1.5890      0.2501      0.3817      2.2777      0.3542      0.0000      2.1220      0.9717
 23      3.2057      1.2847      0.6894      0.0000      1.7545      0.0000      0.2977      0.3215      0.0000
 24      0.0000      1.1275      0.1642      1.7541      1.4529      2.1320      0.0000      0.0000      0.3146
 25      0.0000      1.0152      0.0000      0.3998      0.0000      0.0000      0.2968      2.3102      0.0000
 26      0.0000      1.3975      0.9319      0.0000      0.0000      0.1856      0.4685      0.1821      0.0167
 27      0.0000      1.0092      0.0000      0.6137      0.8107      2.6720      0.2103      0.0000      0.0397
 28      1.1372      0.9548      0.0000      0.1736      0.0000      0.0000      0.7108      0.5794      0.4498
 29      0.0000      1.0507      0.5725      0.2806      0.0000      0.9682      0.6617      0.0000      0.8420
 30      0.0000      1.2263      0.0463      1.3662      2.3173      0.1941      0.6305      0.2148      0.2963
 31      0.0000      1.1947      0.9873      0.7742      0.2812      0.0681      0.8160      0.1274      0.9949
 32      0.0000      1.3072      0.2799      0.0818      0.3591      0.0000      0.4219      0.6810      0.5452
 33      0.1244      1.6475      0.0000      0.7557      0.0000      0.0000      0.6692      0.3203      0.4579
 34      0.0000      1.1520      0.2380      1.2072      0.2908      0.7208      0.6906      0.0000      0.6352
 35      0.0000      1.5408      0.9922      0.3640      0.0000      0.8853      0.1749      1.0287      1.0022
 36      0.0000      1.1299      0.0000      0.4540      0.0000      0.7929      0.0000      0.3149      0.0000
 37      0.0000      0.9761      0.1374      0.1857      0.0000      0.0000      0.0408      0.0000      0.0241
 38      0.0000      1.3242      0.8970      1.3418      0.0000      0.1594      0.0000      0.0000      0.9763
 39      0.0000      1.2710      0.0000      0.0000      0.6887      0.0521      0.0000      0.5442      0.4056
 40      0.0000      0.9767      0.3226      0.1683      0.0495      0.0000      0.0000      0.0000      0.5836
 41      0.0000      1.3601      1.5986      0.0000      0.0000      0.0888      0.0000      0.1728      0.0000
 42      0.0000      0.8589      0.9053      0.0000      0.0000      0.3669      0.0000      0.0000      0.1438
 43      0.0000      1.2286      1.1349      0.4516      0.9928      0.3793      0.0808      0.0000      0.0000
 44      0.4123      1.7981      0.2443      1.6504      2.7112      2.2382      2.7140      1.9819      1.8936
 45     24.4117      1.3391      0.3624      0.0563      1.3677      0.0067      1.6715      0.4288      0.2462
 46      0.0000      1.3468      0.0000      0.3135      0.0000      0.0000      0.5265      0.0000      0.0000
 47      8.5007      1.5647      0.5862      0.0000      0.0000      1.2546      0.4209      0.3996      0.4159
 48      0.8417      1.1080      0.0000      1.0244      1.6199      0.7048      0.0000      0.3692      0.0000
 49      0.0000      2.1132      0.2723      0.3015      0.0000      0.0076      0.5243      1.0846      1.2625
 50      0.0000      1.3049      0.6752      0.2709      0.0000      0.0000      0.3898      0.5550      0.5249
 51      0.0000      1.1740      0.0219      0.7368      1.8046      0.8740      0.2982      0.0000      0.3575
 52      0.0000      0.7957      0.0000      0.4371      0.0000      0.1273      0.8452      0.1288      0.1037
 53      0.0000      1.0379      1.8330      0.0000      0.3879      0.6439      0.4803      0.0000      0.6888
 54      0.0000      1.1093      0.1266      0.3056      0.0672      0.4172      0.6223      0.2789      0.0126
 55      0.0000      1.0704      0.0000      0.2450      0.0000      0.2435      0.0357      0.0000      0.0000
 56      0.0000      1.0507      0.1572      0.1577      0.7355      0.1215      0.1195      0.0000      0.0000
 57      0.0000      0.9698      0.4866      0.3447      0.9348      0.0000      0.0000      0.0000      0.4121
 58      0.0074      1.3560      0.3919      0.0000      1.4773      0.0245      0.7547      1.1191      0.0000
 59      0.0000      0.8813      0.4842      0.0000      0.2586      0.0000      0.0809      0.0000      0.2587
 60     16.7991      1.4496      1.7810      0.0000      0.0000      1.1053      0.0000      0.6304      0.0000
 61     14.6058      1.1151      0.3659      0.3798      0.0000      0.0000      0.9058      1.2568      0.0000
 62      0.0000      1.0499      0.8699      0.0000      0.4737      0.1703      1.1078      0.0000      0.2534
 63      0.0000      1.4848      1.2139      0.0000      0.0000      0.7832      0.0000      0.5776      0.0000
 64      0.0000      0.9007      0.0000      1.0499      0.1911      0.0000      0.2915      0.0000      0.6409
 65      0.0000      1.3795      0.0000      0.0000      0.5969      0.0000      0.0000      0.0000      0.0000
 66      0.0000      1.2751      0.0000      0.0000      0.6008      0.0000      0.2379      0.0056      0.4271

# j      m_j: min, <> & last-chain-values for 1 ...  7 chains
  1  0.0000E+00  1.2977E-02  0.0000E+00  0.0000E+00  1.9947E-03  9.9386E-02  1.3569E-02  4.5764E-02  0.0000E+00
  2  2.7500E-01  3.7755E-02  3.9116E-01  2.5594E-01  2.4073E-01  3.1697E-01  2.6847E-01  3.4517E-01  2.3868E-01
  3  0.0000E+00  4.9484E-03  1.7201E-02  9.7967E-03  6.0425E-03  0.0000E+00  0.0000E+00  5.6251E-03  9.4782E-03
  4  0.0000E+00  5.8595E-03  3.4310E-02  0.0000E+00  9.2807E-03  2.0046E-03  3.7413E-03  0.0000E+00  6.6427E-03
  5  0.0000E+00  1.1314E-02  5.4113E-03  1.8347E-03  7.4234E-03  4.1330E-02  9.9077E-03  0.0000E+00  0.0000E+00
  6  0.0000E+00  1.5692E-02  2.5678E-02  7.0428E-03  8.6713E-04  4.4928E-02  0.0000E+00  2.9873E-02  9.5535E-03
  7  0.0000E+00  1.6450E-02  2.0024E-02  8.6568E-03  0.0000E+00  1.3627E-02  6.8880E-02  0.0000E+00  0.0000E+00
  8  0.0000E+00  3.9686E-02  0.0000E+00  2.4363E-02  0.0000E+00  7.3304E-02  1.7091E-02  0.0000E+00  6.1420E-02
  9  0.0000E+00  4.1529E-02  0.0000E+00  4.8435E-02  0.0000E+00  9.5319E-02  5.6264E-02  1.7190E-01  1.3810E-02
 10  1.9066E+00  5.9343E-01  5.9381E+00  3.7260E+00  3.5342E+00  4.9264E+00  4.5998E+00  6.1369E+00  3.2686E+00
 11  2.6313E+00  8.6380E-02  7.4607E-02  0.0000E+00  8.4099E-02  2.0474E-01  0.0000E+00  9.3622E-01  3.6165E-02
 12  7.3843E-01  1.5393E+00  1.7636E+01  1.1460E+01  1.1236E+01  1.4401E+01  1.2397E+01  1.6716E+01  9.0096E+00
 13  0.0000E+00  3.8959E-01  7.5223E-01  3.1564E-01  2.1881E-01  8.0052E-01  0.0000E+00  0.0000E+00  2.0999E-01
 14  0.0000E+00  1.0729E+00  0.0000E+00  0.0000E+00  0.0000E+00  1.0025E+00  1.2181E+00  1.8406E+00  0.0000E+00
 15  0.0000E+00  3.0553E+00  4.5594E+00  3.3158E+00  5.6148E-02  5.0358E+00  2.0871E+00  2.2228E+00  6.9353E-01
 16  0.0000E+00  4.0375E+00  0.0000E+00  3.2222E+00  1.3692E+01  2.6167E+01  0.0000E+00  0.0000E+00  3.4164E+00
 17  0.0000E+00  4.8687E+00  0.0000E+00  5.6141E+00  0.0000E+00  5.1563E+00  3.6287E+00  0.0000E+00  1.0263E+01
 18  0.0000E+00  1.1585E-02  3.4721E-02  1.7858E-02  4.2535E-05  2.0080E-02  5.8976E-03  0.0000E+00  1.2602E-02
 19  2.2305E-02  3.3610E-03  1.6346E-03  3.2482E-03  3.2292E-03  1.9146E-02  0.0000E+00  6.6290E-03  0.0000E+00
 20  0.0000E+00  5.8777E-03  2.8788E-02  1.3804E-02  5.4688E-03  1.2917E-02  2.4612E-03  3.2854E-03  5.8505E-03
 21  0.0000E+00  7.0460E-03  0.0000E+00  1.1126E-02  0.0000E+00  1.1601E-02  3.2330E-03  4.2237E-03  1.2716E-02
 22  0.0000E+00  1.3753E-02  1.0219E-02  9.7879E-03  5.8689E-02  1.2577E-02  0.0000E+00  8.0624E-02  2.1289E-02
 23  1.2084E-01  1.5016E-02  3.8036E-02  0.0000E+00  6.1048E-02  0.0000E+00  1.1322E-02  1.6495E-02  0.0000E+00
 24  0.0000E+00  1.9605E-02  1.3480E-02  9.0372E-02  7.5211E-02  1.5209E-01  0.0000E+00  0.0000E+00  1.3850E-02
 25  0.0000E+00  2.4342E-02  0.0000E+00  2.8402E-02  0.0000E+00  0.0000E+00  2.3160E-02  2.4316E-01  0.0000E+00
 26  0.0000E+00  5.6010E-02  1.7630E-01  0.0000E+00  0.0000E+00  3.0517E-02  6.1104E-02  3.2033E-02  1.6931E-03
 27  0.0000E+00  8.0957E-02  0.0000E+00  1.4586E-01  1.9361E-01  8.7937E-01  5.4897E-02  0.0000E+00  8.0658E-03
 28  8.5390E-01  2.2229E-01  0.0000E+00  1.1973E-01  0.0000E+00  0.0000E+00  5.3847E-01  5.9212E-01  2.6506E-01
 29  0.0000E+00  4.2620E-01  1.0962E+00  3.3724E-01  0.0000E+00  1.6112E+00  8.7345E-01  0.0000E+00  8.6454E-01
 30  0.0000E+00  1.0393E+00  1.8515E-01  3.4305E+00  5.8467E+00  6.7489E-01  1.7388E+00  7.9905E-01  6.3576E-01
 31  0.0000E+00  1.7811E+00  6.9484E+00  3.4198E+00  1.2480E+00  4.1665E-01  3.9588E+00  8.3358E-01  3.7544E+00
 32  0.0000E+00  2.6222E+00  2.6500E+00  4.8587E-01  2.1446E+00  0.0000E+00  2.7541E+00  5.9970E+00  2.7685E+00
 33  1.7816E+00  7.3159E+00  0.0000E+00  9.9422E+00  0.0000E+00  0.0000E+00  9.6707E+00  6.2443E+00  5.1474E+00
 34  0.0000E+00  6.9274E+00  6.7564E+00  2.1509E+01  5.2067E+00  1.7783E+01  1.3515E+01  0.0000E+00  9.6682E+00
 35  0.0000E+00  1.1889E-02  3.6140E-02  8.3204E-03  0.0000E+00  2.8024E-02  4.3927E-03  3.4845E-02  1.9574E-02
 36  0.0000E+00  3.5273E-03  0.0000E+00  4.1995E-03  0.0000E+00  1.0155E-02  0.0000E+00  4.3154E-03  0.0000E+00
 37  0.0000E+00  3.2960E-03  2.1903E-03  1.8574E-03  0.0000E+00  0.0000E+00  4.4879E-04  0.0000E+00  2.0591E-04
 38  0.0000E+00  1.2114E-02  3.8734E-02  3.6369E-02  0.0000E+00  5.9830E-03  0.0000E+00  0.0000E+00  2.2608E-02
 39  0.0000E+00  1.6741E-02  0.0000E+00  0.0000E+00  2.7007E-02  2.8159E-03  0.0000E+00  3.1464E-02  1.3523E-02
 40  0.0000E+00  2.0794E-02  3.2417E-02  1.0617E-02  3.1384E-03  0.0000E+00  0.0000E+00  0.0000E+00  3.1449E-02
 41  0.0000E+00  4.5029E-02  2.4983E-01  0.0000E+00  0.0000E+00  1.2059E-02  0.0000E+00  2.5120E-02  0.0000E+00
 42  0.0000E+00  5.2208E-02  2.5977E-01  0.0000E+00  0.0000E+00  9.1504E-02  0.0000E+00  0.0000E+00  2.2132E-02
 43  0.0000E+00  1.0904E-01  4.7545E-01  1.1875E-01  2.6230E-01  1.3809E-01  2.3342E-02  0.0000E+00  0.0000E+00
 44  2.0319E-01  2.7476E-01  1.7621E-01  7.4720E-01  1.2334E+00  1.4031E+00  1.3495E+00  1.3294E+00  7.3244E-01
 45  2.3871E+01  4.0601E-01  5.1868E-01  5.0565E-02  1.2345E+00  8.3398E-03  1.6491E+00  5.7077E-01  1.8894E-01
 46  0.0000E+00  7.5055E-01  0.0000E+00  5.1760E-01  0.0000E+00  0.0000E+00  9.5480E-01  0.0000E+00  0.0000E+00
 47  3.0960E+01  1.7669E+00  3.1246E+00  0.0000E+00  0.0000E+00  5.8124E+00  1.5469E+00  1.9807E+00  1.1889E+00
 48  5.4064E+00  2.2066E+00  0.0000E+00  6.0448E+00  9.6042E+00  5.7581E+00  0.0000E+00  3.2280E+00  0.0000E+00
 49  0.0000E+00  9.5648E+00  5.8171E+00  4.0434E+00  0.0000E+00  1.4106E-01  7.7229E+00  2.1551E+01  1.4465E+01
 50  0.0000E+00  1.0939E+01  2.6718E+01  6.7293E+00  0.0000E+00  0.0000E+00  1.0633E+01  2.0426E+01  1.1139E+01
 51  0.0000E+00  5.3948E-03  4.7580E-04  1.0032E-02  2.4687E-02  1.6477E-02  4.4590E-03  0.0000E+00  4.1580E-03
 52  0.0000E+00  1.8738E-03  0.0000E+00  3.0496E-03  0.0000E+00  1.2302E-03  6.4773E-03  1.3315E-03  6.1797E-04
 53  0.0000E+00  3.6819E-03  3.0694E-02  0.0000E+00  4.0961E-03  9.3699E-03  5.5442E-03  0.0000E+00  6.1845E-03
 54  0.0000E+00  8.0631E-03  4.3441E-03  6.5822E-03  1.4536E-03  1.2442E-02  1.4719E-02  8.9000E-03  2.3136E-04
 55  0.0000E+00  1.1979E-02  0.0000E+00  8.1235E-03  0.0000E+00  1.1179E-02  1.2997E-03  0.0000E+00  0.0000E+00
 56  0.0000E+00  2.3275E-02  1.6435E-02  1.0352E-02  4.8502E-02  1.1040E-02  8.6120E-03  0.0000E+00  0.0000E+00
 57  0.0000E+00  2.8513E-02  6.7532E-02  3.0025E-02  8.1821E-02  0.0000E+00  0.0000E+00  0.0000E+00  3.0670E-02
 58  1.1804E-03  6.7431E-02  9.1990E-02  0.0000E+00  2.1870E-01  4.9979E-03  1.2212E-01  2.4429E-01  0.0000E+00
 59  0.0000E+00  9.4312E-02  2.4463E-01  0.0000E+00  8.2394E-02  0.0000E+00  2.8162E-02  0.0000E+00  7.0089E-02
 60  1.0770E+01  2.8816E-01  1.6711E+00  0.0000E+00  0.0000E+00  9.0132E-01  0.0000E+00  5.5005E-01  0.0000E+00
 61  2.0459E+01  4.8432E-01  7.5014E-01  4.8868E-01  0.0000E+00  0.0000E+00  1.2801E+00  2.3962E+00  0.0000E+00
 62  0.0000E+00  8.3144E-01  3.2518E+00  0.0000E+00  1.1167E+00  5.5334E-01  2.8546E+00  0.0000E+00  5.0797E-01
 63  0.0000E+00  2.3394E+00  9.0282E+00  0.0000E+00  0.0000E+00  5.0622E+00  0.0000E+00  3.9946E+00  0.0000E+00
 64  0.0000E+00  3.9253E+00  0.0000E+00  1.3556E+01  2.4792E+00  0.0000E+00  4.1338E+00  0.0000E+00  7.0699E+00
 65  0.0000E+00  1.2707E+01  0.0000E+00  0.0000E+00  1.6371E+01  0.0000E+00  0.0000E+00  0.0000E+00  0.0000E+00
 66  0.0000E+00  1.6594E+01  0.0000E+00  0.0000E+00  2.3276E+01  0.0000E+00  1.0076E+01  3.2092E-01  1.4070E+01

# AV, chi2 & Mass for <> & i_chain = 1 ...  7 solutions
AV      -0.7245     -0.0967     -0.0097     -0.1200     -0.0996     -0.0547     -0.1359     -0.0536     -0.1037
chi2 8.9274E-06  1.0029E-05  9.0510E-06  9.0690E-06  9.0725E-06  9.0553E-06  9.0592E-06  9.0342E-06  9.0827E-06
Mass 6.4846E-15  4.8596E-14  1.1572E-14  1.5897E-14  1.6260E-14  1.2534E-14  1.4168E-14  1.1730E-14  1.9020E-14
 487.78                                  [v0_min (km/s) before EX0s...]
  38.21                                  [vd_min (km/s) before EX0s...]


## Synthetic spectrum (Best Model) ##l_obs f_obs f_syn wei
 3478    [Nl_obs]
 3741.00    0.00718   0.59297    0.000
 3742.00   -0.14250   0.64035    0.000
 3743.00   -0.41352   0.71087    0.000
 3744.00   -0.40592   0.79656    0.000
 3745.00   -0.23597   0.87975    0.000
 3746.00    0.49361   0.93690    0.018
 3747.00    1.50739   0.95669    0.018
 3748.00    1.14954   0.93971    0.018
 3749.00    0.18856   0.90875    0.018
 3750.00    0.31162   0.88220    0.017
 3751.00    0.84394   0.84631    0.017
 3752.00    1.21590   0.79799    0.017
 3753.00    1.53646   0.74505    0.016
 3754.00    1.11911   0.67097    0.016
 3755.00    0.50400   0.59578    0.015
 3756.00    0.44537   0.57844    0.015
 3757.00    0.50887   0.63611    0.015
 3758.00    0.30656   0.72575    0.015
 3759.00    0.05786   0.80900    0.015
 3760.00    0.14475   0.88397    0.021
 3761.00    0.27622   0.94350    0.041
 3762.00    0.32286   0.96543    0.023
 3763.00    0.36154   0.94067    0.015
 3764.00    0.34637   0.90348    0.015
 3765.00    0.32810   0.89737    0.014
 3766.00    0.66129   0.91902    0.014
 3767.00    1.00105   0.94457    0.014
 3768.00    1.12604   0.96538    0.014
 3769.00    1.25952   0.96953    0.014
 3770.00    1.59929   0.95523    0.014
 3771.00    1.89070   0.93176    0.014
 3772.00    1.54850   0.88585    0.015
 3773.00    1.19913   0.82375    0.015
 3774.00    0.78673   0.76768    0.014
 3775.00    0.46802   0.70885    0.014
 3776.00    0.75671   0.64973    0.014
 3777.00    0.93910   0.64059    0.015
 3778.00    0.58352   0.70174    0.015
 3779.00    0.36677   0.78714    0.015
 3780.00    0.71833   0.85229    0.015
 3781.00    1.07210   0.89613    0.015
 3782.00    1.43337   0.93684    0.015
 3783.00    1.66720   0.98340    0.016
 3784.00    1.53654   1.02594    0.016
 3785.00    1.25892   1.06378    0.016
 3786.00    0.62224   1.09768    0.016
 3787.00    0.44223   1.11666    0.016
 3788.00    1.22470   1.12243    0.016
 3789.00    1.79299   1.13070    0.016
 3790.00    1.96897   1.14052    0.016
 3791.00    1.82011   1.12122    0.015
 3792.00    1.15127   1.06977    0.015
 3793.00    0.72808   1.02543    0.014
 3794.00    0.64997   1.00231    0.014
 3795.00    0.67109   0.98712    0.014
 3796.00    0.81488   0.97516    0.014
 3797.00    0.83582   0.96636    0.014
 3798.00    0.72292   0.94693    0.014
 3799.00    0.54838   0.89958    0.014
 3800.00    0.31463   0.82887    0.014
 3801.00    0.17035   0.75784    0.014
 3802.00    0.10190   0.68994    0.014
 3803.00    0.09379   0.61871    0.014
 3804.00    0.13072   0.57683    0.014
 3805.00    0.18384   0.60611    0.014
 3806.00    0.24759   0.69526    0.014
 3807.00    0.28548   0.79283    0.014
 3808.00    0.30854   0.87371    0.014
 3809.00    0.60803   0.94364    0.014
 3810.00    1.04569   0.99326    0.014
 3811.00    1.07735   1.01349    0.014
 3812.00    0.93344   1.01498    0.014
 3813.00    0.99763   1.02293    0.015
 3814.00    1.13900   1.05562    0.015
 3815.00    1.34073   1.10464    0.015
 3816.00    1.56144   1.14720    0.015
 3817.00    1.41823   1.16177    0.015
 3818.00    1.17956   1.13824    0.015
 3819.00    0.79776   1.09167    0.015
 3820.00    0.38529   1.05641    0.014
 3821.00    0.60420   1.04948    0.014
 3822.00    0.93027   1.06668    0.015
 3823.00    0.61730   1.09572    0.014
 3824.00    0.22234   1.10518    0.014
 3825.00    0.45802   1.07137    0.014
 3826.00    0.75031   1.02838    0.014
 3827.00    0.82043   1.02827    0.014
 3828.00    0.87861   1.06068    0.014
 3829.00    0.89695   1.06998    0.014
 3830.00    0.91613   1.03292    0.014
 3831.00    1.07380   0.98471    0.015
 3832.00    1.23418   0.95614    0.015
 3833.00    1.45468   0.93596    0.015
 3834.00    1.66281   0.91119    0.014
 3835.00    1.71726   0.88500    0.014
 3836.00    1.73841   0.85853    0.014
 3837.00    1.47823   0.81550    0.014
 3838.00    1.21873   0.74347    0.014
 3839.00    0.96353   0.66132    0.014
 3840.00    0.75589   0.58835    0.014
 3841.00    0.78287   0.54055    0.014
 3842.00    0.81812   0.54465    0.014
 3843.00    0.88648   0.59618    0.014
 3844.00    0.84683   0.66230    0.014
 3845.00    0.44810   0.72449    0.014
 3846.00    0.10847   0.77925    0.014
 3847.00   -0.06520   0.83659    0.000
 3848.00   -0.07544   0.90228    0.000
 3849.00    0.30686   0.96253    0.000
 3850.00    0.47041   1.00474    0.000
 3851.00    0.18025   1.02894    0.000
 3852.00    0.16764   1.04842    0.000
 3853.00    0.65564   1.07503    0.000
 3854.00    0.81953   1.09907    0.000
 3855.00    0.47228   1.10195    0.000
 3856.00    0.35644   1.09928    0.000
 3857.00    0.56097   1.11940    0.000
 3858.00    0.80331   1.14861    0.000
 3859.00    1.09172   1.16340    0.000
 3860.00    1.21060   1.16044    0.000
 3861.00    1.14738   1.14575    0.000
 3862.00    1.27187   1.13187    0.000
 3863.00    1.57420   1.13170    0.000
 3864.00    1.50369   1.13037    0.000
 3865.00    1.12169   1.11447    0.000
 3866.00    0.99349   1.11010    0.000
 3867.00    1.05196   1.13956    0.000
 3868.00    1.15037   1.17691    0.000
 3869.00    1.27458   1.19485    0.000
 3870.00    1.16680   1.19680    0.000
 3871.00    0.92793   1.18799    0.000
 3872.00    0.75276   1.17480    0.000
 3873.00    0.60894   1.17112    0.000
 3874.00    0.49748   1.17937    0.000
 3875.00    0.39980   1.18522    0.000
 3876.00    0.38148   1.17159    0.000
 3877.00    0.39207   1.13439    0.000
 3878.00    0.57395   1.08952    0.000
 3879.00    0.80865   1.06741    0.000
 3880.00    0.76796   1.08193    0.000
 3881.00    0.65657   1.11097    0.013
 3882.00    0.79288   1.11898    0.013
 3883.00    0.98098   1.08593    0.013
 3884.00    1.36406   1.02925    0.014
 3885.00    1.77929   0.99916    0.014
 3886.00    1.29943   1.00695    0.014
 3887.00    0.70871   1.00459    0.014
 3888.00    0.69410   0.96765    0.014
 3889.00    0.72879   0.92465    0.014
 3890.00    1.08720   0.88996    0.014
 3891.00    1.46174   0.83690    0.014
 3892.00    1.19122   0.75671    0.014
 3893.00    0.91342   0.67250    0.014
 3894.00    0.84822   0.59866    0.014
 3895.00    0.79256   0.55566    0.014
 3896.00    0.93232   0.57966    0.014
 3897.00    1.07492   0.66462    0.013
 3898.00    1.25103   0.75965    0.013
 3899.00    1.35477   0.82878    0.013
 3900.00    0.86891   0.87231    0.013
 3901.00    0.50023   0.90274    0.013
 3902.00    0.84727   0.93429    0.013
 3903.00    1.12627   0.97266    0.012
 3904.00    1.07789   0.99975    0.012
 3905.00    1.06284   1.00911    0.012
 3906.00    1.17834   1.02553    0.012
 3907.00    1.25177   1.06131    0.012
 3908.00    1.18805   1.08977    0.012
 3909.00    1.13726   1.09417    0.013
 3910.00    1.12217   1.09138    0.013
 3911.00    1.05786   1.08428    0.013
 3912.00    0.87732   1.07571    0.014
 3913.00    0.87371   1.09196    0.014
 3914.00    1.23115   1.13537    0.014
 3915.00    1.35535   1.17655    0.014
 3916.00    1.06528   1.20051    0.014
 3917.00    0.89582   1.21358    0.014
 3918.00    0.91376   1.21465    0.014
 3919.00    0.75536   1.19779    0.014
 3920.00    0.35632   1.17888    0.014
 3921.00    0.38336   1.17553    0.014
 3922.00    0.92221   1.17372    0.014
 3923.00    1.41026   1.16462    0.014
 3924.00    1.84449   1.15456    0.014
 3925.00    1.98573   1.14207    0.014
 3926.00    1.85326   1.12767    0.014
 3927.00    1.57942   1.12286    0.014
 3928.00    1.18915   1.13281    0.014
 3929.00    1.03546   1.14474    0.014
 3930.00    1.05326   1.15013    0.014
 3931.00    0.92821   1.14224    0.014
 3932.00    0.71226   1.11506    0.014
 3933.00    0.72608   1.08028    0.014
 3934.00    0.86779   1.04434    0.014
 3935.00    1.05448   0.99962    0.014
 3936.00    1.26294   0.94853    0.014
 3937.00    1.00869   0.89149    0.014
 3938.00    0.56098   0.81755    0.014
 3939.00    0.57345   0.73815    0.014
 3940.00    0.75052   0.69795    0.014
 3941.00    0.99297   0.72841    0.014
 3942.00    1.25519   0.81303    0.014
 3943.00    1.11952   0.90552    0.014
 3944.00    0.88393   0.97673    0.014
 3945.00    0.83742   1.02846    0.014
 3946.00    0.82947   1.06788    0.014
 3947.00    0.94203   1.09097    0.014
 3948.00    1.07389   1.09455    0.014
 3949.00    1.15337   1.08526    0.014
 3950.00    1.22659   1.07876    0.014
 3951.00    0.76560   1.09528    0.014
 3952.00    0.26110   1.12800    0.015
 3953.00    0.92780   1.14172    0.015
 3954.00    1.64832   1.12864    0.015
 3955.00    1.51920   1.11603    0.015
 3956.00    1.38996   1.11964    0.015
 3957.00    1.81985   1.12510    0.015
 3958.00    2.22379   1.11741    0.015
 3959.00    2.13619   1.10896    0.015
 3960.00    2.03680   1.11724    0.000
 3961.00    1.80456   1.11981    0.000
 3962.00    1.59154   1.08934    0.000
 3963.00    1.52963   1.05180    0.000
 3964.00    1.40980   1.04233    0.000
 3965.00    0.94636   1.04969    0.000
 3966.00    0.51301   1.03568    0.000
 3967.00    0.22092   0.98196    0.000
 3968.00    0.08638   0.91641    0.000
 3969.00    0.55556   0.86928    0.000
 3970.00    0.84988   0.82920    0.000
 3971.00    0.58528   0.77466    0.000
 3972.00    0.34292   0.69850    0.000
 3973.00    0.16074   0.60346    0.000
 3974.00    0.13903   0.50648    0.000
 3975.00    0.48993   0.43479    0.000
 3976.00    0.65714   0.41334    0.000
 3977.00    0.45543   0.45380    0.000
 3978.00    0.28451   0.53776    0.000
 3979.00    0.16747   0.62934    0.000
 3980.00    0.43171   0.71131    0.000
 3981.00    1.27968   0.78538    0.014
 3982.00    1.93923   0.84837    0.015
 3983.00    2.34536   0.89864    0.015
 3984.00    2.30934   0.94640    0.015
 3985.00    1.74971   0.99559    0.015
 3986.00    1.40514   1.03723    0.015
 3987.00    1.28514   1.05798    0.015
 3988.00    1.08289   1.05805    0.014
 3989.00    0.80487   1.05858    0.014
 3990.00    0.58738   1.07395    0.014
 3991.00    0.41903   1.09705    0.014
 3992.00    0.54168   1.11496    0.014
 3993.00    0.87226   1.12877    0.014
 3994.00    1.18628   1.14780    0.014
 3995.00    1.48992   1.16269    0.014
 3996.00    1.50522   1.16415    0.014
 3997.00    1.36252   1.16886    0.014
 3998.00    1.04292   1.18777    0.014
 3999.00    0.63906   1.20802    0.014
 4000.00    0.29892   1.21421    0.014
 4001.00   -0.01504   1.20392    0.000
 4002.00    0.60673   1.18315    0.014
 4003.00    1.55714   1.15957    0.015
 4004.00    1.65588   1.15029    0.015
 4005.00    1.50228   1.17255    0.014
 4006.00    1.32150   1.21207    0.014
 4007.00    1.13405   1.23596    0.014
 4008.00    1.35065   1.24000    0.014
 4009.00    1.64760   1.23856    0.015
 4010.00    1.22301   1.22196    0.014
 4011.00    0.68630   1.18010    0.014
 4012.00    0.66455   1.14835    0.014
 4013.00    0.70201   1.16300    0.014
 4014.00    0.43896   1.20288    0.014
 4015.00    0.15267   1.22845    0.015
 4016.00    0.54424   1.23568    0.015
 4017.00    0.96435   1.24054    0.015
 4018.00    0.50249   1.24418    0.014
 4019.00    0.05202   1.24293    0.014
 4020.00    0.45325   1.24281    0.014
 4021.00    0.85579   1.24908    0.015
 4022.00    1.28148   1.25597    0.015
 4023.00    1.66709   1.25221    0.015
 4024.00    1.62153   1.24789    0.015
 4025.00    1.54075   1.26249    0.014
 4026.00    1.19259   1.28204    0.014
 4027.00    0.85475   1.27915    0.014
 4028.00    0.57645   1.25991    0.014
 4029.00    0.42736   1.24189    0.014
 4030.00    0.87041   1.21945    0.014
 4031.00    1.27564   1.19387    0.014
 4032.00    1.53903   1.19166    0.014
 4033.00    1.64729   1.22027    0.014
 4034.00    1.26924   1.25021    0.014
 4035.00    1.03115   1.25060    0.013
 4036.00    1.16541   1.21488    0.014
 4037.00    1.19837   1.16867    0.013
 4038.00    1.00000   1.14604    0.013
 4039.00    0.85536   1.14997    0.013
 4040.00    0.81692   1.16661    0.014
 4041.00    0.98842   1.19140    0.014
 4042.00    1.52160   1.22388    0.014
 4043.00    1.58102   1.26060    0.014
 4044.00    0.92576   1.28774    0.014
 4045.00    0.55539   1.29014    0.014
 4046.00    0.56266   1.27245    0.014
 4047.00    0.82699   1.25432    0.014
 4048.00    1.39144   1.25164    0.014
 4049.00    1.56376   1.25417    0.014
 4050.00    1.33239   1.22685    0.014
 4051.00    1.16641   1.16534    0.014
 4052.00    1.05982   1.12278    0.014
 4053.00    0.97128   1.14538    0.014
 4054.00    0.89719   1.20463    0.014
 4055.00    1.10947   1.24165    0.014
 4056.00    1.52340   1.25026    0.014
 4057.00    1.54682   1.25146    0.014
 4058.00    1.32902   1.24383    0.014
 4059.00    1.00596   1.22387    0.014
 4060.00    0.62610   1.20070    0.014
 4061.00    0.50084   1.18571    0.015
 4062.00    0.49491   1.18410    0.014
 4063.00    0.60231   1.18389    0.014
 4064.00    0.75549   1.17722    0.014
 4065.00    1.14267   1.18212    0.014
 4066.00    1.61054   1.20796    0.014
 4067.00    1.50553   1.22795    0.014
 4068.00    1.23417   1.21033    0.014
 4069.00    0.81237   1.16015    0.014
 4070.00    0.35444   1.12307    0.014
 4071.00    0.45736   1.13476    0.014
 4072.00    0.66895   1.16552    0.014
 4073.00    1.43611   1.17069    0.015
 4074.00    2.28698   1.16979    0.015
 4075.00    1.61801   1.19279    0.014
 4076.00    0.78093   1.20752    0.014
 4077.00    0.61705   1.17926    0.014
 4078.00    0.50246   1.14122    0.014
 4079.00    0.85074   1.14283    0.014
 4080.00    1.21674   1.17032    0.014
 4081.00    1.14839   1.17315    0.014
 4082.00    1.09388   1.13483    0.014
 4083.00    1.65137   1.07949    0.014
 4084.00    2.15191   1.04823    0.014
 4085.00    1.71402   1.06575    0.014
 4086.00    1.26565   1.11469    0.014
 4087.00    0.70937   1.16009    0.013
 4088.00    0.25815   1.17804    0.013
 4089.00    0.57792   1.16341    0.013
 4090.00    0.87818   1.13324    0.014
 4091.00    1.06899   1.10856    0.014
 4092.00    1.20618   1.10045    0.000
 4093.00    1.10338   1.11129    0.000
 4094.00    1.06747   1.12987    0.000
 4095.00    1.27722   1.13654    0.000
 4096.00    1.38396   1.12485    0.000
 4097.00    1.17392   1.10331    0.000
 4098.00    0.98228   1.07841    0.000
 4099.00    0.83875   1.05485    0.000
 4100.00    0.68170   1.03548    0.000
 4101.00    0.49427   1.00672    0.000
 4102.00    0.48465   0.95881    0.000
 4103.00    0.82107   0.90651    0.000
 4104.00    1.05707   0.86003    0.000
 4105.00    1.12269   0.80967    0.000
 4106.00    1.14148   0.74031    0.000
 4107.00    1.09065   0.65100    0.000
 4108.00    1.19188   0.58162    0.000
 4109.00    1.49182   0.58742    0.000
 4110.00    1.78135   0.66338    0.000
 4111.00    2.05892   0.75537    0.000
 4112.00    1.86813   0.83088    0.000
 4113.00    1.20191   0.88462    0.013
 4114.00    1.09634   0.91913    0.013
 4115.00    1.49273   0.94198    0.013
 4116.00    1.78033   0.95849    0.013
 4117.00    1.98212   0.97499    0.013
 4118.00    1.68918   0.99948    0.013
 4119.00    1.05293   1.03072    0.013
 4120.00    0.88772   1.05959    0.019
 4121.00    1.00913   1.08308    0.072
 4122.00    0.93026   1.10387   -1.000
 4123.00    0.74499   1.11590   -1.000
 4124.00    0.84805   1.10734   -1.000
 4125.00    1.08406   1.08586   -1.000
 4126.00    1.45980   1.07629   -1.000
 4127.00    1.89101   1.08522   -1.000
 4128.00    1.75133   1.09566    0.034
 4129.00    1.41843   1.09992    0.015
 4130.00    1.38321   1.10971    0.013
 4131.00    1.43269   1.12996    0.013
 4132.00    1.45448   1.14324    0.013
 4133.00    1.46977   1.13441    0.013
 4134.00    1.13934   1.11182    0.013
 4135.00    0.74366   1.09755    0.013
 4136.00    0.70418   1.09819    0.013
 4137.00    0.71670   1.09599    0.013
 4138.00    0.56101   1.08148    0.013
 4139.00    0.38743   1.06998    0.013
 4140.00    0.88752   1.07953    0.014
 4141.00    1.43420   1.10900    0.014
 4142.00    1.48611   1.14460    0.014
 4143.00    1.52097   1.16684    0.014
 4144.00    1.08140   1.17296    0.014
 4145.00    0.66081   1.18300    0.014
 4146.00    0.89794   1.19757    0.013
 4147.00    1.13103   1.19767    0.013
 4148.00    1.30163   1.16848    0.014
 4149.00    1.43035   1.11074    0.014
 4150.00    1.14637   1.06333    0.014
 4151.00    0.94816   1.07148    0.013
 4152.00    1.35892   1.11884    0.014
 4153.00    1.68380   1.15500    0.014
 4154.00    1.53991   1.16461    0.014
 4155.00    1.45828   1.15750    0.014
 4156.00    1.64878   1.14427    0.013
 4157.00    1.70001   1.13853    0.013
 4158.00    1.25034   1.14170    0.013
 4159.00    0.92907   1.13948    0.013
 4160.00    0.99523   1.12619    0.013
 4161.00    1.09076   1.11085    0.013
 4162.00    1.26174   1.10457    0.013
 4163.00    1.31888   1.10722    0.013
 4164.00    1.12457   1.11857    0.013
 4165.00    1.12043   1.13865    0.013
 4166.00    1.48060   1.15470    0.013
 4167.00    1.64902   1.15741    0.013
 4168.00    1.49698   1.15640    0.013
 4169.00    1.37362   1.16441    0.013
 4170.00    1.29228   1.17408    0.013
 4171.00    1.22380   1.17537    0.013
 4172.00    1.17190   1.16872    0.013
 4173.00    1.03361   1.15434    0.013
 4174.00    0.79730   1.14189    0.013
 4175.00    0.75379   1.14677    0.013
 4176.00    0.90323   1.15862    0.013
 4177.00    1.16132   1.14607    0.013
 4178.00    1.51531   1.10138    0.013
 4179.00    1.63080   1.05512    0.013
 4180.00    1.56080   1.04289    0.013
 4181.00    1.28489   1.06479    0.013
 4182.00    0.86817   1.09192    0.012
 4183.00    0.77399   1.09872    0.012
 4184.00    0.87315   1.08367    0.012
 4185.00    1.11919   1.07444    0.012
 4186.00    1.44206   1.09284    0.012
 4187.00    1.47299   1.11865    0.013
 4188.00    1.37149   1.12148    0.013
 4189.00    1.11986   1.11023    0.012
 4190.00    0.80965   1.11000    0.012
 4191.00    0.74711   1.12328    0.012
 4192.00    0.76684   1.13442    0.012
 4193.00    0.75979   1.12227    0.012
 4194.00    0.74529   1.09727    0.012
 4195.00    0.85283   1.09787    0.012
 4196.00    0.98836   1.12313    0.012
 4197.00    0.94726   1.13803    0.012
 4198.00    0.87370   1.13845    0.012
 4199.00    0.91254   1.14989    0.012
 4200.00    0.96727   1.16908    0.012
 4201.00    0.90684   1.16475    0.012
 4202.00    0.83466   1.13413    0.012
 4203.00    0.59901   1.10296    0.012
 4204.00    0.35271   1.07737    0.012
 4205.00    0.72055   1.05448    0.012
 4206.00    1.10679   1.05355    0.012
 4207.00    1.19919   1.07067    0.012
 4208.00    1.29399   1.07553    0.012
 4209.00    1.45935   1.07260    0.012
 4210.00    1.62154   1.08059    0.013
 4211.00    1.73768   1.09184    0.013
 4212.00    1.82342   1.10289    0.013
 4213.00    1.62178   1.12024    0.012
 4214.00    1.40623   1.13661    0.012
 4215.00    1.09509   1.14104    0.012
 4216.00    0.83233   1.13422    0.013
 4217.00    0.82666   1.13094    0.012
 4218.00    0.85948   1.14256    0.012
 4219.00    1.05671   1.15585    0.012
 4220.00    1.20397   1.14992    0.012
 4221.00    1.17521   1.11699    0.012
 4222.00    1.10800   1.07687    0.012
 4223.00    0.92695   1.07223    0.012
 4224.00    0.80097   1.10849    0.012
 4225.00    0.81399   1.14514    0.012
 4226.00    0.86776   1.16014    0.012
 4227.00    1.01007   1.16297    0.012
 4228.00    1.10678   1.16073    0.012
 4229.00    1.11751   1.14545    0.012
 4230.00    1.07256   1.11457    0.012
 4231.00    0.93594   1.06827    0.012
 4232.00    0.82109   1.00951    0.012
 4233.00    0.73768   0.96203    0.012
 4234.00    0.88996   0.96821    0.012
 4235.00    1.34146   1.03526    0.012
 4236.00    1.60659   1.11021    0.012
 4237.00    1.66320   1.15031    0.012
 4238.00    1.50514   1.15224    0.012
 4239.00    1.13526   1.12114    0.012
 4240.00    0.99267   1.08401    0.012
 4241.00    1.04790   1.07381    0.011
 4242.00    0.88408   1.07814    0.012
 4243.00    0.55234   1.07833    0.012
 4244.00    0.75115   1.08260    0.012
 4245.00    1.30751   1.08659    0.012
 4246.00    1.52785   1.08844    0.012
 4247.00    1.54980   1.10213    0.012
 4248.00    1.55623   1.12139    0.013
 4249.00    1.55467   1.13042    0.013
 4250.00    1.48647   1.13792    0.013
 4251.00    1.38853   1.14915    0.012
 4252.00    1.11692   1.14222    0.012
 4253.00    0.77872   1.11083    0.012
 4254.00    0.75209   1.08368    0.012
 4255.00    0.82700   1.07793    0.012
 4256.00    0.99442   1.07312    0.012
 4257.00    1.18709   1.06006    0.012
 4258.00    0.93011   1.06466    0.012
 4259.00    0.57236   1.08759    0.012
 4260.00    0.44606   1.09470    0.012
 4261.00    0.36116   1.08256    0.012
 4262.00    0.71547   1.08354    0.012
 4263.00    1.12987   1.10659    0.012
 4264.00    1.28931   1.12097    0.012
 4265.00    1.42384   1.10367    0.012
 4266.00    1.49077   1.06856    0.012
 4267.00    1.55357   1.04157    0.012
 4268.00    1.38518   1.04501    0.012
 4269.00    1.21018   1.08203    0.012
 4270.00    0.96153   1.12468    0.012
 4271.00    0.72181   1.14901    0.012
 4272.00    0.71805   1.15713    0.012
 4273.00    0.73626   1.15229    0.011
 4274.00    1.05642   1.13227    0.012
 4275.00    1.33725   1.10713    0.012
 4276.00    1.26090   1.08267    0.012
 4277.00    1.20331   1.04751    0.012
 4278.00    1.27080   1.00596    0.012
 4279.00    1.33191   0.99162    0.012
 4280.00    1.35998   1.00898    0.012
 4281.00    1.33057   1.02493    0.012
 4282.00    1.06122   1.03973   -2.000
 4283.00    0.93276   1.07184   -2.000
 4284.00    1.29070   1.10602   -2.000
 4285.00    1.53560   1.11879   -2.000
 4286.00    1.45190   1.10897   -2.000
 4287.00    1.48185   1.09071   -2.000
 4288.00    1.79368   1.07677   -2.000
 4289.00    2.00233   1.06814   -2.000
 4290.00    1.99039   1.06673   -2.000
 4291.00    1.65218   1.06989   -2.000
 4292.00    0.70817   1.06666   -2.000
 4293.00    0.28313   1.05955   -2.000
 4294.00    0.69977   1.04951   -2.000
 4295.00    1.01246   1.02314   -2.000
 4296.00    1.17726   0.98077   -2.000
 4297.00    1.20242   0.95824   -2.000
 4298.00    1.05284   0.98551    0.012
 4299.00    0.98098   1.03441    0.012
 4300.00    0.99489   1.05572    0.012
 4301.00    0.95743   1.04401    0.012
 4302.00    0.87000   1.03034    0.012
 4303.00    0.82576   1.02526    0.012
 4304.00    0.81856   1.01396    0.012
 4305.00    0.86366   0.98260    0.011
 4306.00    0.94827   0.93606    0.011
 4307.00    0.92475   0.90805    0.011
 4308.00    0.82942   0.91156    0.012
 4309.00    0.89248   0.92164    0.012
 4310.00    1.04763   0.93451    0.011
 4311.00    1.11595   0.95540    0.011
 4312.00    1.14025   0.96528    0.011
 4313.00    0.98564   0.95536    0.011
 4314.00    0.75252   0.93222    0.011
 4315.00    0.88489   0.91104    0.011
 4316.00    1.15494   0.91549    0.011
 4317.00    1.25763   0.94625    0.011
 4318.00    1.30682   0.97836    0.012
 4319.00    1.36835   0.98982    0.012
 4320.00    1.43317   0.98068    0.012
 4321.00    1.18359   0.97300    0.012
 4322.00    0.86521   0.99500    0.011
 4323.00    0.65670   1.04356    0.011
 4324.00    0.46731   1.08002    0.011
 4325.00    0.57813   1.08417    0.011
 4326.00    0.72866   1.06829    0.011
 4327.00    0.97511   1.04588    0.011
 4328.00    1.23053   1.02820    0.011
 4329.00    1.17394   1.01950    0.011
 4330.00    1.09951   0.99821    0.000
 4331.00    0.97529   0.94873    0.000
 4332.00    0.85083   0.89327    0.000
 4333.00    0.83166   0.87693    0.000
 4334.00    0.81355   0.91528    0.000
 4335.00    0.82102   0.96678    0.000
 4336.00    0.83945   0.98377    0.000
 4337.00    1.00047   0.96500    0.000
 4338.00    1.15670   0.94222    0.000
 4339.00    1.27092   0.93063    0.000
 4340.00    1.40147   0.92019    0.000
 4341.00    1.63757   0.90545    0.000
 4342.00    1.79991   0.88224    0.000
 4343.00    1.59016   0.83134    0.000
 4344.00    1.36527   0.74763    0.000
 4345.00    1.07865   0.65874    0.000
 4346.00    0.88168   0.58270    0.000
 4347.00    0.98802   0.52989    0.000
 4348.00    1.16013   0.53649    0.000
 4349.00    1.51992   0.60684    0.000
 4350.00    1.65792   0.68720    0.000
 4351.00    1.25523   0.74713    0.012
 4352.00    0.97380   0.79888    0.012
 4353.00    0.94745   0.84392    0.012
 4354.00    0.91519   0.87777    0.014
 4355.00    0.87212   0.91043    0.037
 4356.00    0.79464   0.93619   -1.000
 4357.00    0.66217   0.92849   -1.000
 4358.00    0.58783   0.88905   -1.000
 4359.00    0.59499   0.86643   -1.000
 4360.00    0.71831   0.89290   -1.000
 4361.00    0.98494   0.94019   -1.000
 4362.00    1.32474   0.97593    0.049
 4363.00    1.74412   1.00176    0.016
 4364.00    1.71087   1.01498    0.012
 4365.00    1.24342   1.00696    0.011
 4366.00    1.25870   0.99483    0.011
 4367.00    1.68229   1.00455    0.012
 4368.00    1.48337   1.03132    0.012
 4369.00    0.82075   1.05178    0.012
 4370.00    0.73430   1.06153    0.012
 4371.00    1.02488   1.07335    0.012
 4372.00    1.07880   1.08429    0.012
 4373.00    0.99718   1.07531    0.012
 4374.00    0.93561   1.04579    0.012
 4375.00    0.88404   1.02068    0.012
 4376.00    0.91635   1.01689    0.011
 4377.00    0.98487   1.02643    0.011
 4378.00    1.27281   1.03903    0.012
 4379.00    1.64194   1.04530    0.012
 4380.00    1.42437   1.02969    0.012
 4381.00    1.02281   0.99299    0.012
 4382.00    1.07079   0.96964    0.012
 4383.00    1.23639   0.98980    0.011
 4384.00    0.99899   1.03700    0.011
 4385.00    0.67552   1.07049    0.011
 4386.00    0.85446   1.07495    0.011
 4387.00    1.11836   1.06459    0.011
 4388.00    0.88730   1.04683    0.011
 4389.00    0.59300   1.00449    0.011
 4390.00    0.52626   0.93547    0.011
 4391.00    0.47981   0.88612    0.011
 4392.00    0.69663   0.89768    0.011
 4393.00    0.92746   0.94821    0.011
 4394.00    0.97877   0.98628    0.011
 4395.00    1.02550   0.99836    0.011
 4396.00    0.98511   1.00198    0.011
 4397.00    0.95037   1.00418    0.011
 4398.00    1.03982   1.00917    0.011
 4399.00    1.11178   1.02212    0.011
 4400.00    0.96745   1.02755    0.011
 4401.00    0.80719   1.01148    0.011
 4402.00    0.51287   0.99639    0.011
 4403.00    0.30299   1.01357    0.011
 4404.00    0.62236   1.04884    0.011
 4405.00    0.94227   1.06052    0.011
 4406.00    1.26490   1.03772    0.011
 4407.00    1.49764   1.00452    0.011
 4408.00    1.37154   0.99635    0.011
 4409.00    1.25964   1.01771    0.011
 4410.00    1.19482   1.02519    0.011
 4411.00    1.13574   0.99562    0.011
 4412.00    1.09274   0.97169    0.011
 4413.00    1.04516   0.98537    0.011
 4414.00    0.98664   1.00356    0.011
 4415.00    0.83711   1.00180    0.011
 4416.00    0.49925   1.00611    0.011
 4417.00    0.45916   1.03041    0.011
 4418.00    0.95514   1.05596    0.011
 4419.00    1.22077   1.07133    0.011
 4420.00    1.12379   1.06764    0.011
 4421.00    1.11686   1.03207    0.011
 4422.00    1.23436   0.98490    0.011
 4423.00    1.25087   0.96582    0.011
 4424.00    1.14455   0.97767    0.011
 4425.00    1.26305   1.00346    0.011
 4426.00    1.62261   1.03726    0.011
 4427.00    1.78521   1.06254    0.011
 4428.00    1.76151   1.05806    0.011
 4429.00    1.51005   1.03126    0.011
 4430.00    1.06866   1.01530    0.011
 4431.00    1.05241   1.02342    0.011
 4432.00    1.34828   1.03485    0.011
 4433.00    1.39966   1.03463    0.011
 4434.00    1.29341   1.03028    0.011
 4435.00    1.07811   1.03277    0.011
 4436.00    0.80129   1.03373    0.011
 4437.00    0.95424   1.02232    0.011
 4438.00    1.31819   1.01578    0.011
 4439.00    1.50220   1.02253    0.011
 4440.00    1.60986   1.01802    0.011
 4441.00    1.45020   0.99165    0.011
 4442.00    1.19340   0.96769    0.011
 4443.00    1.17497   0.97485    0.011
 4444.00    1.22986   1.01200    0.011
 4445.00    1.49659   1.05233    0.011
 4446.00    1.81756   1.07376    0.011
 4447.00    1.59297   1.06652    0.011
 4448.00    1.25467   1.03248    0.011
 4449.00    0.97104   0.98912    0.011
 4450.00    0.69640   0.96093    0.011
 4451.00    1.01805   0.96788    0.011
 4452.00    1.41321   1.00610    0.011
 4453.00    1.22304   1.04038    0.011
 4454.00    0.98308   1.04787    0.011
 4455.00    1.28765   1.04452    0.011
 4456.00    1.61909   1.04104    0.011
 4457.00    1.58438   1.03050    0.011
 4458.00    1.53867   1.02369    0.011
 4459.00    1.16827   1.02839    0.011
 4460.00    0.81176   1.02328    0.011
 4461.00    0.73652   0.99243    0.000
 4462.00    0.67566   0.95715    0.000
 4463.00    0.78386   0.95004    0.000
 4464.00    0.89101   0.96512    0.000
 4465.00    0.98964   0.97348    0.000
 4466.00    1.11634   0.97018    0.000
 4467.00    1.41383   0.96531    0.000
 4468.00    1.56105   0.95749    0.000
 4469.00    0.98735   0.95465    0.000
 4470.00    0.55264   0.97248    0.000
 4471.00    0.66079   0.99617    0.000
 4472.00    0.77629   1.00377    0.000
 4473.00    0.91570   0.99963    0.000
 4474.00    0.99765   0.99193    0.000
 4475.00    0.92153   0.97791    0.000
 4476.00    0.87148   0.96085    0.000
 4477.00    0.88286   0.95326    0.000
 4478.00    0.93288   0.96102    0.000
 4479.00    1.06157   0.98302    0.000
 4480.00    1.25355   1.01330    0.000
 4481.00    1.55771   1.03774    0.000
 4482.00    1.64400   1.04597    0.011
 4483.00    1.39239   1.04730    0.010
 4484.00    1.19401   1.05492    0.010
 4485.00    1.06812   1.05811    0.010
 4486.00    1.03238   1.03562    0.010
 4487.00    1.10474   0.98525    0.010
 4488.00    1.07944   0.93392    0.010
 4489.00    0.95088   0.92144    0.010
 4490.00    0.93338   0.95685    0.010
 4491.00    1.01943   1.00710    0.010
 4492.00    1.18371   1.04164    0.010
 4493.00    1.41231   1.05498    0.010
 4494.00    1.41268   1.04808    0.010
 4495.00    1.24792   1.02087    0.010
 4496.00    1.19985   0.98809    0.010
 4497.00    1.22593   0.97310    0.010
 4498.00    1.15565   0.98369    0.010
 4499.00    1.03185   1.00599    0.010
 4500.00    0.95986   1.01579    0.010
 4501.00    0.91291   1.00279    0.010
 4502.00    0.89386   0.98570    0.010
 4503.00    0.88645   0.98509    0.010
 4504.00    0.98719   0.99994    0.010
 4505.00    1.12653   1.02066    0.010
 4506.00    1.26670   1.03505    0.010
 4507.00    1.40711   1.02988    0.010
 4508.00    1.38051   1.01060    0.010
 4509.00    1.31207   1.00774    0.010
 4510.00    1.28552   1.03592    0.010
 4511.00    1.26749   1.06826    0.010
 4512.00    1.13287   1.07858    0.010
 4513.00    0.97966   1.06885    0.010
 4514.00    0.99651   1.05009    0.010
 4515.00    1.03358   1.03353    0.010
 4516.00    1.16835   1.03147    0.010
 4517.00    1.31102   1.04430    0.010
 4518.00    1.12389   1.05501    0.010
 4519.00    0.92176   1.04982    0.010
 4520.00    0.97312   1.03370    0.010
 4521.00    1.03002   1.01605    0.010
 4522.00    1.21022   1.00366    0.010
 4523.00    1.37375   1.00295    0.010
 4524.00    1.22436   1.00755    0.010
 4525.00    1.07077   1.00758    0.010
 4526.00    0.87022   1.00799    0.010
 4527.00    0.69994   1.01363    0.010
 4528.00    0.76655   1.01721    0.010
 4529.00    0.84068   1.00724    0.010
 4530.00    0.95924   0.98970    0.010
 4531.00    1.08028   0.98182    0.010
 4532.00    1.21291   0.97812    0.010
 4533.00    1.28676   0.96628    0.010
 4534.00    1.13592   0.94928    0.010
 4535.00    1.01477   0.93289    0.010
 4536.00    0.98828   0.92397    0.010
 4537.00    1.01579   0.92918    0.010
 4538.00    1.18921   0.94438    0.010
 4539.00    1.28874   0.95792    0.010
 4540.00    1.21707   0.95370    0.010
 4541.00    1.17254   0.93142    0.010
 4542.00    1.18241   0.92014    0.010
 4543.00    1.26199   0.94333    0.010
 4544.00    1.46330   0.98886    0.010
 4545.00    1.48792   1.02077    0.010
 4546.00    1.24255   1.01894    0.010
 4547.00    0.96334   0.99542    0.010
 4548.00    0.63871   0.97484    0.010
 4549.00    0.39210   0.97486    0.010
 4550.00    0.23772   0.98859    0.000
 4551.00    0.34626   0.99171    0.000
 4552.00    0.72887   0.98174    0.000
 4553.00    0.98534   0.97764    0.000
 4554.00    1.12584   0.98008    0.000
 4555.00    1.26031   0.96981    0.000
 4556.00    1.38989   0.94198    0.000
 4557.00    1.28182   0.92536    0.000
 4558.00    1.00425   0.94146    0.000
 4559.00    0.77530   0.96372    0.000
 4560.00    0.57678   0.96309    0.000
 4561.00    0.58956   0.94514    0.000
 4562.00    0.71792   0.92922    0.000
 4563.00    0.86844   0.93343    0.000
 4564.00    1.02951   0.95951    0.000
 4565.00    1.00163   0.98487    0.000
 4566.00    0.89627   0.99563    0.000
 4567.00    0.85239   1.00196    0.000
 4568.00    0.83006   1.00973    0.000
 4569.00    0.98488   1.00949    0.000
 4570.00    1.19207   0.99039    0.000
 4571.00    1.22161   0.96040    0.000
 4572.00    1.20762   0.94479    0.000
 4573.00    0.73064   0.95590    0.000
 4574.00    0.16191   0.98323    0.000
 4575.00    0.55203   1.00712    0.000
 4576.00    1.09058   1.01468    0.000
 4577.00    1.08442   1.00464    0.000
 4578.00    1.01593   0.97956    0.000
 4579.00    0.98600   0.95842    0.000
 4580.00    0.95903   0.96674    0.000
 4581.00    0.85634   0.99106    0.000
 4582.00    0.75051   1.00055    0.000
 4583.00    0.96780   0.99643    0.000
 4584.00    1.17470   0.99328    0.000
 4585.00    0.81511   0.98892    0.000
 4586.00    0.47743   0.97428    0.000
 4587.00    0.52273   0.95338    0.000
 4588.00    0.58423   0.93971    0.000
 4589.00    0.81911   0.93681    0.000
 4590.00    1.04578   0.93478    0.000
 4591.00    1.21038   0.93069    0.000
 4592.00    1.32783   0.93367    0.000
 4593.00    1.17430   0.94457    0.000
 4594.00    1.02110   0.95700    0.000
 4595.00    0.86947   0.96790    0.000
 4596.00    0.81014   0.97545    0.000
 4597.00    1.09615   0.97619    0.000
 4598.00    1.32473   0.96673    0.000
 4599.00    1.37369   0.95235    0.000
 4600.00    1.37233   0.94605    0.000
 4601.00    1.23738   0.95022    0.000
 4602.00    1.16605   0.95334    0.000
 4603.00    1.23967   0.95218    0.000
 4604.00    1.24036   0.95385    0.000
 4605.00    1.09713   0.95935    0.000
 4606.00    1.03312   0.96355    0.000
 4607.00    1.10530   0.95995    0.000
 4608.00    1.11143   0.95222    0.000
 4609.00    1.01810   0.95195    0.000
 4610.00    1.01148   0.95766    0.000
 4611.00    1.11961   0.96061    0.000
 4612.00    1.09419   0.95874    0.000
 4613.00    0.91314   0.95871    0.000
 4614.00    0.82735   0.96853    0.000
 4615.00    0.83948   0.98622    0.000
 4616.00    0.98387   1.00198    0.000
 4617.00    1.24815   1.00577    0.000
 4618.00    1.17261   0.99567    0.000
 4619.00    0.82557   0.98191    0.000
 4620.00    0.77190   0.97379    0.000
 4621.00    0.92443   0.97308    0.000
 4622.00    1.11071   0.97701    0.000
 4623.00    1.31781   0.97741    0.000
 4624.00    1.29170   0.97419    0.000
 4625.00    1.13999   0.97014    0.000
 4626.00    1.18377   0.96033    0.000
 4627.00    1.31898   0.95441    0.000
 4628.00    1.41482   0.96468    0.000
 4629.00    1.49478   0.97891    0.000
 4630.00    1.40098   0.98466    0.000
 4631.00    1.24740   0.98500    0.000
 4632.00    1.15574   0.98072    0.000
 4633.00    1.08202   0.97382    0.000
 4634.00    1.21199   0.97128    0.000
 4635.00    1.39075   0.96855    0.000
 4636.00    1.20746   0.95817    0.000
 4637.00    0.95426   0.95246    0.000
 4638.00    0.98889   0.96385    0.000
 4639.00    1.06673   0.97601    0.000
 4640.00    1.04535   0.96924    0.000
 4641.00    1.01306   0.95231    0.000
 4642.00    0.68441   0.94452    0.000
 4643.00    0.33420   0.94687    0.000
 4644.00    0.58333   0.94641    0.000
 4645.00    0.85513   0.94008    0.000
 4646.00    1.12453   0.93597    0.000
 4647.00    1.38369   0.93696    0.000
 4648.00    1.26411   0.94382    0.000
 4649.00    1.15634   0.95431    0.000
 4650.00    1.24155   0.95725    0.000
 4651.00    1.29710   0.95012    0.000
 4652.00    1.04903   0.93801    0.000
 4653.00    0.79348   0.91878    0.000
 4654.00    0.48324   0.89791    0.000
 4655.00    0.27974   0.89110    0.000
 4656.00    0.67299   0.90221    0.000
 4657.00    1.00174   0.92229    0.000
 4658.00    1.04270   0.94017    0.000
 4659.00    1.01266   0.95037    0.000
 4660.00    0.72258   0.95325    0.000
 4661.00    0.53066   0.94541    0.000
 4662.00    0.63987   0.92809    0.000
 4663.00    0.72276   0.91501    0.000
 4664.00    0.73702   0.91660    0.000
 4665.00    0.70815   0.93478    0.000
 4666.00    0.58263   0.96210    0.000
 4667.00    0.53541   0.98074    0.000
 4668.00    0.64024   0.97906    0.000
 4669.00    0.73665   0.96166    0.000
 4670.00    0.81881   0.94092    0.000
 4671.00    0.89836   0.92737    0.000
 4672.00    0.97402   0.92074    0.000
 4673.00    1.04909   0.90461    0.000
 4674.00    1.12339   0.87305    0.000
 4675.00    1.04366   0.85102    0.000
 4676.00    0.78694   0.85898    0.000
 4677.00    0.66597   0.88570    0.000
 4678.00    0.68255   0.91229    0.000
 4679.00    0.69970   0.92822    0.000
 4680.00    0.71737   0.93005    0.000
 4681.00    0.80369   0.92695    0.000
 4682.00    0.94408   0.93125    0.000
 4683.00    1.01995   0.94312    0.000
 4684.00    1.05114   0.95073    0.000
 4685.00    0.99975   0.94292    0.000
 4686.00    0.89820   0.92483    0.000
 4687.00    0.84280   0.91096    0.000
 4688.00    0.81186   0.90553    0.000
 4689.00    0.84561   0.90674    0.000
 4690.00    0.90913   0.91517    0.000
 4691.00    0.96787   0.92485    0.000
 4692.00    1.02471   0.92679    0.000
 4693.00    1.15811   0.92277    0.000
 4694.00    1.31737   0.91994    0.000
 4695.00    1.21567   0.91994    0.000
 4696.00    1.03992   0.92143    0.000
 4697.00    0.90739   0.92163    0.000
 4698.00    0.78499   0.91781    0.000
 4699.00    0.75845   0.91429    0.000
 4700.00    0.74995   0.91685    0.000
 4701.00    0.81375   0.92365    0.000
 4702.00    0.88808   0.93233    0.000
 4703.00    0.85417   0.94071    0.000
 4704.00    0.80882   0.93993    0.000
 4705.00    0.97166   0.92336    0.000
 4706.00    1.14880   0.90195    0.000
 4707.00    0.89751   0.89320    0.000
 4708.00    0.63165   0.89439    0.000
 4709.00    0.60745   0.88974    0.000
 4710.00    0.59033   0.87851    0.000
 4711.00    0.79143   0.87709    0.000
 4712.00    0.98212   0.89146    0.000
 4713.00    1.01327   0.90379    0.000
 4714.00    1.02501   0.89925    0.000
 4715.00    0.84662   0.88538    0.000
 4716.00    0.70386   0.87742    0.000
 4717.00    0.81311   0.88299    0.000
 4718.00    0.94643   0.90036    0.000
 4719.00    1.21073   0.91504    0.000
 4720.00    1.36014   0.91238    0.000
 4721.00    1.00886   0.89696    0.000
 4722.00    0.76221   0.88734    0.000
 4723.00    0.89094   0.89646    0.000
 4724.00    1.01465   0.91620    0.000
 4725.00    1.12323   0.92937    0.000
 4726.00    1.19386   0.93429    0.000
 4727.00    1.16724   0.93895    0.000
 4728.00    1.04912   0.94141    0.000
 4729.00    0.72929   0.93710    0.000
 4730.00    0.62059   0.93212    0.000
 4731.00    0.91553   0.93515    0.000
 4732.00    1.08475   0.94289    0.000
 4733.00    1.04426   0.94208    0.000
 4734.00    1.01862   0.92367    0.000
 4735.00    1.01468   0.89526    0.000
 4736.00    1.01796   0.87602    0.000
 4737.00    1.03053   0.87201    0.000
 4738.00    0.95916   0.87405    0.000
 4739.00    0.79269   0.88009    0.000
 4740.00    0.73926   0.89221    0.000
 4741.00    0.79877   0.90459    0.000
 4742.00    0.84723   0.91146    0.000
 4743.00    0.88595   0.90770    0.000
 4744.00    0.94190   0.89596    0.000
 4745.00    1.01124   0.89525    0.000
 4746.00    0.96175   0.90895    0.000
 4747.00    0.83116   0.91632    0.000
 4748.00    0.78698   0.91118    0.000
 4749.00    0.79449   0.90746    0.000
 4750.00    0.77601   0.91256    0.000
 4751.00    0.74397   0.91817    0.000
 4752.00    0.92833   0.91669    0.000
 4753.00    1.21065   0.91506    0.000
 4754.00    1.34171   0.91910    0.000
 4755.00    1.41388   0.92144    0.000
 4756.00    1.37374   0.91960    0.000
 4757.00    1.29639   0.92012    0.000
 4758.00    1.18107   0.92156    0.000
 4759.00    1.05520   0.91678    0.000
 4760.00    0.88221   0.90681    0.000
 4761.00    0.69845   0.89740    0.009
 4762.00    0.80217   0.89056    0.009
 4763.00    0.95854   0.88644    0.009
 4764.00    0.99281   0.88592    0.009
 4765.00    1.00989   0.89149    0.009
 4766.00    0.91005   0.90131    0.009
 4767.00    0.79835   0.90826    0.009
 4768.00    0.96989   0.90454    0.009
 4769.00    1.15973   0.88723    0.009
 4770.00    0.92550   0.86634    0.009
 4771.00    0.67924   0.85394    0.009
 4772.00    0.83525   0.84829    0.009
 4773.00    0.98935   0.84627    0.009
 4774.00    1.08817   0.85164    0.009
 4775.00    1.15934   0.86500    0.009
 4776.00    0.83103   0.88187    0.009
 4777.00    0.55697   0.89477    0.009
 4778.00    0.79337   0.89475    0.009
 4779.00    0.97297   0.88417    0.008
 4780.00    0.76375   0.87965    0.008
 4781.00    0.61828   0.88937    0.009
 4782.00    0.81055   0.90275    0.008
 4783.00    0.94384   0.90782    0.008
 4784.00    0.82597   0.90764    0.008
 4785.00    0.77477   0.90868    0.008
 4786.00    0.95789   0.90581    0.008
 4787.00    1.12350   0.89763    0.008
 4788.00    1.23735   0.89316    0.008
 4789.00    1.26669   0.89239    0.008
 4790.00    1.08325   0.88612    0.009
 4791.00    0.93771   0.87765    0.008
 4792.00    0.87436   0.87670    0.008
 4793.00    0.92013   0.87563    0.008
 4794.00    1.17125   0.86868    0.008
 4795.00    1.31314   0.86704    0.008
 4796.00    1.27552   0.87015    0.008
 4797.00    1.20275   0.87020    0.008
 4798.00    1.07932   0.87209    0.008
 4799.00    0.98063   0.87875    0.008
 4800.00    0.91330   0.88842    0.009
 4801.00    0.88309   0.90216    0.009
 4802.00    0.89431   0.91522    0.009
 4803.00    0.87565   0.91872    0.009
 4804.00    0.82756   0.91090    0.009
 4805.00    0.75334   0.89609    0.009
 4806.00    0.65642   0.87928    0.009
 4807.00    0.72521   0.86771    0.009
 4808.00    0.92080   0.86894    0.009
 4809.00    0.91919   0.88234    0.009
 4810.00    0.78491   0.89544    0.009
 4811.00    0.70041   0.89482    0.009
 4812.00    0.64524   0.88115    0.008
 4813.00    0.74180   0.86853    0.008
 4814.00    0.91632   0.86599    0.009
 4815.00    0.94403   0.86680    0.009
 4816.00    0.90637   0.86643    0.009
 4817.00    0.86735   0.86857    0.009
 4818.00    0.82781   0.87195    0.008
 4819.00    0.84869   0.87232    0.008
 4820.00    0.88922   0.87144    0.009
 4821.00    0.77215   0.87324    0.009
 4822.00    0.61217   0.87755    0.009
 4823.00    0.68510   0.88258    0.008
 4824.00    0.81006   0.88748    0.008
 4825.00    0.70505   0.89174    0.008
 4826.00    0.55906   0.89483    0.009
 4827.00    0.67831   0.89558    0.009
 4828.00    0.83370   0.89268    0.009
 4829.00    0.95915   0.88407    0.009
 4830.00    1.08170   0.86379    0.009
 4831.00    1.11652   0.83748    0.009
 4832.00    1.14602   0.82922    0.009
 4833.00    0.96107   0.84478    0.009
 4834.00    0.77128   0.86191    0.008
 4835.00    0.73254   0.86551    0.009
 4836.00    0.69445   0.85942    0.009
 4837.00    0.67351   0.85417    0.009
 4838.00    0.66176   0.85204    0.009
 4839.00    0.77547   0.84649    0.009
 4840.00    0.88630   0.84078    0.008
 4841.00    0.97113   0.84357    0.008
 4842.00    1.02982   0.84985    0.008
 4843.00    0.91499   0.85051    0.008
 4844.00    0.82079   0.84702    0.008
 4845.00    0.83308   0.84331    0.008
 4846.00    0.84230   0.83550    0.008
 4847.00    0.83875   0.82257    0.009
 4848.00    0.84247   0.81421    0.000
 4849.00    0.87117   0.81479    0.000
 4850.00    0.85384   0.81522    0.000
 4851.00    0.70302   0.81260    0.000
 4852.00    0.64036   0.81495    0.000
 4853.00    0.79590   0.82047    0.000
 4854.00    0.93256   0.81648    0.000
 4855.00    1.02897   0.79840    0.000
 4856.00    1.03026   0.77732    0.000
 4857.00    0.85531   0.76943    0.000
 4858.00    0.82225   0.77384    0.000
 4859.00    1.01887   0.77384    0.000
 4860.00    1.08130   0.76306    0.000
 4861.00    0.95317   0.74345    0.000
 4862.00    0.94261   0.71215    0.000
 4863.00    1.07896   0.67802    0.000
 4864.00    1.09986   0.66006    0.000
 4865.00    0.99366   0.65175    0.000
 4866.00    0.86164   0.62587    0.000
 4867.00    0.70455   0.57054    0.000
 4868.00    0.69828   0.50072    0.000
 4869.00    0.82120   0.45679    0.000
 4870.00    0.78259   0.47363    0.000
 4871.00    0.62213   0.53225    0.000
 4872.00    0.54600   0.58827    0.000
 4873.00    0.52577   0.63032    0.000
 4874.00    0.52462   0.66461    0.000
 4875.00    0.53454   0.69046    0.009
 4876.00    0.68787   0.70815    0.009
 4877.00    0.91373   0.71659    0.009
 4878.00    0.97356   0.70887    0.009
 4879.00    0.96068   0.69374    0.008
 4880.00    0.88432   0.69665    0.009
 4881.00    0.78411   0.72098    0.009
 4882.00    0.92307   0.74454    0.009
 4883.00    1.13832   0.75618    0.009
 4884.00    0.98010   0.76312    0.009
 4885.00    0.72233   0.77221    0.009
 4886.00    0.69173   0.78590    0.009
 4887.00    0.71068   0.80283    0.009
 4888.00    0.74104   0.81015    0.009
 4889.00    0.77338   0.80291    0.009
 4890.00    0.80438   0.79474    0.009
 4891.00    0.83520   0.79208    0.009
 4892.00    0.74952   0.78729    0.009
 4893.00    0.65301   0.77923    0.009
 4894.00    0.70546   0.77660    0.009
 4895.00    0.76635   0.78251    0.009
 4896.00    0.71291   0.78910    0.009
 4897.00    0.65851   0.78520    0.009
 4898.00    0.78302   0.76841    0.009
 4899.00    0.90308   0.75755    0.009
 4900.00    0.91751   0.77554    0.009
 4901.00    0.92210   0.81174    0.009
 4902.00    0.79947   0.84154    0.009
 4903.00    0.67599   0.85810    0.009
 4904.00    0.54517   0.86289    0.008
 4905.00    0.44043   0.85970    0.008
 4906.00    0.50350   0.85084    0.009
 4907.00    0.58183   0.83626    0.009
 4908.00    0.73690   0.82568    0.009
 4909.00    0.83936   0.82662    0.008
 4910.00    0.72771   0.82781    0.008
 4911.00    0.65791   0.82281    0.008
 4912.00    0.72936   0.82446    0.008
 4913.00    0.80930   0.83900    0.008
 4914.00    0.91339   0.85294    0.008
 4915.00    1.00960   0.85235    0.008
 4916.00    1.08667   0.83678    0.008
 4917.00    1.10402   0.81411    0.008
 4918.00    0.99604   0.79574    0.009
 4919.00    0.90184   0.79371    0.009
 4920.00    0.83276   0.80794    0.008
 4921.00    0.77023   0.82469    0.008
 4922.00    0.71813   0.83730    0.008
 4923.00    0.71097   0.84643    0.008
 4924.00    0.76671   0.84545    0.008
 4925.00    0.79350   0.82579    0.008
 4926.00    0.78464   0.78922    0.008
 4927.00    0.80402   0.75216    0.008
 4928.00    0.85408   0.73350    0.008
 4929.00    0.92222   0.73985    0.008
 4930.00    1.00770   0.75923    0.008
 4931.00    0.94622   0.77040    0.008
 4932.00    0.76067   0.77323    0.008
 4933.00    0.66123   0.78622    0.008
 4934.00    0.62583   0.81107    0.008
 4935.00    0.67797   0.83096    0.008
 4936.00    0.78727   0.84160    0.008
 4937.00    0.83414   0.84889    0.008
 4938.00    0.84530   0.85137    0.008
 4939.00    0.80287   0.84614    0.008
 4940.00    0.73376   0.82949    0.000
 4941.00    0.83815   0.80379    0.000
 4942.00    1.01727   0.79039    0.000
 4943.00    0.97948   0.79990    0.000
 4944.00    0.86161   0.80888    0.000
 4945.00    0.82023   0.79663    0.000
 4946.00    0.80279   0.77447    0.000
 4947.00    0.78639   0.76806    0.000
 4948.00    0.77024   0.78797    0.000
 4949.00    0.84941   0.81709    0.000
 4950.00    0.94887   0.83468    0.000
 4951.00    1.02580   0.84144    0.000
 4952.00    1.09894   0.84190    0.000
 4953.00    0.98823   0.83456    0.000
 4954.00    0.85413   0.82771    0.000
 4955.00    0.89863   0.83046    0.000
 4956.00    0.95899   0.83769    0.000
 4957.00    0.95628   0.84158    0.000
 4958.00    0.95025   0.84307    0.000
 4959.00    0.92208   0.84330    0.000
 4960.00    0.89351   0.83789    0.000
 4961.00    0.86760   0.82974    0.000
 4962.00    0.84753   0.82582    0.000
 4963.00    0.95464   0.81919    0.000
 4964.00    1.04747   0.79399    0.000
 4965.00    0.96503   0.75689    0.000
 4966.00    0.87825   0.74816    0.000
 4967.00    0.75510   0.78196    0.000
 4968.00    0.66794   0.81934    0.000
 4969.00    0.80558   0.83203    0.000
 4970.00    0.91082   0.83090    0.000
 4971.00    0.85715   0.82961    0.000
 4972.00    0.80982   0.82382    0.000
 4973.00    0.78771   0.80889    0.000
 4974.00    0.77223   0.79554    0.000
 4975.00    0.77871   0.79171    0.000
 4976.00    0.79207   0.79259    0.000
 4977.00    0.82470   0.79497    0.000
 4978.00    0.83649   0.79939    0.000
 4979.00    0.79843   0.80649    0.000
 4980.00    0.82282   0.81485    0.000
 4981.00    0.97623   0.82172    0.000
 4982.00    1.01634   0.82689    0.000
 4983.00    0.85289   0.82838    0.000
 4984.00    0.76640   0.82438    0.000
 4985.00    0.80083   0.81566    0.000
 4986.00    0.81347   0.80336    0.000
 4987.00    0.79605   0.79258    0.000
 4988.00    0.78564   0.78389    0.000
 4989.00    0.78374   0.76692    0.000
 4990.00    0.78437   0.73998    0.000
 4991.00    0.78772   0.72103    0.000
 4992.00    0.81671   0.72347    0.000
 4993.00    0.86992   0.74101    0.000
 4994.00    0.86333   0.76487    0.000
 4995.00    0.80697   0.78878    0.000
 4996.00    0.78994   0.80186    0.000
 4997.00    0.80174   0.80001    0.000
 4998.00    0.80887   0.79039    0.000
 4999.00    0.81299   0.78254    0.000
 5000.00    0.88848   0.78184    0.000
 5001.00    1.00415   0.78322    0.000
 5002.00    0.95925   0.78485    0.000
 5003.00    0.83566   0.79192    0.000
 5004.00    0.86024   0.79986    0.000
 5005.00    0.94755   0.80122    0.000
 5006.00    0.88052   0.79377    0.000
 5007.00    0.75752   0.77786    0.000
 5008.00    0.78178   0.76050    0.000
 5009.00    0.85122   0.75061    0.000
 5010.00    0.90919   0.75080    0.000
 5011.00    0.96424   0.75666    0.000
 5012.00    0.87284   0.75577    0.000
 5013.00    0.75101   0.74037    0.000
 5014.00    0.72870   0.72516    0.000
 5015.00    0.72268   0.73196    0.000
 5016.00    0.69012   0.75733    0.000
 5017.00    0.65430   0.77741    0.000
 5018.00    0.55980   0.77898    0.000
 5019.00    0.46034   0.76561    0.000
 5020.00    0.78726   0.74460    0.000
 5021.00    1.13502   0.72542    0.000
 5022.00    1.00617   0.71708    0.000
 5023.00    0.86999   0.72200    0.000
 5024.00    0.73655   0.73076    0.000
 5025.00    0.60778   0.72815    0.000
 5026.00    0.57265   0.71704    0.000
 5027.00    0.55181   0.71718    0.000
 5028.00    0.69787   0.73153    0.000
 5029.00    0.81574   0.74253    0.008
 5030.00    0.70605   0.74423    0.008
 5031.00    0.62298   0.74922    0.008
 5032.00    0.70122   0.76167    0.008
 5033.00    0.73361   0.77074    0.008
 5034.00    0.54671   0.76815    0.008
 5035.00    0.41378   0.75632    0.008
 5036.00    0.49106   0.75028    0.008
 5037.00    0.56582   0.75846    0.008
 5038.00    0.63238   0.76943    0.008
 5039.00    0.69701   0.77627    0.008
 5040.00    0.75633   0.78524    0.008
 5041.00    0.81706   0.79475    0.008
 5042.00    0.88114   0.79174    0.008
 5043.00    0.88600   0.77184    0.008
 5044.00    0.77047   0.75205    0.008
 5045.00    0.68694   0.74868    0.008
 5046.00    0.66003   0.74990    0.008
 5047.00    0.73452   0.73643    0.008
 5048.00    0.96597   0.70955    0.008
 5049.00    0.99692   0.68895    0.008
 5050.00    0.75530   0.69805    0.008
 5051.00    0.65139   0.73365    0.008
 5052.00    0.71232   0.76791    0.008
 5053.00    0.74460   0.78822    0.008
 5054.00    0.74663   0.79632    0.008
 5055.00    0.71171   0.78858    0.008
 5056.00    0.64239   0.76678    0.008
 5057.00    0.65000   0.74583    0.008
 5058.00    0.72074   0.73704    0.008
 5059.00    0.80807   0.73652    0.008
 5060.00    0.90739   0.74040    0.008
 5061.00    0.91120   0.75174    0.008
 5062.00    0.85447   0.76616    0.008
 5063.00    0.78691   0.77379    0.008
 5064.00    0.71334   0.77442    0.008
 5065.00    0.64142   0.77593    0.008
 5066.00    0.57029   0.78116    0.008
 5067.00    0.67691   0.78577    0.008
 5068.00    0.85753   0.78920    0.008
 5069.00    0.90591   0.79373    0.008
 5070.00    0.90721   0.79522    0.008
 5071.00    0.80494   0.78546    0.008
 5072.00    0.67153   0.76315    0.008
 5073.00    0.72630   0.74308    0.008
 5074.00    0.82807   0.74030    0.008
 5075.00    0.58645   0.74595    0.008
 5076.00    0.27524   0.74644    0.008
 5077.00    0.37378   0.74723    0.008
 5078.00    0.53744   0.75392    0.008
 5079.00    0.55088   0.75539    0.008
 5080.00    0.54654   0.74686    0.008
 5081.00    0.50157   0.74260    0.008
 5082.00    0.45334   0.74635    0.008
 5083.00    0.63183   0.74765    0.008
 5084.00    0.82053   0.74752    0.008
 5085.00    0.83902   0.75022    0.008
 5086.00    0.85296   0.74408    0.008
 5087.00    0.74056   0.72056    0.008
 5088.00    0.64410   0.69890    0.008
 5089.00    0.84390   0.69954    0.008
 5090.00    1.01823   0.71363    0.008
 5091.00    0.90878   0.72404    0.008
 5092.00    0.82399   0.73153    0.008
 5093.00    0.93120   0.74219    0.008
 5094.00    0.98610   0.75065    0.008
 5095.00    0.73274   0.75142    0.008
 5096.00    0.51765   0.75043    0.008
 5097.00    0.48116   0.75330    0.008
 5098.00    0.48046   0.75648    0.008
 5099.00    0.61616   0.75804    0.008
 5100.00    0.71266   0.76259    0.008
 5101.00    0.68443   0.77010    0.008
 5102.00    0.63766   0.77330    0.008
 5103.00    0.54088   0.76710    0.008
 5104.00    0.51179   0.75286    0.008
 5105.00    0.63920   0.73407    0.008
 5106.00    0.70520   0.71413    0.008
 5107.00    0.64835   0.70095    0.008
 5108.00    0.66111   0.70509    0.008
 5109.00    0.79516   0.72409    0.008
 5110.00    0.80557   0.74179    0.008
 5111.00    0.62739   0.74762    0.008
 5112.00    0.65217   0.74526    0.008
 5113.00    0.94893   0.74201    0.008
 5114.00    1.07567   0.73711    0.008
 5115.00    1.00177   0.72754    0.008
 5116.00    0.92091   0.71940    0.008
 5117.00    0.83281   0.71707    0.008
 5118.00    0.83438   0.71752    0.008
 5119.00    0.91828   0.72367    0.008
 5120.00    0.86759   0.73612    0.008
 5121.00    0.70802   0.74578    0.008
 5122.00    0.63645   0.74928    0.008
 5123.00    0.62752   0.75046    0.008
 5124.00    0.61135   0.75335    0.008
 5125.00    0.59067   0.75955    0.008
 5126.00    0.53594   0.76414    0.008
 5127.00    0.46262   0.76170    0.008
 5128.00    0.50131   0.75321    0.008
 5129.00    0.59315   0.74198    0.008
 5130.00    0.59149   0.72920    0.008
 5131.00    0.55157   0.71444    0.008
 5132.00    0.70187   0.70211    0.008
 5133.00    0.91866   0.69928    0.008
 5134.00    0.78481   0.70384    0.008
 5135.00    0.54757   0.70746    0.008
 5136.00    0.57354   0.70667    0.008
 5137.00    0.66380   0.70442    0.008
 5138.00    0.81640   0.70651    0.008
 5139.00    0.98132   0.71413    0.008
 5140.00    0.74329   0.72045    0.008
 5141.00    0.44312   0.72149    0.008
 5142.00    0.63612   0.72379    0.008
 5143.00    0.88528   0.73159    0.008
 5144.00    0.86290   0.73403    0.008
 5145.00    0.81981   0.72350    0.008
 5146.00    0.69466   0.70822    0.008
 5147.00    0.56613   0.69763    0.008
 5148.00    0.55057   0.69910    0.008
 5149.00    0.53913   0.70760    0.008
 5150.00    0.66225   0.70599    0.008
 5151.00    0.77384   0.69949    0.008
 5152.00    0.68559   0.70428    0.008
 5153.00    0.60387   0.71145    0.008
 5154.00    0.59169   0.70823    0.008
 5155.00    0.59319   0.70065    0.008
 5156.00    0.69756   0.69871    0.008
 5157.00    0.80476   0.70454    0.008
 5158.00    0.92810   0.71005    0.008
 5159.00    0.97115   0.70754    0.008
 5160.00    0.64843   0.70077    0.008
 5161.00    0.41419   0.69477    0.008
 5162.00    0.51011   0.69145    0.008
 5163.00    0.59373   0.69602    0.008
 5164.00    0.63893   0.70948    0.008
 5165.00    0.67334   0.72472    0.008
 5166.00    0.67916   0.73450    0.008
 5167.00    0.66135   0.73670    0.008
 5168.00    0.58981   0.73493    0.008
 5169.00    0.53256   0.73033    0.008
 5170.00    0.50342   0.72131    0.008
 5171.00    0.44902   0.71348    0.008
 5172.00    0.35127   0.70775    0.008
 5173.00    0.36328   0.69115    0.008
 5174.00    0.54026   0.65619    0.008
 5175.00    0.70703   0.61419    0.008
 5176.00    0.86029   0.58898    0.008
 5177.00    0.91671   0.59686    0.008
 5178.00    0.86047   0.62404    0.008
 5179.00    0.76288   0.63374    0.008
 5180.00    0.62287   0.61294    0.008
 5181.00    0.54843   0.59770    0.008
 5182.00    0.53332   0.62236    0.007
 5183.00    0.63194   0.66895    0.007
 5184.00    0.82126   0.70024    0.007
 5185.00    0.79921   0.71068    0.007
 5186.00    0.62886   0.71444    0.007
 5187.00    0.53093   0.71515    0.007
 5188.00    0.47757   0.70971    0.008
 5189.00    0.53994   0.69594    0.008
 5190.00    0.66450   0.66660    0.000
 5191.00    0.71907   0.62200    0.000
 5192.00    0.74097   0.59236    0.000
 5193.00    0.83230   0.60824    0.000
 5194.00    0.95156   0.65279    0.000
 5195.00    0.86632   0.68627    0.000
 5196.00    0.71088   0.69571    0.000
 5197.00    0.69667   0.69692    0.000
 5198.00    0.72325   0.70076    0.000
 5199.00    0.71820   0.69336    0.000
 5200.00    0.70560   0.67144    0.000
 5201.00    0.75707   0.66064    0.000
 5202.00    0.82087   0.66932    0.000
 5203.00    0.82999   0.67740    0.000
 5204.00    0.83093   0.67820    0.000
 5205.00    0.72633   0.68152    0.000
 5206.00    0.61018   0.68970    0.000
 5207.00    0.65895   0.69967    0.000
 5208.00    0.71964   0.70832    0.000
 5209.00    0.67552   0.71156    0.000
 5210.00    0.62748   0.70837    0.000
 5211.00    0.68136   0.70023    0.008
 5212.00    0.73721   0.68496    0.008
 5213.00    0.84794   0.66303    0.008
 5214.00    0.94482   0.64729    0.008
 5215.00    0.81722   0.64516    0.008
 5216.00    0.69842   0.64624    0.008
 5217.00    0.66922   0.64763    0.008
 5218.00    0.64769   0.65874    0.008
 5219.00    0.68194   0.67805    0.008
 5220.00    0.71241   0.69777    0.008
 5221.00    0.72184   0.71258    0.008
 5222.00    0.71415   0.71512    0.008
 5223.00    0.63033   0.70228    0.008
 5224.00    0.56835   0.68492    0.008
 5225.00    0.58617   0.67963    0.008
 5226.00    0.59038   0.69052    0.008
 5227.00    0.55295   0.70771    0.008
 5228.00    0.49289   0.72064    0.008
 5229.00    0.37393   0.72680    0.008
 5230.00    0.38964   0.72667    0.008
 5231.00    0.70653   0.71890    0.008
 5232.00    0.94756   0.70272    0.008
 5233.00    1.04154   0.67770    0.008
 5234.00    1.01153   0.64608    0.008
 5235.00    0.77194   0.62321    0.008
 5236.00    0.68826   0.63065    0.008
 5237.00    0.83549   0.66318    0.008
 5238.00    0.93027   0.69235    0.008
 5239.00    0.95675   0.70464    0.008
 5240.00    0.91207   0.69999    0.008
 5241.00    0.78577   0.68244    0.008
 5242.00    0.68618   0.66777    0.007
 5243.00    0.61359   0.66870    0.008
 5244.00    0.59523   0.68292    0.008
 5245.00    0.62526   0.70016    0.008
 5246.00    0.70268   0.71137    0.008
 5247.00    0.81736   0.71518    0.008
 5248.00    0.85308   0.71561    0.008
 5249.00    0.83421   0.71616    0.008
 5250.00    0.83786   0.71561    0.008
 5251.00    0.85515   0.71341    0.008
 5252.00    0.85288   0.71536    0.008
 5253.00    0.84027   0.72075    0.008
 5254.00    0.73800   0.71653    0.008
 5255.00    0.59455   0.70013    0.008
 5256.00    0.58640   0.68782    0.008
 5257.00    0.63175   0.68585    0.008
 5258.00    0.74625   0.68305    0.008
 5259.00    0.88405   0.67936    0.008
 5260.00    0.89612   0.68417    0.008
 5261.00    0.87260   0.69263    0.008
 5262.00    0.72252   0.69276    0.008
 5263.00    0.54290   0.68606    0.008
 5264.00    0.60831   0.68717    0.008
 5265.00    0.71966   0.70192    0.008
 5266.00    0.67126   0.71887    0.008
 5267.00    0.59971   0.72609    0.008
 5268.00    0.53226   0.72034    0.008
 5269.00    0.46524   0.70312    0.008
 5270.00    0.59801   0.67818    0.008
 5271.00    0.74439   0.65175    0.008
 5272.00    0.83826   0.62947    0.008
 5273.00    0.93037   0.61352    0.008
 5274.00    0.85369   0.60843    0.008
 5275.00    0.77859   0.61959    0.008
 5276.00    0.76021   0.63322    0.008
 5277.00    0.74580   0.62365    0.008
 5278.00    0.79196   0.60124    0.008
 5279.00    0.82953   0.60466    0.008
 5280.00    0.78336   0.63575    0.008
 5281.00    0.71940   0.66083    0.008
 5282.00    0.53012   0.66457    0.008
 5283.00    0.40675   0.65653    0.008
 5284.00    0.64078   0.65327    0.008
 5285.00    0.82695   0.66845    0.008
 5286.00    0.80516   0.69388    0.008
 5287.00    0.76908   0.70735    0.008
 5288.00    0.68185   0.70244    0.008
 5289.00    0.64955   0.68934    0.008
 5290.00    0.78221   0.67713    0.008
 5291.00    0.89949   0.66668    0.008
 5292.00    0.97745   0.66056    0.008
 5293.00    0.96253   0.66984    0.008
 5294.00    0.74326   0.69480    0.008
 5295.00    0.64219   0.71621    0.008
 5296.00    0.76666   0.72200    0.008
 5297.00    0.80844   0.72002    0.008
 5298.00    0.71254   0.72091    0.008
 5299.00    0.68407   0.72397    0.008
 5300.00    0.75401   0.72278    0.008
 5301.00    0.79073   0.71685    0.008
 5302.00    0.78481   0.71165    0.008
 5303.00    0.74538   0.70764    0.007
 5304.00    0.66806   0.69699    0.007
 5305.00    0.64796   0.67593    0.007
 5306.00    0.68495   0.65605    0.008
 5307.00    0.71792   0.65444    0.008
 5308.00    0.74735   0.66916    0.008
 5309.00    0.71874   0.68061    0.008
 5310.00    0.64516   0.68207    0.007
 5311.00    0.61959   0.68567    0.007
 5312.00    0.62673   0.69809    0.008
 5313.00    0.71566   0.71097    0.008
 5314.00    0.85343   0.71407    0.007
 5315.00    0.76951   0.70765    0.007
 5316.00    0.57008   0.70162    0.007
 5317.00    0.51932   0.70399    0.007
 5318.00    0.53572   0.71165    0.007
 5319.00    0.66794   0.71590    0.008
 5320.00    0.84516   0.71366    0.008
 5321.00    0.94107   0.70799    0.008
 5322.00    1.01009   0.70253    0.008
 5323.00    0.94245   0.69674    0.008
 5324.00    0.83690   0.68627    0.008
 5325.00    0.81761   0.67562    0.008
 5326.00    0.81799   0.67641    0.008
 5327.00    0.84129   0.68678    0.008
 5328.00    0.86879   0.69473    0.008
 5329.00    0.82774   0.69654    0.008
 5330.00    0.77709   0.69424    0.008
 5331.00    0.72233   0.68609    0.008
 5332.00    0.66716   0.67185    0.008
 5333.00    0.69081   0.66111    0.008
 5334.00    0.71952   0.65884    0.008
 5335.00    0.71472   0.64890    0.008
 5336.00    0.70893   0.62083    0.008
 5337.00    0.70781   0.60036    0.008
 5338.00    0.70457   0.61617    0.008
 5339.00    0.64047   0.65371    0.008
 5340.00    0.58969   0.67873    0.007
 5341.00    0.73007   0.68269    0.007
 5342.00    0.84787   0.68217    0.007
 5343.00    0.75434   0.68697    0.007
 5344.00    0.68043   0.69010    0.007
 5345.00    0.74040   0.68650    0.007
 5346.00    0.79223   0.68061    0.007
 5347.00    0.80104   0.67301    0.007
 5348.00    0.80411   0.65915    0.007
 5349.00    0.78276   0.64742    0.007
 5350.00    0.77339   0.65327    0.007
 5351.00    0.80607   0.67185    0.007
 5352.00    0.81646   0.68471    0.007
 5353.00    0.76118   0.68458    0.007
 5354.00    0.75688   0.67778    0.007
 5355.00    0.88068   0.67369    0.007
 5356.00    0.93392   0.67240    0.007
 5357.00    0.83448   0.66857    0.007
 5358.00    0.77864   0.66710    0.007
 5359.00    0.80473   0.67578    0.007
 5360.00    0.79850   0.68878    0.007
 5361.00    0.73927   0.69541    0.007
 5362.00    0.67286   0.69801    0.007
 5363.00    0.59613   0.70408    0.007
 5364.00    0.62225   0.71118    0.007
 5365.00    0.77846   0.71411    0.007
 5366.00    0.82277   0.71395    0.007
 5367.00    0.74231   0.71321    0.007
 5368.00    0.78934   0.71104   -2.000
 5369.00    0.96172   0.70391   -2.000
 5370.00    1.06754   0.69153   -2.000
 5371.00    1.11564   0.68005   -2.000
 5372.00    1.07610   0.67382   -2.000
 5373.00    0.96962   0.66989   -2.000
 5374.00    0.96862   0.66682   -2.000
 5375.00    1.03845   0.66628   -2.000
 5376.00    1.04184   0.66583   -2.000
 5377.00    1.00615   0.66040   -2.000
 5378.00    0.81222   0.64601   -2.000
 5379.00    0.53714   0.62820   -2.000
 5380.00    0.55432   0.62399   -2.000
 5381.00    0.70135   0.64201   -2.000
 5382.00    0.79752   0.66950   -2.000
 5383.00    0.87427   0.68918    0.008
 5384.00    0.84538   0.69621    0.008
 5385.00    0.78222   0.69409    0.008
 5386.00    0.82150   0.69008    0.008
 5387.00    0.88859   0.68811    0.007
 5388.00    0.79024   0.68425    0.007
 5389.00    0.65504   0.67713    0.007
 5390.00    0.63038   0.67095    0.007
 5391.00    0.62534   0.66720    0.007
 5392.00    0.64454   0.66721    0.007
 5393.00    0.66703   0.67389    0.007
 5394.00    0.69947   0.68246    0.007
 5395.00    0.73288   0.68530    0.007
 5396.00    0.80597   0.68256    0.007
 5397.00    0.88144   0.67670    0.007
 5398.00    0.79559   0.66867    0.007
 5399.00    0.70649   0.66148    0.007
 5400.00    0.77432   0.65722    0.007
 5401.00    0.83975   0.65490    0.007
 5402.00    0.84341   0.65434    0.007
 5403.00    0.83839   0.65455    0.007
 5404.00    0.71557   0.64928    0.007
 5405.00    0.60472   0.63591    0.007
 5406.00    0.60152   0.62809    0.007
 5407.00    0.59004   0.63735    0.007
 5408.00    0.52385   0.65167    0.007
 5409.00    0.48811   0.65798    0.007
 5410.00    0.60899   0.65966    0.007
 5411.00    0.70781   0.65685    0.008
 5412.00    0.71510   0.64202    0.018
 5413.00    0.71462   0.61940   -1.000
 5414.00    0.68741   0.60558   -1.000
 5415.00    0.66578   0.61085   -1.000
 5416.00    0.66026   0.62694   -1.000
 5417.00    0.67976   0.63515   -1.000
 5418.00    0.76102   0.62966   -1.000
 5419.00    0.76674   0.62505   -1.000
 5420.00    0.61163   0.63444   -1.000
 5421.00    0.52388   0.65036   -1.000
 5422.00    0.56072   0.65791   -1.000
 5423.00    0.57671   0.65649    0.038
 5424.00    0.55900   0.65786    0.010
 5425.00    0.57436   0.66664    0.007
 5426.00    0.63658   0.67409    0.007
 5427.00    0.61326   0.67306    0.007
 5428.00    0.48327   0.66646    0.007
 5429.00    0.46817   0.66107    0.007
 5430.00    0.57936   0.66066    0.007
 5431.00    0.70270   0.66011    0.007
 5432.00    0.83781   0.65198    0.007
 5433.00    0.86252   0.64402    0.007
 5434.00    0.79285   0.65013    0.007
 5435.00    0.72813   0.66575    0.007
 5436.00    0.66716   0.67148    0.007
 5437.00    0.66366   0.65638    0.007
 5438.00    0.69819   0.63457    0.007
 5439.00    0.72469   0.63016    0.007
 5440.00    0.74655   0.64083    0.007
 5441.00    0.69240   0.64416    0.007
 5442.00    0.59990   0.63516    0.007
 5443.00    0.61461   0.62668    0.007
 5444.00    0.67616   0.62806    0.007
 5445.00    0.67071   0.63900    0.007
 5446.00    0.64012   0.65476    0.007
 5447.00    0.58393   0.66995    0.007
 5448.00    0.51959   0.67979    0.007
 5449.00    0.61406   0.68344    0.007
 5450.00    0.75076   0.68350    0.007
 5451.00    0.75270   0.68200    0.007
 5452.00    0.72532   0.67671    0.007
 5453.00    0.69871   0.66272    0.007
 5454.00    0.67223   0.64008    0.007
 5455.00    0.63163   0.61984    0.007
 5456.00    0.58918   0.61824    0.007
 5457.00    0.50640   0.63672    0.007
 5458.00    0.41988   0.65754    0.007
 5459.00    0.50562   0.66752    0.007
 5460.00    0.60104   0.66802    0.007
 5461.00    0.67607   0.66350    0.007
 5462.00    0.75013   0.65318    0.007
 5463.00    0.77106   0.63510    0.007
 5464.00    0.78916   0.61870    0.007
 5465.00    0.74087   0.62097    0.007
 5466.00    0.69578   0.64123    0.007
 5467.00    0.69182   0.66031    0.007
 5468.00    0.69643   0.66632    0.007
 5469.00    0.77532   0.66128    0.007
 5470.00    0.82751   0.65011    0.007
 5471.00    0.70858   0.63673    0.007
 5472.00    0.61947   0.62940    0.007
 5473.00    0.67985   0.63486    0.007
 5474.00    0.71033   0.64515    0.007
 5475.00    0.61942   0.64988    0.007
 5476.00    0.56862   0.65168    0.007
 5477.00    0.65285   0.65411    0.007
 5478.00    0.71836   0.65369   -2.000
 5479.00    0.73069   0.65021   -2.000
 5480.00    0.72795   0.64726   -2.000
 5481.00    0.68861   0.64333   -2.000
 5482.00    0.70069   0.63703   -2.000
 5483.00    0.82047   0.63089   -2.000
 5484.00    1.04696   0.62071   -2.000
 5485.00    1.46778   0.60516   -2.000
 5486.00    1.85895   0.60062   -2.000
 5487.00    2.20293   0.61551   -2.000
 5488.00    2.48948   0.63199   -2.000
 5489.00    2.69578   0.63313   -2.000
 5490.00    2.24751   0.62574   -2.000
 5491.00    0.99451   0.62566   -2.000
 5492.00    0.21219   0.63556   -2.000
 5493.00   -0.06004   0.64782   -2.000
 5494.00   -0.03523   0.65409   -2.000
 5495.00    0.27353   0.64883   -2.000
 5496.00    0.47881   0.63748   -2.000
 5497.00    0.59687   0.63324   -2.000
 5498.00    0.68575   0.63848   -2.000
 5499.00    0.75297   0.64418   -2.000
 5500.00    0.73286   0.64637   -2.000
 5501.00    0.65581   0.64541   -2.000
 5502.00    0.61801   0.64190    0.007
 5503.00    0.60261   0.64066    0.007
 5504.00    0.60035   0.64221    0.007
 5505.00    0.60463   0.63943    0.007
 5506.00    0.60781   0.63389    0.007
 5507.00    0.61052   0.63644    0.007
 5508.00    0.63308   0.64466    0.007
 5509.00    0.66295   0.64390    0.007
 5510.00    0.64139   0.63300    0.007
 5511.00    0.60379   0.62511    0.007
 5512.00    0.69050   0.62652    0.007
 5513.00    0.80956   0.63054    0.007
 5514.00    0.77856   0.62805    0.007
 5515.00    0.71571   0.62111    0.007
 5516.00    0.74839   0.62084    0.007
 5517.00    0.79711   0.62787    0.007
 5518.00    0.78714   0.63204    0.007
 5519.00    0.76975   0.62958    0.007
 5520.00    0.72064   0.62312    0.007
 5521.00    0.66874   0.61634    0.007
 5522.00    0.60952   0.61430    0.007
 5523.00    0.54991   0.61876    0.007
 5524.00    0.50326   0.62599    0.007
 5525.00    0.45704   0.63239    0.007
 5526.00    0.42455   0.63864    0.007
 5527.00    0.40272   0.64564    0.007
 5528.00    0.61002   0.64943    0.007
 5529.00    0.79891   0.64824    0.007
 5530.00    0.76308   0.64563    0.007
 5531.00    0.72925   0.64448    0.007
 5532.00    0.71216   0.64385    0.007
 5533.00    0.69108   0.64070    0.007
 5534.00    0.64514   0.63338    0.007
 5535.00    0.61588   0.62244    0.007
 5536.00    0.66816   0.60961    0.007
 5537.00    0.70671   0.60219    0.007
 5538.00    0.69076   0.60886    0.007
 5539.00    0.70001   0.62430    0.007
 5540.00    0.79243   0.63485    0.007
 5541.00    0.83500   0.63591    0.007
 5542.00    0.73852   0.63094    0.007
 5543.00    0.65856   0.62372    0.007
 5544.00    0.61800   0.61951    0.007
 5545.00    0.58703   0.62279    0.007
 5546.00    0.57583   0.62925    0.007
 5547.00    0.54544   0.63357    0.007
 5548.00    0.48065   0.63772    0.007
 5549.00    0.44114   0.64257    0.007
 5550.00    0.44127   0.64391    0.006
 5551.00    0.48878   0.63905    0.006
 5552.00    0.60153   0.63160    0.007
 5553.00    0.69432   0.62760    0.007
 5554.00    0.76292   0.62748    0.006
 5555.00    0.72040   0.62900    0.006
 5556.00    0.55913   0.63357    0.006
 5557.00    0.48260   0.64054    0.006
 5558.00    0.48591   0.64577    0.006
 5559.00    0.49655   0.64751    0.006
 5560.00    0.51326   0.64620    0.007
 5561.00    0.58250   0.64170    0.007
 5562.00    0.69016   0.63484    0.007
 5563.00    0.67384   0.62933    0.007
 5564.00    0.57787   0.62869    0.007
 5565.00    0.55733   0.63115    0.007
 5566.00    0.57916   0.63235    0.007
 5567.00    0.61258   0.63213    0.007
 5568.00    0.65167   0.63232    0.007
 5569.00    0.63262   0.63176    0.007
 5570.00    0.58901   0.62860    0.007
 5571.00    0.65504   0.62324    0.007
 5572.00    0.76075   0.61907    0.007
 5573.00    0.81303   0.61818    0.007
 5574.00    0.84896   0.61739    0.007
 5575.00    0.77557   0.61530    0.007
 5576.00    0.67436   0.61455    0.007
 5577.00    0.71246   0.61432    0.007
 5578.00    0.77941   0.61308    0.007
 5579.00    0.71314   0.61424    0.007
 5580.00    0.62515   0.61657    0.007
 5581.00    0.63681   0.61337    0.007
 5582.00    0.66064   0.60958    0.007
 5583.00    0.63579   0.61371    0.007
 5584.00    0.60685   0.61988    0.007
 5585.00    0.61746   0.62190    0.007
 5586.00    0.62998   0.62332    0.007
 5587.00    0.71403   0.62550    0.007
 5588.00    0.79696   0.62701    0.007
 5589.00    0.74964   0.62749    0.007
 5590.00    0.70578   0.62547    0.007
 5591.00    0.73079   0.62235    0.007
 5592.00    0.74776   0.62146    0.007
 5593.00    0.67128   0.62005    0.007
 5594.00    0.61046   0.61196    0.007
 5595.00    0.67550   0.59650    0.007
 5596.00    0.73565   0.58082    0.007
 5597.00    0.76626   0.57309    0.007
 5598.00    0.78737   0.57555    0.007
 5599.00    0.76320   0.58556    0.007
 5600.00    0.73633   0.59668    0.007
 5601.00    0.69895   0.60199    0.007
 5602.00    0.64794   0.60055    0.007
 5603.00    0.55281   0.59855    0.007
 5604.00    0.49663   0.60409    0.007
 5605.00    0.54711   0.61442    0.007
 5606.00    0.57833   0.61617    0.007
 5607.00    0.56438   0.60719    0.007
 5608.00    0.55004   0.59899    0.007
 5609.00    0.53491   0.59542    0.007
 5610.00    0.56747   0.59092    0.007
 5611.00    0.68425   0.58643    0.007
 5612.00    0.77119   0.58987    0.007
 5613.00    0.81203   0.60372    0.007
 5614.00    0.79309   0.62014    0.007
 5615.00    0.69303   0.63056    0.007
 5616.00    0.63443   0.63368    0.007
 5617.00    0.62538   0.63281    0.007
 5618.00    0.59607   0.63112    0.007
 5619.00    0.54543   0.63042    0.007
 5620.00    0.54579   0.63158    0.007
 5621.00    0.59353   0.63260    0.007
 5622.00    0.60872   0.62715    0.007
 5623.00    0.59724   0.60961    0.007
 5624.00    0.63672   0.58757    0.007
 5625.00    0.71295   0.57980    0.006
 5626.00    0.69936   0.59030    0.006
 5627.00    0.62891   0.60273    0.007
 5628.00    0.58115   0.60674    0.006
 5629.00    0.54593   0.60770    0.006
 5630.00    0.46806   0.61145    0.006
 5631.00    0.36966   0.61419    0.006
 5632.00    0.43565   0.60834    0.006
 5633.00    0.56992   0.59542    0.006
 5634.00    0.61432   0.58782    0.006
 5635.00    0.62678   0.59229    0.006
 5636.00    0.68007   0.60179    0.006
 5637.00    0.74560   0.60950    0.006
 5638.00    0.73767   0.61613    0.006
 5639.00    0.71144   0.62154    0.006
 5640.00    0.65147   0.62359    0.006
 5641.00    0.58468   0.62201    0.006
 5642.00    0.60117   0.61784    0.006
 5643.00    0.63084   0.61289    0.006
 5644.00    0.65264   0.60831    0.006
 5645.00    0.67351   0.60326    0.006
 5646.00    0.67017   0.59828    0.006
 5647.00    0.66489   0.59701    0.006
 5648.00    0.63691   0.59969    0.006
 5649.00    0.60791   0.60047    0.006
 5650.00    0.60831   0.59732    0.006
 5651.00    0.60882   0.59594    0.006
 5652.00    0.59863   0.59868    0.006
 5653.00    0.59171   0.60206    0.006
 5654.00    0.64521   0.60459    0.006
 5655.00    0.69281   0.60706    0.006
 5656.00    0.67498   0.60930    0.007
 5657.00    0.64222   0.60966    0.007
 5658.00    0.49366   0.60724    0.007
 5659.00    0.36855   0.60497    0.006
 5660.00    0.38104   0.60664    0.006
 5661.00    0.40697   0.61045    0.006
 5662.00    0.49536   0.61033    0.006
 5663.00    0.54818   0.60406    0.006
 5664.00    0.46578   0.59760    0.006
 5665.00    0.41514   0.59480    0.006
 5666.00    0.46528   0.58783    0.006
 5667.00    0.51066   0.57416    0.006
 5668.00    0.54320   0.56856    0.006
 5669.00    0.57900   0.57767    0.006
 5670.00    0.62229   0.58647    0.006
 5671.00    0.64181   0.58527    0.006
 5672.00    0.61386   0.58364    0.006
 5673.00    0.60749   0.59017    0.006
 5674.00    0.63862   0.59906    0.006
 5675.00    0.64618   0.60121    0.006
 5676.00    0.61784   0.59677    0.006
 5677.00    0.58461   0.59259    0.006
 5678.00    0.54484   0.59254    0.006
 5679.00    0.55309   0.59549    0.006
 5680.00    0.61790   0.60019    0.006
 5681.00    0.64190   0.60658    0.006
 5682.00    0.62351   0.61256    0.006
 5683.00    0.58259   0.61415    0.006
 5684.00    0.52102   0.61161    0.006
 5685.00    0.47407   0.61016    0.006
 5686.00    0.43893   0.61116    0.006
 5687.00    0.43097   0.61042    0.006
 5688.00    0.44233   0.60726    0.006
 5689.00    0.49634   0.60455    0.006
 5690.00    0.57695   0.60069    0.006
 5691.00    0.58488   0.59314    0.006
 5692.00    0.55320   0.58687    0.006
 5693.00    0.51132   0.58730    0.006
 5694.00    0.46462   0.59072    0.006
 5695.00    0.53137   0.59021    0.006
 5696.00    0.64445   0.58556    0.006
 5697.00    0.66934   0.58275    0.007
 5698.00    0.66347   0.58605    0.007
 5699.00    0.60898   0.59346    0.007
 5700.00    0.54018   0.60037    0.007
 5701.00    0.50487   0.60510    0.007
 5702.00    0.47772   0.60702    0.006
 5703.00    0.50515   0.60585    0.006
 5704.00    0.54333   0.60416    0.006
 5705.00    0.55826   0.60397    0.006
 5706.00    0.56961   0.60258    0.006
 5707.00    0.56202   0.59774    0.006
 5708.00    0.55229   0.59257    0.006
 5709.00    0.58780   0.58840    0.006
 5710.00    0.62673   0.58362    0.006
 5711.00    0.63593   0.58103    0.006
 5712.00    0.64392   0.58401    0.006
 5713.00    0.56771   0.58887    0.006
 5714.00    0.49531   0.58861    0.006
 5715.00    0.60690   0.58208    0.006
 5716.00    0.71282   0.57385    0.006
 5717.00    0.72137   0.56654    0.006
 5718.00    0.72476   0.56104    0.006
 5719.00    0.67347   0.56008    0.006
 5720.00    0.61798   0.56292    0.006
 5721.00    0.53099   0.56796    0.006
 5722.00    0.45505   0.57709    0.006
 5723.00    0.44219   0.58730    0.006
 5724.00    0.44389   0.59344    0.006
 5725.00    0.51176   0.59615    0.006
 5726.00    0.57354   0.59717    0.006
 5727.00    0.61266   0.59742    0.006
 5728.00    0.64652   0.59888    0.006
 5729.00    0.66401   0.60156    0.006
 5730.00    0.68294   0.60427    0.006
 5731.00    0.70566   0.60697    0.006
 5732.00    0.71106   0.60873    0.006
 5733.00    0.67716   0.60850    0.006
 5734.00    0.67088   0.60633    0.006
 5735.00    0.71889   0.60178    0.006
 5736.00    0.70785   0.59633    0.006
 5737.00    0.59569   0.59468    0.006
 5738.00    0.53485   0.59743    0.006
 5739.00    0.55101   0.59830    0.006
 5740.00    0.56589   0.59407    0.000
 5741.00    0.57910   0.59052    0.000
 5742.00    0.60435   0.59334    0.000
 5743.00    0.64357   0.59949    0.000
 5744.00    0.65536   0.60320    0.000
 5745.00    0.63907   0.60294    0.000
 5746.00    0.61383   0.60056    0.000
 5747.00    0.58052   0.59838    0.000
 5748.00    0.58304   0.59734    0.000
 5749.00    0.61411   0.59696    0.000
 5750.00    0.63122   0.59628    0.000
 5751.00    0.63858   0.59478    0.000
 5752.00    0.64122   0.59370    0.000
 5753.00    0.64098   0.59528    0.000
 5754.00    0.61256   0.59911    0.000
 5755.00    0.56902   0.60053    0.000
 5756.00    0.59367   0.59576    0.000
 5757.00    0.65008   0.58875    0.000
 5758.00    0.69652   0.58775    0.000
 5759.00    0.73897   0.59288    0.000
 5760.00    0.68649   0.59547    0.000
 5761.00    0.60151   0.58967    0.000
 5762.00    0.58372   0.57863    0.000
 5763.00    0.58528   0.57115    0.000
 5764.00    0.58795   0.57392    0.000
 5765.00    0.59087   0.58448    0.000
 5766.00    0.60353   0.59431    0.000
 5767.00    0.61805   0.59831    0.000
 5768.00    0.65190   0.59642    0.000
 5769.00    0.68862   0.59028    0.000
 5770.00    0.68569   0.58180    0.000
 5771.00    0.67845   0.57368    0.000
 5772.00    0.69286   0.57101    0.000
 5773.00    0.70883   0.57760    0.000
 5774.00    0.65854   0.58880    0.000
 5775.00    0.60582   0.59644    0.000
 5776.00    0.60158   0.59888    0.000
 5777.00    0.59958   0.59857    0.000
 5778.00    0.67019   0.59702    0.000
 5779.00    0.73857   0.59491    0.000
 5780.00    0.77114   0.59229    0.000
 5781.00    0.79977   0.58926    0.000
 5782.00    0.78850   0.58694    0.000
 5783.00    0.77323   0.58571    0.000
 5784.00    0.72893   0.58544    0.000
 5785.00    0.70076   0.58724    0.000
 5786.00    0.76213   0.59027    0.000
 5787.00    0.79809   0.59103    0.000
 5788.00    0.72132   0.58681    0.000
 5789.00    0.64680   0.57676    0.000
 5790.00    0.58045   0.56428    0.000
 5791.00    0.55130   0.55704   -2.000
 5792.00    0.63576   0.55738   -2.000
 5793.00    0.69441   0.55866   -2.000
 5794.00    0.68607   0.55726   -2.000
 5795.00    0.67656   0.55872   -2.000
 5796.00    0.66447   0.56652   -2.000
 5797.00    0.63696   0.57546   -2.000
 5798.00    0.57967   0.58019   -2.000
 5799.00    0.52810   0.57955   -2.000
 5800.00    0.48619   0.57578   -2.000
 5801.00    0.49100   0.57430   -2.000
 5802.00    0.56488   0.57746   -2.000
 5803.00    0.66048   0.58259   -2.000
 5804.00    0.78432   0.58675   -2.000
 5805.00    0.85623   0.58711   -2.000
 5806.00    0.86869   0.58224   -2.000
 5807.00    0.81544   0.57684   -2.000
 5808.00    0.69582   0.57802   -2.000
 5809.00    0.62711   0.58533   -2.000
 5810.00    0.60373   0.59200   -2.000
 5811.00    0.61780   0.59442    0.000
 5812.00    0.66126   0.59227    0.000
 5813.00    0.64379   0.58596    0.000
 5814.00    0.58429   0.57919    0.000
 5815.00    0.52448   0.57645    0.000
 5816.00    0.46448   0.57794    0.000
 5817.00    0.50306   0.58073    0.000
 5818.00    0.59369   0.58278    0.000
 5819.00    0.62909   0.58449    0.000
 5820.00    0.63919   0.58639    0.000
 5821.00    0.62324   0.58732    0.000
 5822.00    0.59701   0.58625    0.000
 5823.00    0.60098   0.58333    0.000
 5824.00    0.61511   0.57867    0.000
 5825.00    0.63212   0.57393    0.000
 5826.00    0.64993   0.57360    0.000
 5827.00    0.66412   0.57952    0.000
 5828.00    0.67746   0.58690    0.000
 5829.00    0.65889   0.59086    0.000
 5830.00    0.63435   0.59122    0.000
 5831.00    0.59149   0.58949    0.000
 5832.00    0.54599   0.58716    0.000
 5833.00    0.57265   0.58596    0.000
 5834.00    0.60687   0.58657    0.000
 5835.00    0.62802   0.58760    0.000
 5836.00    0.64828   0.58765    0.000
 5837.00    0.56542   0.58744    0.000
 5838.00    0.47914   0.58798    0.000
 5839.00    0.53548   0.58852    0.000
 5840.00    0.59102   0.58809    0.000
 5841.00    0.61857   0.58718    0.000
 5842.00    0.64263   0.58590    0.000
 5843.00    0.61399   0.58351    0.000
 5844.00    0.58954   0.58121    0.000
 5845.00    0.60568   0.58124    0.000
 5846.00    0.61835   0.58238    0.000
 5847.00    0.60666   0.58181    0.000
 5848.00    0.60159   0.58090    0.000
 5849.00    0.63235   0.58271    0.000
 5850.00    0.64471   0.58633    0.000
 5851.00    0.57740   0.58869    0.000
 5852.00    0.52498   0.58875    0.000
 5853.00    0.52569   0.58694    0.000
 5854.00    0.54673   0.58355    0.000
 5855.00    0.62868   0.57926    0.000
 5856.00    0.68048   0.57530    0.000
 5857.00    0.65537   0.57335    0.000
 5858.00    0.62045   0.57390    0.000
 5859.00    0.56401   0.57517    0.000
 5860.00    0.51312   0.57445    0.000
 5861.00    0.47281   0.56969    0.000
 5862.00    0.46115   0.56227    0.000
 5863.00    0.49711   0.55779    0.000
 5864.00    0.53968   0.55862    0.000
 5865.00    0.59189   0.55869    0.000
 5866.00    0.61770   0.55264    0.000
 5867.00    0.60967   0.54560    0.000
 5868.00    0.58948   0.54615    0.000
 5869.00    0.55557   0.55377    0.000
 5870.00    0.51666   0.56107    0.000
 5871.00    0.47277   0.56351    0.000
 5872.00    0.45084   0.56335    0.000
 5873.00    0.44817   0.56507    0.000
 5874.00    0.46965   0.56777    0.000
 5875.00    0.50982   0.56745    0.000
 5876.00    0.54880   0.56495    0.000
 5877.00    0.58695   0.56521    0.000
 5878.00    0.58458   0.56935    0.000
 5879.00    0.55804   0.57369    0.000
 5880.00    0.51013   0.57528    0.000
 5881.00    0.45110   0.57379    0.000
 5882.00    0.45928   0.57087    0.000
 5883.00    0.49776   0.56825    0.000
 5884.00    0.51885   0.56593    0.000
 5885.00    0.53321   0.56361    0.000
 5886.00    0.52165   0.56235    0.000
 5887.00    0.50153   0.56264    0.000
 5888.00    0.49285   0.56212    0.000
 5889.00    0.48732   0.55938    0.000
 5890.00    0.51229   0.55732    0.000
 5891.00    0.54421   0.55795    0.000
 5892.00    0.47412   0.55838    0.000
 5893.00    0.38548   0.55642    0.000
 5894.00    0.41403   0.55479    0.000
 5895.00    0.45895   0.55487    0.000
 5896.00    0.58510   0.55128    0.000
 5897.00    0.71940   0.53455    0.000
 5898.00    0.71234   0.50056    0.000
 5899.00    0.69628   0.46472    0.000
 5900.00    0.66932   0.45530    0.000
 5901.00    0.64206   0.47688    0.006
 5902.00    0.62109   0.50395    0.006
 5903.00    0.59966   0.51375    0.006
 5904.00    0.56518   0.50068    0.006
 5905.00    0.53244   0.47840    0.006
 5906.00    0.52467   0.47415    0.006
 5907.00    0.51810   0.49524    0.006
 5908.00    0.52276   0.52077    0.006
 5909.00    0.53022   0.53629    0.006
 5910.00    0.55675   0.54485    0.006
 5911.00    0.58759   0.55022    0.006
 5912.00    0.64113   0.55301    0.006
 5913.00    0.68439   0.55419    0.006
 5914.00    0.68416   0.55375    0.006
 5915.00    0.67217   0.55235    0.006
 5916.00    0.61905   0.55268    0.006
 5917.00    0.56586   0.55525    0.006
 5918.00    0.51248   0.55728    0.006
 5919.00    0.46293   0.55774    0.006
 5920.00    0.42302   0.55862    0.006
 5921.00    0.40791   0.55926    0.006
 5922.00    0.44636   0.55572    0.006
 5923.00    0.48495   0.54785    0.006
 5924.00    0.52384   0.54148    0.006
 5925.00    0.55533   0.54087    0.006
 5926.00    0.57469   0.54472    0.006
 5927.00    0.56782   0.54968    0.006
 5928.00    0.52331   0.55326    0.006
 5929.00    0.50851   0.55524    0.006
 5930.00    0.53123   0.55581    0.006
 5931.00    0.56389   0.55459    0.006
 5932.00    0.60761   0.55327    0.006
 5933.00    0.57623   0.55397    0.006
 5934.00    0.47113   0.55610    0.006
 5935.00    0.42613   0.55797    0.006
 5936.00    0.43314   0.55801    0.006
 5937.00    0.43825   0.55506    0.006
 5938.00    0.44189   0.54951    0.006
 5939.00    0.43089   0.54421    0.006
 5940.00    0.41006   0.54381    0.006
 5941.00    0.39950   0.54906    0.006
 5942.00    0.39496   0.55356    0.006
 5943.00    0.39354   0.55208    0.006
 5944.00    0.39371   0.54813    0.006
 5945.00    0.44519   0.54833    0.006
 5946.00    0.51944   0.55259    0.006
 5947.00    0.51536   0.55623    0.006
 5948.00    0.48146   0.55739    0.006
 5949.00    0.45148   0.55591    0.006
 5950.00    0.42276   0.55147    0.006
 5951.00    0.41984   0.54694    0.006
 5952.00    0.42390   0.54615    0.006
 5953.00    0.49015   0.54878    0.006
 5954.00    0.57023   0.55223    0.006
 5955.00    0.60206   0.55461    0.006
 5956.00    0.62536   0.55392    0.006
 5957.00    0.61476   0.54898    0.006
 5958.00    0.59958   0.54279    0.006
 5959.00    0.57376   0.54126    0.006
 5960.00    0.54691   0.54487    0.006
 5961.00    0.48682   0.54669    0.006
 5962.00    0.42474   0.54390    0.006
 5963.00    0.48961   0.54260    0.006
 5964.00    0.55767   0.54572    0.006
 5965.00    0.61782   0.54747    0.006
 5966.00    0.67403   0.54461    0.006
 5967.00    0.63021   0.54162    0.006
 5968.00    0.58777   0.54255    0.006
 5969.00    0.56412   0.54668    0.006
 5970.00    0.53956   0.55143    0.006
 5971.00    0.50694   0.55482    0.006
 5972.00    0.47639   0.55606    0.006
 5973.00    0.45950   0.55542    0.006
 5974.00    0.44841   0.55331    0.006
 5975.00    0.46707   0.55048    0.006
 5976.00    0.47786   0.54936    0.006
 5977.00    0.45605   0.55098    0.006
 5978.00    0.43175   0.55333    0.006
 5979.00    0.39888   0.55519    0.006
 5980.00    0.38223   0.55676    0.006
 5981.00    0.41240   0.55763    0.006
 5982.00    0.42919   0.55709    0.006
 5983.00    0.41303   0.55499    0.006
 5984.00    0.40946   0.55080    0.006
 5985.00    0.43265   0.54477    0.005
 5986.00    0.45982   0.53917    0.005
 5987.00    0.49431   0.53663    0.005
 5988.00    0.51448   0.53816    0.005
 5989.00    0.51155   0.54298    0.006
 5990.00    0.51185   0.54794    0.006
 5991.00    0.51673   0.54883    0.006
 5992.00    0.52847   0.54384    0.006
 5993.00    0.54874   0.53509    0.006
 5994.00    0.54693   0.52887    0.006
 5995.00    0.52086   0.52976    0.006
 5996.00    0.50497   0.53450    0.006
 5997.00    0.49891   0.53832    0.006
 5998.00    0.53830   0.54130    0.006
 5999.00    0.61648   0.54362    0.006
 6000.00    0.65197   0.54311    0.006
 6001.00    0.65538   0.54084    0.006
 6002.00    0.64873   0.54151    0.006
 6003.00    0.63544   0.54582    0.006
 6004.00    0.62128   0.54901    0.006
 6005.00    0.60661   0.54762    0.006
 6006.00    0.60139   0.54236    0.006
 6007.00    0.60093   0.53679    0.006
 6008.00    0.57524   0.53485    0.006
 6009.00    0.53855   0.53717    0.006
 6010.00    0.55324   0.54027    0.006
 6011.00    0.58716   0.54025    0.006
 6012.00    0.64509   0.53720    0.006
 6013.00    0.71064   0.53541    0.006
 6014.00    0.71593   0.53670    0.006
 6015.00    0.70525   0.53707    0.006
 6016.00    0.70208   0.53296    0.006
 6017.00    0.70054   0.52628    0.006
 6018.00    0.72935   0.52342    0.006
 6019.00    0.76339   0.52866    0.006
 6020.00    0.68075   0.53687    0.006
 6021.00    0.58286   0.53924    0.006
 6022.00    0.56461   0.53468    0.006
 6023.00    0.55368   0.52986    0.006
 6024.00    0.58721   0.52960    0.006
 6025.00    0.62322   0.53113    0.006
 6026.00    0.69701   0.53087    0.006
 6027.00    0.77035   0.53054    0.006
 6028.00    0.71552   0.53064    0.006
 6029.00    0.66031   0.52814    0.006
 6030.00    0.59648   0.52416    0.006
 6031.00    0.53785   0.52294    0.006
 6032.00    0.54554   0.52455    0.006
 6033.00    0.54865   0.52646    0.006
 6034.00    0.51227   0.52870    0.006
 6035.00    0.49011   0.53199    0.006
 6036.00    0.55868   0.53415    0.006
 6037.00    0.61779   0.53485    0.006
 6038.00    0.62962   0.53672    0.006
 6039.00    0.63810   0.53926    0.006
 6040.00    0.63304   0.54050    0.006
 6041.00    0.61943   0.54110    0.006
 6042.00    0.57713   0.54243    0.006
 6043.00    0.53457   0.54369    0.006
 6044.00    0.49130   0.54378    0.006
 6045.00    0.46738   0.54336    0.006
 6046.00    0.49035   0.54334    0.006
 6047.00    0.51497   0.54344    0.006
 6048.00    0.54307   0.54269    0.006
 6049.00    0.56089   0.54067    0.006
 6050.00    0.56001   0.53815    0.005
 6051.00    0.55605   0.53642    0.005
 6052.00    0.54720   0.53667    0.005
 6053.00    0.54929   0.53911    0.006
 6054.00    0.56664   0.54157    0.006
 6055.00    0.56817   0.54233    0.006
 6056.00    0.55028   0.54235    0.006
 6057.00    0.54123   0.54271    0.006
 6058.00    0.54174   0.54298    0.006
 6059.00    0.55937   0.54322    0.006
 6060.00    0.59335   0.54364    0.006
 6061.00    0.61824   0.54276    0.006
 6062.00    0.63548   0.53947    0.006
 6063.00    0.60685   0.53531    0.006
 6064.00    0.54425   0.53228    0.006
 6065.00    0.52772   0.53022    0.006
 6066.00    0.54118   0.52912    0.006
 6067.00    0.55148   0.53041    0.006
 6068.00    0.55998   0.53392    0.006
 6069.00    0.56946   0.53736    0.006
 6070.00    0.57942   0.53870    0.005
 6071.00    0.57387   0.53758    0.005
 6072.00    0.56165   0.53461    0.005
 6073.00    0.55372   0.52981    0.005
 6074.00    0.54736   0.52315    0.006
 6075.00    0.51260   0.51832    0.005
 6076.00    0.46900   0.52111    0.005
 6077.00    0.42879   0.53009    0.005
 6078.00    0.38946   0.53770    0.005
 6079.00    0.41965   0.54063    0.005
 6080.00    0.46454   0.54104    0.005
 6081.00    0.48556   0.54131    0.005
 6082.00    0.50258   0.54201    0.006
 6083.00    0.49545   0.54245    0.006
 6084.00    0.48528   0.54209    0.005
 6085.00    0.52199   0.54046    0.005
 6086.00    0.56281   0.53681    0.005
 6087.00    0.55736   0.53100    0.006
 6088.00    0.54953   0.52524    0.006
 6089.00    0.53760   0.52331    0.006
 6090.00    0.52590   0.52467    0.005
 6091.00    0.53669   0.52458    0.006
 6092.00    0.54446   0.52244    0.006
 6093.00    0.48818   0.52147    0.006
 6094.00    0.43268   0.52195    0.006
 6095.00    0.38653   0.52243    0.006
 6096.00    0.34436   0.52346    0.006
 6097.00    0.33512   0.52549    0.006
 6098.00    0.33066   0.52653    0.006
 6099.00    0.35591   0.52447    0.006
 6100.00    0.39121   0.52089    0.005
 6101.00    0.47546   0.51914    0.005
 6102.00    0.54428   0.51961    0.005
 6103.00    0.55194   0.52138    0.005
 6104.00    0.56575   0.52481    0.005
 6105.00    0.59979   0.52842    0.005
 6106.00    0.62544   0.52917    0.005
 6107.00    0.62771   0.52788    0.005
 6108.00    0.61019   0.52794    0.005
 6109.00    0.54553   0.52938    0.005
 6110.00    0.48269   0.52741    0.005
 6111.00    0.42358   0.51694    0.005
 6112.00    0.38955   0.50188    0.005
 6113.00    0.40041   0.49604    0.005
 6114.00    0.41936   0.50523    0.005
 6115.00    0.45100   0.51840    0.005
 6116.00    0.48350   0.52445    0.005
 6117.00    0.51722   0.52394    0.006
 6118.00    0.54755   0.52326    0.006
 6119.00    0.57381   0.52519    0.006
 6120.00    0.58197   0.52639    0.006
 6121.00    0.57085   0.52462    0.006
 6122.00    0.54260   0.52329    0.006
 6123.00    0.49824   0.52514    0.006
 6124.00    0.45966   0.52751    0.006
 6125.00    0.42587   0.52677    0.006
 6126.00    0.42427   0.52387    0.006
 6127.00    0.44617   0.52294    0.005
 6128.00    0.43489   0.52377    0.005
 6129.00    0.40234   0.52168    0.005
 6130.00    0.37040   0.51438    0.005
 6131.00    0.33880   0.50411    0.005
 6132.00    0.35026   0.49765    0.005
 6133.00    0.38274   0.50155    0.005
 6134.00    0.39960   0.51163    0.005
 6135.00    0.40988   0.51780    0.005
 6136.00    0.41618   0.51783    0.005
 6137.00    0.42104   0.51545    0.005
 6138.00    0.43830   0.51356    0.005
 6139.00    0.45936   0.51430    0.005
 6140.00    0.48387   0.51771    0.005
 6141.00    0.50927   0.52110    0.005
 6142.00    0.50980   0.52278    0.006
 6143.00    0.50519   0.52236    0.006
 6144.00    0.49264   0.51737    0.006
 6145.00    0.47881   0.50457    0.006
 6146.00    0.53176   0.48656    0.005
 6147.00    0.59284   0.47535    0.005
 6148.00    0.60249   0.48179    0.005
 6149.00    0.60785   0.49896    0.005
 6150.00    0.57219   0.50871    0.005
 6151.00    0.53456   0.50579    0.005
 6152.00    0.46463   0.50244    0.005
 6153.00    0.39385   0.50797    0.005
 6154.00    0.30077   0.51699    0.005
 6155.00    0.21472   0.52134    0.005
 6156.00    0.26699   0.51998    0.005
 6157.00    0.31901   0.51519    0.005
 6158.00    0.36820   0.50935    0.005
 6159.00    0.41161   0.50555    0.006
 6160.00    0.40882   0.50593    0.005
 6161.00    0.40660   0.50971    0.005
 6162.00    0.40775   0.51382    0.005
 6163.00    0.40782   0.51482    0.005
 6164.00    0.40271   0.51149    0.005
 6165.00    0.40398   0.50736    0.005
 6166.00    0.42994   0.50622    0.005
 6167.00    0.45427   0.50707    0.005
 6168.00    0.47329   0.50747    0.005
 6169.00    0.48384   0.50487    0.005
 6170.00    0.47119   0.49466    0.005
 6171.00    0.45594   0.47732    0.005
 6172.00    0.43462   0.46385    0.006
 6173.00    0.41002   0.46441    0.006
 6174.00    0.37875   0.47609    0.006
 6175.00    0.36226   0.48853    0.006
 6176.00    0.37180   0.49604    0.006
 6177.00    0.36764   0.49827    0.006
 6178.00    0.34237   0.49328    0.005
 6179.00    0.32516   0.48267    0.005
 6180.00    0.31888   0.47762    0.005
 6181.00    0.36494   0.48468    0.005
 6182.00    0.47343   0.49541    0.005
 6183.00    0.54738   0.50049    0.005
 6184.00    0.58500   0.50092    0.005
 6185.00    0.57034   0.50034    0.006
 6186.00    0.50716   0.49958    0.006
 6187.00    0.46611   0.49993    0.006
 6188.00    0.44314   0.50213    0.005
 6189.00    0.44467   0.50389    0.005
 6190.00    0.46383   0.50421    0.005
 6191.00    0.51979   0.50547    0.005
 6192.00    0.59898   0.50791    0.005
 6193.00    0.63155   0.50913    0.005
 6194.00    0.63836   0.50859    0.005
 6195.00    0.68271   0.50657    0.006
 6196.00    0.74508   0.50258   -2.000
 6197.00    0.93288   0.49832   -2.000
 6198.00    1.17269   0.49622   -2.000
 6199.00    1.15492   0.49462   -2.000
 6200.00    1.04585   0.48900   -2.000
 6201.00    0.70856   0.48078   -2.000
 6202.00    0.30298   0.47945   -2.000
 6203.00    0.15272   0.48826   -2.000
 6204.00    0.06588   0.49837   -2.000
 6205.00    0.13890   0.50337   -2.000
 6206.00    0.24411   0.50539   -2.000
 6207.00    0.32080   0.50621   -2.000
 6208.00    0.39298   0.50351    0.006
 6209.00    0.37016   0.49702    0.006
 6210.00    0.33620   0.49236    0.006
 6211.00    0.38748   0.49452    0.005
 6212.00    0.44553   0.50094    0.005
 6213.00    0.48801   0.50568    0.005
 6214.00    0.52981   0.50681    0.005
 6215.00    0.50076   0.50639    0.005
 6216.00    0.47105   0.50641    0.005
 6217.00    0.44671   0.50675    0.005
 6218.00    0.42287   0.50658    0.005
 6219.00    0.40821   0.50560    0.005
 6220.00    0.39536   0.50378    0.005
 6221.00    0.40237   0.50101    0.005
 6222.00    0.41118   0.49610    0.005
 6223.00    0.43394   0.48816    0.005
 6224.00    0.45203   0.48019    0.005
 6225.00    0.44282   0.47675    0.005
 6226.00    0.43814   0.47911    0.005
 6227.00    0.45438   0.48448    0.006
 6228.00    0.46537   0.48732    0.006
 6229.00    0.45644   0.48479    0.006
 6230.00    0.44585   0.48116    0.006
 6231.00    0.43001   0.48193    0.006
 6232.00    0.41904   0.48644    0.006
 6233.00    0.42116   0.48995    0.006
 6234.00    0.41949   0.49048    0.006
 6235.00    0.40913   0.49043    0.005
 6236.00    0.40775   0.49146    0.005
 6237.00    0.42426   0.49222    0.005
 6238.00    0.42861   0.49037    0.005
 6239.00    0.41184   0.48355    0.005
 6240.00    0.38932   0.47314    0.005
 6241.00    0.35809   0.46651    0.005
 6242.00    0.35191   0.46863    0.005
 6243.00    0.37917   0.47671    0.005
 6244.00    0.40313   0.48636    0.005
 6245.00    0.42319   0.49371    0.005
 6246.00    0.43492   0.49502    0.005
 6247.00    0.43802   0.49026    0.005
 6248.00    0.42361   0.48334    0.005
 6249.00    0.39320   0.47794    0.005
 6250.00    0.37447   0.47586    0.005
 6251.00    0.36514   0.47709    0.005
 6252.00    0.36681   0.47768    0.005
 6253.00    0.37628   0.47456    0.005
 6254.00    0.40490   0.47087    0.005
 6255.00    0.44544   0.46911    0.005
 6256.00    0.48864   0.46864    0.006
 6257.00    0.53329   0.47132    0.006
 6258.00    0.53045   0.47807    0.006
 6259.00    0.50518   0.48484    0.006
 6260.00    0.55795   0.48708    0.006
 6261.00    0.64253   0.48301    0.007
 6262.00    0.66876   0.47449    0.007
 6263.00    0.67469   0.46728    0.007
 6264.00    0.57712   0.46523    0.007
 6265.00    0.44920   0.46624    0.007
 6266.00    0.40851   0.46625    0.006
 6267.00    0.38901   0.46408    0.006
 6268.00    0.42381   0.46220    0.006
 6269.00    0.46927   0.46435    0.005
 6270.00    0.46313   0.47059    0.005
 6271.00    0.44909   0.47713    0.005
 6272.00    0.43921   0.48253    0.005
 6273.00    0.42981   0.48664    0.005
 6274.00    0.41794   0.48673    0.005
 6275.00    0.40588   0.48320    0.005
 6276.00    0.39361   0.48157    0.005
 6277.00    0.38132   0.48378    0.005
 6278.00    0.37105   0.48556    0.005
 6279.00    0.36259   0.48425    0.005
 6280.00    0.42661   0.48238    0.000
 6281.00    0.49132   0.48287    0.000
 6282.00    0.56792   0.48533    0.000
 6283.00    0.63751   0.48749    0.000
 6284.00    0.63341   0.48811    0.000
 6285.00    0.62539   0.48793    0.000
 6286.00    0.58821   0.48782    0.000
 6287.00    0.54758   0.48718    0.000
 6288.00    0.48739   0.48498    0.000
 6289.00    0.43187   0.48105    0.000
 6290.00    0.39746   0.47695    0.000
 6291.00    0.37703   0.47555    0.000
 6292.00    0.40847   0.47788    0.000
 6293.00    0.43494   0.48210    0.000
 6294.00    0.44602   0.48561    0.000
 6295.00    0.44900   0.48708    0.000
 6296.00    0.43062   0.48797    0.000
 6297.00    0.42584   0.49010    0.000
 6298.00    0.45186   0.49251    0.000
 6299.00    0.46637   0.49284    0.000
 6300.00    0.45833   0.49005    0.000
 6301.00    0.45437   0.48582    0.000
 6302.00    0.45738   0.48288    0.000
 6303.00    0.47463   0.48242    0.000
 6304.00    0.51322   0.48375    0.000
 6305.00    0.54405   0.48404    0.000
 6306.00    0.56468   0.48067    0.000
 6307.00    0.55880   0.47556    0.000
 6308.00    0.52220   0.47304    0.000
 6309.00    0.48384   0.47371    0.000
 6310.00    0.44367   0.47350    0.000
 6311.00    0.41275   0.47003    0.000
 6312.00    0.39017   0.46705    0.000
 6313.00    0.37272   0.46910    0.000
 6314.00    0.35935   0.47448    0.000
 6315.00    0.33274   0.47850    0.000
 6316.00    0.29687   0.48098    0.000
 6317.00    0.29671   0.48443    0.000
 6318.00    0.31844   0.48773    0.000
 6319.00    0.32172   0.48773    0.000
 6320.00    0.31513   0.48429    0.000
 6321.00    0.30710   0.48033    0.005
 6322.00    0.29841   0.47856    0.005
 6323.00    0.30249   0.47823    0.005
 6324.00    0.31168   0.47575    0.005
 6325.00    0.30651   0.47102    0.005
 6326.00    0.29642   0.46789    0.005
 6327.00    0.31249   0.46605    0.005
 6328.00    0.33607   0.46297    0.005
 6329.00    0.38574   0.46209    0.005
 6330.00    0.44160   0.46672    0.005
 6331.00    0.42166   0.47265    0.005
 6332.00    0.38721   0.47552    0.005
 6333.00    0.31997   0.47711    0.005
 6334.00    0.24786   0.48014    0.005
 6335.00    0.26705   0.48339    0.005
 6336.00    0.29613   0.48440    0.005
 6337.00    0.32311   0.48336    0.005
 6338.00    0.34994   0.48268    0.005
 6339.00    0.33053   0.48287    0.005
 6340.00    0.30943   0.48204    0.005
 6341.00    0.30115   0.48078    0.005
 6342.00    0.29363   0.48156    0.005
 6343.00    0.31125   0.48297    0.005
 6344.00    0.32812   0.48014    0.005
 6345.00    0.33292   0.47161    0.005
 6346.00    0.33539   0.46329    0.005
 6347.00    0.31431   0.46177    0.005
 6348.00    0.29761   0.46595    0.005
 6349.00    0.31256   0.47080    0.005
 6350.00    0.32302   0.47498    0.005
 6351.00    0.30867   0.47815    0.005
 6352.00    0.29179   0.47765    0.005
 6353.00    0.26376   0.47280    0.005
 6354.00    0.24393   0.46737    0.005
 6355.00    0.25395   0.46519    0.005
 6356.00    0.27358   0.46537    0.005
 6357.00    0.32248   0.46602    0.005
 6358.00    0.37345   0.46858    0.005
 6359.00    0.42978   0.47343    0.005
 6360.00    0.47098   0.47759    0.005
 6361.00    0.47845   0.47951    0.005
 6362.00    0.47678   0.47978    0.005
 6363.00    0.45744   0.47794    0.005
 6364.00    0.42730   0.47353    0.005
 6365.00    0.37896   0.46922    0.005
 6366.00    0.34421   0.46811    0.005
 6367.00    0.32949   0.46810    0.005
 6368.00    0.31960   0.46512    0.005
 6369.00    0.31598   0.46032    0.005
 6370.00    0.32932   0.45713    0.005
 6371.00    0.36203   0.45500    0.005
 6372.00    0.38862   0.45251    0.005
 6373.00    0.40903   0.45185    0.005
 6374.00    0.41566   0.45499    0.005
 6375.00    0.41006   0.46021    0.005
 6376.00    0.39540   0.46500    0.005
 6377.00    0.37364   0.46901    0.005
 6378.00    0.33978   0.47204    0.005
 6379.00    0.29759   0.47229    0.005
 6380.00    0.29376   0.46939    0.005
 6381.00    0.31312   0.46690    0.005
 6382.00    0.33857   0.46869    0.005
 6383.00    0.36722   0.47373    0.005
 6384.00    0.37037   0.47759    0.005
 6385.00    0.36185   0.47855    0.005
 6386.00    0.33745   0.47828    0.005
 6387.00    0.30680   0.47738    0.005
 6388.00    0.31652   0.47490    0.005
 6389.00    0.33977   0.47163    0.005
 6390.00    0.36585   0.46962    0.005
 6391.00    0.39273   0.46955    0.005
 6392.00    0.38989   0.47085    0.005
 6393.00    0.38016   0.47197    0.005
 6394.00    0.37934   0.47153    0.005
 6395.00    0.38019   0.47082    0.005
 6396.00    0.35730   0.47192    0.005
 6397.00    0.33100   0.47423    0.005
 6398.00    0.32914   0.47577    0.005
 6399.00    0.32983   0.47613    0.005
 6400.00    0.34798   0.47589    0.005
 6401.00    0.36731   0.47401    0.005
 6402.00    0.36638   0.46821    0.005
 6403.00    0.36479   0.45967    0.005
 6404.00    0.31442   0.45520    0.005
 6405.00    0.26467   0.45942    0.005
 6406.00    0.23458   0.46803    0.005
 6407.00    0.20939   0.47383    0.005
 6408.00    0.25766   0.47295    0.005
 6409.00    0.30458   0.46481    0.005
 6410.00    0.33836   0.45493    0.005
 6411.00    0.36746   0.45345    0.005
 6412.00    0.36381   0.46215    0.005
 6413.00    0.35750   0.47200    0.005
 6414.00    0.33691   0.47647    0.005
 6415.00    0.31897   0.47593    0.005
 6416.00    0.31249   0.47190    0.005
 6417.00    0.29993   0.46569    0.005
 6418.00    0.26573   0.46086    0.005
 6419.00    0.22880   0.46119    0.005
 6420.00    0.18366   0.46406    0.005
 6421.00    0.15342   0.46348    0.005
 6422.00    0.16115   0.46076    0.005
 6423.00    0.18326   0.46111    0.005
 6424.00    0.23689   0.46372    0.005
 6425.00    0.28059   0.46525    0.005
 6426.00    0.30541   0.46572    0.005
 6427.00    0.32717   0.46608    0.005
 6428.00    0.34386   0.46565    0.005
 6429.00    0.36463   0.46272    0.005
 6430.00    0.39133   0.45713    0.005
 6431.00    0.39922   0.45317    0.005
 6432.00    0.38305   0.45610    0.005
 6433.00    0.35579   0.46455    0.005
 6434.00    0.31604   0.47151    0.005
 6435.00    0.29195   0.47363    0.005
 6436.00    0.28343   0.47380    0.005
 6437.00    0.29736   0.47478    0.005
 6438.00    0.33097   0.47529    0.005
 6439.00    0.37070   0.47213    0.005
 6440.00    0.41515   0.46419    0.005
 6441.00    0.43276   0.45549    0.005
 6442.00    0.43216   0.45251    0.005
 6443.00    0.40765   0.45661    0.005
 6444.00    0.36892   0.46349    0.005
 6445.00    0.34777   0.46906    0.005
 6446.00    0.33573   0.47135    0.005
 6447.00    0.36665   0.46882    0.005
 6448.00    0.41690   0.46101    0.005
 6449.00    0.42953   0.45281    0.005
 6450.00    0.42759   0.45262    0.005
 6451.00    0.38970   0.46110    0.005
 6452.00    0.33998   0.47005    0.005
 6453.00    0.33926   0.47405    0.009
 6454.00    0.35205   0.47454    0.058
 6455.00    0.37061   0.47450   -1.000
 6456.00    0.39047   0.47488   -1.000
 6457.00    0.31882   0.47405   -1.000
 6458.00    0.23057   0.46839   -1.000
 6459.00    0.18223   0.45628   -1.000
 6460.00    0.13944   0.44425   -1.000
 6461.00    0.17530   0.44243   -1.000
 6462.00    0.21901   0.45119   -1.000
 6463.00    0.29210   0.46109    0.011
 6464.00    0.36704   0.46434    0.005
 6465.00    0.38282   0.45971    0.005
 6466.00    0.39683   0.45232    0.005
 6467.00    0.39122   0.45037    0.005
 6468.00    0.38588   0.45653    0.005
 6469.00    0.38791   0.46526    0.005
 6470.00    0.38747   0.46957    0.005
 6471.00    0.35205   0.46562    0.005
 6472.00    0.31577   0.45458    0.005
 6473.00    0.27155   0.44495    0.005
 6474.00    0.23403   0.44561    0.005
 6475.00    0.24183   0.45425    0.005
 6476.00    0.26053   0.46247    0.005
 6477.00    0.33639   0.46680    0.005
 6478.00    0.40027   0.46758    0.005
 6479.00    0.41353   0.46541    0.005
 6480.00    0.41828   0.46157    0.005
 6481.00    0.39336   0.45778    0.005
 6482.00    0.37416   0.45591    0.005
 6483.00    0.37175   0.45723    0.005
 6484.00    0.36189   0.45946    0.005
 6485.00    0.33345   0.45949    0.005
 6486.00    0.30779   0.45881    0.005
 6487.00    0.28817   0.46009    0.005
 6488.00    0.28483   0.46210    0.005
 6489.00    0.31196   0.46260    0.005
 6490.00    0.32928   0.46092    0.005
 6491.00    0.33054   0.45626    0.005
 6492.00    0.33087   0.44950    0.005
 6493.00    0.32983   0.44527    0.005
 6494.00    0.34226   0.44683    0.005
 6495.00    0.37163   0.45183    0.005
 6496.00    0.39034   0.45610    0.005
 6497.00    0.39719   0.45831    0.005
 6498.00    0.38807   0.45901    0.005
 6499.00    0.36332   0.45805    0.005
 6500.00    0.35170   0.45488    0.005
 6501.00    0.35145   0.45011    0.005
 6502.00    0.34518   0.44433    0.005
 6503.00    0.33435   0.43557    0.005
 6504.00    0.32516   0.42224    0.005
 6505.00    0.31707   0.40911    0.005
 6506.00    0.33843   0.40366    0.005
 6507.00    0.37704   0.40744    0.005
 6508.00    0.37091   0.41629    0.005
 6509.00    0.34193   0.42514    0.005
 6510.00    0.29221   0.43219    0.005
 6511.00    0.23331   0.43874    0.005
 6512.00    0.22877   0.44467    0.005
 6513.00    0.24488   0.44873    0.005
 6514.00    0.31646   0.45113    0.005
 6515.00    0.40595   0.45287    0.005
 6516.00    0.43515   0.45435    0.005
 6517.00    0.44806   0.45484    0.005
 6518.00    0.39722   0.45359    0.005
 6519.00    0.33228   0.45175    0.005
 6520.00    0.30059   0.45136    0.005
 6521.00    0.27477   0.45242    0.005
 6522.00    0.33325   0.45322    0.005
 6523.00    0.40307   0.45295    0.005
 6524.00    0.39349   0.45146    0.005
 6525.00    0.37634   0.44786    0.005
 6526.00    0.36486   0.44274    0.005
 6527.00    0.35372   0.43885    0.005
 6528.00    0.32319   0.43747    0.000
 6529.00    0.29208   0.43829    0.000
 6530.00    0.24703   0.44157    0.000
 6531.00    0.20501   0.44633    0.000
 6532.00    0.23930   0.44970    0.000
 6533.00    0.27215   0.45054    0.000
 6534.00    0.28572   0.45021    0.000
 6535.00    0.30289   0.44948    0.000
 6536.00    0.35212   0.44720    0.000
 6537.00    0.39905   0.44354    0.000
 6538.00    0.43095   0.44151    0.000
 6539.00    0.45095   0.44292    0.000
 6540.00    0.41010   0.44557    0.000
 6541.00    0.35581   0.44610    0.000
 6542.00    0.24609   0.44354    0.000
 6543.00    0.15264   0.44011    0.000
 6544.00    0.11475   0.43879    0.000
 6545.00    0.11339   0.44036    0.000
 6546.00    0.21723   0.44271    0.000
 6547.00    0.30098   0.44331    0.000
 6548.00    0.33529   0.44252    0.000
 6549.00    0.35595   0.44264    0.000
 6550.00    0.34767   0.44384    0.000
 6551.00    0.33014   0.44386    0.000
 6552.00    0.29561   0.44137    0.000
 6553.00    0.28237   0.43759    0.000
 6554.00    0.30341   0.43376    0.000
 6555.00    0.32153   0.42896    0.000
 6556.00    0.33551   0.42280    0.000
 6557.00    0.34034   0.41852    0.000
 6558.00    0.33381   0.41908    0.000
 6559.00    0.34164   0.42223    0.000
 6560.00    0.36523   0.42350    0.000
 6561.00    0.41107   0.42129    0.000
 6562.00    0.47841   0.41704    0.000
 6563.00    0.49008   0.41211    0.000
 6564.00    0.45431   0.40623    0.000
 6565.00    0.39588   0.39936    0.000
 6566.00    0.32045   0.39316    0.000
 6567.00    0.28739   0.38909    0.000
 6568.00    0.28225   0.38564    0.000
 6569.00    0.25854   0.37942    0.000
 6570.00    0.22411   0.36725    0.000
 6571.00    0.22068   0.34460    0.000
 6572.00    0.23285   0.30976    0.000
 6573.00    0.20893   0.27771    0.000
 6574.00    0.16931   0.27446    0.000
 6575.00    0.14275   0.30397    0.000
 6576.00    0.12107   0.34218    0.000
 6577.00    0.18006   0.36905    0.000
 6578.00    0.26460   0.38275    0.000
 6579.00    0.32795   0.38841    0.000
 6580.00    0.38570   0.39138    0.000
 6581.00    0.42334   0.39515    0.000
 6582.00    0.45664   0.39883    0.000
 6583.00    0.46990   0.40014    0.000
 6584.00    0.47972   0.39982    0.000
 6585.00    0.44382   0.40091    0.000
 6586.00    0.40198   0.40568    0.000
 6587.00    0.31817   0.41342    0.000
 6588.00    0.23052   0.42076    0.000
 6589.00    0.21992   0.42477    0.000
 6590.00    0.21358   0.42484    0.000
 6591.00    0.24799   0.42287    0.000
 6592.00    0.28350   0.42197    0.000
 6593.00    0.34066   0.42355    0.000
 6594.00    0.39581   0.42601    0.000
 6595.00    0.40512   0.42725    0.000
 6596.00    0.41184   0.42698    0.000
 6597.00    0.38590   0.42676    0.000
 6598.00    0.36135   0.42832    0.000
 6599.00    0.34881   0.43120    0.000
 6600.00    0.34825   0.43331    0.000
 6601.00    0.42393   0.43224    0.000
 6602.00    0.48562   0.42589    0.000
 6603.00    0.47768   0.41622    0.000
 6604.00    0.46321   0.41069    0.000
 6605.00    0.42234   0.41428    0.000
 6606.00    0.39150   0.42244    0.000
 6607.00    0.39424   0.42762    0.000
 6608.00    0.39618   0.42814    0.000
 6609.00    0.39589   0.42755    0.005
 6610.00    0.38882   0.42925    0.005
 6611.00    0.36536   0.43304    0.005
 6612.00    0.33453   0.43611    0.005
 6613.00    0.28832   0.43644    0.005
 6614.00    0.23996   0.43429    0.005
 6615.00    0.18769   0.43123    0.005
 6616.00    0.17749   0.42883    0.005
 6617.00    0.23404   0.42724    0.005
 6618.00    0.27869   0.42542    0.005
 6619.00    0.30677   0.42321    0.005
 6620.00    0.32777   0.42294    0.005
 6621.00    0.34007   0.42666    0.005
 6622.00    0.34654   0.43173    0.005
 6623.00    0.34668   0.43371    0.005
 6624.00    0.37367   0.43274    0.005
 6625.00    0.42621   0.43260    0.005
 6626.00    0.43811   0.43443    0.005
 6627.00    0.41586   0.43585    0.005
 6628.00    0.36834   0.43575    0.005
 6629.00    0.30214   0.43561    0.005
 6630.00    0.25364   0.43638    0.005
 6631.00    0.21662   0.43736    0.005
 6632.00    0.23129   0.43741    0.005
 6633.00    0.27534   0.43563    0.005
 6634.00    0.32423   0.43187    0.005
 6635.00    0.37552   0.42785    0.005
 6636.00    0.40107   0.42632    0.005
 6637.00    0.41560   0.42781    0.005
 6638.00    0.42555   0.42991    0.005
 6639.00    0.43383   0.43071    0.005
 6640.00    0.41233   0.43020    0.005
 6641.00    0.38159   0.42877    0.005
 6642.00    0.35420   0.42613    0.005
 6643.00    0.32768   0.42184    0.005
 6644.00    0.33045   0.41749    0.005
 6645.00    0.33941   0.41666    0.005
 6646.00    0.35884   0.42052    0.005
 6647.00    0.38001   0.42593    0.005
 6648.00    0.37033   0.42933    0.005
 6649.00    0.35678   0.42981    0.005
 6650.00    0.32635   0.42881    0.005
 6651.00    0.29445   0.42851    0.005
 6652.00    0.32667   0.42859    0.005
 6653.00    0.36219   0.42637    0.005
 6654.00    0.36421   0.42249    0.005
 6655.00    0.36490   0.42133    0.005
 6656.00    0.31338   0.42384    0.005
 6657.00    0.26334   0.42645    0.005
 6658.00    0.24485   0.42722    0.005
 6659.00    0.22362   0.42743    0.005
 6660.00    0.16954   0.42810    0.005
 6661.00    0.12766   0.42851    0.005
 6662.00    0.18648   0.42803    0.005
 6663.00    0.24488   0.42717    0.005
 6664.00    0.30060   0.42670    0.005
 6665.00    0.33660   0.42674    0.005
 6666.00    0.27677   0.42689    0.005
 6667.00    0.20646   0.42676    0.005
 6668.00    0.09481   0.42668    0.005
 6669.00    0.02211   0.42676    0.005
 6670.00    0.07734   0.42617    0.005
 6671.00    0.11882   0.42434    0.005
 6672.00    0.12211   0.42123    0.005
 6673.00    0.12489   0.41700    0.005
 6674.00    0.12645   0.41362    0.005
 6675.00    0.14754   0.41371    0.005
 6676.00    0.20875   0.41628    0.005
 6677.00    0.25049   0.41811    0.005
 6678.00    0.25746   0.41871    0.005
 6679.00    0.26241   0.41989    0.005
 6680.00    0.26420   0.42240    0.005
 6681.00    0.29020   0.42505    0.005
 6682.00    0.34943   0.42644    0.005
 6683.00    0.39154   0.42656    0.005
 6684.00    0.41300   0.42641    0.005
 6685.00    0.42299   0.42620    0.005
 6686.00    0.42077   0.42436    0.005
 6687.00    0.40748   0.41852    0.005
 6688.00    0.38380   0.40980    0.005
 6689.00    0.36925   0.40461    0.005
 6690.00    0.36226   0.40731    0.005
 6691.00    0.39000   0.41413    0.005
 6692.00    0.44305   0.41908    0.005
 6693.00    0.46056   0.42111    0.005
 6694.00    0.45532   0.42215    0.005
 6695.00    0.43889   0.42315    0.005
 6696.00    0.41618   0.42375    0.000
 6697.00    0.38353   0.42363    0.000
 6698.00    0.34603   0.42310    0.000
 6699.00    0.33311   0.42285    0.000
 6700.00    0.33054   0.42320    0.000
 6701.00    0.35436   0.42368    0.000
 6702.00    0.38770   0.42373    0.000
 6703.00    0.40107   0.42339    0.000
 6704.00    0.40836   0.42274    0.000
 6705.00    0.40440   0.42109    0.000
 6706.00    0.39759   0.41780    0.000
 6707.00    0.36689   0.41424    0.000
 6708.00    0.33128   0.41296    0.000
 6709.00    0.35415   0.41457    0.000
 6710.00    0.38648   0.41761    0.000
 6711.00    0.36634   0.42043    0.000
 6712.00    0.33984   0.42154    0.000
 6713.00    0.28005   0.42030    0.000
 6714.00    0.21750   0.41750    0.000
 6715.00    0.22737   0.41517    0.000
 6716.00    0.24067   0.41506    0.000
 6717.00    0.31069   0.41655    0.000
 6718.00    0.38052   0.41783    0.000
 6719.00    0.39454   0.41814    0.000
 6720.00    0.40750   0.41768    0.000
 6721.00    0.39984   0.41678    0.000
 6722.00    0.39167   0.41597    0.000
 6723.00    0.37763   0.41499    0.000
 6724.00    0.36158   0.41323    0.000
 6725.00    0.32953   0.41073    0.000
 6726.00    0.30550   0.40739    0.000
 6727.00    0.32958   0.40310    0.000
 6728.00    0.34695   0.39992    0.000
 6729.00    0.33253   0.40116    0.000
 6730.00    0.31971   0.40639    0.000
 6731.00    0.31304   0.41097    0.000
 6732.00    0.30483   0.41244    0.000
 6733.00    0.29169   0.41291    0.000
 6734.00    0.28421   0.41425    0.000
 6735.00    0.29214   0.41516    0.000
 6736.00    0.29494   0.41411    0.000
 6737.00    0.28577   0.41233    0.000
 6738.00    0.28068   0.41196    0.000
 6739.00    0.28387   0.41327    0.000
 6740.00    0.27960   0.41509    0.000
 6741.00    0.26222   0.41641    0.000
 6742.00    0.25325   0.41663    0.000
 6743.00    0.25721   0.41563    0.000
 6744.00    0.27856   0.41423    0.000
 6745.00    0.32342   0.41357    0.000
 6746.00    0.34446   0.41389    0.000
 6747.00    0.33716   0.41407    0.000
 6748.00    0.33411   0.41269    0.000
 6749.00    0.33554   0.41014    0.000
 6750.00    0.34906   0.40867    0.000
 6751.00    0.37378   0.40913    0.000
 6752.00    0.41612   0.40971    0.000
 6753.00    0.47284   0.40882    0.006
 6754.00    0.46469   0.40762    0.006
 6755.00    0.40993   0.40793    0.006
 6756.00    0.33475   0.40903    0.006
 6757.00    0.24669   0.40902    0.006
 6758.00    0.19322   0.40770    0.006
 6759.00    0.15882   0.40591    0.006
 6760.00    0.21437   0.40443    0.006
 6761.00    0.31304   0.40404    0.006
 6762.00    0.32668   0.40480    0.006
 6763.00    0.30514   0.40546    0.006
 6764.00    0.28824   0.40577    0.006
 6765.00    0.27298   0.40677    0.006
 6766.00    0.31522   0.40817    0.006
 6767.00    0.37462   0.40928    0.006
 6768.00    0.42111   0.41058    0.006
 6769.00    0.46439   0.41238    0.006
 6770.00    0.42221   0.41402    0.006
 6771.00    0.36289   0.41471    0.006
 6772.00    0.33603   0.41433    0.006
 6773.00    0.31427   0.41351    0.006
 6774.00    0.28418   0.41305    0.006
 6775.00    0.25311   0.41262    0.006
 6776.00    0.22466   0.41106    0.006
 6777.00    0.19641   0.40795    0.006
 6778.00    0.22074   0.40478    0.006
 6779.00    0.24736   0.40389    0.006
 6780.00    0.28723   0.40519    0.006
 6781.00    0.32682   0.40597    0.006
 6782.00    0.34661   0.40536    0.006
 6783.00    0.36664   0.40555    0.006
 6784.00    0.39126   0.40788    0.006
 6785.00    0.41558   0.41101    0.006
 6786.00    0.43655   0.41320    0.006
 6787.00    0.45422   0.41384    0.006
 6788.00    0.44659   0.41352    0.006
 6789.00    0.43573   0.41344    0.006
 6790.00    0.40601   0.41384    0.006
 6791.00    0.38280   0.41348    0.006
 6792.00    0.38969   0.41138    0.006
 6793.00    0.38894   0.40768    0.006
 6794.00    0.35937   0.40330    0.006
 6795.00    0.33620   0.39993    0.006
 6796.00    0.33324   0.39904    0.006
 6797.00    0.35582   0.40045    0.006
 6798.00    0.44676   0.40314    0.006
 6799.00    0.51023   0.40588    0.006
 6800.00    0.51056   0.40742    0.006
 6801.00    0.49413   0.40774    0.006
 6802.00    0.44440   0.40762    0.006
 6803.00    0.37986   0.40680    0.006
 6804.00    0.28967   0.40488    0.006
 6805.00    0.23294   0.40310    0.006
 6806.00    0.22698   0.40272    0.006
 6807.00    0.25264   0.40338    0.005
 6808.00    0.32047   0.40421    0.005
 6809.00    0.37017   0.40484    0.006
 6810.00    0.39858   0.40541    0.006
 6811.00    0.40156   0.40625    0.006
 6812.00    0.37820   0.40709    0.006
 6813.00    0.35537   0.40712    0.006
 6814.00    0.33302   0.40606    0.006
 6815.00    0.32383   0.40491    0.006
 6816.00    0.32524   0.40454    0.006
 6817.00    0.38225   0.40438    0.006
 6818.00    0.47861   0.40413    0.006
 6819.00    0.49371   0.40409    0.006
 6820.00    0.45832   0.40373    0.006
 6821.00    0.40178   0.40303    0.006
 6822.00    0.33377   0.40305    0.006
 6823.00    0.34534   0.40362    0.005
 6824.00    0.39443   0.40326    0.005
 6825.00    0.43503   0.40170    0.005
 6826.00    0.47218   0.40078    0.005
 6827.00    0.44329   0.40212    0.006
 6828.00    0.39147   0.40451    0.006
 6829.00    0.34222   0.40526    0.006
 6830.00    0.29373   0.40375    0.006
 6831.00    0.28657   0.40200    0.006
 6832.00    0.28943   0.40222    0.006
 6833.00    0.38390   0.40437    0.006
 6834.00    0.49629   0.40656    0.006
 6835.00    0.52962   0.40749    0.006
 6836.00    0.55089   0.40719    0.006
 6837.00    0.50936   0.40570    0.006
 6838.00    0.46077   0.40284    0.006
 6839.00    0.40032   0.39987    0.006
 6840.00    0.33897   0.39918    0.006
 6841.00    0.36650   0.40113    0.006
 6842.00    0.39756   0.40336    0.006
 6843.00    0.38535   0.40395    0.006
 6844.00    0.37480   0.40353    0.006
 6845.00    0.44164   0.40366    0.006
 6846.00    0.49880   0.40425    0.006
 6847.00    0.39236   0.40384    0.005
 6848.00    0.29445   0.40176    0.005
 6849.00    0.28591   0.39863    0.005
 6850.00    0.27949   0.39511    0.005
 6851.00    0.28890   0.39138    0.005
 6852.00    0.29775   0.38794    0.006
 6853.00    0.30346   0.38648    0.006
 6854.00    0.30618   0.38853    0.006
 6855.00    0.29545   0.39325    0.006
 6856.00    0.28561   0.39792    0.006
 6857.00    0.27905   0.40048    0.006
 6858.00    0.26501   0.40109    0.006
 6859.00    0.22777   0.40101    0.006
 6860.00    0.19350   0.40096    0.006
 6861.00    0.16704   0.40101    0.006
 6862.00    0.18722   0.40111    0.006
 6863.00    0.31279   0.40111    0.006
 6864.00    0.40288   0.40005    0.006
 6865.00    0.42351   0.39671    0.006
 6866.00    0.43177   0.39243    0.006
 6867.00    0.41889   0.39040    0.006
 6868.00    0.41941   0.39127    0.006
 6869.00    0.43997   0.39308    0.006
 6870.00    0.45346   0.39415    0.006
 6871.00    0.45766   0.39337    0.006
 6872.00    0.41922   0.39129    0.006
 6873.00    0.33142   0.39086    0.006
 6874.00    0.28591   0.39383    0.006
 6875.00    0.28355   0.39794    0.006
 6876.00    0.29979   0.39966    0.006
 6877.00    0.33278   0.39792    0.006
 6878.00    0.36873   0.39423    0.006
 6879.00    0.40702   0.39135    0.006
 6880.00    0.43005   0.39126    0.006
 6881.00    0.44243   0.39302    0.006
 6882.00    0.44657   0.39388    0.006
 6883.00    0.44566   0.39307    0.006
 6884.00    0.45334   0.39236    0.006
 6885.00    0.46560   0.39273    0.006
 6886.00    0.41278   0.39340    0.006
 6887.00    0.32977   0.39418    0.005
 6888.00    0.28418   0.39562    0.005
 6889.00    0.25356   0.39721    0.005
 6890.00    0.25661   0.39763    0.005
 6891.00    0.27114   0.39627    0.005
 6892.00    0.29825   0.39332    0.005
 6893.00    0.32896   0.39008    0.006
 6894.00    0.35251   0.38899    0.006
 6895.00    0.37436   0.39071    0.006
 6896.00    0.33275   0.39282    0.006
 6897.00    0.27903   0.39355    0.006
 6898.00    0.23335   0.39417    0.006
 6899.00    0.18885   0.39578    0.006
 6900.00    0.22496   0.39769    0.007
 6901.00    0.26977   0.39924    0.007
 6902.00    0.23883   0.40008    0.007
 6903.00    0.20254   0.39974    0.006
 6904.00    0.22556   0.39857    0.006
 6905.00    0.25071   0.39734    0.006
 6906.00    0.26485   0.39609    0.006
 6907.00    0.27743   0.39533    0.006
 6908.00    0.23735   0.39589    0.005
 6909.00    0.20075   0.39704    0.005
 6910.00    0.21900   0.39718    0.005
 6911.00    0.24166   0.39637    0.005
 6912.00    0.30841   0.39623    0.005
 6913.00    0.37214   0.39731    0.005
 6914.00    0.41417   0.39822    0.005
 6915.00    0.44307   0.39793    0.006
 6916.00    0.39963   0.39721    0.006
 6917.00    0.35432   0.39742    0.006
 6918.00    0.30074   0.39866    0.006
 6919.00    0.25563   0.39966    0.006
 6920.00    0.24122   0.39965    0.006
 6921.00    0.21436   0.39892    0.006
 6922.00    0.14969   0.39775    0.006
 6923.00    0.12156   0.39600    0.006
 6924.00    0.18785   0.39336    0.006
 6925.00    0.23060   0.39044    0.006
 6926.00    0.22099   0.38894    0.006
 6927.00    0.24388   0.38925    0.006
 6928.00    0.32939   0.39023    0.006
 6929.00    0.38900   0.39156    0.006
 6930.00    0.40508   0.39360    0.006
 6931.00    0.40339   0.39592    0.006
 6932.00    0.37555   0.39756    0.006
 6933.00    0.35401   0.39757    0.006
 6934.00    0.34064   0.39529    0.006
 6935.00    0.29142   0.39127    0.006
 6936.00    0.20129   0.38772    0.006
 6937.00    0.18370   0.38706    0.006
 6938.00    0.23908   0.38946    0.006
 6939.00    0.27163   0.39262    0.006
 6940.00    0.28390   0.39435    0.006
 6941.00    0.30911   0.39450    0.006
 6942.00    0.34444   0.39371    0.006
 6943.00    0.30243   0.39209    0.006
 6944.00    0.20723   0.39036    0.006
 6945.00    0.13771   0.39019    0.006
 6946.00    0.08366   0.39170    0.006
 6947.00    0.10072   0.39291    0.006
 6948.00    0.15519   0.39281    0.006
 6949.00    0.20102   0.39254    0.006
 6950.00    0.24291   0.39317    0.006
 6951.00    0.28932   0.39441    0.006
 6952.00    0.33752   0.39502    0.006
 6953.00    0.32357   0.39399    0.006
 6954.00    0.28883   0.39111    0.006
 6955.00    0.24890   0.38718    0.006
 6956.00    0.20752   0.38413    0.006
 6957.00    0.20968   0.38424    0.006
 6958.00    0.22192   0.38742    0.006
 6959.00    0.24860   0.39097    0.006
 6960.00    0.27796   0.39268    0.006
 6961.00    0.24969   0.39193    0.006
 6962.00    0.21317   0.38929    0.006
 6963.00    0.19426   0.38681    0.006
 6964.00    0.17719   0.38597    0.006
 6965.00    0.21502   0.38627    0.006
 6966.00    0.25651   0.38713    0.006
 6967.00    0.23147   0.38870    0.006
 6968.00    0.20430   0.39040    0.006
 6969.00    0.19767   0.39120    0.006
 6970.00    0.19240   0.39111    0.006
 6971.00    0.22881   0.39099    0.006
 6972.00    0.26643   0.39134    0.006
 6973.00    0.32206   0.39200    0.006
 6974.00    0.36417   0.39258    0.006
 6975.00    0.27656   0.39270    0.006
 6976.00    0.19957   0.39190    0.006
 6977.00    0.19652   0.39072    0.006
 6978.00    0.19077   0.39086    0.006
 6979.00    0.17043   0.39254    0.006
 6980.00    0.15482   0.39372    0.006
 6981.00    0.15951   0.39294    0.006
 6982.00    0.18838   0.39115    0.006
 6983.00    0.30308   0.39050    0.006
 6984.00    0.37361   0.39128    0.006
 6985.00    0.31247   0.39116    0.006
 6986.00    0.25879   0.38840    0.006
 6987.00    0.22408   0.38369    0.006
 6988.00    0.20471   0.37795    0.006
 6989.00    0.21889   0.37207    0.006
 6990.00    0.23572   0.36920    0.006
 6991.00    0.25758   0.37234    0.006
 6992.00    0.25093   0.37951    0.006
 6993.00    0.19710   0.38610    0.006
 6994.00    0.20632   0.39018    0.006
 6995.00    0.30706   0.39208    0.006
 6996.00    0.36422   0.39235    0.006
 6997.00    0.36575   0.39181    0.006
 6998.00    0.36025   0.39097    0.006
 6999.00    0.34685   0.38957    0.006
 7000.00    0.34769   0.38776    0.006
 7001.00    0.36264   0.38696    0.006
 7002.00    0.34000   0.38818    0.006
 7003.00    0.28447   0.39019    0.006
 7004.00    0.23031   0.39100    0.006
 7005.00    0.17718   0.39027    0.006
 7006.00    0.18023   0.38945    0.006
 7007.00    0.22133   0.38962    0.006
 7008.00    0.25211   0.38993    0.006
 7009.00    0.27675   0.38855    0.006
 7010.00    0.26957   0.38508    0.006
 7011.00    0.24590   0.38182    0.006
 7012.00    0.28370   0.38143    0.006
 7013.00    0.34911   0.38331    0.006
 7014.00    0.37444   0.38411    0.006
 7015.00    0.38430   0.38220    0.006
 7016.00    0.35896   0.37954    0.006
 7017.00    0.32206   0.37863    0.006
 7018.00    0.26432   0.37999    0.006
 7019.00    0.20085   0.38262    0.006
 7020.00    0.23938   0.38515    0.006
 7021.00    0.30096   0.38625    0.006
 7022.00    0.37623   0.38567    0.006
 7023.00    0.45398   0.38469    0.006
 7024.00    0.43267   0.38443    0.006
 7025.00    0.39762   0.38358    0.006
 7026.00    0.35047   0.37967    0.006
 7027.00    0.30211   0.37347    0.006
 7028.00    0.30377   0.37019    0.006
 7029.00    0.30856   0.37343    0.006
 7030.00    0.21951   0.38044    0.006
 7031.00    0.12800   0.38597    0.006
 7032.00    0.08778   0.38765    0.006
 7033.00    0.04823   0.38555    0.006
 7034.00    0.02708   0.38093    0.006
 7035.00    0.01193   0.37662    0.006
 7036.00    0.08100   0.37555    0.006
 7037.00    0.15454   0.37775    0.006
 7038.00    0.26932   0.38063    0.006
 7039.00    0.36575   0.38255    0.006
 7040.00    0.33849   0.38381    0.006
 7041.00    0.31194   0.38480    0.006
 7042.00    0.28906   0.38516    0.006
 7043.00    0.27301   0.38465    0.006
 7044.00    0.28570   0.38362    0.006
 7045.00    0.29107   0.38273    0.006
 7046.00    0.27102   0.38268    0.006
 7047.00    0.25444   0.38317    0.006
 7048.00    0.24802   0.38218    0.006
 7049.00    0.25163   0.37886    0.006
 7050.00    0.28030   0.37699   -2.000
 7051.00    0.31325   0.38055   -2.000
 7052.00    0.35539   0.38766   -2.000
 7053.00    0.35306   0.39330   -2.000
 7054.00    0.26769   0.39494   -2.000
 7055.00    0.25274   0.39299   -2.000
 7056.00    0.35263   0.38968   -2.000
 7057.00    0.40789   0.38796   -2.000
 7058.00    0.39934   0.38909   -2.000
 7059.00    0.37642   0.39151   -2.000
 7060.00    0.33543   0.39285   -2.000
 7061.00    0.33843   0.39224   -2.000
 7062.00    0.39021   0.38987   -2.000
 7063.00    0.38042   0.38536   -2.000
 7064.00    0.31042   0.37928   -2.000
 7065.00    0.26999   0.37439   -2.000
 7066.00    0.25505   0.37293   -2.000
 7067.00    0.25517   0.37450   -2.000
 7068.00    0.26672   0.37702   -2.000
 7069.00    0.30015   0.37807   -2.000
 7070.00    0.34820   0.37630   -2.000
 7071.00    0.43263   0.37285   -2.000
 7072.00    0.53833   0.37063   -2.000
 7073.00    0.52091   0.37115   -2.000
 7074.00    0.44071   0.37348   -2.000
 7075.00    0.33341   0.37613   -2.000
 7076.00    0.21413   0.37755   -2.000
 7077.00    0.23189   0.37615   -2.000
 7078.00    0.30163   0.37195   -2.000
 7079.00    0.24030   0.36728   -2.000
 7080.00    0.13676   0.36537   -2.000
 7081.00    0.14323   0.36769   -2.000
 7082.00    0.17934   0.37219   -2.000
 7083.00    0.14487   0.37558   -2.000
 7084.00    0.09482   0.37688   -2.000
 7085.00    0.11272   0.37705   -2.000
 7086.00    0.14257   0.37670   -2.000
 7087.00    0.12597   0.37593   -2.000
 7088.00    0.10314   0.37530   -2.000
 7089.00    0.21116   0.37551   -2.000
 7090.00    0.33160   0.37639   -2.000
 7091.00    0.29473   0.37727   -2.000
 7092.00    0.24863   0.37752   -2.000
 7093.00    0.20160   0.37591   -2.000
 7094.00    0.15503   0.37133   -2.000
 7095.00    0.17474   0.36478   -2.000
 7096.00    0.19508   0.35958   -2.000
 7097.00    0.23084   0.35815   -2.000
 7098.00    0.26408   0.35902   -2.000
 7099.00    0.26385   0.35929   -2.000
 7100.00    0.26402   0.35822   -2.000
 7101.00    0.26764   0.35666   -2.000
 7102.00    0.27097   0.35568   -2.000
 7103.00    0.27240   0.35565   -2.000
 7104.00    0.27570   0.35592   -2.000
 7105.00    0.28855   0.35605   -2.000
 7106.00    0.28581   0.35624   -2.000
 7107.00    0.21891   0.35647   -2.000
 7108.00    0.16419   0.35690   -2.000
 7109.00    0.15098   0.35824   -2.000
 7110.00    0.18027   0.36093   -2.000
 7111.00    0.33165   0.36367   -2.000
 7112.00    0.43706   0.36461   -2.000
 7113.00    0.42967   0.36379   -2.000
 7114.00    0.41602   0.36292   -2.000
 7115.00    0.38915   0.36343   -2.000
 7116.00    0.37505   0.36484   -2.000
 7117.00    0.38444   0.36529   -2.000
 7118.00    0.37855   0.36402   -2.000
 7119.00    0.34813   0.36243   -2.000
 7120.00    0.32628   0.36167   -2.000
 7121.00    0.31649   0.36074   -2.000
 7122.00    0.42365   0.35871   -2.000
 7123.00    0.67587   0.35689   -2.000
 7124.00    0.77644   0.35696   -2.000
 7125.00    0.71121   0.35863   -2.000
 7126.00    0.66332   0.36043   -2.000
 7127.00    0.63215   0.36165   -2.000
 7128.00    0.59564   0.36229   -2.000
 7129.00    0.55459   0.36228   -2.000
 7130.00    0.45475   0.36175   -2.000
 7131.00    0.31088   0.36100   -2.000
 7132.00    0.29277   0.36003   -2.000
 7133.00    0.35741   0.35893   -2.000
 7134.00    0.33765   0.35871   -2.000
 7135.00    0.26928   0.35984   -2.000
 7136.00    0.32425   0.36061   -2.000
 7137.00    0.44112   0.35958   -2.000
 7138.00    0.39422   0.35798   -2.000
 7139.00    0.27622   0.35730   -2.000
 7140.00    0.19487   0.35664   -2.000
 7141.00    0.12718   0.35431   -2.000
 7142.00    0.17110   0.35126   -2.000
 7143.00    0.25027   0.35066   -2.000
 7144.00    0.38121   0.35345   -2.000
 7145.00    0.52579   0.35744   -2.000
 7146.00    0.58529   0.36042   -2.000
 7147.00    0.62646   0.36189   -2.000
 7148.00    0.61387   0.36268   -2.000
 7149.00    0.59208   0.36301   -2.000
 7150.00    0.15746   0.36208   -2.000
 7151.00   -0.33060   0.36058   -2.000
 7152.00    0.01248   0.36031   -2.000
 7153.00    0.43103   0.36120   -2.000
 7154.00    0.38306   0.36164   -2.000
 7155.00    0.30956   0.36125   -2.000
 7156.00    0.33810   0.36054   -2.000
 7157.00    0.36945   0.35931   -2.000
 7158.00    0.46217   0.35658   -2.000
 7159.00    0.55308   0.35230   -2.000
 7160.00    0.60295   0.34932   -2.000
 7161.00    0.67901   0.35048   -2.000
 7162.00    1.08492   0.35457   -2.000
 7163.00    1.41104   0.35892   -2.000
 7164.00    1.05642   0.36227   -2.000
 7165.00    0.69340   0.36374   -2.000
 7166.00    0.27717   0.36304   -2.000
 7167.00    0.01569   0.36204   -2.000
 7168.00    0.52255   0.36280   -2.000
 7169.00    0.92715   0.36426   -2.000
 7170.00    0.92018   0.36389   -2.000
 7171.00    0.87234   0.36197   -2.000
 7172.00    0.68791   0.36067   -2.000
 7173.00    0.50252   0.36062   -2.000
 7174.00    0.31443   0.35952   -2.000
 7175.00    0.19757   0.35502   -2.000
 7176.00    0.25252   0.34922   -2.000
 7177.00    0.25903   0.34736   -2.000
 7178.00    0.16467   0.35138   -2.000
 7179.00    0.22551   0.35770   -2.000
 7180.00    0.56737   0.36185   -2.000
 7181.00    0.66879   0.36284   -2.000
 7182.00    0.38963   0.36274   -2.000
 7183.00    0.23396   0.36351   -2.000
 7184.00    0.24987   0.36493   -2.000
 7185.00    0.25782   0.36545   -2.000
 7186.00    0.25602   0.36397   -2.000
 7187.00    0.27474   0.36102   -2.000
 7188.00    0.31556   0.35911   -2.000
 7189.00    0.33552   0.35979   -2.000
 7190.00    0.33564   0.36060   -2.000
 7191.00    0.35352   0.35802   -2.000
 7192.00    0.38629   0.35306   -2.000
 7193.00    0.39153   0.35050   -2.000
 7194.00    0.37644   0.35291   -2.000
 7195.00    0.33238   0.35760   -2.000
 7196.00    0.26954   0.36017   -2.000
 7197.00    0.15337   0.35867   -2.000
 7198.00    0.00694   0.35400   -2.000
 7199.00    0.11590   0.34917   -2.000
 7200.00    0.35097   0.34719   -2.000
 7201.00    0.71714   0.34851   -2.000
 7202.00    1.13929   0.35141   -2.000
 7203.00    0.98823   0.35351   -2.000
 7204.00    0.62744   0.35348   -2.000
 7205.00    0.30688   0.35281   -2.000
 7206.00   -0.00122   0.35369   -2.000
 7207.00    0.00595   0.35532   -2.000
 7208.00    0.09450   0.35551   -2.000
 7209.00    0.23279   0.35499   -2.000
 7210.00    0.38154   0.35575   -2.000
 7211.00    0.43026   0.35711   -2.000
 7212.00    0.46237   0.35700   -2.000
 7213.00    0.47238   0.35541   -2.000
 7214.00    0.47962   0.35468   -2.000
 7215.00    0.65753   0.35645   -2.000
 7216.00    0.85023   0.35869   -2.000
 7217.00    0.55571   0.35731   -2.000
 7218.00    0.23643   0.35142   -2.000
