###################################################################
## OUTPUT of StarlightChains_v04.for    [Cid@UFSC - 01/Apr/2007] ##
###################################################################

## Some input info
KUG0210-078._1_29.txt                    [arq_obs]
Base.CB07.vall.4m                        [arq_base]
Masks.EmLines.NEW.gm                     [arq_masks]
StCv04.C11.config                        [arq_config]
   66                                    [N_base]
    0                                    [N_YAV_components = # of components with extra extinction!]
    0                                    [i_FitPowerLaw (1/0 = Yes/No)]
-9.99                                    [alpha_PowerLaw]
CCM                                      [red_law_option]
 1.458241                                [q_norm = A(l_norm)/A(V)]

## (Re)Sampling Parameters
 3741.00                                 [l_ini (A)]
 7218.00                                 [l_fin (A)]
    1.00                                 [dl    (A)]     (OBS: dl_cushion =    50.00 A)

## Normalization info
 4020.00                                 [l_norm (A) - for base]
 4010.00                                 [llow_norm (A) - window for f_obs]
 4060.00                                 [lupp_norm (A) - window for f_obs]
3.767130E-18                             [fobs_norm (in input units)]

## S/N
 3691.00                                 [llow_SN (A) - window for S/N]
 7268.00                                 [lupp_SN (A) - window for S/N]
   1.758                                 [S/N in S/N window]
   1.722                                 [S/N in norm. window]
   0.005                                 [S/N_err in S/N window]
   0.005                                 [S/N_err in norm. window]
  1.0000                                 [fscale_chi2]

## etc...
    -2007201                             [idum_orig]
  2340                                   [NOl_eff]
  2340                                   [Nl_eff]
     0    NSIGMA                         [Ntot_cliped & clip_method]
   496650                                [Nglobal_steps]
   7                                     [N_chains]
  24                                     [NEX0s_base = N_base in EX0s-fits]
 0   0   1       53   2.0   8.059E-03    [Clip-Bug, RC-Crash & Burn-In warning-flags, n_censored_weights, wei_nsig_threshold & wei_limit]
    10     10.039      9.632      0.407  [idt_all, wdt_TotTime, wdt_UsrTime & wdt_SysTime (sec)]

## Synthesis Results - Best model ##

 9.60548E-06                             [chi2/Nl_eff]
    91.48639                             [adev (%)]

   130.00000                             [sum-of-x (%)]
 1.27837E-18                             [Flux_tot (units of input spectrum!)]
 8.88186E-14                             [Mini_tot (???)]
 4.46795E-14                             [Mcor_tot (???)]

 430.77                                  [v0_min  (km/s)]
 232.58                                  [vd_min  (km/s)]
-1.0000                                  [AV_min  (mag)]
 0.0000                                  [YAV_min (mag)]

# j     x_j(%)      Mini_j(%)     Mcor_j(%)     age_j(yr)     Z_j      (L/M)_j    YAV?  Mstars   component_j        a/Fe...       SSP_chi2r SSP_adev(%)   SSP_AV   SSP_x(%)
  1      0.0000     0.0000E+00    0.0000E+00    1.000000E+06  0.00400  1.094E-02    0   1.0000   age020_m42            0.0000     9.8517E-06   100.4001   2.2646   134.8374
  2      0.0000     0.0000E+00    0.0000E+00    3.160000E+06  0.00400  4.007E-02    0   0.9999   age045_m42            0.0000     9.7229E-06    98.3401   1.5298   144.2430
  3      0.4133     1.8022E-04    3.3991E-04    5.010000E+06  0.00400  2.539E-02    0   0.9488   age055_m42            0.0000     9.7825E-06    99.6991   1.8567   140.5833
  4      0.0000     0.0000E+00    0.0000E+00    6.610000E+06  0.00400  2.620E-02    0   0.9220   age061_m42            0.0000     9.7558E-06    98.8346   1.4640   144.3000
  5      0.0000     0.0000E+00    0.0000E+00    1.000000E+07  0.00400  1.322E-02    0   0.8862   age070_m42            0.0000     1.0071E-05   101.9721   1.2232   145.4522
  6      0.0000     0.0000E+00    0.0000E+00    1.445000E+07  0.00400  7.883E-03    0   0.8571   age078_m42            0.0000     1.0047E-05   102.2552   1.5462   142.0200
  7      0.0000     0.0000E+00    0.0000E+00    2.512000E+07  0.00400  5.251E-03    0   0.8174   age090_m42            0.0000     1.0131E-05   102.4420   1.1032   145.8493
  8      0.0000     0.0000E+00    0.0000E+00    4.000000E+07  0.00400  3.649E-03    0   0.7851   age104_m42            0.0000     1.0070E-05   101.7351   0.8692   147.3944
  9      0.0000     0.0000E+00    0.0000E+00    5.500000E+07  0.00400  3.098E-03    0   0.7629   age110_m42            0.0000     9.9413E-06    99.8118   1.0035   148.1768
 10      0.0000     0.0000E+00    0.0000E+00    1.015200E+08  0.00400  2.228E-03    0   0.7207   age116_m42            0.0000     9.8723E-06    98.4812   1.0123   148.9423
 11      0.1926     1.9514E-03    2.5788E-03    2.861200E+08  0.00400  1.093E-03    0   0.6648   age125_m42            0.0000     9.9399E-06    98.8645   0.4516   152.8844
 12      0.0000     0.0000E+00    0.0000E+00    5.088000E+08  0.00400  6.597E-04    0   0.6365   age130_m42            0.0000     9.8063E-06    96.5471   0.4208   155.1339
 13      0.0000     0.0000E+00    0.0000E+00    1.434000E+09  0.00400  2.132E-04    0   0.5798   age139_m42            0.0000     9.5512E-06    95.2565  -0.5690   159.4394
 14      4.1589     7.8110E-01    8.3491E-01    4.250000E+09  0.00400  5.895E-05    0   0.5377   age158_m42            0.0000     9.1685E-06    95.0723  -1.0000   154.1857
 15      0.0000     0.0000E+00    0.0000E+00    7.500000E+09  0.00400  3.510E-05    0   0.5212   age171_m42            0.0000     9.1778E-06    97.0169  -1.0000   147.1003
 16      0.0000     0.0000E+00    0.0000E+00    1.300000E+10  0.00400  2.005E-05    0   0.5034   age193_m42            0.0000     9.3265E-06    98.7773  -1.0000   140.6154
 17     70.4680     5.1160E+01    5.0515E+01    1.800000E+10  0.00400  1.525E-05    0   0.4967   age213_m42            0.0000     9.3683E-06    99.3914  -1.0000   139.1859
 18      0.0000     0.0000E+00    0.0000E+00    1.000000E+06  0.00800  1.238E-02    0   1.0000   age020_m52            0.0000     9.8453E-06   100.3710   2.2587   135.1905
 19      0.0000     0.0000E+00    0.0000E+00    3.160000E+06  0.00800  3.074E-02    0   0.9966   age045_m52            0.0000     9.8166E-06   100.2738   2.1774   136.5881
 20      0.0000     0.0000E+00    0.0000E+00    5.010000E+06  0.00800  2.668E-02    0   0.9443   age055_m52            0.0000     9.8022E-06   100.2462   1.9394   139.3586
 21      0.0000     0.0000E+00    0.0000E+00    6.610000E+06  0.00800  2.136E-02    0   0.9177   age061_m52            0.0000     9.9122E-06   101.8950   0.7139   147.8408
 22      0.0000     0.0000E+00    0.0000E+00    1.000000E+07  0.00800  1.215E-02    0   0.8827   age070_m52            0.0000     1.0159E-05   103.2641   1.4132   144.6483
 23      0.0000     0.0000E+00    0.0000E+00    1.445000E+07  0.00800  8.717E-03    0   0.8552   age078_m52            0.0000     1.0047E-05   102.2363   1.5123   143.9517
 24      0.0000     0.0000E+00    0.0000E+00    2.512000E+07  0.00800  5.592E-03    0   0.8162   age090_m52            0.0000     1.0133E-05   102.5367   1.1656   147.5792
 25      0.0000     0.0000E+00    0.0000E+00    4.000000E+07  0.00800  3.896E-03    0   0.7841   age104_m52            0.0000     1.0033E-05   101.4388   1.0665   149.1915
 26      0.0000     0.0000E+00    0.0000E+00    1.015200E+08  0.00800  2.148E-03    0   0.7226   age116_m52            0.0000     9.8820E-06    99.5997   0.9852   149.9017
 27      0.0000     0.0000E+00    0.0000E+00    2.861200E+08  0.00800  9.925E-04    0   0.6683   age125_m52            0.0000     9.8172E-06    96.7519   0.4864   156.5350
 28      0.0000     0.0000E+00    0.0000E+00    9.047900E+08  0.00800  3.141E-04    0   0.6138   age135_m52            0.0000     9.3893E-06    93.4365  -0.3555   165.4261
 29      0.0000     0.0000E+00    0.0000E+00    1.434000E+09  0.00800  1.719E-04    0   0.5853   age139_m52            0.0000     9.2502E-06    94.4582  -0.9424   162.8011
 30      0.0000     0.0000E+00    0.0000E+00    2.500000E+09  0.00800  7.872E-05    0   0.5600   age150_m52            0.0000     9.0915E-06    95.9734  -1.0000   152.0593
 31      0.0000     0.0000E+00    0.0000E+00    4.250000E+09  0.00800  4.336E-05    0   0.5426   age158_m52            0.0000     9.0812E-06    96.1503  -1.0000   150.1793
 32      3.5496     1.2441E+00    1.3154E+00    6.250000E+09  0.00800  3.159E-05    0   0.5319   age166_m52            0.0000     9.2699E-06    97.7355  -1.0000   143.0122
 33      0.0000     0.0000E+00    0.0000E+00    1.300000E+10  0.00800  1.361E-05    0   0.5073   age193_m52            0.0000     1.0446E-05   103.0897  -1.0000   124.0098
 34      0.0000     0.0000E+00    0.0000E+00    1.800000E+10  0.00800  9.886E-06    0   0.4990   age213_m52            0.0000     1.0804E-05   103.1321  -1.0000   119.1352
 35      0.0000     0.0000E+00    0.0000E+00    1.000000E+06  0.02000  1.544E-02    0   1.0000   age020_m62            0.0000     9.8462E-06   100.4357   2.2550   135.5201
 36      0.0000     0.0000E+00    0.0000E+00    3.160000E+06  0.02000  3.762E-02    0   0.9858   age045_m62            0.0000     9.8349E-06   100.4949   2.1893   136.9174
 37      1.4648     4.9205E-04    9.1378E-04    5.010000E+06  0.02000  3.296E-02    0   0.9342   age055_m62            0.0000     9.7357E-06    99.0552   1.8056   142.7631
 38      0.0000     0.0000E+00    0.0000E+00    8.710000E+06  0.02000  1.154E-02    0   0.8861   age067_m62            0.0000     1.0934E-05   109.8589   0.9409   145.2011
 39      0.0000     0.0000E+00    0.0000E+00    1.445000E+07  0.02000  7.663E-03    0   0.8472   age078_m62            0.0000     1.0332E-05   105.2192   1.0826   146.9216
 40      8.3531     2.0406E-02    3.2854E-02    2.512000E+07  0.02000  4.532E-03    0   0.8099   age090_m62            0.0000     1.0385E-05   105.4814   1.0770   146.3304
 41      0.0000     0.0000E+00    0.0000E+00    5.500000E+07  0.02000  2.733E-03    0   0.7595   age110_m62            0.0000     1.0032E-05   101.7659   1.0510   148.1595
 42      0.0000     0.0000E+00    0.0000E+00    1.609000E+08  0.02000  1.369E-03    0   0.6985   age120_m62            0.0000     9.9058E-06    98.3897   0.8632   153.3369
 43      0.0000     0.0000E+00    0.0000E+00    2.861200E+08  0.02000  9.013E-04    0   0.6714   age125_m62            0.0000     9.8771E-06    96.0953   0.5979   158.3698
 44      0.0000     0.0000E+00    0.0000E+00    5.088000E+08  0.02000  5.028E-04    0   0.6449   age130_m62            0.0000     9.5868E-06    92.7943   0.1852   164.4086
 45      0.1148     5.2367E-03    6.4324E-03    9.047900E+08  0.02000  2.428E-04    0   0.6179   age135_m62            0.0000     9.1822E-06    92.2914  -0.4375   165.7204
 46      0.1521     1.3330E-02    1.5656E-02    1.434000E+09  0.02000  1.263E-04    0   0.5908   age139_m62            0.0000     9.0200E-06    92.2878  -0.8955   164.3420
 47      0.0103     1.9070E-03    2.1506E-03    2.500000E+09  0.02000  5.985E-05    0   0.5673   age150_m62            0.0000     8.9674E-06    94.7078  -1.0000   153.5933
 48      0.6333     2.1436E-01    2.3301E-01    4.250000E+09  0.02000  3.271E-05    0   0.5468   age158_m62            0.0000     9.3618E-06    97.3365  -1.0000   141.0543
 49     23.3283     1.8991E+01    1.9507E+01    1.000000E+10  0.02000  1.360E-05    0   0.5167   age181_m62            0.0000     1.0303E-05   100.1348  -1.0000   126.6656
 50      8.8997     1.3831E+01    1.3783E+01    1.800000E+10  0.02000  7.124E-06    0   0.5013   age213_m62            0.0000     1.1093E-05   101.2611  -1.0000   117.1537
 51      0.0000     0.0000E+00    0.0000E+00    1.000000E+06  0.05000  2.592E-02    0   0.9998   age020_m72            0.0000     9.8621E-06   100.7462   2.2514   135.4369
 52      0.0000     0.0000E+00    0.0000E+00    3.160000E+06  0.05000  4.845E-02    0   0.9577   age045_m72            0.0000     9.7672E-06    99.8935   2.0664   138.9773
 53      0.0000     0.0000E+00    0.0000E+00    5.010000E+06  0.05000  3.072E-02    0   0.9147   age055_m72            0.0000     1.0094E-05   103.6805   1.6393   142.6249
 54      0.0000     0.0000E+00    0.0000E+00    6.610000E+06  0.05000  1.455E-02    0   0.8877   age061_m72            0.0000     1.1289E-05   112.4699   1.0103   144.9764
 55      0.0000     0.0000E+00    0.0000E+00    1.000000E+07  0.05000  9.074E-03    0   0.8524   age070_m72            0.0000     1.0110E-05   103.7446   1.8183   142.1109
 56      0.0000     0.0000E+00    0.0000E+00    2.512000E+07  0.05000  4.250E-03    0   0.7902   age090_m72            0.0000     1.0114E-05   103.1481   1.5205   144.7416
 57      0.0000     0.0000E+00    0.0000E+00    4.000000E+07  0.05000  3.087E-03    0   0.7618   age104_m72            0.0000     1.0177E-05   103.2206   1.2986   146.8485
 58      0.0000     0.0000E+00    0.0000E+00    1.015200E+08  0.05000  1.700E-03    0   0.7096   age116_m72            0.0000     1.0018E-05    99.8155   1.0185   152.0125
 59      0.1835     2.7510E-03    3.6274E-03    2.861200E+08  0.05000  7.384E-04    0   0.6633   age125_m72            0.0000     9.6969E-06    94.2749   0.4435   161.7021
 60      0.0000     0.0000E+00    0.0000E+00    5.088000E+08  0.05000  3.819E-04    0   0.6372   age130_m72            0.0000     9.3017E-06    92.1628  -0.0894   166.7831
 61      0.0000     0.0000E+00    0.0000E+00    9.047900E+08  0.05000  1.676E-04    0   0.6110   age135_m72            0.0000     8.8313E-06    89.9220  -0.8417   167.3241
 62      0.0000     0.0000E+00    0.0000E+00    1.434000E+09  0.05000  8.837E-05    0   0.5874   age139_m72            0.0000     8.9374E-06    94.0419  -1.0000   156.0207
 63      0.0000     0.0000E+00    0.0000E+00    2.500000E+09  0.05000  4.233E-05    0   0.5598   age150_m72            0.0000     9.3237E-06    96.6928  -1.0000   142.4324
 64      0.0000     0.0000E+00    0.0000E+00    6.250000E+09  0.05000  1.435E-05    0   0.5249   age166_m72            0.0000     1.0634E-05   100.9947  -1.0000   122.2861
 65      8.0777     1.3731E+01    1.3747E+01    1.300000E+10  0.05000  6.513E-06    0   0.5036   age193_m72            0.0000     1.1829E-05   102.6547  -1.0000   111.8417
 66      0.0000     0.0000E+00    0.0000E+00    1.800000E+10  0.05000  4.527E-06    0   0.4945   age213_m72            0.0000     1.2624E-05   103.3309  -1.0000   104.9758


## Synthesis Results - Average & Chains ##

# j      x_j: min, <> & last-chain-values for 1 ...  7 chains
  1      0.0000      2.4619      5.0043      1.3262      7.3233      0.0000      0.0000      0.0000      0.0000
  2      0.0000      1.9511      5.7820      0.0000      0.0000      0.2080      9.5783      0.0000      0.3390
  3      0.4133      1.9579      0.3041      0.6600      0.0000      2.8732      0.0000      0.0000      7.4385
  4      0.0000      1.5690      0.0004      0.0000     12.2593     15.2282      1.4119     16.3009      0.0000
  5      0.0000      1.8143      0.0363      0.0306      0.0000      0.7862      0.0000      3.3300      5.2485
  6      0.0000      1.8101      0.0000      0.0000      0.0000      0.0000      0.0000      0.0920      1.6335
  7      0.0000      1.8869      4.1064      0.0000      0.0000      0.0000      0.0032      0.0000      0.0000
  8      0.0000      1.8144      0.0000      0.0000      0.0000      0.9164      2.0639      0.0000      6.4702
  9      0.0000      1.6409      1.7196      1.3789      0.9396     10.1835     18.5764      0.0000      0.0075
 10      0.0000      2.0320      2.4804      0.0000      9.1546      0.2237      0.0000      0.0000      0.0006
 11      0.1926      1.0945      2.1621      6.4898      6.2634      3.6780      0.0436      1.0607      0.0000
 12      0.0000      1.5154      0.0266      0.0000      1.2651      0.0000      0.2917      0.0000      0.0000
 13      0.0000      1.7554      0.9819      0.0005      0.0000      0.0139      0.0316      0.0000      4.0624
 14      4.1589      2.1886      0.4705     25.8222      0.0000      0.0000      0.0361      5.3742      6.0402
 15      0.0000      1.6253      0.0000      0.0415      4.3688      0.0000      0.0000      0.0000     14.3817
 16      0.0000      1.8051     26.3656      0.0000      2.8405      0.0000      0.0000      0.0000      0.0000
 17     70.4680      1.7000      0.0000      4.8468      0.0000      0.5982      4.2120      0.0106      0.0000
 18      0.0000      1.9499      0.0000      0.0000      0.0051      0.0000      0.0000      0.0000      0.5427
 19      0.0000      1.8152     11.1910      0.0000      0.0942      0.0000      3.4167      9.7792      0.0000
 20      0.0000      2.2788      0.0000      0.0001      0.0000      0.0000      5.7850      0.0559     15.8883
 21      0.0000      1.7220      5.6372      0.0347      0.0000      4.0422      0.0000      2.8611      0.0000
 22      0.0000      1.8378      7.1518      0.0000      0.0000      1.2999      0.5179      0.8556      0.0000
 23      0.0000      1.6434      0.5749      0.0000      0.3396      0.0488      0.0000      0.0000      0.0000
 24      0.0000      1.3817      0.0039      0.0000      0.0055      0.0001      3.9242      0.0000      0.0000
 25      0.0000      1.9237      0.0009      0.0810      0.0000      1.4268      5.2265      0.0000      0.0727
 26      0.0000      1.9685      0.0000      0.0000      0.3199      0.0000      0.0000      0.0647      2.0531
 27      0.0000      1.4244      0.1671      0.0000      1.3275      8.2404      0.0021     24.0641      0.0247
 28      0.0000      1.9009      0.1436      0.0625     11.4012      0.0150      0.0000      0.0780      0.5414
 29      0.0000      2.2476      0.0000      0.0000      0.0001      0.0000      0.0000      0.0000      1.7268
 30      0.0000      1.6717      0.0000      0.8429      0.0000      0.0000      6.5784      0.0000      1.2751
 31      0.0000      1.4608      2.1078      0.4023      0.0000      0.0153      0.0000      0.0000      1.4444
 32      3.5496      2.0015      0.0000      3.6433      0.0000     30.8122      3.2371      0.0000      0.0000
 33      0.0000      1.4418      0.0031      0.0000      0.0198      0.0000      1.2023      0.0318      0.0000
 34      0.0000      2.0130      0.0000      0.0000      0.0000      0.5880      0.8669      0.0000      0.0000
 35      0.0000      0.9442      0.0001      2.4480      0.6762      0.0000      0.0000      1.9604      5.4452
 36      0.0000      1.0840      0.0004      2.4638      0.0416      0.0009      4.9103      5.9709      0.0000
 37      1.4648      2.0506      0.0765      2.5065      2.0245      4.6898      0.7933      0.1859      2.3209
 38      0.0000      1.5796      0.0000     12.9128      0.0000      0.0000      0.1074      0.7458      0.0000
 39      0.0000      1.7313      0.0003      0.0000      0.0000      0.2360      2.8883      0.0000      0.0410
 40      8.3531      1.6412      0.0031     10.9900      0.0000      9.0628      0.0000      0.0000      0.6808
 41      0.0000      1.9189     11.8881      0.0142     20.3502      0.0000      0.0000      0.0092      0.0000
 42      0.0000      1.5035      0.0006      0.3349      0.0223      0.0386      6.7602      0.0000      5.9199
 43      0.0000      1.9102      0.6756      0.0000      0.0000      0.0000      0.0000      0.0000      0.0000
 44      0.0000      1.1005      0.0499      0.0028      0.1644      0.0261      0.0000      4.6676     15.9724
 45      0.1148      1.5834      0.3597      3.0960     16.4336      0.0000      0.3586      4.2139      1.1908
 46      0.1521      1.7429      0.0000     26.8774      0.4489      0.0000      1.3171      0.0000      0.0000
 47      0.0103      2.3066      2.7899      3.7700      0.0000     20.0989      3.1897      6.7426      0.0000
 48      0.6333      2.3202      0.3947      5.6400      1.1359      8.5426      2.9954      0.0000      0.0517
 49     23.3283      1.8666      0.7343      1.8694      0.0000      0.0000      4.7398      0.0000      5.9037
 50      8.8997      1.7119      0.0000      2.4290      0.0000      0.0229      4.7838      0.0000      0.0000
 51      0.0000      2.0315      1.1707      0.0000      0.0701      0.0000      2.1463      0.0000      3.1826
 52      0.0000      2.1272      0.0000      0.5473      3.8341      0.0000      1.6508      0.0914     10.0234
 53      0.0000      1.9399      0.0683      0.3266      0.0000      0.0000      0.0000      0.1344      0.0000
 54      0.0000      1.6584      0.2974      0.0000      0.0000      2.4706      0.0000      9.1911      0.0000
 55      0.0000      1.7303      0.0000      0.0000      0.0000      0.0071      0.0000      7.3225      6.3585
 56      0.0000      1.8797      7.5637      0.0780      0.0814      2.7945      0.0000      0.0000      0.0002
 57      0.0000      1.7654      0.0000      0.0000      0.3463      0.0000      6.9868      1.2290      0.0000
 58      0.0000      1.8635      1.8806      0.7612     12.6027      0.0043      0.1354      0.0007      0.0000
 59      0.1835      2.1077      0.0041      0.7576      8.1286      0.0000      0.3903      0.0000      0.0000
 60      0.0000      1.5255      6.1381      0.0000      5.7118      0.0000      1.6181      0.0000      0.9261
 61      0.0000      1.7435     14.8531      0.0450      0.0000      0.0003      0.0000      0.0000      0.8628
 62      0.0000      1.3301      4.4701      2.6680      0.0000      0.0000      0.0000     23.5284      0.0000
 63      0.0000      1.9395      0.1390      0.0000      0.0000      0.0000      1.1220      0.0000      0.8101
 64      0.0000      1.8825      0.0000      0.0000      0.0000      0.8065      0.0000      0.0406      0.0000
 65      8.0777      1.3608      0.0000      1.1577      0.0000      0.0000      0.0000      0.0068      1.1187
 66      0.0000      0.9828      0.0199      2.6408      0.0000      0.0000      0.0690      0.0000      0.0000

# j      m_j: min, <> & last-chain-values for 1 ...  7 chains
  1  0.0000E+00  2.2836E-02  5.2765E-02  8.8042E-03  2.5675E-01  0.0000E+00  0.0000E+00  0.0000E+00  0.0000E+00
  2  0.0000E+00  4.9407E-03  1.6643E-02  0.0000E+00  0.0000E+00  5.4820E-04  2.4630E-02  0.0000E+00  1.2581E-03
  3  3.3991E-04  7.4245E-03  1.3108E-03  1.7914E-03  0.0000E+00  1.1338E-02  0.0000E+00  0.0000E+00  4.1341E-02
  4  0.0000E+00  5.6030E-03  1.5692E-06  0.0000E+00  1.6546E-01  5.6589E-02  5.1202E-03  1.8515E-01  0.0000E+00
  5  0.0000E+00  1.2342E-02  2.8050E-04  1.4883E-04  0.0000E+00  5.5654E-03  0.0000E+00  7.2050E-02  5.2326E-02
  6  0.0000E+00  1.9971E-02  0.0000E+00  0.0000E+00  0.0000E+00  0.0000E+00  0.0000E+00  3.2270E-03  2.6415E-02
  7  0.0000E+00  2.9806E-02  7.3736E-02  0.0000E+00  0.0000E+00  0.0000E+00  5.2086E-05  0.0000E+00  0.0000E+00
  8  0.0000E+00  3.9614E-02  0.0000E+00  0.0000E+00  0.0000E+00  2.0820E-02  4.5760E-02  0.0000E+00  2.0704E-01
  9  0.0000E+00  4.1004E-02  4.8848E-02  2.4662E-02  8.8747E-02  2.6482E-01  4.7141E-01  0.0000E+00  2.7544E-04
 10  0.0000E+00  6.6700E-02  9.2550E-02  0.0000E+00  1.1358E+00  7.6427E-03  0.0000E+00  0.0000E+00  2.7809E-05
 11  2.5788E-03  6.7554E-02  1.5170E-01  2.8669E-01  1.4611E+00  2.3623E-01  2.7355E-03  2.0824E-01  0.0000E+00
 12  0.0000E+00  1.4837E-01  2.9610E-03  0.0000E+00  4.6815E-01  0.0000E+00  2.9007E-02  2.0128E-06  0.0000E+00
 13  0.0000E+00  4.8443E-01  3.0801E-01  9.4879E-05  0.0000E+00  3.9831E-03  8.8687E-03  0.0000E+00  1.6431E+00
 14  8.3491E-01  2.0258E+00  4.9505E-01  1.7106E+01  0.0000E+00  0.0000E+00  3.3958E-02  1.5822E+01  8.1939E+00
 15  0.0000E+00  2.4491E+00  0.0000E+00  4.4729E-02  2.4881E+01  0.0000E+00  0.0000E+00  0.0000E+00  3.1761E+01
 16  0.0000E+00  4.5990E+00  7.6358E+01  0.0000E+00  2.7353E+01  0.0000E+00  0.0000E+00  0.0000E+00  0.0000E+00
 17  5.0515E+01  5.6187E+00  9.7402E-05  1.1465E+01  0.0000E+00  2.0576E+00  1.4137E+01  1.1157E-01  0.0000E+00
 18  0.0000E+00  1.5983E-02  0.0000E+00  0.0000E+00  1.5950E-04  0.0000E+00  0.0000E+00  0.0000E+00  6.5193E-03
 19  0.0000E+00  5.9717E-03  4.1851E-02  0.0000E+00  1.1717E-03  0.0000E+00  1.1415E-02  1.0233E-01  0.0000E+00
 20  0.0000E+00  8.1846E-03  0.0000E+00  1.7050E-07  0.0000E+00  0.0000E+00  2.1100E-02  6.3893E-04  8.3634E-02
 21  0.0000E+00  7.5075E-03  2.7937E-02  1.0836E-04  0.0000E+00  1.8339E-02  0.0000E+00  3.9675E-02  0.0000E+00
 22  0.0000E+00  1.3549E-02  5.9934E-02  0.0000E+00  0.0000E+00  9.9726E-03  3.8771E-03  2.0064E-02  0.0000E+00
 23  0.0000E+00  1.6361E-02  6.5056E-03  0.0000E+00  1.2778E-02  5.0549E-04  0.0000E+00  1.2103E-07  0.0000E+00
 24  0.0000E+00  2.0465E-02  6.6003E-05  0.0000E+00  3.0797E-04  9.6683E-07  5.9023E-02  0.0000E+00  0.0000E+00
 25  0.0000E+00  3.9287E-02  2.1485E-05  1.1835E-03  0.0000E+00  3.0324E-02  1.0840E-01  0.0000E+00  2.1757E-03
 26  0.0000E+00  6.7199E-02  0.0000E+00  0.0000E+00  4.1271E-02  0.0000E+00  0.0000E+00  7.0288E-03  1.0272E-01
 27  0.0000E+00  9.7325E-02  1.2976E-02  0.0000E+00  3.4284E-01  5.8593E-01  1.4713E-04  5.2300E+00  2.4704E-03
 28  0.0000E+00  3.7695E-01  3.2376E-02  8.8712E-03  8.5452E+00  3.0934E-03  0.0000E+00  4.9208E-02  1.5734E-01
 29  0.0000E+00  7.7659E-01  0.0000E+00  0.0000E+00  1.3847E-04  0.0000E+00  0.0000E+00  0.0000E+00  8.7444E-01
 30  0.0000E+00  1.2068E+00  0.0000E+00  4.3551E-01  0.0000E+00  0.0000E+00  4.8225E+00  4.4039E-05  1.3490E+00
 31  0.0000E+00  1.8550E+00  3.0426E+00  3.6567E-01  0.0000E+00  2.0250E-02  0.0000E+00  0.0000E+00  2.6882E+00
 32  1.3154E+00  3.4199E+00  0.0000E+00  4.4553E+00  0.0000E+00  5.4785E+01  5.6167E+00  0.0000E+00  0.0000E+00
 33  0.0000E+00  5.4537E+00  1.3425E-02  0.0000E+00  2.8264E-01  0.0000E+00  4.6181E+00  3.8264E-01  0.0000E+00
 34  0.0000E+00  1.0311E+01  0.0000E+00  0.0000E+00  0.0000E+00  3.1342E+00  4.5089E+00  0.0000E+00  0.0000E+00
 35  0.0000E+00  6.2058E-03  7.9654E-07  1.1515E-02  1.6798E-02  0.0000E+00  0.0000E+00  4.0982E-02  5.2450E-02
 36  0.0000E+00  2.8825E-03  1.2640E-06  4.6890E-03  4.1821E-04  2.3981E-06  1.3259E-02  5.0501E-02  0.0000E+00
 37  9.1378E-04  5.8979E-03  2.5026E-04  5.1597E-03  2.2008E-02  1.4037E-02  2.3172E-03  1.7008E-03  9.7834E-03
 38  0.0000E+00  1.2308E-02  0.0000E+00  7.2012E-02  0.0000E+00  0.0000E+00  8.5013E-04  1.8484E-02  0.0000E+00
 39  0.0000E+00  1.9423E-02  3.2682E-06  0.0000E+00  0.0000E+00  2.7555E-03  3.2907E-02  0.0000E+00  6.7438E-04
 40  3.2854E-02  2.9763E-02  6.4763E-05  1.4264E-01  0.0000E+00  1.7103E-01  0.0000E+00  0.0000E+00  1.8094E-02
 41  0.0000E+00  5.4114E-02  3.8108E-01  2.8573E-04  2.1690E+00  0.0000E+00  0.0000E+00  8.2777E-04  0.0000E+00
 42  0.0000E+00  7.7847E-02  3.8218E-05  1.2412E-02  4.3620E-03  2.0781E-03  3.5544E-01  0.0000E+00  4.4922E-01
 43  0.0000E+00  1.4440E-01  5.8052E-02  0.0000E+00  0.0000E+00  0.0000E+00  0.0000E+00  0.0000E+00  0.0000E+00
 44  0.0000E+00  1.4324E-01  7.3901E-03  2.5755E-04  8.0888E-02  3.5388E-03  0.0000E+00  1.9323E+00  3.0468E+00
 45  6.4324E-03  4.0890E-01  1.0558E-01  5.7225E-01  1.6040E+01  0.0000E+00  9.4045E-02  3.4614E+00  4.5070E-01
 46  1.5656E-02  8.2731E-01  0.0000E+00  9.1313E+00  8.0532E-01  0.0000E+00  6.3488E-01  0.0000E+00  0.0000E+00
 47  2.1506E-03  2.2186E+00  3.0504E+00  2.5953E+00  0.0000E+00  2.0118E+01  3.1156E+00  2.0628E+01  0.0000E+00
 48  2.3301E-01  3.9358E+00  7.6117E-01  6.8475E+00  7.2828E+00  1.5080E+01  5.1601E+00  0.0000E+00  1.2849E-01
 49  1.9507E+01  7.1965E+00  3.2180E+00  5.1582E+00  0.0000E+00  0.0000E+00  1.8557E+01  0.0000E+00  3.3359E+01
 50  1.3783E+01  1.2224E+01  0.0000E+00  1.2414E+01  0.0000E+00  1.6982E-01  3.4689E+01  0.0000E+00  0.0000E+00
 51  0.0000E+00  7.9518E-03  5.2088E-03  0.0000E+00  1.0374E-03  0.0000E+00  8.5313E-03  0.0000E+00  1.8258E-02
 52  0.0000E+00  4.2669E-03  0.0000E+00  7.8574E-04  2.9068E-02  0.0000E+00  3.3627E-03  5.8318E-04  2.9467E-02
 53  0.0000E+00  5.8613E-03  2.3448E-04  7.0624E-04  0.0000E+00  7.6059E-08  0.0000E+00  1.2914E-03  0.0000E+00
 54  0.0000E+00  1.0267E-02  2.0929E-03  0.0000E+00  0.0000E+00  1.5917E-02  0.0000E+00  1.8099E-01  0.0000E+00
 55  0.0000E+00  1.6494E-02  0.0000E+00  0.0000E+00  0.0000E+00  7.0776E-05  0.0000E+00  2.2202E-01  8.8834E-02
 56  0.0000E+00  3.5464E-02  1.6222E-01  1.0536E-03  5.8013E-03  5.4867E-02  0.0000E+00  0.0000E+00  4.3447E-06
 57  0.0000E+00  4.4211E-02  0.0000E+00  0.0000E+00  3.2776E-02  0.0000E+00  1.7768E-01  9.7895E-02  0.0000E+00
 58  0.0000E+00  7.8931E-02  9.0549E-02  2.3075E-02  2.0176E+00  1.8743E-04  5.8253E-03  8.8816E-05  0.0000E+00
 59  3.6274E-03  1.9212E-01  4.2686E-04  4.9426E-02  2.8006E+00  0.0000E+00  3.6131E-02  0.0000E+00  0.0000E+00
 60  0.0000E+00  2.5829E-01  1.1813E+00  2.0069E-08  3.6552E+00  0.0000E+00  2.7822E-01  0.0000E+00  2.2981E-01
 61  0.0000E+00  6.4499E-01  6.2460E+00  1.1907E-02  0.0000E+00  1.0381E-04  0.0000E+00  0.0000E+00  4.6781E-01
 62  0.0000E+00  8.9721E-01  3.4274E+00  1.2880E+00  0.0000E+00  0.0000E+00  0.0000E+00  5.0479E+01  1.9859E-06
 63  0.0000E+00  2.6027E+00  2.1197E-01  0.0000E+00  0.0000E+00  1.8341E-13  1.5290E+00  0.0000E+00  1.5933E+00
 64  0.0000E+00  6.9877E+00  0.0000E+00  0.0000E+00  0.0000E+00  3.1154E+00  0.0000E+00  4.7875E-01  0.0000E+00
 65  1.3747E+01  1.0677E+01  0.0000E+00  6.5012E+00  0.0000E+00  0.0000E+00  0.0000E+00  1.7083E-01  1.2865E+01
 66  0.0000E+00  1.0894E+01  2.5069E-01  2.0951E+01  0.0000E+00  0.0000E+00  7.7644E-01  0.0000E+00  0.0000E+00

# AV, chi2 & Mass for <> & i_chain = 1 ...  7 solutions
AV      -1.0000      0.8271      0.2499     -0.2385      0.7919     -0.0387      0.5955      0.5405      0.5196
chi2 9.6055E-06  1.1824E-05  1.0305E-05  1.0132E-05  1.0378E-05  1.0214E-05  1.1438E-05  1.0416E-05  1.0452E-05
Mass 4.4680E-14  1.1274E-13  4.5685E-14  3.7654E-14  2.8452E-14  3.3869E-14  8.1338E-14  2.4120E-14  5.0896E-14
 430.77                                  [v0_min (km/s) before EX0s...]
 232.58                                  [vd_min (km/s) before EX0s...]


## Synthetic spectrum (Best Model) ##l_obs f_obs f_syn wei
 3478    [Nl_obs]
 3741.00    2.12565   0.62848    0.000
 3742.00    2.19395   0.64735    0.000
 3743.00    1.50543   0.67886    0.000
 3744.00    0.84890   0.71475    0.000
 3745.00    0.21101   0.74577    0.008
 3746.00    0.67957   0.76497    0.008
 3747.00    1.70999   0.76912    0.008
 3748.00    1.16595   0.75846    0.008
 3749.00   -0.07043   0.73603    0.000
 3750.00   -0.56998   0.70648    0.000
 3751.00   -0.79135   0.67472    0.000
 3752.00   -0.08194   0.64823    0.000
 3753.00    0.92578   0.63537    0.008
 3754.00    1.02950   0.64005    0.008
 3755.00    0.89096   0.66104    0.008
 3756.00    1.12777   0.69536    0.008
 3757.00    1.44697   0.73844    0.008
 3758.00    1.02779   0.78246    0.008
 3759.00    0.47972   0.81877    0.008
 3760.00    0.01131   0.84053    0.008
 3761.00   -0.44652   0.84693    0.000
 3762.00   -0.34743   0.84274    0.000
 3763.00   -0.19600   0.83348    0.000
 3764.00    0.17508   0.82328    0.008
 3765.00    0.55883   0.81484    0.008
 3766.00    1.59090   0.80988    0.008
 3767.00    2.62531   0.80995    0.008
 3768.00    2.07850   0.81371    0.008
 3769.00    1.49942   0.81646    0.008
 3770.00    0.13667   0.81657    0.008
 3771.00   -1.08551   0.81606    0.000
 3772.00   -0.46571   0.81574    0.000
 3773.00    0.19771   0.81688    0.008
 3774.00    1.24407   0.82274    0.008
 3775.00    2.02522   0.83438    0.008
 3776.00    1.08675   0.85059    0.008
 3777.00    0.24411   0.87012    0.008
 3778.00   -0.11346   0.89113    0.000
 3779.00   -0.24541   0.91218    0.000
 3780.00    0.54617   0.93315    0.008
 3781.00    0.91908   0.95387    0.008
 3782.00   -0.12802   0.97366    0.000
 3783.00   -1.17244   0.99198    0.000
 3784.00   -2.20919   1.00842    0.000
 3785.00   -2.77193   1.02258    0.000
 3786.00   -2.17654   1.03303    0.000
 3787.00   -1.53730   1.03686    0.000
 3788.00   -0.80565   1.03109    0.000
 3789.00    0.01168   1.01516    0.008
 3790.00    0.98595   0.99133    0.008
 3791.00    2.04740   0.96282    0.008
 3792.00    3.24837   0.93318    0.008
 3793.00    3.66624   0.90573    0.008
 3794.00    2.98413   0.88191    0.008
 3795.00    2.09365   0.86143    0.008
 3796.00    0.94559   0.84366    0.008
 3797.00    0.72483   0.82671    0.008
 3798.00    1.51432   0.80885    0.008
 3799.00    1.15104   0.78917    0.008
 3800.00   -0.32005   0.76788    0.000
 3801.00   -1.09906   0.74836    0.000
 3802.00   -1.29162   0.73679    0.000
 3803.00   -0.95300   0.73781    0.000
 3804.00   -0.21800   0.75213    0.000
 3805.00    0.18939   0.77810    0.008
 3806.00    0.38201   0.81225    0.008
 3807.00    0.50961   0.85016    0.008
 3808.00    0.59990   0.88679    0.008
 3809.00    0.82958   0.91703    0.008
 3810.00    1.12894   0.93870    0.008
 3811.00    0.49279   0.95359    0.008
 3812.00   -0.54791   0.96360    0.000
 3813.00   -0.57802   0.96844    0.000
 3814.00   -0.23335   0.96787    0.000
 3815.00   -0.14029   0.96164    0.000
 3816.00   -0.12634   0.94976    0.000
 3817.00   -0.83598   0.93225    0.000
 3818.00   -1.73544   0.90920    0.000
 3819.00   -1.37113   0.88338    0.000
 3820.00   -0.73604   0.85814    0.000
 3821.00   -0.53346   0.83390    0.000
 3822.00   -0.40429   0.81082    0.000
 3823.00   -0.21946   0.79129    0.000
 3824.00   -0.02748   0.77710    0.000
 3825.00   -0.16740   0.76685    0.000
 3826.00   -0.33711   0.75603    0.000
 3827.00    0.22977   0.74171    0.008
 3828.00    0.83623   0.72586    0.008
 3829.00    0.65987   0.71184    0.008
 3830.00    0.46347   0.69969    0.008
 3831.00   -0.10090   0.68694    0.000
 3832.00   -0.61531   0.67288    0.000
 3833.00   -0.01969   0.65893    0.000
 3834.00    0.48663   0.64558    0.008
 3835.00   -0.11757   0.63185    0.000
 3836.00   -0.56898   0.61732    0.000
 3837.00    0.27111   0.60298    0.008
 3838.00    0.87341   0.59048    0.008
 3839.00   -0.02023   0.58029    0.000
 3840.00   -0.75408   0.57288    0.000
 3841.00   -0.69955   0.57114    0.000
 3842.00   -0.73542   0.57760    0.000
 3843.00   -1.13319   0.59262    0.000
 3844.00   -1.03676   0.61617    0.000
 3845.00    0.70266   0.64693    0.008
 3846.00    1.93757   0.68294    0.008
 3847.00    1.75575   0.72255    0.000
 3848.00    1.18200   0.76318    0.000
 3849.00   -0.33310   0.80187    0.000
 3850.00   -1.47098   0.83547    0.000
 3851.00   -1.82653   0.86006    0.000
 3852.00   -1.78874   0.87469    0.000
 3853.00   -1.04151   0.88260    0.000
 3854.00   -0.45506   0.88699    0.000
 3855.00   -0.12219   0.88868    0.000
 3856.00    0.15279   0.88698    0.000
 3857.00    0.34763   0.88138    0.000
 3858.00    0.63015   0.87312    0.000
 3859.00    1.01952   0.86380    0.000
 3860.00    1.39546   0.85184    0.000
 3861.00    1.75695   0.83529    0.000
 3862.00    1.91737   0.81726    0.000
 3863.00    1.88728   0.80346    0.000
 3864.00    1.13833   0.79788    0.000
 3865.00   -0.21116   0.80111    0.000
 3866.00   -0.36754   0.81034    0.000
 3867.00    0.35361   0.82323    0.000
 3868.00    0.46790   0.83969    0.000
 3869.00    0.19021   0.85744    0.000
 3870.00    0.07800   0.87139    0.000
 3871.00    0.05931   0.87738    0.000
 3872.00    0.31912   0.87482    0.000
 3873.00    0.71593   0.86601    0.000
 3874.00    0.43290   0.85387    0.000
 3875.00   -0.13922   0.84137    0.000
 3876.00    0.17228   0.83141    0.000
 3877.00    0.80563   0.82522    0.000
 3878.00    0.91960   0.82165    0.000
 3879.00    0.87345   0.81941    0.000
 3880.00    0.41341   0.81808    0.000
 3881.00   -0.15288   0.81894    0.000
 3882.00   -0.53599   0.82093    0.000
 3883.00   -0.88080   0.81932    0.000
 3884.00   -0.36395   0.81246    0.000
 3885.00    0.29499   0.80423    0.008
 3886.00    0.69281   0.79833    0.008
 3887.00    1.05829   0.79363    0.008
 3888.00    1.20446   0.78543    0.008
 3889.00    1.33185   0.77211    0.007
 3890.00    0.70616   0.75742    0.008
 3891.00    0.04294   0.74518    0.008
 3892.00    0.46871   0.73688    0.007
 3893.00    0.89417   0.73355    0.007
 3894.00    0.14785   0.73938    0.007
 3895.00   -0.56091   0.75645    0.000
 3896.00   -0.50110   0.78027    0.000
 3897.00   -0.43011   0.80670    0.000
 3898.00   -0.22688   0.83501    0.000
 3899.00   -0.04747   0.86159    0.000
 3900.00   -0.06206   0.88142    0.000
 3901.00   -0.06035   0.89369    0.000
 3902.00    0.04085   0.90164    0.007
 3903.00    0.22334   0.90859    0.006
 3904.00    0.79697   0.91489    0.006
 3905.00    1.12668   0.91837    0.006
 3906.00    0.50118   0.91845    0.006
 3907.00    0.02578   0.91684    0.006
 3908.00    0.03962   0.91584    0.006
 3909.00    0.16781   0.91733    0.007
 3910.00    0.61133   0.92132    0.007
 3911.00    0.80694   0.92939    0.007
 3912.00    0.41709   0.94218    0.007
 3913.00    0.18074   0.95854    0.007
 3914.00    0.25766   0.97924    0.007
 3915.00    0.17536   1.00159    0.008
 3916.00   -0.18974   1.01978    0.000
 3917.00   -0.29197   1.03092    0.000
 3918.00    0.01424   1.03490    0.008
 3919.00    0.02846   1.03283    0.008
 3920.00   -0.35573   1.02427    0.000
 3921.00   -0.41407   1.00855    0.000
 3922.00   -0.08101   0.98767    0.000
 3923.00    0.20453   0.96415    0.008
 3924.00    0.43974   0.94007    0.008
 3925.00    0.81255   0.91712    0.008
 3926.00    1.31393   0.89545    0.008
 3927.00    1.12807   0.87406    0.008
 3928.00    0.37623   0.85234    0.008
 3929.00    0.04626   0.82919    0.007
 3930.00    0.02211   0.80163    0.007
 3931.00   -0.04199   0.76688    0.000
 3932.00   -0.13152   0.72357    0.000
 3933.00    0.20543   0.67227    0.007
 3934.00    0.77971   0.61630    0.007
 3935.00    0.75803   0.56010    0.007
 3936.00    0.44784   0.50885    0.007
 3937.00    0.65284   0.46770    0.007
 3938.00    1.07324   0.44042    0.007
 3939.00    1.42086   0.42970    0.007
 3940.00    1.74245   0.43670    0.007
 3941.00    1.19071   0.46104    0.007
 3942.00    0.37499   0.49993    0.007
 3943.00    0.41743   0.54814    0.007
 3944.00    0.67539   0.60025    0.007
 3945.00    0.63991   0.65083    0.007
 3946.00    0.54459   0.69671    0.007
 3947.00    0.71748   0.73842    0.007
 3948.00    0.93332   0.77614    0.007
 3949.00    1.09617   0.80902    0.008
 3950.00    1.25269   0.83784    0.008
 3951.00    0.57158   0.86578    0.008
 3952.00   -0.17774   0.89602    0.000
 3953.00    0.32188   0.92599    0.008
 3954.00    0.87890   0.94918    0.008
 3955.00    0.40659   0.96622    0.008
 3956.00   -0.07122   0.98228    0.000
 3957.00   -0.15097   0.99618    0.000
 3958.00   -0.18413   1.00296    0.000
 3959.00    0.66509   1.00199    0.008
 3960.00    1.45136   0.99781    0.000
 3961.00    1.52802   0.99214    0.000
 3962.00    1.53096   0.97867    0.000
 3963.00    0.95441   0.95285    0.000
 3964.00    0.45876   0.91916    0.000
 3965.00    0.44318   0.88151    0.000
 3966.00    0.54332   0.83744    0.000
 3967.00    1.18679   0.78354    0.000
 3968.00    1.52662   0.72129    0.000
 3969.00    0.70282   0.65751    0.000
 3970.00   -0.01255   0.59756    0.000
 3971.00   -0.38133   0.54287    0.000
 3972.00   -0.45630   0.49592    0.000
 3973.00    0.26445   0.46156    0.000
 3974.00    0.78399   0.44457    0.000
 3975.00    0.83631   0.44799    0.000
 3976.00    0.66292   0.47270    0.000
 3977.00    0.03621   0.51678    0.000
 3978.00    0.05561   0.57499    0.000
 3979.00    1.20516   0.64141    0.000
 3980.00    1.69598   0.71130    0.000
 3981.00    1.17832   0.78114    0.008
 3982.00    0.62116   0.84735    0.008
 3983.00    0.01089   0.90542    0.008
 3984.00   -0.39590   0.95370    0.000
 3985.00   -0.56173   0.99374    0.000
 3986.00   -0.42926   1.02655    0.000
 3987.00    0.01470   1.05201    0.007
 3988.00    0.21344   1.07003    0.007
 3989.00    0.18632   1.08364    0.007
 3990.00    0.61783   1.09782    0.007
 3991.00    1.42169   1.11241    0.007
 3992.00    1.99872   1.12569    0.007
 3993.00    2.41370   1.13788    0.007
 3994.00    1.86097   1.15007    0.007
 3995.00    0.70150   1.16198    0.007
 3996.00    0.66943   1.16922    0.007
 3997.00    1.25518   1.17257    0.007
 3998.00    1.22676   1.17498    0.007
 3999.00    0.90580   1.17532    0.007
 4000.00    0.69479   1.17314    0.007
 4001.00    0.52898   1.17053    0.007
 4002.00    1.53366   1.17013    0.007
 4003.00    2.94944   1.17193    0.007
 4004.00    2.97268   1.17648    0.007
 4005.00    2.58332   1.18461    0.007
 4006.00    2.13146   1.19319    0.007
 4007.00    1.66424   1.19590    0.007
 4008.00    1.11079   1.19289    0.007
 4009.00    0.54019   1.18980    0.007
 4010.00   -0.03461   1.18648    0.000
 4011.00   -0.61006   1.17977    0.000
 4012.00   -0.10958   1.17401    0.000
 4013.00    0.51461   1.17798    0.007
 4014.00    0.73503   1.19123    0.008
 4015.00    0.92422   1.20583    0.008
 4016.00    0.75636   1.21848    0.008
 4017.00    0.57347   1.23070    0.008
 4018.00    0.38247   1.24234    0.008
 4019.00    0.19266   1.25033    0.007
 4020.00    0.05835   1.25575    0.008
 4021.00   -0.05672   1.26077    0.000
 4022.00    0.16749   1.26486    0.008
 4023.00    0.40947   1.26612    0.008
 4024.00    0.84278   1.26482    0.008
 4025.00    1.22988   1.26480    0.008
 4026.00    1.26623   1.26508    0.008
 4027.00    1.32223   1.26256    0.008
 4028.00    1.49151   1.25949    0.007
 4029.00    1.75275   1.25828    0.007
 4030.00    2.43547   1.25764    0.007
 4031.00    2.71967   1.25437    0.007
 4032.00    1.50895   1.24797    0.007
 4033.00    0.46404   1.23964    0.007
 4034.00   -0.06107   1.22833    0.000
 4035.00   -0.24308   1.21241    0.000
 4036.00    0.48765   1.19274    0.007
 4037.00    0.99680   1.17438    0.007
 4038.00    1.00000   1.16581    0.007
 4039.00    0.97729   1.16960    0.007
 4040.00    0.90335   1.18222    0.007
 4041.00    0.91935   1.20112    0.007
 4042.00    1.09027   1.22341    0.007
 4043.00    1.22031   1.24558    0.007
 4044.00    1.28867   1.26251    0.007
 4045.00    1.37567   1.26784    0.007
 4046.00    1.48739   1.25839    0.007
 4047.00    1.64574   1.23717    0.007
 4048.00    1.85853   1.21316    0.007
 4049.00    2.11042   1.19253    0.007
 4050.00    2.40258   1.17317    0.007
 4051.00    2.17690   1.15615    0.007
 4052.00    1.48098   1.15053    0.007
 4053.00    1.06374   1.16263    0.007
 4054.00    0.86953   1.18584    0.007
 4055.00    1.01477   1.20762    0.007
 4056.00    1.39904   1.22349    0.007
 4057.00    1.62027   1.23467    0.007
 4058.00    1.74079   1.23967    0.007
 4059.00    1.40755   1.23598    0.007
 4060.00    0.82945   1.22616    0.007
 4061.00    0.36723   1.21530    0.007
 4062.00   -0.04068   1.20672    0.000
 4063.00   -0.18110   1.19903    0.000
 4064.00   -0.21345   1.18862    0.000
 4065.00    0.51813   1.17712    0.007
 4066.00    1.51312   1.16940    0.007
 4067.00    1.60469   1.16451    0.007
 4068.00    1.43393   1.15601    0.007
 4069.00    0.52239   1.14431    0.008
 4070.00   -0.56709   1.13958    0.000
 4071.00   -0.15377   1.14798    0.000
 4072.00    0.55073   1.16058    0.007
 4073.00    0.41242   1.16763    0.007
 4074.00    0.14711   1.17399    0.007
 4075.00    0.26780   1.18497    0.007
 4076.00    0.43120   1.19252    0.008
 4077.00    0.05743   1.18817    0.007
 4078.00   -0.35567   1.17735    0.000
 4079.00    0.60531   1.17047    0.007
 4080.00    1.61889   1.16759    0.007
 4081.00    1.56642   1.16293    0.007
 4082.00    1.50394   1.15766    0.008
 4083.00    1.28714   1.15778    0.008
 4084.00    1.07077   1.16617    0.008
 4085.00    0.86149   1.18143    0.007
 4086.00    0.67929   1.20026    0.007
 4087.00    0.77581   1.21960    0.007
 4088.00    0.85281   1.23692    0.007
 4089.00    0.78657   1.25177    0.007
 4090.00    0.76216   1.26575    0.007
 4091.00    0.97240   1.27968    0.007
 4092.00    1.10489   1.29342    0.000
 4093.00    0.88945   1.30627    0.000
 4094.00    0.79682   1.31625    0.000
 4095.00    1.15519   1.32127    0.000
 4096.00    1.27311   1.31924    0.000
 4097.00    0.65155   1.30878    0.000
 4098.00    0.33529   1.29103    0.000
 4099.00    0.81698   1.26919    0.000
 4100.00    1.01469   1.24396    0.000
 4101.00    0.57464   1.21222    0.000
 4102.00    0.43982   1.17444    0.000
 4103.00    0.89897   1.13614    0.000
 4104.00    1.33412   1.10266    0.000
 4105.00    1.72854   1.07487    0.000
 4106.00    1.69597   1.05153    0.000
 4107.00    1.02870   1.03618    0.000
 4108.00    0.77467   1.03578    0.000
 4109.00    1.06061   1.05144    0.000
 4110.00    1.30014   1.07626    0.000
 4111.00    1.48624   1.10386    0.000
 4112.00    1.21900   1.13176    0.000
 4113.00    0.49158   1.15779    0.007
 4114.00    0.25784   1.17954    0.007
 4115.00    0.46610   1.19604    0.007
 4116.00    0.99596   1.20861    0.007
 4117.00    1.77955   1.21942    0.007
 4118.00    2.11543   1.22997    0.007
 4119.00    2.14061   1.23995    0.007
 4120.00    1.83018   1.24681    0.007
 4121.00    1.31554   1.25024    0.007
 4122.00    1.41189   1.25237    0.007
 4123.00    1.83283   1.25183    0.007
 4124.00    1.44744   1.24652    0.007
 4125.00    0.69026   1.24041    0.007
 4126.00    0.83598   1.23907    0.007
 4127.00    1.34023   1.24058    0.007
 4128.00    1.46206   1.24057    0.007
 4129.00    1.45446   1.23995    0.007
 4130.00    1.49365   1.24099    0.007
 4131.00    1.54614   1.24148    0.007
 4132.00    1.17181   1.23656    0.007
 4133.00    0.69728   1.22577    0.007
 4134.00    0.88967   1.21218    0.007
 4135.00    1.20795   1.19919    0.007
 4136.00    0.89653   1.18766    0.007
 4137.00    0.49317   1.17813    0.007
 4138.00    0.72736   1.17227    0.007
 4139.00    1.02932   1.17329    0.007
 4140.00    2.22569   1.18199    0.008
 4141.00    3.48393   1.19629    0.008
 4142.00    3.08602   1.21175    0.008
 4143.00    2.63098   1.22219    0.008
 4144.00    2.88737   1.22592    0.008
 4145.00    3.10707   1.22265    0.008
 4146.00    2.06779   1.21405    0.008
 4147.00    1.07026   1.20152    0.007
 4148.00    0.71811   1.18431    0.007
 4149.00    0.45137   1.16704    0.008
 4150.00    1.02662   1.15895    0.008
 4151.00    1.51544   1.16170    0.008
 4152.00    1.39070   1.16799    0.008
 4153.00    1.23378   1.17372    0.008
 4154.00    0.90113   1.17927    0.008
 4155.00    0.56763   1.18342    0.008
 4156.00    0.23045   1.18486    0.007
 4157.00    0.04066   1.18475    0.007
 4158.00    0.38099   1.18309    0.007
 4159.00    0.59536   1.18088    0.007
 4160.00    0.42964   1.18069    0.007
 4161.00    0.47050   1.18505    0.007
 4162.00    1.04186   1.19262    0.007
 4163.00    1.32947   1.20251    0.008
 4164.00    0.99028   1.21618    0.007
 4165.00    0.93641   1.23093    0.007
 4166.00    1.42907   1.24247    0.007
 4167.00    1.53286   1.25057    0.007
 4168.00    0.98672   1.25688    0.007
 4169.00    0.73870   1.25830    0.007
 4170.00    0.92736   1.25304    0.007
 4171.00    1.10083   1.24549    0.007
 4172.00    1.25474   1.23627    0.007
 4173.00    1.41699   1.22230    0.007
 4174.00    1.58870   1.20624    0.007
 4175.00    1.83292   1.19264    0.007
 4176.00    2.14970   1.17957    0.007
 4177.00    2.02387   1.16364    0.007
 4178.00    1.50734   1.14705    0.007
 4179.00    1.01590   1.13624    0.007
 4180.00    0.54399   1.13352    0.007
 4181.00    0.43569   1.13558    0.007
 4182.00    0.57606   1.13953    0.007
 4183.00    0.58346   1.14440    0.007
 4184.00    0.51116   1.15176    0.007
 4185.00    0.46068   1.16278    0.007
 4186.00    0.42163   1.17301    0.007
 4187.00    0.91348   1.17829    0.007
 4188.00    1.64614   1.18026    0.007
 4189.00    1.87680   1.18275    0.007
 4190.00    1.91157   1.18631    0.007
 4191.00    1.46834   1.18935    0.007
 4192.00    0.86635   1.18794    0.007
 4193.00    0.52258   1.18382    0.007
 4194.00    0.25078   1.18645    0.007
 4195.00    0.77750   1.19508    0.007
 4196.00    1.48742   1.19942    0.007
 4197.00    2.07846   1.19784    0.007
 4198.00    2.64766   1.19857    0.007
 4199.00    2.05780   1.20013    0.007
 4200.00    1.30405   1.19221    0.007
 4201.00    1.05924   1.17616    0.007
 4202.00    0.86631   1.16096    0.007
 4203.00    1.14007   1.14734    0.007
 4204.00    1.44422   1.13277    0.007
 4205.00    1.49725   1.12322    0.007
 4206.00    1.54190   1.12180    0.007
 4207.00    1.15835   1.12397    0.007
 4208.00    0.80716   1.13068    0.007
 4209.00    1.40677   1.14558    0.007
 4210.00    1.95802   1.16391    0.007
 4211.00    1.80548   1.18037    0.007
 4212.00    1.63744   1.19651    0.007
 4213.00    1.32288   1.21304    0.007
 4214.00    1.11792   1.22614    0.007
 4215.00    1.66636   1.23223    0.007
 4216.00    2.01052   1.23279    0.007
 4217.00    1.26899   1.23124    0.007
 4218.00    0.78652   1.22875    0.007
 4219.00    1.41047   1.22449    0.007
 4220.00    1.79658   1.21862    0.007
 4221.00    1.34471   1.21410    0.007
 4222.00    0.94513   1.21618    0.007
 4223.00    0.70036   1.22366    0.007
 4224.00    0.48446   1.22750    0.007
 4225.00    0.34142   1.22453    0.007
 4226.00    0.29200   1.21704    0.007
 4227.00    0.44603   1.20123    0.007
 4228.00    0.50259   1.17160    0.007
 4229.00    0.37533   1.13530    0.007
 4230.00    0.25797   1.10196    0.007
 4231.00    0.15693   1.07208    0.007
 4232.00    0.14674   1.04868    0.007
 4233.00    0.26771   1.04384    0.007
 4234.00    0.49742   1.05933    0.007
 4235.00    0.86518   1.08222    0.007
 4236.00    1.18801   1.10594    0.007
 4237.00    1.46057   1.13082    0.007
 4238.00    1.54367   1.15143    0.007
 4239.00    1.43981   1.16406    0.007
 4240.00    1.48191   1.17127    0.007
 4241.00    1.65104   1.17330    0.007
 4242.00    1.59644   1.17262    0.007
 4243.00    1.37031   1.17658    0.007
 4244.00    1.38157   1.18481    0.007
 4245.00    1.55281   1.19382    0.007
 4246.00    1.85757   1.20657    0.007
 4247.00    2.24115   1.22236    0.007
 4248.00    2.62171   1.23331    0.007
 4249.00    3.00072   1.23945    0.007
 4250.00    3.07702   1.24437    0.008
 4251.00    3.01827   1.24215    0.008
 4252.00    1.82158   1.22899    0.008
 4253.00    0.18858   1.21305    0.007
 4254.00    0.05041   1.19994    0.007
 4255.00    0.39940   1.18482    0.007
 4256.00    0.54820   1.16838    0.007
 4257.00    0.64237   1.16032    0.007
 4258.00    0.88608   1.16096    0.007
 4259.00    1.16330   1.16029    0.007
 4260.00    1.18402   1.15723    0.007
 4261.00    1.15886   1.15938    0.007
 4262.00    1.50853   1.16584    0.007
 4263.00    1.90949   1.16879    0.007
 4264.00    1.34731   1.16794    0.007
 4265.00    0.69104   1.16925    0.007
 4266.00    1.19190   1.17543    0.007
 4267.00    1.76353   1.18680    0.007
 4268.00    1.60011   1.20132    0.007
 4269.00    1.41601   1.21407    0.007
 4270.00    1.06569   1.22362    0.007
 4271.00    0.73703   1.23022    0.007
 4272.00    0.98121   1.22733    0.007
 4273.00    1.24538   1.21057    0.007
 4274.00    1.78416   1.18711    0.007
 4275.00    2.28030   1.16133    0.007
 4276.00    2.38902   1.13033    0.007
 4277.00    2.51703   1.10115    0.007
 4278.00    2.77346   1.08650    0.007
 4279.00    2.93560   1.08435    0.007
 4280.00    2.60954   1.08714    0.007
 4281.00    2.25873   1.09862    0.007
 4282.00    1.80462   1.12089   -2.000
 4283.00    1.44237   1.14484   -2.000
 4284.00    1.39723   1.16245   -2.000
 4285.00    1.38816   1.17370   -2.000
 4286.00    1.48397   1.18061   -2.000
 4287.00    1.74373   1.18275   -2.000
 4288.00    2.41012   1.17937   -2.000
 4289.00    3.00973   1.17171   -2.000
 4290.00    3.46659   1.15993   -2.000
 4291.00    3.58292   1.14424   -2.000
 4292.00    3.06703   1.12914   -2.000
 4293.00    2.52990   1.11656   -2.000
 4294.00    1.95834   1.10256   -2.000
 4295.00    1.71602   1.08814   -2.000
 4296.00    1.94209   1.08047   -2.000
 4297.00    2.26413   1.08068   -2.000
 4298.00    2.70627   1.08177    0.007
 4299.00    2.57280   1.07833    0.007
 4300.00    1.80439   1.07134    0.007
 4301.00    1.30790   1.06165    0.007
 4302.00    1.07598   1.04603    0.007
 4303.00    0.90901   1.02225    0.007
 4304.00    0.79776   0.99301    0.007
 4305.00    0.57936   0.96448    0.007
 4306.00    0.28001   0.94169    0.007
 4307.00    0.58915   0.92320    0.007
 4308.00    1.30238   0.90646    0.007
 4309.00    1.95890   0.89436    0.007
 4310.00    2.58244   0.88817    0.007
 4311.00    2.44841   0.88418    0.007
 4312.00    1.93043   0.88063    0.007
 4313.00    1.86427   0.88009    0.007
 4314.00    1.99637   0.88695    0.007
 4315.00    1.90489   0.90360    0.007
 4316.00    1.72918   0.92918    0.007
 4317.00    1.44358   0.96505    0.007
 4318.00    1.12285   1.01275    0.007
 4319.00    1.10609   1.06709    0.007
 4320.00    1.17057   1.12347    0.007
 4321.00    1.02349   1.18144    0.007
 4322.00    0.83010   1.23390    0.007
 4323.00    1.17575   1.27159    0.007
 4324.00    1.61516   1.29439    0.007
 4325.00    1.97209   1.30331    0.007
 4326.00    2.31810   1.29496    0.007
 4327.00    2.03624   1.27219    0.007
 4328.00    1.69571   1.24274    0.007
 4329.00    1.38050   1.21229    0.007
 4330.00    1.06675   1.18564    0.000
 4331.00    1.16051   1.16967    0.000
 4332.00    1.26702   1.16955    0.000
 4333.00    1.74979   1.18430    0.000
 4334.00    2.20261   1.20678    0.000
 4335.00    1.93648   1.23161    0.000
 4336.00    1.66076   1.25870    0.000
 4337.00    1.26032   1.28332    0.000
 4338.00    0.88463   1.29517    0.000
 4339.00    0.72517   1.29196    0.000
 4340.00    0.63430   1.27997    0.000
 4341.00    0.98649   1.25790    0.000
 4342.00    1.25156   1.22162    0.000
 4343.00    1.07704   1.18130    0.000
 4344.00    0.99506   1.14683    0.000
 4345.00    1.29078   1.11589    0.000
 4346.00    1.49043   1.09419    0.000
 4347.00    1.36503   1.09367    0.000
 4348.00    1.43239   1.10782    0.000
 4349.00    2.04980   1.12691    0.000
 4350.00    2.16329   1.15652    0.000
 4351.00    1.04819   1.19299    0.007
 4352.00    0.56959   1.21995    0.007
 4353.00    1.42975   1.23667    0.007
 4354.00    2.10895   1.25218    0.007
 4355.00    2.45731   1.26034    0.007
 4356.00    2.64407   1.25352    0.007
 4357.00    2.57264   1.24350    0.007
 4358.00    2.16738   1.24307    0.007
 4359.00    1.29404   1.24522    0.007
 4360.00    1.22981   1.24301    0.007
 4361.00    2.16384   1.24733    0.007
 4362.00    2.31769   1.26382    0.007
 4363.00    1.62303   1.27988    0.007
 4364.00    1.47712   1.28909    0.007
 4365.00    1.85760   1.30148    0.007
 4366.00    1.81399   1.31943    0.007
 4367.00    1.41166   1.33250    0.007
 4368.00    1.43472   1.33796    0.007
 4369.00    1.77463   1.34460    0.007
 4370.00    1.56015   1.35274    0.007
 4371.00    0.98291   1.35243    0.007
 4372.00    0.84775   1.34254    0.007
 4373.00    0.96579   1.33270    0.007
 4374.00    1.30471   1.32446    0.007
 4375.00    1.75380   1.31012    0.007
 4376.00    1.72740   1.29188    0.007
 4377.00    1.49581   1.27826    0.007
 4378.00    1.82141   1.26796    0.007
 4379.00    2.35318   1.25559    0.007
 4380.00    2.40089   1.24501    0.007
 4381.00    2.29679   1.24091    0.007
 4382.00    1.65420   1.24008    0.007
 4383.00    0.87073   1.23661    0.007
 4384.00    1.10308   1.22785    0.007
 4385.00    1.55241   1.21531    0.007
 4386.00    1.53672   1.20106    0.007
 4387.00    1.44239   1.18045    0.007
 4388.00    1.21430   1.15111    0.007
 4389.00    0.96912   1.12525    0.007
 4390.00    1.16214   1.11431    0.007
 4391.00    1.39427   1.11259    0.007
 4392.00    1.32341   1.11319    0.007
 4393.00    1.23642   1.12330    0.007
 4394.00    1.74011   1.14513    0.007
 4395.00    2.24381   1.16759    0.007
 4396.00    1.80829   1.18519    0.007
 4397.00    1.44781   1.20328    0.007
 4398.00    2.73648   1.22187    0.007
 4399.00    3.84468   1.23505    0.007
 4400.00    2.72305   1.24518    0.007
 4401.00    1.65650   1.25767    0.007
 4402.00    1.05328   1.26846    0.007
 4403.00    0.57205   1.27261    0.007
 4404.00    0.85541   1.27216    0.007
 4405.00    1.21584   1.26668    0.007
 4406.00    1.95530   1.25690    0.007
 4407.00    2.36470   1.24773    0.007
 4408.00    1.45644   1.23481    0.007
 4409.00    0.85703   1.21330    0.007
 4410.00    1.28184   1.19814    0.007
 4411.00    1.61517   1.19915    0.007
 4412.00    1.69224   1.20144    0.007
 4413.00    1.80023   1.20133    0.007
 4414.00    1.98231   1.21487    0.007
 4415.00    2.08728   1.23955    0.007
 4416.00    2.03268   1.25755    0.007
 4417.00    1.78036   1.27064    0.007
 4418.00    1.17212   1.28600    0.007
 4419.00    0.94782   1.29383    0.007
 4420.00    1.32789   1.29233    0.007
 4421.00    1.53719   1.29439    0.007
 4422.00    1.51049   1.29872    0.007
 4423.00    1.47703   1.29892    0.007
 4424.00    1.43534   1.30212    0.007
 4425.00    1.96074   1.31079    0.007
 4426.00    3.09423   1.31615    0.007
 4427.00    3.25124   1.31633    0.007
 4428.00    2.48466   1.31733    0.007
 4429.00    2.08077   1.31871    0.007
 4430.00    1.97933   1.31580    0.007
 4431.00    2.07736   1.30998    0.007
 4432.00    2.32185   1.30642    0.007
 4433.00    2.21215   1.30670    0.007
 4434.00    1.87410   1.30513    0.007
 4435.00    1.53985   1.29824    0.007
 4436.00    1.20775   1.29382    0.007
 4437.00    1.22994   1.29343    0.007
 4438.00    1.42606   1.28922    0.007
 4439.00    1.65938   1.28197    0.007
 4440.00    1.90848   1.27946    0.007
 4441.00    2.24186   1.28329    0.007
 4442.00    2.60587   1.28934    0.007
 4443.00    2.51629   1.29576    0.007
 4444.00    2.28721   1.30390    0.007
 4445.00    2.36598   1.31203    0.007
 4446.00    2.52357   1.31752    0.007
 4447.00    2.46695   1.32027    0.007
 4448.00    2.36569   1.32169    0.007
 4449.00    2.47735   1.32462    0.007
 4450.00    2.62400   1.33108    0.007
 4451.00    1.80266   1.33704    0.007
 4452.00    0.86198   1.34090    0.007
 4453.00    1.32407   1.34812    0.007
 4454.00    1.90548   1.35433    0.007
 4455.00    2.02695   1.35082    0.007
 4456.00    2.12572   1.34282    0.007
 4457.00    2.07062   1.33460    0.007
 4458.00    2.01930   1.32007    0.007
 4459.00    2.35846   1.29842    0.007
 4460.00    2.67200   1.27712    0.007
 4461.00    2.46676   1.26123    0.000
 4462.00    2.24919   1.24646    0.000
 4463.00    1.88662   1.23148    0.000
 4464.00    1.56672   1.22340    0.000
 4465.00    1.59278   1.22400    0.000
 4466.00    1.63912   1.22504    0.000
 4467.00    1.80887   1.22785    0.000
 4468.00    1.94473   1.24017    0.000
 4469.00    1.91803   1.25407    0.000
 4470.00    1.91504   1.26322    0.000
 4471.00    2.00466   1.27460    0.000
 4472.00    2.00259   1.28852    0.000
 4473.00    1.70245   1.29813    0.000
 4474.00    1.40901   1.30494    0.000
 4475.00    1.13403   1.31588    0.000
 4476.00    1.10256   1.32856    0.000
 4477.00    1.64490   1.34030    0.000
 4478.00    1.88528   1.35510    0.000
 4479.00    1.51066   1.37165    0.000
 4480.00    1.29186   1.38427    0.000
 4481.00    1.34933   1.39388    0.000
 4482.00    1.42532   1.40191    0.007
 4483.00    1.53003   1.40343    0.007
 4484.00    1.53455   1.39796    0.007
 4485.00    1.40262   1.39068    0.007
 4486.00    1.23639   1.38305    0.007
 4487.00    1.02903   1.37528    0.007
 4488.00    1.19047   1.37165    0.007
 4489.00    1.74181   1.37251    0.007
 4490.00    2.20318   1.37476    0.007
 4491.00    2.58066   1.37896    0.007
 4492.00    2.39635   1.38337    0.007
 4493.00    1.75020   1.38394    0.007
 4494.00    1.76761   1.38082    0.007
 4495.00    2.26517   1.37648    0.007
 4496.00    2.31325   1.37151    0.007
 4497.00    2.07581   1.36568    0.007
 4498.00    2.06386   1.35962    0.007
 4499.00    2.17715   1.35469    0.007
 4500.00    1.79249   1.35357    0.006
 4501.00    1.16726   1.35532    0.007
 4502.00    1.18584   1.35838    0.007
 4503.00    1.47301   1.36558    0.007
 4504.00    1.70066   1.37768    0.007
 4505.00    1.90705   1.39101    0.006
 4506.00    1.33437   1.40358    0.006
 4507.00    0.52678   1.41900    0.006
 4508.00    0.70486   1.43644    0.006
 4509.00    1.12981   1.44958    0.006
 4510.00    1.74427   1.45998    0.007
 4511.00    2.39726   1.47034    0.007
 4512.00    1.74946   1.47665    0.007
 4513.00    0.89416   1.47756    0.007
 4514.00    1.34960   1.47618    0.007
 4515.00    1.96080   1.47306    0.007
 4516.00    2.25671   1.46652    0.007
 4517.00    2.52710   1.45775    0.006
 4518.00    1.66836   1.44876    0.006
 4519.00    0.75828   1.43901    0.006
 4520.00    1.48248   1.42954    0.007
 4521.00    2.20734   1.42256    0.007
 4522.00    1.94128   1.41634    0.007
 4523.00    1.67384   1.41070    0.006
 4524.00    1.38044   1.40804    0.006
 4525.00    1.13737   1.40593    0.006
 4526.00    1.45827   1.40130    0.006
 4527.00    1.67916   1.39339    0.006
 4528.00    1.11735   1.38323    0.006
 4529.00    0.64746   1.37094    0.006
 4530.00    0.72100   1.35277    0.006
 4531.00    0.92506   1.33132    0.006
 4532.00    1.74006   1.31179    0.006
 4533.00    2.21483   1.29334    0.006
 4534.00    1.38921   1.27660    0.006
 4535.00    0.85344   1.26431    0.006
 4536.00    1.24181   1.25693    0.006
 4537.00    1.52736   1.25540    0.007
 4538.00    1.53509   1.25815    0.007
 4539.00    1.73148   1.26329    0.006
 4540.00    2.36503   1.27268    0.006
 4541.00    2.75466   1.28654    0.006
 4542.00    2.65534   1.30259    0.006
 4543.00    2.47168   1.31766    0.006
 4544.00    2.14076   1.33339    0.006
 4545.00    1.97589   1.34922    0.006
 4546.00    2.06475   1.35956    0.006
 4547.00    2.06081   1.36602    0.006
 4548.00    1.93228   1.36986    0.006
 4549.00    1.71106   1.36847    0.006
 4550.00    1.38026   1.36466    0.000
 4551.00    1.32112   1.36132    0.000
 4552.00    1.54514   1.35586    0.000
 4553.00    1.86554   1.34798    0.000
 4554.00    2.27455   1.34129    0.000
 4555.00    2.14108   1.33794    0.000
 4556.00    1.56794   1.33515    0.000
 4557.00    1.38369   1.33064    0.000
 4558.00    1.47677   1.33084    0.000
 4559.00    1.71359   1.33605    0.000
 4560.00    2.04036   1.34076    0.000
 4561.00    1.56143   1.34860    0.000
 4562.00    0.64181   1.36112    0.000
 4563.00    0.50968   1.37372    0.000
 4564.00    0.75189   1.38583    0.000
 4565.00    1.18712   1.39756    0.000
 4566.00    1.70151   1.40615    0.000
 4567.00    1.66133   1.41042    0.000
 4568.00    1.42683   1.41069    0.000
 4569.00    1.18650   1.40913    0.000
 4570.00    0.94444   1.40736    0.000
 4571.00    1.00788   1.40534    0.000
 4572.00    1.14616   1.40395    0.000
 4573.00    1.66273   1.40351    0.000
 4574.00    2.25427   1.40592    0.000
 4575.00    2.14711   1.40929    0.000
 4576.00    1.93180   1.40852    0.000
 4577.00    1.49347   1.40936    0.000
 4578.00    1.02961   1.41302    0.000
 4579.00    1.57828   1.41047    0.000
 4580.00    2.20471   1.40748    0.000
 4581.00    1.55108   1.40897    0.000
 4582.00    0.84418   1.40518    0.000
 4583.00    0.98562   1.39648    0.000
 4584.00    1.13455   1.38864    0.000
 4585.00    1.28869   1.37952    0.000
 4586.00    1.46795   1.36961    0.000
 4587.00    2.08626   1.36128    0.000
 4588.00    2.62410   1.35472    0.000
 4589.00    2.30088   1.35212    0.000
 4590.00    1.87798   1.35393    0.000
 4591.00    0.70153   1.35707    0.000
 4592.00   -0.17754   1.36224    0.000
 4593.00    0.65261   1.36892    0.000
 4594.00    1.37403   1.37401    0.000
 4595.00    1.59864   1.37823    0.000
 4596.00    1.70763   1.38035    0.000
 4597.00    1.38405   1.37932    0.000
 4598.00    1.26860   1.37645    0.000
 4599.00    1.80402   1.37155    0.000
 4600.00    2.16215   1.36633    0.000
 4601.00    2.04968   1.36289    0.000
 4602.00    1.92581   1.35956    0.000
 4603.00    1.77594   1.35733    0.000
 4604.00    1.62830   1.35754    0.000
 4605.00    1.48508   1.35709    0.000
 4606.00    1.41911   1.35782    0.000
 4607.00    1.48598   1.36131    0.000
 4608.00    1.58186   1.36340    0.000
 4609.00    1.72142   1.36726    0.000
 4610.00    1.82722   1.37500    0.000
 4611.00    1.88835   1.38286    0.000
 4612.00    1.71661   1.39190    0.000
 4613.00    1.27351   1.40288    0.000
 4614.00    1.32140   1.41308    0.000
 4615.00    1.87389   1.42135    0.000
 4616.00    1.81162   1.42902    0.000
 4617.00    1.19206   1.43420    0.000
 4618.00    0.80562   1.43559    0.000
 4619.00    0.60542   1.43684    0.000
 4620.00    0.83533   1.43723    0.000
 4621.00    1.36755   1.43538    0.000
 4622.00    1.78950   1.43633    0.000
 4623.00    2.14347   1.43748    0.000
 4624.00    2.09476   1.43568    0.000
 4625.00    1.82920   1.43790    0.000
 4626.00    1.49366   1.44048    0.000
 4627.00    1.12539   1.43832    0.000
 4628.00    1.39970   1.43914    0.000
 4629.00    1.93307   1.44134    0.000
 4630.00    1.96301   1.43809    0.000
 4631.00    1.81978   1.43559    0.000
 4632.00    1.77298   1.43596    0.000
 4633.00    1.75412   1.43244    0.000
 4634.00    1.62633   1.42749    0.000
 4635.00    1.47245   1.42604    0.000
 4636.00    1.47037   1.42353    0.000
 4637.00    1.49762   1.41700    0.000
 4638.00    1.56438   1.41153    0.000
 4639.00    1.63708   1.40747    0.000
 4640.00    1.56624   1.39964    0.000
 4641.00    1.47960   1.39004    0.000
 4642.00    1.26554   1.38308    0.000
 4643.00    1.04222   1.37660    0.000
 4644.00    1.24471   1.36881    0.000
 4645.00    1.46329   1.36289    0.000
 4646.00    1.49303   1.36005    0.000
 4647.00    1.52488   1.35615    0.000
 4648.00    1.67003   1.35083    0.000
 4649.00    1.82439   1.34754    0.000
 4650.00    2.12932   1.34261    0.000
 4651.00    2.38254   1.33482    0.000
 4652.00    2.10650   1.32977    0.000
 4653.00    1.84710   1.32656    0.000
 4654.00    1.70936   1.32362    0.000
 4655.00    1.53123   1.32422    0.000
 4656.00    1.12726   1.32808    0.000
 4657.00    0.88981   1.33336    0.000
 4658.00    1.39530   1.33950    0.000
 4659.00    1.95730   1.34559    0.000
 4660.00    2.72628   1.35282    0.000
 4661.00    3.07305   1.36059    0.000
 4662.00    2.12441   1.36740    0.000
 4663.00    1.29055   1.37566    0.000
 4664.00    0.75604   1.38421    0.000
 4665.00    0.72047   1.38987    0.000
 4666.00    1.80308   1.39336    0.000
 4667.00    2.25088   1.39249    0.000
 4668.00    1.46582   1.38519    0.000
 4669.00    0.98374   1.37406    0.000
 4670.00    1.01480   1.35940    0.000
 4671.00    1.12066   1.34107    0.000
 4672.00    1.33753   1.32420    0.000
 4673.00    1.57930   1.31201    0.000
 4674.00    1.85354   1.30291    0.000
 4675.00    2.02665   1.29915    0.000
 4676.00    2.08356   1.30313    0.000
 4677.00    1.94846   1.31099    0.000
 4678.00    1.61880   1.32033    0.000
 4679.00    1.55877   1.33115    0.000
 4680.00    1.73972   1.34143    0.000
 4681.00    1.88719   1.34914    0.000
 4682.00    2.00829   1.35314    0.000
 4683.00    2.22223   1.35411    0.000
 4684.00    2.50049   1.35371    0.000
 4685.00    2.55697   1.35083    0.000
 4686.00    2.47875   1.34637    0.000
 4687.00    2.06594   1.34414    0.000
 4688.00    1.47573   1.34308    0.000
 4689.00    1.54556   1.34180    0.000
 4690.00    1.91910   1.34319    0.000
 4691.00    1.97066   1.34616    0.000
 4692.00    1.89465   1.34757    0.000
 4693.00    1.83669   1.34961    0.000
 4694.00    1.78483   1.35246    0.000
 4695.00    1.70304   1.35320    0.000
 4696.00    1.61276   1.35443    0.000
 4697.00    2.01153   1.35757    0.000
 4698.00    2.52478   1.35937    0.000
 4699.00    2.05392   1.36067    0.000
 4700.00    1.39793   1.36306    0.000
 4701.00    1.75076   1.36351    0.000
 4702.00    2.25031   1.36054    0.000
 4703.00    1.85767   1.35588    0.000
 4704.00    1.37071   1.34971    0.000
 4705.00    1.43583   1.34106    0.000
 4706.00    1.53886   1.33117    0.000
 4707.00    1.41521   1.32225    0.000
 4708.00    1.28384   1.31499    0.000
 4709.00    1.71207   1.30926    0.000
 4710.00    2.11741   1.30489    0.000
 4711.00    1.75013   1.30260    0.000
 4712.00    1.43602   1.30304    0.000
 4713.00    1.93781   1.30421    0.000
 4714.00    2.31751   1.30578    0.000
 4715.00    1.49992   1.30994    0.000
 4716.00    0.86944   1.31517    0.000
 4717.00    1.56191   1.32047    0.000
 4718.00    2.12956   1.32727    0.000
 4719.00    2.01814   1.33482    0.000
 4720.00    1.91569   1.34312    0.000
 4721.00    1.85239   1.35238    0.000
 4722.00    1.71127   1.36140    0.000
 4723.00    1.29097   1.37130    0.000
 4724.00    1.07718   1.38181    0.000
 4725.00    1.48510   1.39028    0.000
 4726.00    1.90226   1.39700    0.000
 4727.00    2.34310   1.40226    0.000
 4728.00    2.61149   1.40392    0.000
 4729.00    2.49975   1.40166    0.000
 4730.00    2.24055   1.39666    0.000
 4731.00    1.69948   1.38819    0.000
 4732.00    1.30869   1.37671    0.000
 4733.00    1.16860   1.36505    0.000
 4734.00    1.14956   1.35305    0.000
 4735.00    1.30752   1.34135    0.000
 4736.00    1.25635   1.33417    0.000
 4737.00    0.93630   1.33018    0.000
 4738.00    0.97302   1.32760    0.000
 4739.00    1.41388   1.33013    0.000
 4740.00    1.56108   1.33482    0.000
 4741.00    1.41491   1.33800    0.000
 4742.00    1.64597   1.34399    0.000
 4743.00    2.20944   1.35048    0.000
 4744.00    2.10202   1.35373    0.000
 4745.00    1.47376   1.35835    0.000
 4746.00    1.34788   1.36385    0.000
 4747.00    1.56495   1.36747    0.000
 4748.00    1.38704   1.37149    0.000
 4749.00    0.97282   1.37586    0.000
 4750.00    1.29501   1.38017    0.000
 4751.00    2.00160   1.38468    0.000
 4752.00    1.79390   1.38762    0.000
 4753.00    1.17233   1.38997    0.000
 4754.00    1.04134   1.39233    0.000
 4755.00    1.10138   1.39193    0.000
 4756.00    1.38008   1.38924    0.000
 4757.00    1.73125   1.38619    0.000
 4758.00    1.94617   1.38142    0.000
 4759.00    2.12321   1.37483    0.000
 4760.00    1.91048   1.36850    0.000
 4761.00    1.60859   1.36265    0.006
 4762.00    1.42465   1.35662    0.006
 4763.00    1.26230   1.35077    0.006
 4764.00    1.42288   1.34589    0.006
 4765.00    1.62892   1.34049    0.006
 4766.00    1.44961   1.33323    0.006
 4767.00    1.23121   1.32628    0.006
 4768.00    1.53224   1.31931    0.006
 4769.00    1.86685   1.31064    0.006
 4770.00    1.99602   1.30372    0.006
 4771.00    2.11819   1.30030    0.006
 4772.00    1.84605   1.29801    0.006
 4773.00    1.59756   1.29861    0.006
 4774.00    2.03430   1.30387    0.006
 4775.00    2.40960   1.31046    0.006
 4776.00    1.89681   1.31779    0.006
 4777.00    1.42162   1.32707    0.006
 4778.00    1.30009   1.33637    0.006
 4779.00    1.25480   1.34432    0.006
 4780.00    1.73154   1.35125    0.006
 4781.00    2.14469   1.35790    0.006
 4782.00    2.22097   1.36280    0.006
 4783.00    2.20693   1.36420    0.005
 4784.00    1.80826   1.36411    0.006
 4785.00    1.60571   1.36300    0.006
 4786.00    2.09239   1.35849    0.006
 4787.00    2.43711   1.35117    0.006
 4788.00    2.36243   1.34492    0.006
 4789.00    2.13841   1.33899    0.006
 4790.00    1.53835   1.33000    0.006
 4791.00    1.20165   1.32389    0.006
 4792.00    1.43603   1.32229    0.006
 4793.00    1.61869   1.31829    0.006
 4794.00    1.70398   1.31760    0.006
 4795.00    1.79539   1.32330    0.006
 4796.00    1.89689   1.32755    0.006
 4797.00    2.09033   1.33386    0.006
 4798.00    2.41628   1.34468    0.006
 4799.00    2.40474   1.35335    0.006
 4800.00    1.96548   1.36055    0.006
 4801.00    1.59916   1.36805    0.006
 4802.00    1.31428   1.37215    0.006
 4803.00    1.30689   1.37279    0.006
 4804.00    1.57284   1.37252    0.006
 4805.00    1.52846   1.37079    0.006
 4806.00    1.21451   1.36757    0.006
 4807.00    1.24762   1.36508    0.006
 4808.00    1.54634   1.36283    0.006
 4809.00    1.74062   1.35978    0.006
 4810.00    1.86465   1.35779    0.006
 4811.00    1.64417   1.35541    0.006
 4812.00    1.22067   1.35150    0.006
 4813.00    1.20250   1.34956    0.006
 4814.00    1.39261   1.34823    0.006
 4815.00    1.56150   1.34619    0.006
 4816.00    1.72096   1.34718    0.006
 4817.00    1.60920   1.34989    0.006
 4818.00    1.39369   1.35246    0.006
 4819.00    1.61975   1.35682    0.006
 4820.00    1.98936   1.36229    0.006
 4821.00    1.80421   1.36708    0.006
 4822.00    1.46803   1.37148    0.006
 4823.00    1.33226   1.37572    0.006
 4824.00    1.24127   1.37753    0.006
 4825.00    1.33853   1.37714    0.006
 4826.00    1.46935   1.37615    0.006
 4827.00    1.52723   1.37133    0.006
 4828.00    1.57518   1.36479    0.006
 4829.00    1.78886   1.35993    0.006
 4830.00    2.01863   1.35258    0.006
 4831.00    1.33578   1.34561    0.006
 4832.00    0.59758   1.34211    0.006
 4833.00    0.99315   1.33757    0.006
 4834.00    1.41621   1.33420    0.006
 4835.00    1.37721   1.33277    0.006
 4836.00    1.34239   1.33012    0.006
 4837.00    1.41656   1.32936    0.006
 4838.00    1.45750   1.32954    0.006
 4839.00    1.04481   1.32802    0.006
 4840.00    0.72899   1.32826    0.006
 4841.00    1.28865   1.32935    0.006
 4842.00    1.72808   1.32823    0.006
 4843.00    1.36968   1.32657    0.006
 4844.00    1.09625   1.32511    0.006
 4845.00    1.26130   1.32294    0.006
 4846.00    1.51307   1.32000    0.006
 4847.00    2.12586   1.31699    0.006
 4848.00    2.43331   1.31623    0.000
 4849.00    1.68937   1.31643    0.000
 4850.00    1.22669   1.31553    0.000
 4851.00    1.57966   1.31704    0.000
 4852.00    1.81499   1.31873    0.000
 4853.00    1.75919   1.31763    0.000
 4854.00    1.77929   1.31775    0.000
 4855.00    1.96135   1.31538    0.000
 4856.00    1.91785   1.30912    0.000
 4857.00    1.45637   1.30433    0.000
 4858.00    1.12532   1.29531    0.000
 4859.00    1.00540   1.28046    0.000
 4860.00    1.14908   1.26716    0.000
 4861.00    1.66708   1.25015    0.000
 4862.00    2.12885   1.22559    0.000
 4863.00    2.52038   1.20309    0.000
 4864.00    2.66967   1.18098    0.000
 4865.00    2.55223   1.15379    0.000
 4866.00    2.26407   1.13348    0.000
 4867.00    1.81012   1.12143    0.000
 4868.00    1.37653   1.10948    0.000
 4869.00    0.96040   1.10900    0.000
 4870.00    0.87361   1.12037    0.000
 4871.00    1.03525   1.13060    0.000
 4872.00    1.08349   1.14570    0.000
 4873.00    1.05655   1.16661    0.000
 4874.00    1.19636   1.18154    0.000
 4875.00    1.43295   1.19160    0.006
 4876.00    1.14368   1.20291    0.006
 4877.00    0.58845   1.21177    0.006
 4878.00    0.80540   1.21541    0.006
 4879.00    1.36048   1.22078    0.006
 4880.00    1.74996   1.23104    0.006
 4881.00    2.07719   1.23954    0.006
 4882.00    2.27022   1.24649    0.006
 4883.00    2.42044   1.25906    0.006
 4884.00    2.37591   1.27039    0.006
 4885.00    2.27947   1.27446    0.006
 4886.00    1.85458   1.28082    0.006
 4887.00    1.35804   1.28611    0.006
 4888.00    1.37380   1.28257    0.006
 4889.00    1.47836   1.27865    0.006
 4890.00    1.96345   1.27564    0.006
 4891.00    2.49866   1.26795    0.006
 4892.00    2.08883   1.25922    0.006
 4893.00    1.59120   1.25401    0.006
 4894.00    2.11202   1.24990    0.006
 4895.00    2.69058   1.24574    0.006
 4896.00    2.44641   1.24881    0.006
 4897.00    2.18627   1.25687    0.006
 4898.00    2.23225   1.26482    0.006
 4899.00    2.26086   1.28068    0.006
 4900.00    1.87735   1.29924    0.006
 4901.00    1.56780   1.31397    0.006
 4902.00    2.21459   1.33126    0.006
 4903.00    2.75620   1.34458    0.006
 4904.00    2.38321   1.35065    0.006
 4905.00    2.03706   1.35641    0.006
 4906.00    1.86370   1.35713    0.006
 4907.00    1.71499   1.35248    0.006
 4908.00    1.69023   1.34975    0.006
 4909.00    1.78504   1.34645    0.006
 4910.00    2.36658   1.34116    0.006
 4911.00    2.85405   1.33728    0.006
 4912.00    3.02405   1.33457    0.006
 4913.00    2.94729   1.33087    0.006
 4914.00    2.16802   1.32577    0.006
 4915.00    1.53813   1.32195    0.006
 4916.00    1.27166   1.31881    0.006
 4917.00    1.04754   1.31385    0.006
 4918.00    0.91235   1.31027    0.006
 4919.00    0.86706   1.30797    0.006
 4920.00    0.98582   1.30314    0.006
 4921.00    1.30156   1.29672    0.006
 4922.00    1.93145   1.28862    0.006
 4923.00    2.26674   1.27742    0.006
 4924.00    2.18972   1.26412    0.006
 4925.00    2.10752   1.25047    0.006
 4926.00    2.01891   1.23948    0.006
 4927.00    1.82003   1.23203    0.006
 4928.00    1.50142   1.22830    0.006
 4929.00    1.43272   1.23192    0.006
 4930.00    1.60334   1.24219    0.006
 4931.00    1.60598   1.25412    0.006
 4932.00    1.46680   1.26942    0.006
 4933.00    1.33291   1.28799    0.006
 4934.00    1.20297   1.30171    0.006
 4935.00    1.40266   1.31280    0.006
 4936.00    1.81766   1.32334    0.006
 4937.00    1.86634   1.32488    0.006
 4938.00    1.70561   1.32228    0.006
 4939.00    1.64249   1.31975    0.006
 4940.00    1.62794   1.31026    0.000
 4941.00    1.82237   1.29990    0.000
 4942.00    2.10678   1.29268    0.000
 4943.00    2.06137   1.28396    0.000
 4944.00    1.89419   1.27952    0.000
 4945.00    1.68494   1.28025    0.000
 4946.00    1.46254   1.28174    0.000
 4947.00    1.53063   1.28878    0.000
 4948.00    1.67453   1.29999    0.000
 4949.00    1.36918   1.30967    0.000
 4950.00    0.96816   1.32113    0.000
 4951.00    1.80873   1.33379    0.000
 4952.00    2.85851   1.34292    0.000
 4953.00    2.85267   1.35020    0.000
 4954.00    2.71257   1.35660    0.000
 4955.00    1.76327   1.35979    0.000
 4956.00    0.74220   1.35959    0.000
 4957.00    1.10202   1.35682    0.000
 4958.00    1.53470   1.34990    0.000
 4959.00    1.13806   1.33998    0.000
 4960.00    0.73382   1.32837    0.000
 4961.00    0.97656   1.31219    0.000
 4962.00    1.23399   1.29740    0.000
 4963.00    1.81094   1.28681    0.000
 4964.00    2.31703   1.27533    0.000
 4965.00    1.95324   1.26905    0.000
 4966.00    1.67313   1.26857    0.000
 4967.00    2.09374   1.26913    0.000
 4968.00    2.39570   1.27239    0.000
 4969.00    1.95681   1.27546    0.000
 4970.00    1.62227   1.27785    0.000
 4971.00    1.79933   1.27965    0.000
 4972.00    1.98935   1.27874    0.000
 4973.00    2.23092   1.27840    0.000
 4974.00    2.38377   1.27828    0.000
 4975.00    2.24314   1.27849    0.000
 4976.00    2.08111   1.28126    0.000
 4977.00    1.85922   1.28417    0.000
 4978.00    1.73928   1.28829    0.000
 4979.00    1.86318   1.29238    0.000
 4980.00    1.80974   1.29389    0.000
 4981.00    1.39000   1.29449    0.000
 4982.00    1.14986   1.29093    0.000
 4983.00    1.23245   1.28322    0.000
 4984.00    1.20871   1.27400    0.000
 4985.00    1.01792   1.26105    0.000
 4986.00    1.07511   1.24588    0.000
 4987.00    1.47433   1.23206    0.000
 4988.00    1.85978   1.21993    0.000
 4989.00    2.22849   1.20959    0.000
 4990.00    2.26267   1.20392    0.000
 4991.00    1.93877   1.20350    0.000
 4992.00    1.84394   1.20565    0.000
 4993.00    1.96538   1.21199    0.000
 4994.00    1.93299   1.22065    0.000
 4995.00    1.77256   1.22805    0.000
 4996.00    1.65549   1.23748    0.000
 4997.00    1.57021   1.24489    0.000
 4998.00    1.63911   1.24854    0.000
 4999.00    1.80723   1.25398    0.000
 5000.00    1.81073   1.25557    0.000
 5001.00    1.72156   1.25420    0.000
 5002.00    1.74673   1.25412    0.000
 5003.00    1.82792   1.24923    0.000
 5004.00    1.95291   1.24295    0.000
 5005.00    2.09644   1.23706    0.000
 5006.00    2.08543   1.22714    0.000
 5007.00    2.01839   1.21776    0.000
 5008.00    1.87441   1.20960    0.000
 5009.00    1.70683   1.20052    0.000
 5010.00    1.45147   1.19306    0.000
 5011.00    1.17370   1.18795    0.000
 5012.00    1.62896   1.18430    0.000
 5013.00    2.23652   1.18126    0.000
 5014.00    2.00487   1.17971    0.000
 5015.00    1.63586   1.17845    0.000
 5016.00    1.74672   1.17588    0.000
 5017.00    1.91647   1.17363    0.000
 5018.00    1.86211   1.16935    0.000
 5019.00    1.78880   1.16423    0.000
 5020.00    2.11361   1.16112    0.000
 5021.00    2.45788   1.15707    0.000
 5022.00    2.05687   1.15477    0.000
 5023.00    1.65408   1.15560    0.000
 5024.00    1.84550   1.15762    0.000
 5025.00    2.01471   1.16190    0.000
 5026.00    1.73822   1.16669    0.000
 5027.00    1.49775   1.17279    0.000
 5028.00    1.67808   1.17963    0.000
 5029.00    1.84405   1.18522    0.005
 5030.00    1.89414   1.19235    0.006
 5031.00    1.97096   1.19820    0.006
 5032.00    2.20988   1.20396    0.005
 5033.00    2.39775   1.21192    0.005
 5034.00    2.34143   1.21757    0.006
 5035.00    2.15395   1.22428    0.006
 5036.00    1.45559   1.23123    0.006
 5037.00    1.04198   1.23513    0.006
 5038.00    1.55194   1.23940    0.006
 5039.00    2.00762   1.23945    0.006
 5040.00    2.31430   1.23500    0.006
 5041.00    2.43490   1.22973    0.005
 5042.00    2.11794   1.21879    0.005
 5043.00    1.82609   1.20610    0.005
 5044.00    1.58529   1.19422    0.005
 5045.00    1.48039   1.18029    0.006
 5046.00    1.61597   1.17194    0.006
 5047.00    1.65014   1.16779    0.006
 5048.00    1.52734   1.16549    0.006
 5049.00    1.51197   1.17102    0.006
 5050.00    1.64263   1.17931    0.005
 5051.00    1.54065   1.18876    0.005
 5052.00    1.16022   1.19995    0.005
 5053.00    1.04594   1.20795    0.006
 5054.00    1.21254   1.21471    0.006
 5055.00    1.18847   1.21982    0.006
 5056.00    0.98691   1.22166    0.006
 5057.00    1.25096   1.22328    0.006
 5058.00    1.89709   1.22560    0.006
 5059.00    1.96582   1.22958    0.006
 5060.00    1.61748   1.23460    0.006
 5061.00    1.45456   1.24080    0.006
 5062.00    1.40918   1.24926    0.006
 5063.00    1.20413   1.25670    0.006
 5064.00    0.91057   1.26294    0.006
 5065.00    0.94702   1.26759    0.006
 5066.00    1.14259   1.26896    0.006
 5067.00    1.43733   1.26885    0.006
 5068.00    1.77336   1.26457    0.006
 5069.00    1.86411   1.25705    0.006
 5070.00    1.86753   1.25002    0.006
 5071.00    1.92017   1.24090    0.006
 5072.00    1.98760   1.23145    0.006
 5073.00    1.61894   1.22351    0.006
 5074.00    1.14137   1.21702    0.006
 5075.00    1.10294   1.21323    0.006
 5076.00    1.15350   1.20962    0.006
 5077.00    1.56318   1.20704    0.006
 5078.00    2.02993   1.20662    0.006
 5079.00    1.56113   1.20577    0.006
 5080.00    0.98167   1.20279    0.006
 5081.00    1.22749   1.19859    0.006
 5082.00    1.53966   1.19498    0.006
 5083.00    1.46955   1.18892    0.005
 5084.00    1.38224   1.18064    0.005
 5085.00    1.31147   1.17370    0.005
 5086.00    1.24167   1.16808    0.005
 5087.00    1.21056   1.16370    0.005
 5088.00    1.18468   1.16084    0.005
 5089.00    1.25597   1.16191    0.005
 5090.00    1.33119   1.16741    0.005
 5091.00    1.45022   1.17402    0.005
 5092.00    1.55645   1.18189    0.005
 5093.00    1.56295   1.19246    0.005
 5094.00    1.56817   1.20319    0.005
 5095.00    1.56590   1.21213    0.005
 5096.00    1.57002   1.21981    0.005
 5097.00    1.60397   1.22602    0.005
 5098.00    1.59037   1.23020    0.005
 5099.00    1.39547   1.23115    0.005
 5100.00    1.21288   1.22905    0.005
 5101.00    1.06942   1.22565    0.005
 5102.00    1.03528   1.22006    0.005
 5103.00    1.29587   1.21231    0.005
 5104.00    1.52387   1.20482    0.005
 5105.00    1.67651   1.19770    0.005
 5106.00    1.73293   1.19202    0.005
 5107.00    1.59685   1.18800    0.005
 5108.00    1.49866   1.18385    0.005
 5109.00    1.46651   1.18243    0.005
 5110.00    1.46067   1.18204    0.005
 5111.00    1.49497   1.17918    0.005
 5112.00    1.67577   1.17774    0.005
 5113.00    2.05289   1.17658    0.005
 5114.00    2.30953   1.17424    0.005
 5115.00    2.42401   1.17478    0.005
 5116.00    2.18040   1.17550    0.005
 5117.00    1.56420   1.17790    0.005
 5118.00    1.29345   1.18470    0.005
 5119.00    1.33975   1.19026    0.005
 5120.00    1.42972   1.19745    0.005
 5121.00    1.55502   1.20652    0.005
 5122.00    1.51926   1.21190    0.005
 5123.00    1.36884   1.21662    0.005
 5124.00    1.42398   1.21883    0.005
 5125.00    1.60752   1.21623    0.006
 5126.00    1.56811   1.21217    0.006
 5127.00    1.40699   1.20429    0.005
 5128.00    1.42528   1.19342    0.005
 5129.00    1.52868   1.18230    0.005
 5130.00    1.45747   1.17023    0.006
 5131.00    1.31480   1.15998    0.006
 5132.00    1.31037   1.15154    0.006
 5133.00    1.35427   1.14479    0.006
 5134.00    1.63651   1.14241    0.006
 5135.00    1.98901   1.14255    0.006
 5136.00    1.96935   1.14460    0.006
 5137.00    1.85878   1.14871    0.006
 5138.00    1.95649   1.15326    0.006
 5139.00    2.09535   1.15839    0.006
 5140.00    1.59478   1.16221    0.006
 5141.00    0.99560   1.16536    0.006
 5142.00    0.93974   1.16660    0.006
 5143.00    0.94575   1.16346    0.006
 5144.00    1.55761   1.16192    0.006
 5145.00    2.21568   1.15826    0.006
 5146.00    1.99257   1.15123    0.006
 5147.00    1.73320   1.14760    0.005
 5148.00    1.64992   1.14177    0.006
 5149.00    1.57587   1.13736    0.006
 5150.00    1.82898   1.13736    0.006
 5151.00    2.06214   1.13286    0.006
 5152.00    1.94968   1.13002    0.006
 5153.00    1.82274   1.13168    0.006
 5154.00    1.54181   1.13021    0.006
 5155.00    1.29490   1.12922    0.006
 5156.00    1.30403   1.12993    0.006
 5157.00    1.33677   1.13026    0.006
 5158.00    1.50477   1.13337    0.006
 5159.00    1.65395   1.13713    0.006
 5160.00    1.71742   1.14069    0.006
 5161.00    1.73689   1.14774    0.006
 5162.00    1.59217   1.15566    0.006
 5163.00    1.48908   1.16227    0.005
 5164.00    1.51590   1.16933    0.005
 5165.00    1.50541   1.17356    0.005
 5166.00    1.39610   1.17355    0.005
 5167.00    1.35763   1.16919    0.005
 5168.00    1.48019   1.15710    0.005
 5169.00    1.54652   1.14041    0.005
 5170.00    1.50212   1.11957    0.005
 5171.00    1.51803   1.09217    0.005
 5172.00    1.63747   1.06292    0.005
 5173.00    1.54098   1.03348    0.005
 5174.00    1.11994   1.00597    0.005
 5175.00    0.89101   0.98341    0.005
 5176.00    0.91581   0.96498    0.005
 5177.00    1.03226   0.95382    0.005
 5178.00    1.25533   0.95131    0.005
 5179.00    1.32296   0.95660    0.005
 5180.00    1.23111   0.96726    0.005
 5181.00    1.23004   0.97942    0.005
 5182.00    1.31111   0.99495    0.005
 5183.00    1.33547   1.01330    0.005
 5184.00    1.31460   1.02698    0.005
 5185.00    1.26611   1.03471    0.005
 5186.00    1.19825   1.03859    0.005
 5187.00    1.38385   1.03714    0.005
 5188.00    1.72542   1.03271    0.005
 5189.00    1.68521   1.02660    0.005
 5190.00    1.43979   1.02256    0.000
 5191.00    1.35316   1.02490    0.000
 5192.00    1.34065   1.02769    0.000
 5193.00    1.28011   1.03544    0.000
 5194.00    1.20025   1.05081    0.000
 5195.00    1.07909   1.06538    0.000
 5196.00    0.94376   1.07936    0.000
 5197.00    0.87344   1.09054    0.000
 5198.00    0.82191   1.09905    0.000
 5199.00    1.01214   1.10893    0.000
 5200.00    1.26011   1.11588    0.000
 5201.00    1.19693   1.11983    0.000
 5202.00    1.07385   1.12641    0.000
 5203.00    1.33313   1.13402    0.000
 5204.00    1.64958   1.13945    0.000
 5205.00    1.37129   1.14432    0.000
 5206.00    1.02787   1.14701    0.000
 5207.00    0.99529   1.14662    0.000
 5208.00    0.98515   1.14358    0.000
 5209.00    0.82214   1.13608    0.000
 5210.00    0.65343   1.12606    0.000
 5211.00    0.62319   1.11449    0.006
 5212.00    0.60633   1.10338    0.005
 5213.00    1.05305   1.09522    0.005
 5214.00    1.46144   1.08805    0.005
 5215.00    1.24819   1.08654    0.006
 5216.00    1.10276   1.09110    0.006
 5217.00    1.64778   1.09773    0.006
 5218.00    2.07038   1.10928    0.006
 5219.00    1.60217   1.12273    0.006
 5220.00    1.24763   1.13632    0.006
 5221.00    1.52628   1.15001    0.006
 5222.00    1.70748   1.16162    0.005
 5223.00    1.45517   1.17169    0.006
 5224.00    1.21566   1.17934    0.006
 5225.00    1.02290   1.18419    0.005
 5226.00    0.94036   1.18653    0.005
 5227.00    1.19518   1.18610    0.006
 5228.00    1.33550   1.18233    0.006
 5229.00    1.17791   1.17609    0.005
 5230.00    1.09890   1.16753    0.005
 5231.00    1.19567   1.15772    0.005
 5232.00    1.28507   1.14913    0.005
 5233.00    1.36020   1.14096    0.005
 5234.00    1.38286   1.13722    0.005
 5235.00    1.31682   1.13735    0.005
 5236.00    1.16754   1.13845    0.005
 5237.00    0.89498   1.14540    0.005
 5238.00    0.75866   1.15352    0.005
 5239.00    0.79971   1.16102    0.005
 5240.00    0.80096   1.17161    0.005
 5241.00    0.75656   1.18060    0.005
 5242.00    0.91705   1.19009    0.005
 5243.00    1.28480   1.20031    0.005
 5244.00    1.40645   1.20795    0.005
 5245.00    1.30854   1.21595    0.005
 5246.00    1.63651   1.22258    0.005
 5247.00    2.29928   1.22646    0.005
 5248.00    2.47764   1.22845    0.005
 5249.00    2.32109   1.22826    0.005
 5250.00    1.95386   1.22634    0.005
 5251.00    1.45891   1.22165    0.005
 5252.00    1.32519   1.21444    0.005
 5253.00    1.38264   1.20592    0.005
 5254.00    1.35380   1.19830    0.005
 5255.00    1.28533   1.19127    0.005
 5256.00    1.05230   1.18289    0.005
 5257.00    0.75421   1.17835    0.005
 5258.00    0.96240   1.17721    0.005
 5259.00    1.34113   1.17697    0.005
 5260.00    1.46753   1.17961    0.005
 5261.00    1.52249   1.18207    0.005
 5262.00    1.31500   1.18653    0.005
 5263.00    1.04624   1.19124    0.005
 5264.00    1.34175   1.19146    0.006
 5265.00    1.74307   1.18941    0.006
 5266.00    1.42894   1.18323    0.006
 5267.00    1.01117   1.17210    0.006
 5268.00    1.45657   1.15775    0.006
 5269.00    1.99277   1.13951    0.006
 5270.00    1.83377   1.11877    0.006
 5271.00    1.62738   1.09882    0.006
 5272.00    1.08221   1.08050    0.006
 5273.00    0.52568   1.06651    0.006
 5274.00    0.55338   1.05680    0.006
 5275.00    0.59458   1.04895    0.006
 5276.00    1.04773   1.04758    0.006
 5277.00    1.45675   1.05467    0.006
 5278.00    1.19398   1.06535    0.006
 5279.00    0.92744   1.07804    0.005
 5280.00    0.62419   1.09444    0.006
 5281.00    0.42291   1.11178    0.006
 5282.00    0.93980   1.13010    0.005
 5283.00    1.40591   1.14890    0.005
 5284.00    1.59672   1.16318    0.005
 5285.00    1.74368   1.17552    0.005
 5286.00    1.70005   1.18604    0.005
 5287.00    1.60261   1.19283    0.005
 5288.00    1.31264   1.19912    0.005
 5289.00    1.08530   1.20367    0.005
 5290.00    1.04607   1.20762    0.005
 5291.00    0.95576   1.21452    0.005
 5292.00    0.73486   1.22172    0.005
 5293.00    0.61305   1.22883    0.005
 5294.00    0.70922   1.23611    0.005
 5295.00    0.80670   1.24291    0.005
 5296.00    0.90667   1.24912    0.005
 5297.00    1.07092   1.25221    0.005
 5298.00    1.34222   1.25129    0.005
 5299.00    1.49498   1.24707    0.005
 5300.00    1.47472   1.24114    0.005
 5301.00    1.42779   1.23292    0.005
 5302.00    1.34660   1.22195    0.005
 5303.00    1.21094   1.21065    0.005
 5304.00    1.01370   1.20070    0.005
 5305.00    0.96653   1.19526    0.005
 5306.00    1.06902   1.19288    0.005
 5307.00    1.33404   1.19178    0.005
 5308.00    1.74201   1.19505    0.005
 5309.00    1.78907   1.20219    0.005
 5310.00    1.55645   1.21236    0.005
 5311.00    1.42158   1.22327    0.005
 5312.00    1.35331   1.23266    0.005
 5313.00    1.28543   1.24144    0.005
 5314.00    1.21779   1.24966    0.005
 5315.00    1.45746   1.25664    0.005
 5316.00    1.85723   1.26097    0.005
 5317.00    1.74638   1.26267    0.005
 5318.00    1.40487   1.26276    0.005
 5319.00    1.45045   1.26157    0.005
 5320.00    1.64641   1.25933    0.005
 5321.00    1.55398   1.25599    0.005
 5322.00    1.36622   1.25086    0.005
 5323.00    1.39896   1.24539    0.005
 5324.00    1.49285   1.24005    0.005
 5325.00    1.62748   1.23312    0.005
 5326.00    1.77140   1.22585    0.005
 5327.00    1.50477   1.21747    0.005
 5328.00    1.16320   1.20728    0.005
 5329.00    1.19141   1.19573    0.005
 5330.00    1.27149   1.18250    0.005
 5331.00    1.44128   1.17042    0.005
 5332.00    1.62012   1.15961    0.005
 5333.00    1.53650   1.14756    0.005
 5334.00    1.43604   1.13599    0.005
 5335.00    1.37540   1.13138    0.005
 5336.00    1.31513   1.13300    0.005
 5337.00    0.92305   1.13815    0.005
 5338.00    0.55185   1.14435    0.005
 5339.00    0.77769   1.15145    0.005
 5340.00    0.98762   1.16358    0.005
 5341.00    0.96946   1.17555    0.005
 5342.00    0.97321   1.18469    0.005
 5343.00    1.18214   1.19049    0.005
 5344.00    1.32420   1.19372    0.005
 5345.00    1.01025   1.19592    0.005
 5346.00    0.78378   1.19438    0.005
 5347.00    1.01919   1.19228    0.005
 5348.00    1.13405   1.19164    0.005
 5349.00    0.73698   1.19045    0.005
 5350.00    0.44701   1.19018    0.005
 5351.00    0.53242   1.18952    0.005
 5352.00    0.68982   1.19005    0.005
 5353.00    1.05941   1.19437    0.005
 5354.00    1.35660   1.19753    0.005
 5355.00    1.47189   1.20116    0.005
 5356.00    1.49017   1.20688    0.005
 5357.00    1.29852   1.21365    0.005
 5358.00    1.22725   1.22264    0.005
 5359.00    1.38210   1.23096    0.005
 5360.00    1.42531   1.23954    0.005
 5361.00    1.28541   1.24921    0.005
 5362.00    1.08388   1.25736    0.005
 5363.00    0.79374   1.26377    0.005
 5364.00    0.75279   1.26745    0.005
 5365.00    1.02709   1.26870    0.005
 5366.00    1.10482   1.26773    0.005
 5367.00    0.96340   1.26345    0.005
 5368.00    1.01574   1.25642   -2.000
 5369.00    1.25859   1.24833   -2.000
 5370.00    1.48296   1.23846   -2.000
 5371.00    1.69129   1.22702   -2.000
 5372.00    1.84719   1.21578   -2.000
 5373.00    1.96303   1.20439   -2.000
 5374.00    1.92321   1.19497   -2.000
 5375.00    1.77888   1.18659   -2.000
 5376.00    1.63875   1.17909   -2.000
 5377.00    1.50110   1.17468   -2.000
 5378.00    1.45031   1.17395   -2.000
 5379.00    1.44406   1.17778   -2.000
 5380.00    1.42801   1.18317   -2.000
 5381.00    1.40762   1.19031   -2.000
 5382.00    1.59698   1.19819   -2.000
 5383.00    1.86641   1.20644    0.005
 5384.00    1.80234   1.21542    0.005
 5385.00    1.63010   1.22169    0.005
 5386.00    1.66351   1.22594    0.005
 5387.00    1.75276   1.22793    0.005
 5388.00    1.62370   1.22831    0.005
 5389.00    1.44600   1.22752    0.005
 5390.00    1.22028   1.22589    0.005
 5391.00    0.98603   1.22368    0.005
 5392.00    0.98597   1.22027    0.005
 5393.00    1.01768   1.21665    0.005
 5394.00    0.81579   1.21195    0.005
 5395.00    0.59133   1.20643    0.005
 5396.00    0.64806   1.20054    0.005
 5397.00    0.72171   1.19350    0.005
 5398.00    0.98947   1.18574    0.005
 5399.00    1.26146   1.17837    0.005
 5400.00    1.39555   1.17087    0.005
 5401.00    1.51901   1.16432    0.005
 5402.00    1.36848   1.15837    0.005
 5403.00    1.20806   1.15271    0.005
 5404.00    0.91357   1.14977    0.005
 5405.00    0.65531   1.14745    0.005
 5406.00    0.72295   1.14530    0.005
 5407.00    0.78901   1.14333    0.005
 5408.00    0.84462   1.14105    0.005
 5409.00    0.89826   1.13860    0.005
 5410.00    0.94179   1.13512    0.005
 5411.00    0.98239   1.13062    0.005
 5412.00    1.01076   1.12681    0.005
 5413.00    1.03747   1.12536    0.005
 5414.00    1.05843   1.12519    0.005
 5415.00    1.05810   1.12645    0.005
 5416.00    0.99619   1.12958    0.005
 5417.00    0.94547   1.13616    0.005
 5418.00    0.92241   1.14536    0.005
 5419.00    0.87122   1.15582    0.005
 5420.00    0.76014   1.16625    0.005
 5421.00    0.76901   1.17570    0.005
 5422.00    0.99971   1.18558    0.005
 5423.00    1.12166   1.19424    0.005
 5424.00    1.06790   1.20088    0.005
 5425.00    0.96838   1.20531    0.005
 5426.00    0.80401   1.20747    0.005
 5427.00    0.87964   1.20844    0.005
 5428.00    1.25458   1.20869    0.005
 5429.00    1.44859   1.20704    0.005
 5430.00    1.44373   1.20349    0.005
 5431.00    1.40411   1.20006    0.005
 5432.00    1.33077   1.19591    0.005
 5433.00    1.25428   1.19173    0.005
 5434.00    1.17510   1.18683    0.005
 5435.00    1.09521   1.17936    0.005
 5436.00    1.01480   1.17296    0.005
 5437.00    0.98545   1.16757    0.005
 5438.00    0.98990   1.16239    0.005
 5439.00    0.93619   1.15987    0.005
 5440.00    0.84879   1.15750    0.005
 5441.00    0.99974   1.15771    0.005
 5442.00    1.27101   1.16152    0.005
 5443.00    1.41769   1.16687    0.005
 5444.00    1.50992   1.17541    0.005
 5445.00    1.42766   1.18373    0.005
 5446.00    1.27995   1.19172    0.005
 5447.00    1.32592   1.19844    0.005
 5448.00    1.43350   1.20264    0.005
 5449.00    1.28604   1.20521    0.005
 5450.00    1.07077   1.20411    0.005
 5451.00    0.72153   1.20075    0.005
 5452.00    0.34315   1.19475    0.005
 5453.00    0.56834   1.18765    0.005
 5454.00    0.89778   1.18183    0.005
 5455.00    0.96864   1.17603    0.005
 5456.00    1.00558   1.17184    0.005
 5457.00    0.81962   1.16826    0.005
 5458.00    0.61306   1.16514    0.004
 5459.00    0.71303   1.16316    0.004
 5460.00    0.83023   1.16143    0.005
 5461.00    1.00467   1.15965    0.005
 5462.00    1.18070   1.15866    0.005
 5463.00    1.38919   1.15791    0.005
 5464.00    1.58243   1.15781    0.005
 5465.00    1.41771   1.15936    0.005
 5466.00    1.26602   1.16038    0.005
 5467.00    1.28173   1.16175    0.005
 5468.00    1.26829   1.16302    0.005
 5469.00    1.00250   1.16396    0.005
 5470.00    0.78541   1.16597    0.005
 5471.00    0.88048   1.16708    0.005
 5472.00    0.94828   1.16787    0.005
 5473.00    0.87941   1.16873    0.005
 5474.00    0.85243   1.16844    0.005
 5475.00    0.99543   1.16805    0.005
 5476.00    1.06673   1.16656    0.005
 5477.00    0.89669   1.16365    0.005
 5478.00    0.71219   1.16016   -2.000
 5479.00    0.48666   1.15512   -2.000
 5480.00    0.38986   1.15006   -2.000
 5481.00    0.60555   1.14477   -2.000
 5482.00    0.87232   1.13885   -2.000
 5483.00    1.24606   1.13457   -2.000
 5484.00    1.43013   1.13128   -2.000
 5485.00    1.26880   1.13009   -2.000
 5486.00    1.29762   1.13135   -2.000
 5487.00    1.62911   1.13317   -2.000
 5488.00    1.89676   1.13646   -2.000
 5489.00    2.07523   1.13988   -2.000
 5490.00    1.84550   1.14465   -2.000
 5491.00    1.11395   1.15072   -2.000
 5492.00    1.19765   1.15611   -2.000
 5493.00    2.16483   1.16049   -2.000
 5494.00    2.51425   1.16336   -2.000
 5495.00    2.27315   1.16641   -2.000
 5496.00    1.86183   1.16883   -2.000
 5497.00    1.30704   1.17130   -2.000
 5498.00    1.21126   1.17269   -2.000
 5499.00    1.45614   1.17284   -2.000
 5500.00    1.44870   1.17322   -2.000
 5501.00    1.27676   1.17258   -2.000
 5502.00    1.01236   1.17232    0.005
 5503.00    0.69522   1.17129    0.004
 5504.00    0.56306   1.16969    0.004
 5505.00    0.52282   1.16797    0.005
 5506.00    0.74179   1.16571    0.004
 5507.00    1.07215   1.16359    0.004
 5508.00    1.19147   1.16110    0.004
 5509.00    1.23305   1.15806    0.004
 5510.00    1.29524   1.15487    0.004
 5511.00    1.36386   1.15270    0.004
 5512.00    1.10808   1.15040    0.005
 5513.00    0.76788   1.14794    0.005
 5514.00    0.91484   1.14515    0.005
 5515.00    1.16523   1.14273    0.005
 5516.00    1.09358   1.14214    0.005
 5517.00    0.96787   1.14081    0.005
 5518.00    1.09961   1.13957    0.005
 5519.00    1.26395   1.13926    0.005
 5520.00    1.09974   1.13933    0.005
 5521.00    0.90656   1.14189    0.005
 5522.00    0.91148   1.14538    0.005
 5523.00    0.92676   1.14977    0.005
 5524.00    0.94035   1.15540    0.005
 5525.00    0.95303   1.16074    0.005
 5526.00    0.89959   1.16643    0.005
 5527.00    0.85203   1.17123    0.005
 5528.00    0.93070   1.17411    0.005
 5529.00    0.99740   1.17534    0.005
 5530.00    0.91815   1.17494    0.005
 5531.00    0.85587   1.17304    0.005
 5532.00    0.93500   1.17015    0.005
 5533.00    1.00851   1.16616    0.005
 5534.00    1.04708   1.16195    0.005
 5535.00    1.06373   1.15845    0.002
 5536.00    0.97322   1.15542    0.000
 5537.00    0.91894   1.15467    0.000
 5538.00    1.00849   1.15527    0.000
 5539.00    1.05401   1.15621    0.000
 5540.00    0.95425   1.15781    0.000
 5541.00    0.90051   1.15957    0.001
 5542.00    0.97518   1.16254    0.001
 5543.00    1.04712   1.16520    0.001
 5544.00    1.11260   1.16820    0.002
 5545.00    1.13370   1.17129    0.004
 5546.00    1.06335   1.17346    0.004
 5547.00    0.92789   1.17612    0.004
 5548.00    0.67570   1.17833    0.004
 5549.00    0.67429   1.18049    0.004
 5550.00    1.06615   1.18215    0.004
 5551.00    1.25370   1.18320    0.004
 5552.00    1.15995   1.18471    0.004
 5553.00    1.04248   1.18632    0.004
 5554.00    0.89627   1.18757    0.004
 5555.00    0.93596   1.18866    0.004
 5556.00    1.17428   1.18988    0.004
 5557.00    1.22571   1.19042    0.004
 5558.00    1.10101   1.19024    0.004
 5559.00    0.98051   1.18947    0.004
 5560.00    0.86351   1.18793    0.004
 5561.00    0.89942   1.18578    0.005
 5562.00    1.04720   1.18311    0.004
 5563.00    1.03121   1.18040    0.004
 5564.00    0.91003   1.17786    0.005
 5565.00    0.90393   1.17475    0.004
 5566.00    0.96250   1.17142    0.004
 5567.00    1.16482   1.16837    0.005
 5568.00    1.43744   1.16496    0.005
 5569.00    1.34176   1.16149    0.005
 5570.00    1.09046   1.15777    0.005
 5571.00    0.90502   1.15377    0.005
 5572.00    0.74340   1.15085    0.005
 5573.00    0.62421   1.14759    0.005
 5574.00    0.51801   1.14482    0.004
 5575.00    0.52751   1.14291    0.004
 5576.00    0.56648   1.14162    0.005
 5577.00    0.63174   1.14090    0.004
 5578.00    0.70243   1.14088    0.004
 5579.00    0.73363   1.14244    0.004
 5580.00    0.75839   1.14351    0.005
 5581.00    0.78071   1.14470    0.004
 5582.00    0.80273   1.14750    0.004
 5583.00    0.99701   1.14990    0.004
 5584.00    1.20576   1.15116    0.004
 5585.00    1.16808   1.15254    0.004
 5586.00    1.11847   1.15278    0.004
 5587.00    1.07237   1.15138    0.004
 5588.00    1.02130   1.14894    0.004
 5589.00    0.67187   1.14459    0.004
 5590.00    0.33895   1.13859    0.004
 5591.00    0.33394   1.13198    0.004
 5592.00    0.34378   1.12451    0.004
 5593.00    0.52607   1.11677    0.004
 5594.00    0.70422   1.10930    0.004
 5595.00    0.84908   1.10233    0.004
 5596.00    0.96301   1.09790    0.005
 5597.00    0.89008   1.09525    0.005
 5598.00    0.85194   1.09482    0.005
 5599.00    0.97965   1.09648    0.005
 5600.00    1.07366   1.09837    0.005
 5601.00    1.03674   1.10118    0.005
 5602.00    0.98220   1.10357    0.004
 5603.00    0.87063   1.10629    0.004
 5604.00    0.76956   1.10912    0.004
 5605.00    0.69728   1.11063    0.005
 5606.00    0.67696   1.11131    0.005
 5607.00    0.77856   1.11266    0.004
 5608.00    0.84701   1.11483    0.004
 5609.00    0.84820   1.11754    0.004
 5610.00    0.83527   1.12196    0.004
 5611.00    0.79741   1.12741    0.004
 5612.00    0.83810   1.13478    0.004
 5613.00    1.00016   1.14206    0.004
 5614.00    1.05773   1.14930    0.005
 5615.00    0.97351   1.15551    0.004
 5616.00    0.85804   1.15915    0.004
 5617.00    0.70522   1.16119    0.005
 5618.00    0.65481   1.16048    0.005
 5619.00    0.71226   1.15834    0.005
 5620.00    0.72360   1.15442    0.004
 5621.00    0.69208   1.14898    0.004
 5622.00    0.70085   1.14294    0.004
 5623.00    0.74262   1.13601    0.004
 5624.00    0.86763   1.13113    0.004
 5625.00    1.05265   1.12784    0.004
 5626.00    1.00568   1.12548    0.004
 5627.00    0.81189   1.12432    0.004
 5628.00    0.85224   1.12376    0.004
 5629.00    1.02214   1.12425    0.004
 5630.00    1.15815   1.12505    0.004
 5631.00    1.27784   1.12637    0.004
 5632.00    1.27367   1.12801    0.004
 5633.00    1.21804   1.12999    0.004
 5634.00    1.16557   1.13288    0.004
 5635.00    1.11423   1.13598    0.004
 5636.00    0.92431   1.13929    0.004
 5637.00    0.69283   1.14255    0.004
 5638.00    0.80688   1.14483    0.004
 5639.00    1.00701   1.14626    0.004
 5640.00    0.94193   1.14663    0.004
 5641.00    0.82329   1.14597    0.004
 5642.00    0.77692   1.14426    0.004
 5643.00    0.74200   1.14171    0.004
 5644.00    0.71607   1.13871    0.004
 5645.00    0.69119   1.13566    0.004
 5646.00    0.88805   1.13301    0.004
 5647.00    1.10262   1.13100    0.004
 5648.00    1.03640   1.12978    0.004
 5649.00    0.95768   1.12902    0.004
 5650.00    0.97882   1.12935    0.004
 5651.00    1.00295   1.13024    0.004
 5652.00    1.11747   1.13158    0.004
 5653.00    1.21641   1.13363    0.004
 5654.00    1.02818   1.13550    0.004
 5655.00    0.85019   1.13744    0.004
 5656.00    0.78563   1.13876    0.004
 5657.00    0.72899   1.13952    0.004
 5658.00    0.73378   1.13938    0.004
 5659.00    0.71288   1.13826    0.004
 5660.00    0.54109   1.13620    0.004
 5661.00    0.37262   1.13298    0.004
 5662.00    0.21956   1.12888    0.004
 5663.00    0.16484   1.12420    0.004
 5664.00    0.48393   1.11947    0.004
 5665.00    0.72432   1.11480    0.004
 5666.00    0.71502   1.11065    0.004
 5667.00    0.73282   1.10815    0.004
 5668.00    0.82350   1.10681    0.004
 5669.00    0.96694   1.10693    0.004
 5670.00    1.23214   1.10848    0.004
 5671.00    1.41138   1.11094    0.004
 5672.00    1.41902   1.11390    0.004
 5673.00    1.32016   1.11757    0.004
 5674.00    1.03607   1.12173    0.004
 5675.00    0.84708   1.12576    0.004
 5676.00    0.80285   1.12981    0.004
 5677.00    0.75242   1.13357    0.004
 5678.00    0.69367   1.13760    0.004
 5679.00    0.68588   1.14128    0.004
 5680.00    0.73813   1.14513    0.004
 5681.00    0.82314   1.14822    0.004
 5682.00    0.94218   1.15079    0.004
 5683.00    0.93948   1.15228    0.004
 5684.00    0.82524   1.15277    0.004
 5685.00    0.79075   1.15214    0.004
 5686.00    0.82068   1.15038    0.004
 5687.00    0.82295   1.14825    0.004
 5688.00    0.80557   1.14490    0.004
 5689.00    0.76394   1.14141    0.004
 5690.00    0.70719   1.13752    0.004
 5691.00    0.75136   1.13434    0.004
 5692.00    0.85052   1.13141    0.004
 5693.00    0.88493   1.12963    0.004
 5694.00    0.88866   1.12909    0.004
 5695.00    0.99477   1.12933    0.004
 5696.00    1.14269   1.13053    0.005
 5697.00    1.16573   1.13210    0.005
 5698.00    1.14520   1.13467    0.005
 5699.00    0.85158   1.13699    0.005
 5700.00    0.47763   1.13945    0.004
 5701.00    0.50314   1.14068    0.004
 5702.00    0.62595   1.14092    0.004
 5703.00    0.71480   1.14008    0.004
 5704.00    0.79696   1.13748    0.004
 5705.00    0.85859   1.13440    0.004
 5706.00    0.91707   1.13014    0.004
 5707.00    0.88445   1.12569    0.004
 5708.00    0.84150   1.12029    0.004
 5709.00    0.83569   1.11483    0.004
 5710.00    0.83271   1.10976    0.004
 5711.00    0.79696   1.10436    0.004
 5712.00    0.75988   1.09941    0.004
 5713.00    0.94341   1.09523    0.004
 5714.00    1.12399   1.09165    0.004
 5715.00    1.11231   1.08865    0.004
 5716.00    1.09283   1.08681    0.004
 5717.00    0.93925   1.08644    0.004
 5718.00    0.79416   1.08813    0.004
 5719.00    0.73884   1.09102    0.004
 5720.00    0.68709   1.09642    0.004
 5721.00    0.66220   1.10313    0.004
 5722.00    0.69528   1.11035    0.004
 5723.00    1.05925   1.11902    0.004
 5724.00    1.31944   1.12721    0.004
 5725.00    1.10829   1.13484    0.004
 5726.00    0.93176   1.14168    0.004
 5727.00    0.88409   1.14760    0.004
 5728.00    0.89950   1.15195    0.004
 5729.00    1.11122   1.15547    0.004
 5730.00    1.26164   1.15759    0.004
 5731.00    1.25006   1.15853    0.004
 5732.00    1.18224   1.15869    0.005
 5733.00    0.98681   1.15785    0.004
 5734.00    0.89731   1.15639    0.004
 5735.00    1.01597   1.15471    0.004
 5736.00    1.06655   1.15335    0.004
 5737.00    1.00051   1.15176    0.004
 5738.00    1.03851   1.15131    0.004
 5739.00    1.23260   1.15141    0.004
 5740.00    1.33225   1.15166    0.000
 5741.00    1.30738   1.15186    0.000
 5742.00    1.21086   1.15248    0.000
 5743.00    1.03114   1.15364    0.000
 5744.00    0.88944   1.15435    0.000
 5745.00    0.78669   1.15499    0.000
 5746.00    0.82616   1.15519    0.000
 5747.00    0.99410   1.15529    0.000
 5748.00    1.17019   1.15526    0.000
 5749.00    1.35277   1.15507    0.000
 5750.00    1.42860   1.15470    0.000
 5751.00    1.42966   1.15413    0.000
 5752.00    1.45533   1.15348    0.000
 5753.00    1.49611   1.15251    0.000
 5754.00    1.35472   1.15136    0.000
 5755.00    1.11559   1.14987    0.000
 5756.00    1.12937   1.14798    0.000
 5757.00    1.26094   1.14581    0.000
 5758.00    1.26714   1.14343    0.000
 5759.00    1.22302   1.14186    0.000
 5760.00    0.94091   1.14037    0.000
 5761.00    0.57731   1.13930    0.000
 5762.00    0.52021   1.13810    0.000
 5763.00    0.55142   1.13730    0.000
 5764.00    0.65581   1.13670    0.000
 5765.00    0.77762   1.13684    0.000
 5766.00    0.72714   1.13711    0.000
 5767.00    0.64360   1.13751    0.000
 5768.00    0.43245   1.13794    0.000
 5769.00    0.20229   1.13830    0.000
 5770.00    0.12432   1.13892    0.000
 5771.00    0.06293   1.13987    0.000
 5772.00    0.21217   1.14139    0.000
 5773.00    0.37652   1.14303    0.000
 5774.00    0.40151   1.14560    0.000
 5775.00    0.42137   1.14747    0.000
 5776.00    0.83169   1.14919    0.000
 5777.00    1.23547   1.15000    0.000
 5778.00    1.34641   1.15009    0.000
 5779.00    1.43976   1.14933    0.000
 5780.00    1.25019   1.14773    0.000
 5781.00    1.05990   1.14539    0.000
 5782.00    0.86243   1.14194    0.000
 5783.00    0.70144   1.13801    0.000
 5784.00    0.80483   1.13298    0.000
 5785.00    0.89077   1.12758    0.000
 5786.00    0.87983   1.12180    0.000
 5787.00    0.83057   1.11579    0.000
 5788.00    0.61128   1.10984    0.000
 5789.00    0.44092   1.10450    0.000
 5790.00    0.44887   1.10027    0.000
 5791.00    0.45229   1.09686   -2.000
 5792.00    0.44182   1.09565   -2.000
 5793.00    0.46105   1.09572   -2.000
 5794.00    0.55736   1.09755   -2.000
 5795.00    0.71629   1.10071   -2.000
 5796.00    1.01494   1.10485   -2.000
 5797.00    1.19477   1.10983   -2.000
 5798.00    1.14476   1.11469   -2.000
 5799.00    1.09074   1.12001   -2.000
 5800.00    1.02993   1.12450   -2.000
 5801.00    1.03515   1.12869   -2.000
 5802.00    1.13798   1.13296   -2.000
 5803.00    1.10280   1.13659   -2.000
 5804.00    0.88828   1.14014   -2.000
 5805.00    0.85139   1.14328   -2.000
 5806.00    1.01786   1.14594   -2.000
 5807.00    1.17989   1.14798   -2.000
 5808.00    1.33745   1.14968   -2.000
 5809.00    1.34932   1.15097   -2.000
 5810.00    1.23145   1.15189   -2.000
 5811.00    1.11047   1.15245    0.000
 5812.00    0.98706   1.15267    0.000
 5813.00    1.00596   1.15229    0.000
 5814.00    1.12307   1.15167    0.000
 5815.00    1.15817   1.15099    0.000
 5816.00    1.14365   1.15012    0.000
 5817.00    1.07785   1.14949    0.000
 5818.00    0.98496   1.14883    0.000
 5819.00    0.93360   1.14829    0.000
 5820.00    0.90128   1.14777    0.000
 5821.00    0.91621   1.14750    0.000
 5822.00    0.94978   1.14730    0.000
 5823.00    1.07913   1.14743    0.000
 5824.00    1.24067   1.14780    0.000
 5825.00    1.16240   1.14854    0.000
 5826.00    1.01643   1.14970    0.000
 5827.00    0.89444   1.15104    0.000
 5828.00    0.77803   1.15281    0.000
 5829.00    0.80523   1.15453    0.000
 5830.00    0.85927   1.15642    0.000
 5831.00    0.92807   1.15789    0.000
 5832.00    0.99900   1.15895    0.000
 5833.00    1.01950   1.15987    0.000
 5834.00    1.03473   1.16027    0.000
 5835.00    1.12017   1.16063    0.000
 5836.00    1.21036   1.16061    0.000
 5837.00    1.10250   1.16052    0.000
 5838.00    0.98810   1.16012    0.000
 5839.00    1.05435   1.15958    0.000
 5840.00    1.11115   1.15903    0.000
 5841.00    0.86580   1.15820    0.000
 5842.00    0.62440   1.15766    0.000
 5843.00    0.44265   1.15702    0.000
 5844.00    0.29560   1.15672    0.000
 5845.00    0.48525   1.15648    0.000
 5846.00    0.68504   1.15635    0.000
 5847.00    0.95597   1.15613    0.000
 5848.00    1.19449   1.15599    0.000
 5849.00    1.25789   1.15550    0.000
 5850.00    1.26597   1.15432    0.000
 5851.00    1.03440   1.15281    0.000
 5852.00    0.86505   1.15073    0.000
 5853.00    0.91781   1.14797    0.000
 5854.00    0.96068   1.14435    0.000
 5855.00    0.97395   1.14014    0.000
 5856.00    0.95718   1.13523    0.000
 5857.00    0.86376   1.13012    0.000
 5858.00    0.82125   1.12472    0.000
 5859.00    0.89053   1.11914    0.000
 5860.00    0.92252   1.11349    0.000
 5861.00    0.88349   1.10823    0.000
 5862.00    0.89978   1.10357    0.000
 5863.00    1.00797   1.09934    0.000
 5864.00    1.12871   1.09619    0.000
 5865.00    1.26772   1.09349    0.000
 5866.00    1.22265   1.09238    0.000
 5867.00    0.94175   1.09221    0.000
 5868.00    0.72148   1.09301    0.000
 5869.00    0.56963   1.09428    0.000
 5870.00    0.61977   1.09616    0.000
 5871.00    0.87098   1.09908    0.000
 5872.00    0.99257   1.10175    0.000
 5873.00    1.00034   1.10495    0.000
 5874.00    0.92125   1.10745    0.000
 5875.00    0.77496   1.11014    0.000
 5876.00    0.74111   1.11237    0.000
 5877.00    0.78372   1.11445    0.000
 5878.00    0.67275   1.11596    0.000
 5879.00    0.47024   1.11679    0.000
 5880.00    0.44858   1.11728    0.000
 5881.00    0.52094   1.11674    0.000
 5882.00    0.79255   1.11568    0.000
 5883.00    1.15397   1.11345    0.000
 5884.00    1.12533   1.11065    0.000
 5885.00    0.94549   1.10695    0.000
 5886.00    0.87970   1.10249    0.000
 5887.00    0.85153   1.09711    0.000
 5888.00    0.93967   1.09066    0.000
 5889.00    1.05998   1.08306    0.000
 5890.00    1.03843   1.07369    0.000
 5891.00    0.98461   1.06241    0.000
 5892.00    0.98618   1.04871    0.000
 5893.00    0.99783   1.03301    0.000
 5894.00    1.10157   1.01688    0.000
 5895.00    1.21817   0.99974    0.000
 5896.00    1.20011   0.98252    0.000
 5897.00    1.16854   0.96627    0.000
 5898.00    0.92084   0.95136    0.000
 5899.00    0.65938   0.93928    0.000
 5900.00    0.58699   0.93129    0.000
 5901.00    0.52105   0.92734    0.004
 5902.00    0.77238   0.92705    0.004
 5903.00    1.01353   0.93140    0.004
 5904.00    0.96737   0.93934    0.004
 5905.00    0.92020   0.95063    0.004
 5906.00    0.85859   0.96430    0.004
 5907.00    0.81479   0.97893    0.004
 5908.00    0.93687   0.99405    0.004
 5909.00    1.05905   1.00940    0.004
 5910.00    1.18184   1.02380    0.004
 5911.00    1.27126   1.03745    0.004
 5912.00    1.18506   1.04933    0.004
 5913.00    1.06086   1.05876    0.004
 5914.00    0.77571   1.06627    0.004
 5915.00    0.55674   1.07191    0.004
 5916.00    0.56916   1.07573    0.004
 5917.00    0.63187   1.07781    0.004
 5918.00    0.84243   1.07907    0.004
 5919.00    0.98036   1.07913    0.004
 5920.00    0.93619   1.07892    0.004
 5921.00    0.89232   1.07821    0.004
 5922.00    0.84909   1.07756    0.004
 5923.00    0.81901   1.07710    0.004
 5924.00    0.81358   1.07674    0.004
 5925.00    0.78345   1.07712    0.004
 5926.00    0.71288   1.07769    0.004
 5927.00    0.68188   1.07893    0.004
 5928.00    0.70768   1.08002    0.004
 5929.00    0.74759   1.08173    0.004
 5930.00    0.80530   1.08312    0.004
 5931.00    0.82738   1.08441    0.004
 5932.00    0.80982   1.08534    0.004
 5933.00    0.78133   1.08569    0.004
 5934.00    0.74211   1.08609    0.004
 5935.00    0.72386   1.08602    0.004
 5936.00    0.72377   1.08580    0.004
 5937.00    0.70419   1.08532    0.004
 5938.00    0.66977   1.08496    0.004
 5939.00    0.65266   1.08482    0.004
 5940.00    0.64717   1.08469    0.004
 5941.00    0.75473   1.08487    0.004
 5942.00    0.92865   1.08504    0.004
 5943.00    1.05508   1.08547    0.004
 5944.00    1.15719   1.08565    0.004
 5945.00    1.07589   1.08613    0.004
 5946.00    0.91327   1.08657    0.004
 5947.00    0.75180   1.08675    0.004
 5948.00    0.59077   1.08691    0.004
 5949.00    0.61895   1.08683    0.004
 5950.00    0.70834   1.08678    0.004
 5951.00    0.84843   1.08633    0.004
 5952.00    1.00224   1.08573    0.004
 5953.00    1.09781   1.08512    0.004
 5954.00    1.18046   1.08424    0.004
 5955.00    1.16120   1.08312    0.004
 5956.00    1.12391   1.08178    0.004
 5957.00    1.07954   1.08071    0.004
 5958.00    1.03421   1.07945    0.004
 5959.00    0.93009   1.07839    0.004
 5960.00    0.82033   1.07743    0.004
 5961.00    0.78792   1.07693    0.004
 5962.00    0.76012   1.07676    0.004
 5963.00    0.99399   1.07722    0.004
 5964.00    1.23239   1.07815    0.004
 5965.00    1.13534   1.07965    0.004
 5966.00    1.03834   1.08144    0.004
 5967.00    0.94275   1.08356    0.004
 5968.00    0.86097   1.08582    0.004
 5969.00    0.96531   1.08799    0.004
 5970.00    1.05620   1.09035    0.004
 5971.00    1.02665   1.09224    0.004
 5972.00    0.98487   1.09419    0.004
 5973.00    0.86259   1.09554    0.004
 5974.00    0.76022   1.09693    0.004
 5975.00    0.75993   1.09773    0.004
 5976.00    0.75467   1.09834    0.004
 5977.00    0.72889   1.09848    0.004
 5978.00    0.72861   1.09808    0.004
 5979.00    0.81568   1.09728    0.004
 5980.00    0.86315   1.09582    0.004
 5981.00    0.79629   1.09411    0.004
 5982.00    0.70319   1.09183    0.004
 5983.00    0.54541   1.08956    0.004
 5984.00    0.47168   1.08694    0.004
 5985.00    0.57654   1.08444    0.004
 5986.00    0.71253   1.08185    0.004
 5987.00    0.90598   1.07949    0.004
 5988.00    1.01061   1.07744    0.004
 5989.00    0.97200   1.07577    0.004
 5990.00    0.90521   1.07449    0.004
 5991.00    0.79854   1.07361    0.004
 5992.00    0.80490   1.07323    0.004
 5993.00    0.95195   1.07336    0.004
 5994.00    0.98691   1.07396    0.004
 5995.00    0.89888   1.07505    0.004
 5996.00    0.82056   1.07660    0.004
 5997.00    0.75166   1.07839    0.004
 5998.00    0.82041   1.08027    0.004
 5999.00    1.00665   1.08205    0.004
 6000.00    1.05796   1.08350    0.004
 6001.00    1.00786   1.08460    0.004
 6002.00    0.94816   1.08528    0.004
 6003.00    0.88213   1.08534    0.004
 6004.00    0.69929   1.08490    0.004
 6005.00    0.44892   1.08389    0.004
 6006.00    0.37558   1.08246    0.004
 6007.00    0.39143   1.08078    0.004
 6008.00    0.39375   1.07882    0.004
 6009.00    0.39017   1.07683    0.004
 6010.00    0.36787   1.07473    0.004
 6011.00    0.33856   1.07251    0.004
 6012.00    0.48611   1.07059    0.004
 6013.00    0.68981   1.06875    0.004
 6014.00    0.72571   1.06732    0.004
 6015.00    0.71712   1.06606    0.004
 6016.00    0.73332   1.06514    0.004
 6017.00    0.75490   1.06443    0.004
 6018.00    0.78810   1.06403    0.004
 6019.00    0.82331   1.06367    0.004
 6020.00    0.74047   1.06352    0.004
 6021.00    0.64221   1.06332    0.004
 6022.00    0.61125   1.06300    0.004
 6023.00    0.58646   1.06262    0.004
 6024.00    0.65889   1.06214    0.004
 6025.00    0.73672   1.06168    0.004
 6026.00    0.87115   1.06139    0.004
 6027.00    1.00587   1.06129    0.004
 6028.00    1.04594   1.06165    0.004
 6029.00    1.08230   1.06243    0.004
 6030.00    1.03264   1.06372    0.004
 6031.00    0.97716   1.06577    0.004
 6032.00    0.84749   1.06817    0.004
 6033.00    0.73291   1.07131    0.004
 6034.00    0.74831   1.07459    0.004
 6035.00    0.76864   1.07826    0.004
 6036.00    0.82040   1.08187    0.004
 6037.00    0.85062   1.08549    0.004
 6038.00    0.77319   1.08880    0.004
 6039.00    0.72773   1.09178    0.004
 6040.00    0.81162   1.09433    0.004
 6041.00    0.88550   1.09638    0.004
 6042.00    0.92576   1.09791    0.004
 6043.00    0.95024   1.09896    0.004
 6044.00    0.93000   1.09964    0.004
 6045.00    0.89397   1.09992    0.004
 6046.00    0.81969   1.10014    0.004
 6047.00    0.74890   1.10019    0.004
 6048.00    0.68540   1.10039    0.004
 6049.00    0.67797   1.10061    0.004
 6050.00    0.77247   1.10106    0.004
 6051.00    0.86179   1.10163    0.004
 6052.00    0.94291   1.10226    0.004
 6053.00    0.98593   1.10303    0.004
 6054.00    0.97584   1.10353    0.004
 6055.00    0.93118   1.10403    0.004
 6056.00    0.84411   1.10401    0.004
 6057.00    0.79061   1.10376    0.004
 6058.00    0.77341   1.10291    0.004
 6059.00    0.74515   1.10175    0.004
 6060.00    0.70632   1.10019    0.004
 6061.00    0.66832   1.09833    0.004
 6062.00    0.63103   1.09644    0.004
 6063.00    0.71325   1.09437    0.004
 6064.00    0.88401   1.09253    0.004
 6065.00    0.87375   1.09057    0.004
 6066.00    0.74571   1.08891    0.004
 6067.00    0.67757   1.08721    0.004
 6068.00    0.64354   1.08569    0.004
 6069.00    0.62368   1.08443    0.004
 6070.00    0.61084   1.08337    0.004
 6071.00    0.60119   1.08284    0.004
 6072.00    0.59290   1.08294    0.004
 6073.00    0.72294   1.08352    0.004
 6074.00    0.90381   1.08486    0.004
 6075.00    0.95518   1.08660    0.004
 6076.00    0.96622   1.08904    0.004
 6077.00    0.87509   1.09144    0.004
 6078.00    0.75744   1.09408    0.004
 6079.00    0.73750   1.09604    0.004
 6080.00    0.73824   1.09767    0.004
 6081.00    0.79692   1.09814    0.004
 6082.00    0.86530   1.09790    0.004
 6083.00    0.80007   1.09649    0.004
 6084.00    0.71799   1.09430    0.004
 6085.00    0.66105   1.09150    0.004
 6086.00    0.60632   1.08813    0.004
 6087.00    0.62031   1.08466    0.004
 6088.00    0.63786   1.08111    0.004
 6089.00    0.64162   1.07806    0.004
 6090.00    0.64444   1.07511    0.004
 6091.00    0.59700   1.07292    0.004
 6092.00    0.54431   1.07103    0.004
 6093.00    0.37999   1.06984    0.004
 6094.00    0.23467   1.06882    0.004
 6095.00    0.31960   1.06825    0.004
 6096.00    0.42236   1.06791    0.004
 6097.00    0.67304   1.06796    0.004
 6098.00    0.90245   1.06812    0.004
 6099.00    1.00004   1.06849    0.004
 6100.00    1.05210   1.06910    0.004
 6101.00    0.88228   1.06953    0.004
 6102.00    0.74141   1.06999    0.004
 6103.00    0.71513   1.07007    0.004
 6104.00    0.70566   1.07001    0.004
 6105.00    0.75151   1.06919    0.004
 6106.00    0.81041   1.06806    0.004
 6107.00    0.90566   1.06603    0.004
 6108.00    0.98989   1.06392    0.004
 6109.00    1.04792   1.06207    0.004
 6110.00    1.04251   1.06038    0.004
 6111.00    0.90663   1.05915    0.004
 6112.00    0.80852   1.05853    0.004
 6113.00    0.77804   1.05872    0.004
 6114.00    0.73615   1.05981    0.004
 6115.00    0.67638   1.06159    0.004
 6116.00    0.64006   1.06371    0.004
 6117.00    0.63597   1.06610    0.004
 6118.00    0.63419   1.06853    0.004
 6119.00    0.63521   1.07057    0.004
 6120.00    0.63790   1.07210    0.004
 6121.00    0.64239   1.07276    0.004
 6122.00    0.57358   1.07265    0.004
 6123.00    0.43580   1.07177    0.004
 6124.00    0.36823   1.06983    0.004
 6125.00    0.35888   1.06712    0.004
 6126.00    0.42826   1.06385    0.004
 6127.00    0.55514   1.06009    0.004
 6128.00    0.70125   1.05669    0.004
 6129.00    0.85969   1.05374    0.004
 6130.00    0.90249   1.05121    0.004
 6131.00    0.88043   1.04944    0.004
 6132.00    0.83133   1.04854    0.004
 6133.00    0.76903   1.04843    0.004
 6134.00    0.77806   1.04893    0.004
 6135.00    0.81716   1.04988    0.004
 6136.00    0.68417   1.05074    0.004
 6137.00    0.48904   1.05119    0.004
 6138.00    0.33866   1.05101    0.004
 6139.00    0.20192   1.04990    0.004
 6140.00    0.26738   1.04771    0.004
 6141.00    0.38418   1.04469    0.004
 6142.00    0.51099   1.04080    0.004
 6143.00    0.63987   1.03739    0.004
 6144.00    0.72336   1.03417    0.004
 6145.00    0.79948   1.03194    0.004
 6146.00    0.78849   1.03040    0.004
 6147.00    0.76689   1.03036    0.004
 6148.00    0.73866   1.03176    0.004
 6149.00    0.70988   1.03430    0.004
 6150.00    0.73261   1.03781    0.004
 6151.00    0.75782   1.04153    0.004
 6152.00    0.69893   1.04556    0.004
 6153.00    0.63927   1.04881    0.004
 6154.00    0.60537   1.05183    0.004
 6155.00    0.57538   1.05349    0.004
 6156.00    0.62218   1.05477    0.004
 6157.00    0.67142   1.05465    0.004
 6158.00    0.74894   1.05414    0.004
 6159.00    0.82606   1.05231    0.004
 6160.00    0.90009   1.04997    0.004
 6161.00    0.96450   1.04664    0.004
 6162.00    0.97099   1.04250    0.004
 6163.00    0.98570   1.03747    0.004
 6164.00    1.03950   1.03140    0.004
 6165.00    1.06786   1.02452    0.004
 6166.00    0.99762   1.01654    0.004
 6167.00    0.92204   1.00829    0.004
 6168.00    0.82922   0.99980    0.004
 6169.00    0.77035   0.99195    0.004
 6170.00    0.80426   0.98490    0.004
 6171.00    0.84825   0.97914    0.004
 6172.00    0.91583   0.97487    0.004
 6173.00    0.96088   0.97213    0.004
 6174.00    0.96029   0.97083    0.004
 6175.00    0.94039   0.97106    0.004
 6176.00    0.88646   0.97252    0.004
 6177.00    0.89063   0.97511    0.004
 6178.00    0.98438   0.97845    0.004
 6179.00    1.04202   0.98252    0.004
 6180.00    1.05073   0.98672    0.004
 6181.00    1.00135   0.99136    0.004
 6182.00    0.88268   0.99586    0.004
 6183.00    0.79164   1.00057    0.004
 6184.00    0.72965   1.00482    0.004
 6185.00    0.68029   1.00894    0.004
 6186.00    0.64264   1.01250    0.004
 6187.00    0.63031   1.01546    0.004
 6188.00    0.63867   1.01773    0.004
 6189.00    0.62781   1.01915    0.004
 6190.00    0.60312   1.01966    0.004
 6191.00    0.61330   1.01911    0.004
 6192.00    0.64551   1.01768    0.004
 6193.00    0.61062   1.01531    0.004
 6194.00    0.53868   1.01225    0.004
 6195.00    0.10413   1.00886    0.004
 6196.00   -0.50455   1.00515   -2.000
 6197.00   -0.54523   1.00191   -2.000
 6198.00   -0.35045   0.99894   -2.000
 6199.00    0.58942   0.99702   -2.000
 6200.00    1.79338   0.99617   -2.000
 6201.00    2.61240   0.99622   -2.000
 6202.00    3.31622   0.99711   -2.000
 6203.00    2.87589   0.99873   -2.000
 6204.00    2.15136   1.00078   -2.000
 6205.00    1.77363   1.00315   -2.000
 6206.00    1.46572   1.00543   -2.000
 6207.00    1.33196   1.00779   -2.000
 6208.00    1.22568   1.01010    0.004
 6209.00    1.01809   1.01230    0.004
 6210.00    0.79863   1.01423    0.004
 6211.00    0.66691   1.01589    0.004
 6212.00    0.54216   1.01714    0.004
 6213.00    0.45888   1.01797    0.004
 6214.00    0.37743   1.01804    0.004
 6215.00    0.44637   1.01738    0.004
 6216.00    0.51856   1.01566    0.004
 6217.00    0.66763   1.01313    0.004
 6218.00    0.81490   1.00940    0.004
 6219.00    0.92929   1.00527    0.004
 6220.00    1.03203   1.00010    0.004
 6221.00    1.00667   0.99507    0.004
 6222.00    0.96523   0.98991    0.004
 6223.00    0.79957   0.98541    0.004
 6224.00    0.65145   0.98141    0.004
 6225.00    0.60594   0.97842    0.004
 6226.00    0.57850   0.97592    0.004
 6227.00    0.63489   0.97449    0.004
 6228.00    0.66991   0.97368    0.004
 6229.00    0.62394   0.97348    0.004
 6230.00    0.59920   0.97361    0.004
 6231.00    0.64166   0.97365    0.004
 6232.00    0.66152   0.97377    0.004
 6233.00    0.62075   0.97348    0.004
 6234.00    0.59077   0.97299    0.004
 6235.00    0.58562   0.97210    0.004
 6236.00    0.59437   0.97104    0.004
 6237.00    0.63079   0.96983    0.004
 6238.00    0.63486   0.96882    0.004
 6239.00    0.58276   0.96831    0.004
 6240.00    0.55925   0.96807    0.003
 6241.00    0.57917   0.96852    0.003
 6242.00    0.62271   0.96912    0.004
 6243.00    0.69777   0.96987    0.004
 6244.00    0.73862   0.97052    0.004
 6245.00    0.73924   0.97070    0.004
 6246.00    0.70587   0.97058    0.004
 6247.00    0.63724   0.96972    0.004
 6248.00    0.56351   0.96871    0.004
 6249.00    0.48510   0.96718    0.004
 6250.00    0.48930   0.96569    0.004
 6251.00    0.56008   0.96427    0.004
 6252.00    0.63914   0.96308    0.004
 6253.00    0.72406   0.96216    0.004
 6254.00    0.70784   0.96168    0.004
 6255.00    0.62867   0.96114    0.004
 6256.00    0.51335   0.96077    0.004
 6257.00    0.37836   0.95994    0.004
 6258.00    0.29336   0.95895    0.004
 6259.00    0.23198   0.95703    0.004
 6260.00    0.28189   0.95512    0.004
 6261.00    0.37716   0.95240    0.004
 6262.00    0.56419   0.95014    0.005
 6263.00    0.78316   0.94779    0.005
 6264.00    0.88464   0.94635    0.005
 6265.00    0.95166   0.94547    0.005
 6266.00    0.93149   0.94573    0.004
 6267.00    0.89014   0.94708    0.004
 6268.00    0.79857   0.94943    0.004
 6269.00    0.69715   0.95295    0.004
 6270.00    0.74665   0.95677    0.004
 6271.00    0.81923   0.96115    0.004
 6272.00    0.89920   0.96546    0.004
 6273.00    0.98001   0.96966    0.004
 6274.00    0.88060   0.97327    0.004
 6275.00    0.76762   0.97667    0.004
 6276.00    0.75553   0.97958    0.004
 6277.00    0.74749   0.98199    0.004
 6278.00    0.83504   0.98396    0.004
 6279.00    0.91997   0.98549    0.004
 6280.00    0.87036   0.98678    0.000
 6281.00    0.82424   0.98762    0.000
 6282.00    0.83763   0.98828    0.000
 6283.00    0.85431   0.98845    0.000
 6284.00    0.90577   0.98851    0.000
 6285.00    0.92663   0.98826    0.000
 6286.00    0.71916   0.98801    0.000
 6287.00    0.53315   0.98777    0.000
 6288.00    0.46922   0.98771    0.000
 6289.00    0.44814   0.98797    0.000
 6290.00    0.62110   0.98857    0.000
 6291.00    0.78292   0.98975    0.000
 6292.00    0.90339   0.99109    0.000
 6293.00    0.96483   0.99298    0.000
 6294.00    0.84300   0.99462    0.000
 6295.00    0.71869   0.99641    0.000
 6296.00    0.58783   0.99762    0.000
 6297.00    0.48079   0.99845    0.000
 6298.00    0.42769   0.99861    0.000
 6299.00    0.40822   0.99803    0.000
 6300.00    0.45474   0.99680    0.000
 6301.00    0.49576   0.99488    0.000
 6302.00    0.52738   0.99257    0.000
 6303.00    0.50878   0.98992    0.000
 6304.00    0.41498   0.98727    0.000
 6305.00    0.38479   0.98469    0.000
 6306.00    0.43831   0.98249    0.000
 6307.00    0.51435   0.98066    0.000
 6308.00    0.61647   0.97952    0.000
 6309.00    0.64428   0.97915    0.000
 6310.00    0.59613   0.97953    0.000
 6311.00    0.58006   0.98057    0.000
 6312.00    0.59291   0.98211    0.000
 6313.00    0.61916   0.98403    0.000
 6314.00    0.65607   0.98617    0.000
 6315.00    0.69290   0.98815    0.000
 6316.00    0.72966   0.98981    0.000
 6317.00    0.70121   0.99085    0.000
 6318.00    0.63278   0.99131    0.000
 6319.00    0.60500   0.99098    0.000
 6320.00    0.59898   0.99004    0.000
 6321.00    0.68047   0.98857    0.004
 6322.00    0.80264   0.98681    0.004
 6323.00    0.80448   0.98498    0.004
 6324.00    0.75813   0.98342    0.004
 6325.00    0.65394   0.98225    0.004
 6326.00    0.53000   0.98174    0.004
 6327.00    0.51402   0.98194    0.004
 6328.00    0.52907   0.98287    0.004
 6329.00    0.60278   0.98456    0.004
 6330.00    0.69042   0.98681    0.004
 6331.00    0.72579   0.98946    0.004
 6332.00    0.75116   0.99222    0.004
 6333.00    0.70398   0.99519    0.004
 6334.00    0.64604   0.99766    0.004
 6335.00    0.66646   0.99993    0.004
 6336.00    0.69537   1.00145    0.004
 6337.00    0.79634   1.00252    0.004
 6338.00    0.90243   1.00280    0.004
 6339.00    0.84523   1.00250    0.004
 6340.00    0.78209   1.00161    0.004
 6341.00    0.65802   1.00025    0.004
 6342.00    0.53520   0.99864    0.004
 6343.00    0.46418   0.99689    0.003
 6344.00    0.39049   0.99520    0.003
 6345.00    0.27414   0.99376    0.003
 6346.00    0.16580   0.99256    0.003
 6347.00    0.13815   0.99185    0.003
 6348.00    0.13426   0.99145    0.003
 6349.00    0.30193   0.99147    0.004
 6350.00    0.45475   0.99175    0.004
 6351.00    0.52534   0.99229    0.004
 6352.00    0.59331   0.99310    0.004
 6353.00    0.64964   0.99391    0.004
 6354.00    0.68615   0.99483    0.004
 6355.00    0.65059   0.99556    0.004
 6356.00    0.61477   0.99623    0.004
 6357.00    0.57818   0.99645    0.004
 6358.00    0.56352   0.99631    0.004
 6359.00    0.60568   0.99554    0.004
 6360.00    0.62790   0.99413    0.004
 6361.00    0.60572   0.99205    0.004
 6362.00    0.61404   0.98924    0.004
 6363.00    0.68125   0.98599    0.004
 6364.00    0.72130   0.98222    0.004
 6365.00    0.71562   0.97845    0.004
 6366.00    0.66628   0.97465    0.004
 6367.00    0.55253   0.97141    0.004
 6368.00    0.48797   0.96867    0.004
 6369.00    0.48721   0.96697    0.004
 6370.00    0.52307   0.96614    0.004
 6371.00    0.60078   0.96656    0.004
 6372.00    0.63067   0.96797    0.004
 6373.00    0.61237   0.97049    0.003
 6374.00    0.61058   0.97376    0.004
 6375.00    0.62346   0.97774    0.004
 6376.00    0.64351   0.98201    0.004
 6377.00    0.66919   0.98643    0.004
 6378.00    0.64640   0.99065    0.004
 6379.00    0.59021   0.99452    0.004
 6380.00    0.60662   0.99783    0.004
 6381.00    0.66686   1.00047    0.004
 6382.00    0.68935   1.00239    0.004
 6383.00    0.69194   1.00356    0.004
 6384.00    0.64631   1.00407    0.004
 6385.00    0.57862   1.00400    0.004
 6386.00    0.48604   1.00348    0.004
 6387.00    0.38365   1.00269    0.004
 6388.00    0.29247   1.00172    0.004
 6389.00    0.20506   1.00075    0.003
 6390.00    0.34429   0.99981    0.003
 6391.00    0.54734   0.99900    0.004
 6392.00    0.77109   0.99826    0.004
 6393.00    0.99964   0.99757    0.004
 6394.00    0.99608   0.99685    0.004
 6395.00    0.94928   0.99601    0.004
 6396.00    0.82173   0.99502    0.004
 6397.00    0.68258   0.99381    0.004
 6398.00    0.73664   0.99243    0.004
 6399.00    0.81081   0.99090    0.004
 6400.00    0.80320   0.98935    0.004
 6401.00    0.79010   0.98783    0.004
 6402.00    0.79288   0.98652    0.004
 6403.00    0.79618   0.98541    0.004
 6404.00    0.87479   0.98475    0.004
 6405.00    0.94987   0.98434    0.004
 6406.00    0.91470   0.98450    0.004
 6407.00    0.87557   0.98485    0.004
 6408.00    0.77703   0.98576    0.004
 6409.00    0.68864   0.98672    0.004
 6410.00    0.69818   0.98803    0.004
 6411.00    0.70238   0.98923    0.004
 6412.00    0.66930   0.99049    0.004
 6413.00    0.62301   0.99147    0.004
 6414.00    0.50562   0.99223    0.004
 6415.00    0.42282   0.99265    0.003
 6416.00    0.48946   0.99275    0.003
 6417.00    0.55594   0.99258    0.003
 6418.00    0.62184   0.99219    0.003
 6419.00    0.65161   0.99169    0.004
 6420.00    0.57335   0.99113    0.004
 6421.00    0.51363   0.99062    0.004
 6422.00    0.50109   0.99015    0.004
 6423.00    0.51572   0.98979    0.004
 6424.00    0.58986   0.98950    0.004
 6425.00    0.66751   0.98934    0.004
 6426.00    0.75181   0.98930    0.004
 6427.00    0.76354   0.98944    0.004
 6428.00    0.65491   0.98979    0.004
 6429.00    0.57992   0.99034    0.004
 6430.00    0.55388   0.99114    0.004
 6431.00    0.57446   0.99207    0.004
 6432.00    0.65468   0.99313    0.004
 6433.00    0.65824   0.99413    0.004
 6434.00    0.57541   0.99502    0.004
 6435.00    0.49316   0.99564    0.004
 6436.00    0.41149   0.99595    0.004
 6437.00    0.41539   0.99599    0.004
 6438.00    0.49428   0.99570    0.004
 6439.00    0.50494   0.99532    0.004
 6440.00    0.46291   0.99478    0.004
 6441.00    0.51073   0.99439    0.004
 6442.00    0.61953   0.99405    0.004
 6443.00    0.74268   0.99402    0.004
 6444.00    0.87436   0.99419    0.004
 6445.00    0.81491   0.99469    0.004
 6446.00    0.65627   0.99545    0.003
 6447.00    0.59234   0.99642    0.004
 6448.00    0.57100   0.99757    0.004
 6449.00    0.57902   0.99866    0.004
 6450.00    0.59839   0.99969    0.004
 6451.00    0.53083   1.00032    0.004
 6452.00    0.43468   1.00057    0.004
 6453.00    0.42870   1.00011    0.004
 6454.00    0.44759   0.99914    0.004
 6455.00    0.48419   0.99744    0.004
 6456.00    0.52480   0.99547    0.004
 6457.00    0.50214   0.99310    0.004
 6458.00    0.46801   0.99100    0.004
 6459.00    0.56393   0.98898    0.004
 6460.00    0.67794   0.98771    0.004
 6461.00    0.67472   0.98682    0.004
 6462.00    0.65980   0.98677    0.004
 6463.00    0.59861   0.98703    0.004
 6464.00    0.53449   0.98784    0.003
 6465.00    0.47214   0.98864    0.003
 6466.00    0.41015   0.98953    0.003
 6467.00    0.44375   0.99017    0.003
 6468.00    0.47940   0.99061    0.003
 6469.00    0.57205   0.99082    0.003
 6470.00    0.66070   0.99082    0.003
 6471.00    0.69282   0.99086    0.004
 6472.00    0.71612   0.99080    0.004
 6473.00    0.65764   0.99103    0.004
 6474.00    0.60730   0.99120    0.004
 6475.00    0.61197   0.99169    0.004
 6476.00    0.60726   0.99204    0.004
 6477.00    0.55334   0.99252    0.004
 6478.00    0.48934   0.99277    0.004
 6479.00    0.38277   0.99287    0.004
 6480.00    0.33390   0.99274    0.004
 6481.00    0.48628   0.99232    0.004
 6482.00    0.63156   0.99174    0.004
 6483.00    0.75599   0.99080    0.004
 6484.00    0.82408   0.98982    0.003
 6485.00    0.75121   0.98850    0.003
 6486.00    0.64857   0.98720    0.003
 6487.00    0.48174   0.98560    0.003
 6488.00    0.34849   0.98408    0.003
 6489.00    0.27804   0.98235    0.003
 6490.00    0.32056   0.98071    0.003
 6491.00    0.54769   0.97891    0.003
 6492.00    0.70506   0.97709    0.003
 6493.00    0.76247   0.97499    0.003
 6494.00    0.74977   0.97261    0.003
 6495.00    0.64867   0.96965    0.004
 6496.00    0.53567   0.96605    0.004
 6497.00    0.40944   0.96162    0.004
 6498.00    0.39555   0.95639    0.004
 6499.00    0.49175   0.95042    0.004
 6500.00    0.61682   0.94396    0.004
 6501.00    0.76684   0.93741    0.004
 6502.00    0.69784   0.93116    0.004
 6503.00    0.46215   0.92583    0.004
 6504.00    0.31214   0.92169    0.004
 6505.00    0.21947   0.91934    0.004
 6506.00    0.20470   0.91872    0.004
 6507.00    0.23560   0.92015    0.003
 6508.00    0.31418   0.92325    0.003
 6509.00    0.41711   0.92789    0.003
 6510.00    0.48413   0.93357    0.003
 6511.00    0.53527   0.93984    0.003
 6512.00    0.54451   0.94632    0.003
 6513.00    0.53783   0.95247    0.003
 6514.00    0.57287   0.95814    0.003
 6515.00    0.62136   0.96293    0.003
 6516.00    0.63609   0.96687    0.003
 6517.00    0.64169   0.96980    0.004
 6518.00    0.61762   0.97185    0.004
 6519.00    0.58699   0.97304    0.004
 6520.00    0.47975   0.97353    0.004
 6521.00    0.35898   0.97346    0.004
 6522.00    0.24585   0.97298    0.004
 6523.00    0.13375   0.97229    0.004
 6524.00    0.20018   0.97150    0.004
 6525.00    0.28367   0.97083    0.004
 6526.00    0.41716   0.97030    0.004
 6527.00    0.55360   0.97010    0.004
 6528.00    0.71536   0.97013    0.000
 6529.00    0.87623   0.97052    0.000
 6530.00    0.81726   0.97107    0.000
 6531.00    0.76245   0.97183    0.000
 6532.00    0.81251   0.97259    0.000
 6533.00    0.86691   0.97337    0.000
 6534.00    0.97925   0.97400    0.000
 6535.00    1.06959   0.97456    0.000
 6536.00    0.96399   0.97493    0.000
 6537.00    0.85195   0.97524    0.000
 6538.00    0.69769   0.97545    0.000
 6539.00    0.57370   0.97568    0.000
 6540.00    0.60440   0.97589    0.000
 6541.00    0.63001   0.97620    0.000
 6542.00    0.63462   0.97650    0.000
 6543.00    0.64360   0.97685    0.000
 6544.00    0.66747   0.97711    0.000
 6545.00    0.66282   0.97723    0.000
 6546.00    0.57602   0.97711    0.000
 6547.00    0.50012   0.97658    0.000
 6548.00    0.45102   0.97569    0.000
 6549.00    0.46597   0.97419    0.000
 6550.00    0.61676   0.97232    0.000
 6551.00    0.68687   0.96982    0.000
 6552.00    0.60834   0.96707    0.000
 6553.00    0.47805   0.96385    0.000
 6554.00    0.26441   0.96056    0.000
 6555.00    0.14065   0.95697    0.000
 6556.00    0.14381   0.95337    0.000
 6557.00    0.15935   0.94954    0.000
 6558.00    0.19029   0.94555    0.000
 6559.00    0.28852   0.94118    0.000
 6560.00    0.46046   0.93631    0.000
 6561.00    0.64196   0.93076    0.000
 6562.00    0.83270   0.92436    0.000
 6563.00    0.99511   0.91704    0.000
 6564.00    1.13339   0.90871    0.000
 6565.00    1.15293   0.89958    0.000
 6566.00    1.08340   0.88976    0.000
 6567.00    0.89775   0.87983    0.000
 6568.00    0.63556   0.87010    0.000
 6569.00    0.50636   0.86147    0.000
 6570.00    0.45392   0.85428    0.000
 6571.00    0.44998   0.84943    0.000
 6572.00    0.47044   0.84697    0.000
 6573.00    0.49388   0.84737    0.000
 6574.00    0.51861   0.85030    0.000
 6575.00    0.48427   0.85564    0.000
 6576.00    0.42788   0.86272    0.000
 6577.00    0.39469   0.87098    0.000
 6578.00    0.36885   0.87974    0.000
 6579.00    0.37036   0.88852    0.000
 6580.00    0.37912   0.89680    0.000
 6581.00    0.42504   0.90447    0.000
 6582.00    0.47899   0.91124    0.000
 6583.00    0.48833   0.91734    0.000
 6584.00    0.49002   0.92261    0.000
 6585.00    0.56552   0.92740    0.000
 6586.00    0.65061   0.93156    0.000
 6587.00    0.60771   0.93536    0.000
 6588.00    0.55311   0.93867    0.000
 6589.00    0.49057   0.94162    0.000
 6590.00    0.42758   0.94411    0.000
 6591.00    0.36688   0.94615    0.000
 6592.00    0.30669   0.94771    0.000
 6593.00    0.29107   0.94877    0.000
 6594.00    0.27831   0.94931    0.000
 6595.00    0.33104   0.94934    0.000
 6596.00    0.38226   0.94886    0.000
 6597.00    0.41425   0.94794    0.000
 6598.00    0.45075   0.94667    0.000
 6599.00    0.52593   0.94515    0.000
 6600.00    0.59347   0.94362    0.000
 6601.00    0.61237   0.94213    0.000
 6602.00    0.61772   0.94100    0.000
 6603.00    0.55556   0.94020    0.000
 6604.00    0.53507   0.93997    0.000
 6605.00    0.68280   0.94017    0.000
 6606.00    0.78548   0.94087    0.000
 6607.00    0.73726   0.94185    0.000
 6608.00    0.69470   0.94300    0.000
 6609.00    0.66814   0.94415    0.003
 6610.00    0.65909   0.94511    0.004
 6611.00    0.69239   0.94585    0.004
 6612.00    0.69238   0.94623    0.004
 6613.00    0.62290   0.94635    0.004
 6614.00    0.57098   0.94623    0.004
 6615.00    0.55093   0.94601    0.004
 6616.00    0.59938   0.94585    0.004
 6617.00    0.75646   0.94582    0.004
 6618.00    0.83003   0.94611    0.004
 6619.00    0.78737   0.94664    0.004
 6620.00    0.72291   0.94759    0.004
 6621.00    0.63174   0.94872    0.004
 6622.00    0.57159   0.95012    0.003
 6623.00    0.54493   0.95152    0.003
 6624.00    0.51447   0.95289    0.003
 6625.00    0.48038   0.95405    0.003
 6626.00    0.43796   0.95488    0.003
 6627.00    0.38853   0.95537    0.003
 6628.00    0.34930   0.95535    0.003
 6629.00    0.31762   0.95497    0.003
 6630.00    0.33891   0.95407    0.003
 6631.00    0.39462   0.95289    0.003
 6632.00    0.39423   0.95131    0.003
 6633.00    0.36197   0.94959    0.003
 6634.00    0.38808   0.94766    0.004
 6635.00    0.44307   0.94572    0.004
 6636.00    0.48817   0.94375    0.004
 6637.00    0.52903   0.94188    0.004
 6638.00    0.46545   0.94015    0.004
 6639.00    0.36358   0.93857    0.004
 6640.00    0.27393   0.93725    0.004
 6641.00    0.18808   0.93615    0.004
 6642.00    0.20418   0.93536    0.004
 6643.00    0.24668   0.93479    0.004
 6644.00    0.33874   0.93452    0.003
 6645.00    0.44126   0.93442    0.003
 6646.00    0.45068   0.93449    0.003
 6647.00    0.44457   0.93465    0.003
 6648.00    0.48232   0.93483    0.003
 6649.00    0.52557   0.93499    0.003
 6650.00    0.50176   0.93510    0.003
 6651.00    0.47209   0.93515    0.003
 6652.00    0.40893   0.93516    0.003
 6653.00    0.34404   0.93512    0.003
 6654.00    0.40272   0.93512    0.003
 6655.00    0.46350   0.93507    0.004
 6656.00    0.51748   0.93511    0.004
 6657.00    0.56853   0.93508    0.004
 6658.00    0.55775   0.93509    0.004
 6659.00    0.54507   0.93499    0.004
 6660.00    0.50937   0.93483    0.004
 6661.00    0.47557   0.93451    0.004
 6662.00    0.45746   0.93402    0.004
 6663.00    0.43727   0.93335    0.004
 6664.00    0.40434   0.93242    0.004
 6665.00    0.37587   0.93134    0.003
 6666.00    0.36915   0.92999    0.003
 6667.00    0.37626   0.92855    0.003
 6668.00    0.43797   0.92697    0.003
 6669.00    0.49205   0.92538    0.003
 6670.00    0.52104   0.92391    0.003
 6671.00    0.53504   0.92255    0.003
 6672.00    0.50741   0.92158    0.003
 6673.00    0.45867   0.92082    0.003
 6674.00    0.35977   0.92059    0.003
 6675.00    0.26729   0.92058    0.004
 6676.00    0.18801   0.92100    0.004
 6677.00    0.14569   0.92153    0.004
 6678.00    0.16942   0.92217    0.004
 6679.00    0.26713   0.92273    0.004
 6680.00    0.48044   0.92302    0.004
 6681.00    0.68117   0.92309    0.004
 6682.00    0.86462   0.92267    0.004
 6683.00    0.93389   0.92203    0.004
 6684.00    0.86527   0.92097    0.004
 6685.00    0.79519   0.91989    0.004
 6686.00    0.72355   0.91865    0.004
 6687.00    0.63097   0.91766    0.003
 6688.00    0.51872   0.91683    0.003
 6689.00    0.49492   0.91641    0.003
 6690.00    0.54435   0.91634    0.003
 6691.00    0.59397   0.91663    0.003
 6692.00    0.64372   0.91726    0.003
 6693.00    0.60262   0.91801    0.003
 6694.00    0.50339   0.91894    0.003
 6695.00    0.48132   0.91973    0.003
 6696.00    0.50243   0.92048    0.000
 6697.00    0.46297   0.92093    0.000
 6698.00    0.39402   0.92117    0.000
 6699.00    0.27133   0.92111    0.000
 6700.00    0.12602   0.92078    0.000
 6701.00    0.15238   0.92026    0.000
 6702.00    0.24055   0.91952    0.000
 6703.00    0.32160   0.91875    0.000
 6704.00    0.40047   0.91789    0.000
 6705.00    0.49772   0.91713    0.000
 6706.00    0.59961   0.91642    0.000
 6707.00    0.60908   0.91585    0.000
 6708.00    0.59952   0.91543    0.000
 6709.00    0.49353   0.91507    0.000
 6710.00    0.37194   0.91487    0.000
 6711.00    0.33683   0.91461    0.000
 6712.00    0.31220   0.91443    0.000
 6713.00    0.34772   0.91406    0.000
 6714.00    0.38824   0.91362    0.000
 6715.00    0.42225   0.91294    0.000
 6716.00    0.45595   0.91202    0.000
 6717.00    0.64823   0.91087    0.000
 6718.00    0.83959   0.90934    0.000
 6719.00    0.85361   0.90764    0.000
 6720.00    0.85766   0.90555    0.000
 6721.00    0.66729   0.90340    0.000
 6722.00    0.48916   0.90107    0.000
 6723.00    0.45142   0.89885    0.000
 6724.00    0.40487   0.89677    0.000
 6725.00    0.28818   0.89500    0.000
 6726.00    0.20541   0.89365    0.000
 6727.00    0.32609   0.89276    0.000
 6728.00    0.43982   0.89242    0.000
 6729.00    0.52062   0.89258    0.000
 6730.00    0.58943   0.89320    0.000
 6731.00    0.61187   0.89420    0.000
 6732.00    0.63458   0.89540    0.000
 6733.00    0.65814   0.89684    0.000
 6734.00    0.67699   0.89820    0.000
 6735.00    0.68303   0.89961    0.000
 6736.00    0.70041   0.90080    0.000
 6737.00    0.74432   0.90191    0.000
 6738.00    0.77651   0.90272    0.000
 6739.00    0.78502   0.90329    0.000
 6740.00    0.75832   0.90360    0.000
 6741.00    0.66966   0.90364    0.000
 6742.00    0.58132   0.90348    0.000
 6743.00    0.49346   0.90298    0.000
 6744.00    0.42255   0.90237    0.000
 6745.00    0.37455   0.90145    0.000
 6746.00    0.36722   0.90051    0.000
 6747.00    0.40829   0.89933    0.000
 6748.00    0.46432   0.89818    0.000
 6749.00    0.53607   0.89690    0.000
 6750.00    0.55248   0.89572    0.000
 6751.00    0.51765   0.89451    0.000
 6752.00    0.56143   0.89341    0.000
 6753.00    0.66935   0.89239    0.004
 6754.00    0.71256   0.89144    0.004
 6755.00    0.70926   0.89069    0.004
 6756.00    0.55035   0.89004    0.004
 6757.00    0.29333   0.88970    0.004
 6758.00   -0.00752   0.88950    0.000
 6759.00   -0.33251   0.88968    0.000
 6760.00   -0.38093   0.89009    0.000
 6761.00   -0.29681   0.89091    0.000
 6762.00   -0.09216   0.89199    0.000
 6763.00    0.16234   0.89331    0.004
 6764.00    0.38007   0.89490    0.004
 6765.00    0.58479   0.89646    0.004
 6766.00    0.75145   0.89815    0.004
 6767.00    0.90674   0.89955    0.004
 6768.00    0.89464   0.90089    0.004
 6769.00    0.84107   0.90171    0.004
 6770.00    0.92675   0.90229    0.004
 6771.00    1.04039   0.90244    0.004
 6772.00    0.92936   0.90219    0.004
 6773.00    0.78304   0.90170    0.004
 6774.00    0.65684   0.90094    0.004
 6775.00    0.53300   0.90018    0.004
 6776.00    0.31235   0.89938    0.004
 6777.00    0.08407   0.89883    0.004
 6778.00    0.13714   0.89847    0.004
 6779.00    0.20246   0.89846    0.004
 6780.00    0.39107   0.89879    0.004
 6781.00    0.57905   0.89934    0.004
 6782.00    0.67808   0.90017    0.004
 6783.00    0.76665   0.90100    0.004
 6784.00    0.66614   0.90191    0.004
 6785.00    0.55100   0.90252    0.004
 6786.00    0.27575   0.90293    0.004
 6787.00    0.05147   0.90285    0.004
 6788.00    0.21917   0.90239    0.004
 6789.00    0.38060   0.90154    0.004
 6790.00    0.50541   0.90022    0.004
 6791.00    0.62906   0.89878    0.004
 6792.00    0.74735   0.89698    0.004
 6793.00    0.85112   0.89545    0.004
 6794.00    0.90005   0.89373    0.004
 6795.00    0.88141   0.89250    0.004
 6796.00    0.64943   0.89128    0.004
 6797.00    0.48798   0.89056    0.004
 6798.00    0.51546   0.88995    0.004
 6799.00    0.59582   0.88978    0.004
 6800.00    0.79768   0.88972    0.004
 6801.00    0.86690   0.88988    0.004
 6802.00    0.67236   0.89014    0.004
 6803.00    0.50115   0.89045    0.004
 6804.00    0.37036   0.89078    0.004
 6805.00    0.27823   0.89119    0.004
 6806.00    0.24474   0.89160    0.004
 6807.00    0.30727   0.89202    0.004
 6808.00    0.49775   0.89238    0.004
 6809.00    0.71183   0.89281    0.004
 6810.00    0.95358   0.89307    0.004
 6811.00    1.11179   0.89332    0.004
 6812.00    1.18352   0.89341    0.004
 6813.00    1.07280   0.89341    0.004
 6814.00    0.79552   0.89331    0.004
 6815.00    0.52027   0.89311    0.004
 6816.00    0.24664   0.89286    0.004
 6817.00    0.14916   0.89255    0.004
 6818.00    0.17639   0.89222    0.004
 6819.00    0.21889   0.89197    0.003
 6820.00    0.27087   0.89177    0.003
 6821.00    0.24674   0.89163    0.003
 6822.00    0.18131   0.89155    0.004
 6823.00    0.19994   0.89168    0.004
 6824.00    0.25821   0.89170    0.004
 6825.00    0.39164   0.89202    0.004
 6826.00    0.55563   0.89228    0.004
 6827.00    0.71045   0.89269    0.004
 6828.00    0.86209   0.89307    0.004
 6829.00    0.77818   0.89351    0.004
 6830.00    0.62534   0.89395    0.004
 6831.00    0.59450   0.89435    0.004
 6832.00    0.59321   0.89465    0.004
 6833.00    0.59937   0.89480    0.004
 6834.00    0.60699   0.89493    0.004
 6835.00    0.56654   0.89488    0.004
 6836.00    0.51876   0.89483    0.004
 6837.00    0.39870   0.89458    0.004
 6838.00    0.27052   0.89425    0.004
 6839.00    0.33379   0.89381    0.004
 6840.00    0.41138   0.89321    0.004
 6841.00    0.40390   0.89258    0.004
 6842.00    0.39305   0.89172    0.004
 6843.00    0.43496   0.89082    0.004
 6844.00    0.47698   0.88967    0.004
 6845.00    0.50828   0.88835    0.004
 6846.00    0.52859   0.88696    0.004
 6847.00    0.36329   0.88543    0.004
 6848.00    0.23145   0.88407    0.004
 6849.00    0.44969   0.88269    0.004
 6850.00    0.64397   0.88169    0.004
 6851.00    0.66024   0.88081    0.004
 6852.00    0.68138   0.88042    0.004
 6853.00    0.73013   0.88023    0.004
 6854.00    0.75015   0.88043    0.004
 6855.00    0.64050   0.88081    0.004
 6856.00    0.55527   0.88129    0.004
 6857.00    0.56040   0.88170    0.004
 6858.00    0.56338   0.88192    0.004
 6859.00    0.55971   0.88181    0.004
 6860.00    0.52881   0.88149    0.004
 6861.00    0.42631   0.88082    0.004
 6862.00    0.30573   0.87996    0.004
 6863.00    0.14429   0.87892    0.004
 6864.00    0.09812   0.87776    0.004
 6865.00    0.27756   0.87671    0.004
 6866.00    0.47762   0.87558    0.004
 6867.00    0.71283   0.87472    0.004
 6868.00    0.85104   0.87398    0.004
 6869.00    0.84426   0.87371    0.004
 6870.00    0.70170   0.87342    0.004
 6871.00    0.38078   0.87345    0.004
 6872.00    0.31926   0.87353    0.004
 6873.00    0.55791   0.87357    0.004
 6874.00    0.66980   0.87381    0.004
 6875.00    0.65234   0.87405    0.004
 6876.00    0.58664   0.87441    0.004
 6877.00    0.47753   0.87449    0.004
 6878.00    0.44544   0.87464    0.004
 6879.00    0.47443   0.87469    0.004
 6880.00    0.58346   0.87490    0.004
 6881.00    0.74834   0.87520    0.004
 6882.00    0.81375   0.87581    0.004
 6883.00    0.81831   0.87618    0.004
 6884.00    0.63373   0.87675    0.004
 6885.00    0.34810   0.87723    0.004
 6886.00    0.27804   0.87802    0.004
 6887.00    0.30799   0.87842    0.004
 6888.00    0.30993   0.87907    0.004
 6889.00    0.30067   0.87947    0.004
 6890.00    0.27320   0.88001    0.004
 6891.00    0.23952   0.88039    0.004
 6892.00    0.28819   0.88082    0.004
 6893.00    0.36048   0.88141    0.004
 6894.00    0.34757   0.88197    0.004
 6895.00    0.31449   0.88293    0.004
 6896.00    0.33965   0.88383    0.004
 6897.00    0.37592   0.88501    0.004
 6898.00    0.31638   0.88599    0.004
 6899.00    0.24268   0.88705    0.004
 6900.00    0.37010   0.88804    0.004
 6901.00    0.51920   0.88883    0.004
 6902.00    0.50362   0.88948    0.004
 6903.00    0.47639   0.88986    0.004
 6904.00    0.49369   0.89025    0.004
 6905.00    0.51258   0.89025    0.004
 6906.00    0.41531   0.89049    0.004
 6907.00    0.31889   0.89045    0.004
 6908.00    0.26553   0.89065    0.004
 6909.00    0.22048   0.89072    0.004
 6910.00    0.30709   0.89099    0.004
 6911.00    0.38788   0.89120    0.004
 6912.00    0.41036   0.89153    0.004
 6913.00    0.40432   0.89180    0.004
 6914.00    0.19333   0.89208    0.004
 6915.00    0.02411   0.89225    0.004
 6916.00    0.08519   0.89217    0.004
 6917.00    0.15979   0.89207    0.004
 6918.00    0.29403   0.89159    0.004
 6919.00    0.40943   0.89112    0.004
 6920.00    0.45655   0.89026    0.004
 6921.00    0.52068   0.88941    0.004
 6922.00    0.63647   0.88836    0.004
 6923.00    0.71007   0.88743    0.004
 6924.00    0.67459   0.88640    0.004
 6925.00    0.67807   0.88564    0.004
 6926.00    0.76815   0.88503    0.004
 6927.00    0.72357   0.88446    0.004
 6928.00    0.41950   0.88424    0.004
 6929.00    0.29416   0.88390    0.004
 6930.00    0.46921   0.88374    0.004
 6931.00    0.60812   0.88365    0.004
 6932.00    0.69380   0.88342    0.004
 6933.00    0.71567   0.88344    0.004
 6934.00    0.65492   0.88308    0.004
 6935.00    0.66249   0.88314    0.004
 6936.00    0.74799   0.88301    0.004
 6937.00    0.65151   0.88326    0.004
 6938.00    0.37194   0.88350    0.004
 6939.00    0.23850   0.88374    0.004
 6940.00    0.23474   0.88414    0.004
 6941.00    0.24253   0.88433    0.004
 6942.00    0.25934   0.88475    0.004
 6943.00    0.33192   0.88487    0.004
 6944.00    0.44284   0.88524    0.004
 6945.00    0.57514   0.88550    0.004
 6946.00    0.72032   0.88562    0.004
 6947.00    0.80197   0.88573    0.004
 6948.00    0.85018   0.88558    0.004
 6949.00    0.78078   0.88546    0.004
 6950.00    0.65771   0.88517    0.004
 6951.00    0.60924   0.88479    0.004
 6952.00    0.59007   0.88436    0.004
 6953.00    0.51096   0.88379    0.004
 6954.00    0.41181   0.88333    0.004
 6955.00    0.41940   0.88271    0.004
 6956.00    0.45697   0.88256    0.004
 6957.00    0.42333   0.88243    0.004
 6958.00    0.37320   0.88243    0.004
 6959.00    0.38478   0.88245    0.004
 6960.00    0.40782   0.88263    0.004
 6961.00    0.42059   0.88270    0.004
 6962.00    0.43190   0.88307    0.004
 6963.00    0.48271   0.88353    0.004
 6964.00    0.53761   0.88409    0.004
 6965.00    0.62696   0.88481    0.004
 6966.00    0.71860   0.88567    0.004
 6967.00    0.67292   0.88663    0.004
 6968.00    0.62285   0.88745    0.004
 6969.00    0.65159   0.88843    0.004
 6970.00    0.67594   0.88923    0.004
 6971.00    0.56593   0.89007    0.004
 6972.00    0.46708   0.89076    0.004
 6973.00    0.53429   0.89121    0.004
 6974.00    0.59290   0.89168    0.004
 6975.00    0.56900   0.89158    0.004
 6976.00    0.54737   0.89154    0.004
 6977.00    0.54153   0.89097    0.004
 6978.00    0.51838   0.89051    0.004
 6979.00    0.40231   0.88930    0.004
 6980.00    0.30549   0.88804    0.004
 6981.00    0.29168   0.88629    0.004
 6982.00    0.31786   0.88451    0.004
 6983.00    0.48607   0.88271    0.004
 6984.00    0.58395   0.88073    0.004
 6985.00    0.47212   0.87895    0.004
 6986.00    0.41149   0.87728    0.004
 6987.00    0.48093   0.87621    0.004
 6988.00    0.53487   0.87546    0.004
 6989.00    0.55491   0.87542    0.004
 6990.00    0.52959   0.87625    0.004
 6991.00    0.41822   0.87751    0.004
 6992.00    0.41395   0.87897    0.004
 6993.00    0.58698   0.88066    0.004
 6994.00    0.66662   0.88233    0.004
 6995.00    0.61069   0.88396    0.004
 6996.00    0.72082   0.88536    0.004
 6997.00    1.04291   0.88650    0.004
 6998.00    1.06417   0.88739    0.004
 6999.00    0.74707   0.88790    0.004
 7000.00    0.65074   0.88829    0.004
 7001.00    0.77342   0.88841    0.004
 7002.00    0.82453   0.88833    0.004
 7003.00    0.81303   0.88795    0.004
 7004.00    0.72512   0.88738    0.004
 7005.00    0.57830   0.88665    0.004
 7006.00    0.53140   0.88589    0.004
 7007.00    0.55219   0.88494    0.004
 7008.00    0.59858   0.88396    0.004
 7009.00    0.66017   0.88291    0.004
 7010.00    0.70196   0.88192    0.004
 7011.00    0.73350   0.88117    0.004
 7012.00    0.61696   0.88036    0.004
 7013.00    0.43394   0.87978    0.004
 7014.00    0.45070   0.87897    0.004
 7015.00    0.54456   0.87854    0.004
 7016.00    0.28040   0.87803    0.004
 7017.00   -0.10127   0.87772    0.000
 7018.00    0.02285   0.87732    0.004
 7019.00    0.28612   0.87686    0.004
 7020.00    0.49404   0.87640    0.004
 7021.00    0.68945   0.87578    0.004
 7022.00    0.63808   0.87525    0.004
 7023.00    0.54214   0.87468    0.004
 7024.00    0.41664   0.87406    0.004
 7025.00    0.28705   0.87360    0.004
 7026.00    0.36333   0.87338    0.004
 7027.00    0.46006   0.87342    0.004
 7028.00    0.44145   0.87394    0.004
 7029.00    0.41561   0.87434    0.004
 7030.00    0.31757   0.87498    0.004
 7031.00    0.21904   0.87545    0.004
 7032.00    0.53019   0.87615    0.004
 7033.00    0.82438   0.87680    0.004
 7034.00    0.65275   0.87770    0.004
 7035.00    0.49593   0.87856    0.004
 7036.00    0.54706   0.87954    0.004
 7037.00    0.58023   0.88047    0.004
 7038.00    0.44776   0.88136    0.004
 7039.00    0.34519   0.88236    0.004
 7040.00    0.44412   0.88317    0.004
 7041.00    0.51704   0.88407    0.004
 7042.00    0.45404   0.88482    0.004
 7043.00    0.40617   0.88575    0.004
 7044.00    0.42202   0.88672    0.004
 7045.00    0.46061   0.88782    0.004
 7046.00    0.57828   0.88890    0.004
 7047.00    0.62059   0.89028    0.004
 7048.00    0.44234   0.89199    0.004
 7049.00    0.38788   0.89376    0.004
 7050.00    0.64248   0.89582   -2.000
 7051.00    0.72198   0.89761   -2.000
 7052.00    0.42487   0.89923   -2.000
 7053.00    0.31108   0.90037   -2.000
 7054.00    0.53967   0.90127   -2.000
 7055.00    0.61609   0.90155   -2.000
 7056.00    0.44434   0.90135   -2.000
 7057.00    0.40833   0.90032   -2.000
 7058.00    0.56650   0.89859   -2.000
 7059.00    0.55477   0.89619   -2.000
 7060.00    0.32928   0.89298   -2.000
 7061.00    0.13997   0.88935   -2.000
 7062.00   -0.00921   0.88531   -2.000
 7063.00    0.13883   0.88113   -2.000
 7064.00    0.57758   0.87696   -2.000
 7065.00    0.78483   0.87301   -2.000
 7066.00    0.79242   0.86921   -2.000
 7067.00    0.80233   0.86561   -2.000
 7068.00    0.81401   0.86236   -2.000
 7069.00    0.60452   0.85945   -2.000
 7070.00    0.24736   0.85720   -2.000
 7071.00    0.24578   0.85517   -2.000
 7072.00    0.45217   0.85376   -2.000
 7073.00    0.48653   0.85270   -2.000
 7074.00    0.43321   0.85178   -2.000
 7075.00    0.41861   0.85155   -2.000
 7076.00    0.42112   0.85118   -2.000
 7077.00    0.46153   0.85157   -2.000
 7078.00    0.51631   0.85214   -2.000
 7079.00    0.54544   0.85312   -2.000
 7080.00    0.56630   0.85414   -2.000
 7081.00    0.69721   0.85523   -2.000
 7082.00    0.85775   0.85636   -2.000
 7083.00    0.61405   0.85716   -2.000
 7084.00    0.28108   0.85787   -2.000
 7085.00    0.53572   0.85799   -2.000
 7086.00    0.89365   0.85787   -2.000
 7087.00    0.88671   0.85701   -2.000
 7088.00    0.83088   0.85566   -2.000
 7089.00    0.94776   0.85371   -2.000
 7090.00    1.08105   0.85096   -2.000
 7091.00    0.81559   0.84765   -2.000
 7092.00    0.52674   0.84360   -2.000
 7093.00    0.45280   0.83935   -2.000
 7094.00    0.38540   0.83518   -2.000
 7095.00    0.48731   0.83074   -2.000
 7096.00    0.57448   0.82654   -2.000
 7097.00    0.29504   0.82240   -2.000
 7098.00    0.05231   0.81891   -2.000
 7099.00    0.29714   0.81554   -2.000
 7100.00    0.49630   0.81337   -2.000
 7101.00    0.29078   0.81115   -2.000
 7102.00    0.12893   0.81005   -2.000
 7103.00    0.25252   0.80929   -2.000
 7104.00    0.38970   0.80905   -2.000
 7105.00    0.59611   0.80982   -2.000
 7106.00    0.72770   0.81022   -2.000
 7107.00    0.55134   0.81216   -2.000
 7108.00    0.65546   0.81302   -2.000
 7109.00    1.71567   0.81503   -2.000
 7110.00    2.47959   0.81611   -2.000
 7111.00    2.39220   0.81784   -2.000
 7112.00    1.87223   0.81919   -2.000
 7113.00    0.29081   0.82053   -2.000
 7114.00   -0.53394   0.82169   -2.000
 7115.00    0.24254   0.82230   -2.000
 7116.00    0.71694   0.82320   -2.000
 7117.00    0.63588   0.82363   -2.000
 7118.00    0.58878   0.82419   -2.000
 7119.00    0.59626   0.82426   -2.000
 7120.00    0.52846   0.82469   -2.000
 7121.00    0.35453   0.82498   -2.000
 7122.00    0.27530   0.82554   -2.000
 7123.00    0.31353   0.82571   -2.000
 7124.00    0.48818   0.82618   -2.000
 7125.00    0.81197   0.82629   -2.000
 7126.00    0.96193   0.82629   -2.000
 7127.00    0.94425   0.82614   -2.000
 7128.00    1.15257   0.82555   -2.000
 7129.00    1.55307   0.82497   -2.000
 7130.00    1.64435   0.82363   -2.000
 7131.00    1.50406   0.82245   -2.000
 7132.00    1.19275   0.82091   -2.000
 7133.00    0.76891   0.81890   -2.000
 7134.00    0.53527   0.81683   -2.000
 7135.00    0.41119   0.81449   -2.000
 7136.00    0.46799   0.81262   -2.000
 7137.00    0.61557   0.81045   -2.000
 7138.00    0.59402   0.80878   -2.000
 7139.00    0.49904   0.80712   -2.000
 7140.00    0.59891   0.80637   -2.000
 7141.00    0.77136   0.80586   -2.000
 7142.00    0.71830   0.80575   -2.000
 7143.00    0.59400   0.80613   -2.000
 7144.00    0.41122   0.80644   -2.000
 7145.00    0.21300   0.80742   -2.000
 7146.00    0.51852   0.80810   -2.000
 7147.00    0.93263   0.80909   -2.000
 7148.00    0.86939   0.80986   -2.000
 7149.00    0.72457   0.81088   -2.000
 7150.00    0.59014   0.81160   -2.000
 7151.00    0.45705   0.81209   -2.000
 7152.00    0.43297   0.81262   -2.000
 7153.00    0.41880   0.81271   -2.000
 7154.00    0.57441   0.81298   -2.000
 7155.00    0.73931   0.81304   -2.000
 7156.00    0.77229   0.81309   -2.000
 7157.00    0.79737   0.81356   -2.000
 7158.00    0.35354   0.81437   -2.000
 7159.00   -0.02343   0.81529   -2.000
 7160.00    1.11704   0.81639   -2.000
 7161.00    2.16718   0.81772   -2.000
 7162.00    2.07953   0.81889   -2.000
 7163.00    1.96815   0.82021   -2.000
 7164.00    1.65430   0.82119   -2.000
 7165.00    1.24839   0.82235   -2.000
 7166.00    0.25897   0.82288   -2.000
 7167.00   -0.44027   0.82322   -2.000
 7168.00    0.30132   0.82320   -2.000
 7169.00    0.88015   0.82258   -2.000
 7170.00    0.80385   0.82223   -2.000
 7171.00    0.79331   0.82069   -2.000
 7172.00    1.00250   0.81976   -2.000
 7173.00    1.06688   0.81828   -2.000
 7174.00    0.72278   0.81774   -2.000
 7175.00    0.46184   0.81711   -2.000
 7176.00    0.40149   0.81664   -2.000
 7177.00    0.43650   0.81656   -2.000
 7178.00    0.67009   0.81643   -2.000
 7179.00    0.85538   0.81701   -2.000
 7180.00    0.95320   0.81716   -2.000
 7181.00    0.99653   0.81765   -2.000
 7182.00    0.95360   0.81773   -2.000
 7183.00    0.89032   0.81807   -2.000
 7184.00    0.79877   0.81804   -2.000
 7185.00    0.69071   0.81782   -2.000
 7186.00    0.56247   0.81731   -2.000
 7187.00    0.59252   0.81641   -2.000
 7188.00    0.79321   0.81536   -2.000
 7189.00    0.73723   0.81427   -2.000
 7190.00    0.43721   0.81322   -2.000
 7191.00    0.25371   0.81218   -2.000
 7192.00    0.16789   0.81115   -2.000
 7193.00    0.26648   0.80981   -2.000
 7194.00    0.50119   0.80880   -2.000
 7195.00    0.56901   0.80773   -2.000
 7196.00    0.52863   0.80685   -2.000
 7197.00    0.44453   0.80625   -2.000
 7198.00    0.33562   0.80573   -2.000
 7199.00    0.76135   0.80575   -2.000
 7200.00    1.45113   0.80571   -2.000
 7201.00    1.65509   0.80593   -2.000
 7202.00    1.65160   0.80609   -2.000
 7203.00    1.31048   0.80633   -2.000
 7204.00    0.84582   0.80677   -2.000
 7205.00    0.48731   0.80691   -2.000
 7206.00    0.16168   0.80756   -2.000
 7207.00    0.45386   0.80784   -2.000
 7208.00    0.90551   0.80809   -2.000
 7209.00    0.67959   0.80815   -2.000
 7210.00    0.31114   0.80793   -2.000
 7211.00    0.40698   0.80788   -2.000
 7212.00    0.57992   0.80762   -2.000
 7213.00    0.69461   0.80709   -2.000
 7214.00    0.80203   0.80660   -2.000
 7215.00    0.95426   0.80603   -2.000
 7216.00    1.11038   0.80597   -2.000
 7217.00    1.00015   0.80614   -2.000
 7218.00    0.87639   0.80633   -2.000
