###################################################################
## OUTPUT of StarlightChains_v04.for    [Cid@UFSC - 01/Apr/2007] ##
###################################################################

## Some input info
KUG0210-078._45_29.txt                   [arq_obs]
Base.CB07.vall.4m                        [arq_base]
Masks.EmLines.NEW.gm                     [arq_masks]
StCv04.C11.config                        [arq_config]
   66                                    [N_base]
    0                                    [N_YAV_components = # of components with extra extinction!]
    0                                    [i_FitPowerLaw (1/0 = Yes/No)]
-9.99                                    [alpha_PowerLaw]
CCM                                      [red_law_option]
 1.458241                                [q_norm = A(l_norm)/A(V)]

## (Re)Sampling Parameters
 3741.00                                 [l_ini (A)]
 7218.00                                 [l_fin (A)]
    1.00                                 [dl    (A)]     (OBS: dl_cushion =    50.00 A)

## Normalization info
 4020.00                                 [l_norm (A) - for base]
 4010.00                                 [llow_norm (A) - window for f_obs]
 4060.00                                 [lupp_norm (A) - window for f_obs]
1.171928E-17                             [fobs_norm (in input units)]

## S/N
 3691.00                                 [llow_SN (A) - window for S/N]
 7268.00                                 [lupp_SN (A) - window for S/N]
   2.600                                 [S/N in S/N window]
   4.120                                 [S/N in norm. window]
   0.008                                 [S/N_err in S/N window]
   0.013                                 [S/N_err in norm. window]
  1.0000                                 [fscale_chi2]

## etc...
    -2007857                             [idum_orig]
  2336                                   [NOl_eff]
  2241                                   [Nl_eff]
    95    NSIGMA                         [Ntot_cliped & clip_method]
  1822520                                [Nglobal_steps]
   7                                     [N_chains]
  34                                     [NEX0s_base = N_base in EX0s-fits]
 0   0   1       95   2.0   5.027E+03    [Clip-Bug, RC-Crash & Burn-In warning-flags, n_censored_weights, wei_nsig_threshold & wei_limit]
    27     27.159     26.612      0.547  [idt_all, wdt_TotTime, wdt_UsrTime & wdt_SysTime (sec)]

## Synthesis Results - Best model ##

 2.15414E-05                             [chi2/Nl_eff]
    27.09453                             [adev (%)]

   101.64085                             [sum-of-x (%)]
 3.45519E-18                             [Flux_tot (units of input spectrum!)]
 1.39118E-13                             [Mini_tot (???)]
 7.09205E-14                             [Mcor_tot (???)]

-183.19                                  [v0_min  (km/s)]
 444.50                                  [vd_min  (km/s)]
-0.9215                                  [AV_min  (mag)]
 0.0000                                  [YAV_min (mag)]

# j     x_j(%)      Mini_j(%)     Mcor_j(%)     age_j(yr)     Z_j      (L/M)_j    YAV?  Mstars   component_j        a/Fe...       SSP_chi2r SSP_adev(%)   SSP_AV   SSP_x(%)
  1      2.0379     4.5518E-03    8.9289E-03    1.000000E+06  0.00400  1.094E-02    0   1.0000   age020_m42            0.0000     2.2532E-05    24.9397   2.0952    91.1451
  2      0.0000     0.0000E+00    0.0000E+00    3.160000E+06  0.00400  4.007E-02    0   0.9999   age045_m42            0.0000     2.2305E-05    26.1058   1.4552    94.5568
  3      0.0000     0.0000E+00    0.0000E+00    5.010000E+06  0.00400  2.539E-02    0   0.9488   age055_m42            0.0000     2.2489E-05    25.5696   1.7390    93.3450
  4      0.0000     0.0000E+00    0.0000E+00    6.610000E+06  0.00400  2.620E-02    0   0.9220   age061_m42            0.0000     2.2401E-05    26.3755   1.3954    94.3757
  5      0.0000     0.0000E+00    0.0000E+00    1.000000E+07  0.00400  1.322E-02    0   0.8862   age070_m42            0.0000     2.2613E-05    28.2258   1.1707    95.3629
  6      0.0000     0.0000E+00    0.0000E+00    1.445000E+07  0.00400  7.883E-03    0   0.8571   age078_m42            0.0000     2.2749E-05    27.6857   1.4657    93.9006
  7      4.4042     2.0495E-02    3.2862E-02    2.512000E+07  0.00400  5.251E-03    0   0.8174   age090_m42            0.0000     2.2673E-05    28.5108   1.0550    95.4470
  8      0.0000     0.0000E+00    0.0000E+00    4.000000E+07  0.00400  3.649E-03    0   0.7851   age104_m42            0.0000     2.2551E-05    28.5240   0.8359    95.9010
  9      1.3854     1.0927E-02    1.6353E-02    5.500000E+07  0.00400  3.098E-03    0   0.7629   age110_m42            0.0000     2.2441E-05    27.9549   0.9770    96.0300
 10      0.0000     0.0000E+00    0.0000E+00    1.015200E+08  0.00400  2.228E-03    0   0.7207   age116_m42            0.0000     2.2359E-05    27.5698   0.9925    96.1074
 11      0.0000     0.0000E+00    0.0000E+00    2.861200E+08  0.00400  1.093E-03    0   0.6648   age125_m42            0.0000     2.2436E-05    29.3637   0.4858    97.5908
 12      6.8267     2.5286E-01    3.1571E-01    5.088000E+08  0.00400  6.597E-04    0   0.6365   age130_m42            0.0000     2.2279E-05    28.5204   0.4595    98.4582
 13      0.0000     0.0000E+00    0.0000E+00    1.434000E+09  0.00400  2.132E-04    0   0.5798   age139_m42            0.0000     2.1838E-05    27.5604  -0.5219   100.0676
 14     22.2524     9.2239E+00    9.7289E+00    4.250000E+09  0.00400  5.895E-05    0   0.5377   age158_m42            0.0000     2.1725E-05    26.2268  -1.0000    97.0677
 15      5.2869     3.6806E+00    3.7630E+00    7.500000E+09  0.00400  3.510E-05    0   0.5212   age171_m42            0.0000     2.2812E-05    27.0447  -1.0000    89.4305
 16      1.4481     1.7649E+00    1.7428E+00    1.300000E+10  0.00400  2.005E-05    0   0.5034   age193_m42            0.0000     2.4846E-05    27.9159  -1.0000    83.1434
 17      0.0000     0.0000E+00    0.0000E+00    1.800000E+10  0.00400  1.525E-05    0   0.4967   age213_m42            0.0000     2.5202E-05    28.0667  -1.0000    81.9701
 18      0.0000     0.0000E+00    0.0000E+00    1.000000E+06  0.00800  1.238E-02    0   1.0000   age020_m52            0.0000     2.2502E-05    24.9300   2.0902    91.3728
 19      0.0094     7.4411E-06    1.4547E-05    3.160000E+06  0.00800  3.074E-02    0   0.9966   age045_m52            0.0000     2.2530E-05    24.9250   2.0171    92.0395
 20      0.0000     0.0000E+00    0.0000E+00    5.010000E+06  0.00800  2.668E-02    0   0.9443   age055_m52            0.0000     2.2578E-05    25.6573   1.8175    92.8196
 21      0.0000     0.0000E+00    0.0000E+00    6.610000E+06  0.00800  2.136E-02    0   0.9177   age061_m52            0.0000     2.2289E-05    28.0502   0.6608    96.8916
 22      0.0000     0.0000E+00    0.0000E+00    1.000000E+07  0.00800  1.215E-02    0   0.8827   age070_m52            0.0000     2.2832E-05    28.8138   1.3575    95.2773
 23      0.0000     0.0000E+00    0.0000E+00    1.445000E+07  0.00800  8.717E-03    0   0.8552   age078_m52            0.0000     2.2744E-05    27.9821   1.4457    94.8355
 24      0.0000     0.0000E+00    0.0000E+00    2.512000E+07  0.00800  5.592E-03    0   0.8162   age090_m52            0.0000     2.2722E-05    28.9247   1.1300    96.4368
 25      0.0000     0.0000E+00    0.0000E+00    4.000000E+07  0.00800  3.896E-03    0   0.7841   age104_m52            0.0000     2.2673E-05    28.9794   1.0518    96.8289
 26      0.0000     0.0000E+00    0.0000E+00    1.015200E+08  0.00800  2.148E-03    0   0.7226   age116_m52            0.0000     2.2516E-05    28.3776   0.9829    96.5444
 27      0.0000     0.0000E+00    0.0000E+00    2.861200E+08  0.00800  9.925E-04    0   0.6683   age125_m52            0.0000     2.2215E-05    28.6241   0.5282    99.3241
 28      0.0000     0.0000E+00    0.0000E+00    9.047900E+08  0.00800  3.141E-04    0   0.6138   age135_m52            0.0000     2.1695E-05    28.0525  -0.2806   103.5387
 29      0.0000     0.0000E+00    0.0000E+00    1.434000E+09  0.00800  1.719E-04    0   0.5853   age139_m52            0.0000     2.1742E-05    27.8605  -0.8708   101.8964
 30      0.0000     0.0000E+00    0.0000E+00    2.500000E+09  0.00800  7.872E-05    0   0.5600   age150_m52            0.0000     2.2463E-05    27.5451  -1.0000    93.3889
 31      0.0000     0.0000E+00    0.0000E+00    4.250000E+09  0.00800  4.336E-05    0   0.5426   age158_m52            0.0000     2.2730E-05    27.5338  -1.0000    91.8845
 32      0.0000     0.0000E+00    0.0000E+00    6.250000E+09  0.00800  3.159E-05    0   0.5319   age166_m52            0.0000     2.5266E-05    28.4779  -1.0000    84.5452
 33      0.0000     0.0000E+00    0.0000E+00    1.300000E+10  0.00800  1.361E-05    0   0.5073   age193_m52            0.0000     3.5221E-05    31.0496  -1.0000    68.4280
 34      0.0000     0.0000E+00    0.0000E+00    1.800000E+10  0.00800  9.886E-06    0   0.4990   age213_m52            0.0000     3.8457E-05    31.5555  -1.0000    64.8560
 35      0.0000     0.0000E+00    0.0000E+00    1.000000E+06  0.02000  1.544E-02    0   1.0000   age020_m62            0.0000     2.2489E-05    24.9417   2.0842    91.6885
 36      0.0000     0.0000E+00    0.0000E+00    3.160000E+06  0.02000  3.762E-02    0   0.9858   age045_m62            0.0000     2.2552E-05    24.9770   2.0235    92.5296
 37      0.0000     0.0000E+00    0.0000E+00    5.010000E+06  0.02000  3.296E-02    0   0.9342   age055_m62            0.0000     2.2415E-05    25.7529   1.7124    94.1437
 38      0.0000     0.0000E+00    0.0000E+00    8.710000E+06  0.02000  1.154E-02    0   0.8861   age067_m62            0.0000     2.3550E-05    32.3923   0.8838    97.2904
 39      0.0000     0.0000E+00    0.0000E+00    1.445000E+07  0.02000  7.663E-03    0   0.8472   age078_m62            0.0000     2.3018E-05    30.6226   1.0493    96.9454
 40      0.0000     0.0000E+00    0.0000E+00    2.512000E+07  0.02000  4.532E-03    0   0.8099   age090_m62            0.0000     2.3225E-05    31.0857   1.0597    96.2252
 41      0.0000     0.0000E+00    0.0000E+00    5.500000E+07  0.02000  2.733E-03    0   0.7595   age110_m62            0.0000     2.2693E-05    29.1240   1.0358    96.3156
 42      0.0000     0.0000E+00    0.0000E+00    1.609000E+08  0.02000  1.369E-03    0   0.6985   age120_m62            0.0000     2.2401E-05    28.6776   0.8838    98.1617
 43      0.3261     8.8397E-03    1.1642E-02    2.861200E+08  0.02000  9.013E-04    0   0.6714   age125_m62            0.0000     2.2208E-05    28.5759   0.6441   100.4278
 44     14.4902     7.0421E-01    8.9085E-01    5.088000E+08  0.02000  5.028E-04    0   0.6449   age130_m62            0.0000     2.1882E-05    28.0403   0.2545   103.3770
 45      0.0000     0.0000E+00    0.0000E+00    9.047900E+08  0.02000  2.428E-04    0   0.6179   age135_m62            0.0000     2.1642E-05    27.4361  -0.3611   103.7759
 46      0.0000     0.0000E+00    0.0000E+00    1.434000E+09  0.02000  1.263E-04    0   0.5908   age139_m62            0.0000     2.1655E-05    26.9577  -0.8266   103.0068
 47      0.0000     0.0000E+00    0.0000E+00    2.500000E+09  0.02000  5.985E-05    0   0.5673   age150_m62            0.0000     2.2754E-05    27.4335  -1.0000    93.9918
 48      0.0000     0.0000E+00    0.0000E+00    4.250000E+09  0.02000  3.271E-05    0   0.5468   age158_m62            0.0000     2.7426E-05    28.3354  -1.0000    81.6354
 49      0.0000     0.0000E+00    0.0000E+00    1.000000E+10  0.02000  1.360E-05    0   0.5167   age181_m62            0.0000     3.5618E-05    30.4215  -1.0000    69.9961
 50      2.1376     7.3319E+00    7.2099E+00    1.800000E+10  0.02000  7.124E-06    0   0.5013   age213_m62            0.0000     4.1830E-05    31.7854  -1.0000    63.2799
 51      0.0000     0.0000E+00    0.0000E+00    1.000000E+06  0.05000  2.592E-02    0   0.9998   age020_m72            0.0000     2.2473E-05    24.9029   2.0687    91.9745
 52      0.0000     0.0000E+00    0.0000E+00    3.160000E+06  0.05000  4.845E-02    0   0.9577   age045_m72            0.0000     2.2605E-05    25.2496   1.9326    92.9284
 53      0.0000     0.0000E+00    0.0000E+00    5.010000E+06  0.05000  3.072E-02    0   0.9147   age055_m72            0.0000     2.3060E-05    29.4568   1.5781    94.8912
 54      0.0000     0.0000E+00    0.0000E+00    6.610000E+06  0.05000  1.455E-02    0   0.8877   age061_m72            0.0000     2.5209E-05    37.4868   1.0369    97.6742
 55      0.0000     0.0000E+00    0.0000E+00    1.000000E+07  0.05000  9.074E-03    0   0.8524   age070_m72            0.0000     2.3536E-05    30.6601   1.7813    94.5508
 56      0.0000     0.0000E+00    0.0000E+00    2.512000E+07  0.05000  4.250E-03    0   0.7902   age090_m72            0.0000     2.3326E-05    30.5677   1.5128    94.9481
 57      0.0000     0.0000E+00    0.0000E+00    4.000000E+07  0.05000  3.087E-03    0   0.7618   age104_m72            0.0000     2.3291E-05    31.0136   1.3090    95.7834
 58      0.0000     0.0000E+00    0.0000E+00    1.015200E+08  0.05000  1.700E-03    0   0.7096   age116_m72            0.0000     2.2582E-05    29.2825   1.0377    97.6536
 59      0.0000     0.0000E+00    0.0000E+00    2.861200E+08  0.05000  7.384E-04    0   0.6633   age125_m72            0.0000     2.1947E-05    28.0396   0.4968   102.0735
 60     21.4216     1.3706E+00    1.7132E+00    5.088000E+08  0.05000  3.819E-04    0   0.6372   age130_m72            0.0000     2.1547E-05    26.8952  -0.0348   104.7757
 61      0.0000     0.0000E+00    0.0000E+00    9.047900E+08  0.05000  1.676E-04    0   0.6110   age135_m72            0.0000     2.1598E-05    25.8285  -0.7809   104.7884
 62      0.0000     0.0000E+00    0.0000E+00    1.434000E+09  0.05000  8.837E-05    0   0.5874   age139_m72            0.0000     2.2899E-05    27.1639  -1.0000    95.0698
 63      0.1899     1.0961E-01    1.2036E-01    2.500000E+09  0.05000  4.233E-05    0   0.5598   age150_m72            0.0000     2.7580E-05    28.3097  -1.0000    82.4301
 64      0.0000     0.0000E+00    0.0000E+00    6.250000E+09  0.05000  1.435E-05    0   0.5249   age166_m72            0.0000     3.8393E-05    30.9892  -1.0000    66.7366
 65     17.8208     6.6860E+01    6.6049E+01    1.300000E+10  0.05000  6.513E-06    0   0.5036   age193_m72            0.0000     4.6920E-05    33.0645  -1.0000    59.5095
 66      1.6037     8.6565E+00    8.3969E+00    1.800000E+10  0.05000  4.527E-06    0   0.4945   age213_m72            0.0000     5.2377E-05    34.2398  -1.0000    55.1685


## Synthesis Results - Average & Chains ##

# j      x_j: min, <> & last-chain-values for 1 ...  7 chains
  1      2.0379      0.6948      0.6109      0.0000      0.0752      0.0000      0.2899      0.0500      0.0083
  2      0.0000      0.8962      0.1795      0.0000      0.0000      0.0678      0.0000      0.0218      0.1677
  3      0.0000      0.8227      0.2097      0.0000      0.0722      0.0000      0.0000      0.1276      0.2791
  4      0.0000      0.6900      0.3662      0.0000      0.0455      0.0336      0.5300      0.0000      0.0084
  5      0.0000      0.6177      0.5633      0.0611      0.0534      0.0045      0.2311      0.0000      0.0000
  6      0.0000      0.4305      0.0000      0.8226      0.0000      0.0041      0.0000      0.0000      0.2988
  7      4.4042      0.8351      0.2823      0.6178      0.3338      0.0196      0.2006      0.4880      0.0000
  8      0.0000      0.3859      0.1503      0.1659      0.0000      0.0000      0.1082      0.0000      0.0000
  9      1.3854      0.6713      0.2394      0.0000      0.0487      0.1765      0.2236      0.5198      0.0000
 10      0.0000      0.6440      0.2055      0.2165      0.1007      0.1595      0.0331      0.7989      0.0000
 11      0.0000      0.6020      1.4425      0.0000      0.2512      0.8093      0.3175      0.7879      0.3075
 12      6.8267      5.4706      9.7248     10.5554      9.8147      9.5754     10.3588     10.3211     11.1845
 13      0.0000      2.5763      4.5293      5.2997      4.2044      4.7749      4.3835      3.8329      4.1611
 14     22.2524      0.5961      0.3724      0.0000      0.3053      0.0000      0.4941      0.0782      0.1961
 15      5.2869      0.6614      1.1843      0.5818      0.3864      0.0000      0.0000      0.0000      0.0000
 16      1.4481      0.7005      0.6320      0.0000      0.0000      0.0479      0.1792      0.3620      0.0643
 17      0.0000      0.5568      0.0000      0.0000      0.4689      0.0000      0.2876      0.0129      0.0151
 18      0.0000      0.6321      0.2279      0.0000      1.0724      0.0393      0.1060      0.3038      0.1132
 19      0.0094      0.6305      0.3806      0.0000      0.1231      0.0260      0.2816      0.1045      0.0000
 20      0.0000      0.6618      0.0000      0.0000      0.0000      0.0000      0.0000      0.0253      0.1673
 21      0.0000      0.7928      0.0000      0.0000      0.0000      0.0000      0.6930      0.0000      0.1367
 22      0.0000      0.8926      0.2483      0.0000      0.9723      0.0000      0.7158      0.0660      0.0208
 23      0.0000      0.4174      0.0000      0.0000      0.0000      0.0000      0.0369      0.0000      0.0712
 24      0.0000      0.7267      0.0000      0.0000      0.1074      0.0000      0.0977      1.0047      0.8640
 25      0.0000      0.5936      0.5811      0.0208      0.2980      0.0000      0.1706      0.2954      0.0927
 26      0.0000      0.4906      0.2437      0.0000      0.6666      0.3094      0.1260      0.0838      0.0000
 27      0.0000      0.8134      0.0890      0.0000      0.1076      0.2296      0.0941      0.6934      0.0977
 28      0.0000      0.6053      0.0000      0.1375      0.4206      0.0741      0.2928      0.1714      0.2921
 29      0.0000      0.5718      0.0000      0.0000      0.3592      0.2509      0.0562      0.0000      0.2033
 30      0.0000      0.6362      0.0000      0.0000      0.2160      0.0117      0.0000      0.8320      0.0000
 31      0.0000      0.6318      0.4821      0.4742      0.5891      0.0000      0.2818      0.1138      0.0207
 32      0.0000      1.0243      0.0000      0.0000      0.0000      0.0004      0.0476      0.0000      0.0166
 33      0.0000      0.6325      0.1292      0.0000      0.0000      0.8376      0.5072      0.3976      0.0000
 34      0.0000      0.8102      0.2533      0.0000      0.2364      0.0000      0.0000      0.2470      0.4652
 35      0.0000      0.4447      0.8212      0.0000      0.3627      0.0000      0.0285      0.4105      0.0000
 36      0.0000      0.8235      0.0000      0.0000      0.1617      0.7695      1.2688      0.0000      0.0927
 37      0.0000      0.8237      0.0111      0.0000      0.0277      0.0556      0.0000      0.3771      0.0000
 38      0.0000      0.5894      0.4038      0.0000      0.3136      0.0000      0.1603      0.1210      0.0000
 39      0.0000      0.7079      0.0327      0.0000      0.2992      0.0000      0.0844      0.1016      0.0183
 40      0.0000      0.8151      0.1320      0.0000      0.1243      0.0000      0.0836      0.0965      0.4552
 41      0.0000      0.6266      0.1278      0.0000      0.4249      0.0000      0.0000      0.2069      0.0476
 42      0.0000      0.6878      0.0111      0.0000      0.1586      0.0000      0.0000      0.0245      0.0687
 43      0.3261      0.6426      0.8402      0.0000      0.0000      0.2750      0.0031      0.5213      0.0427
 44     14.4902      2.5362      3.7941      4.9150      4.3455      4.5622      4.2681      4.6254      3.8661
 45      0.0000      0.5808      0.0000      0.0000      0.1935      0.1746      0.1231      0.1959      0.0279
 46      0.0000      0.5409      0.0000      0.0000      0.4881      0.0000      0.1254      0.1144      0.0000
 47      0.0000      0.8515      0.1865      0.1538      0.0312      0.0000      0.2618      0.7640      0.0243
 48      0.0000      0.5558      0.4635      0.0000      0.4311      0.0000      0.2186      0.1847      0.3493
 49      0.0000      0.5144      0.1794      0.0000      0.0947      0.2932      0.0790      0.0000      0.0943
 50      2.1376      2.8414      4.7621      5.1009      5.1038      5.1986      4.6464      4.2275      4.0783
 51      0.0000      0.9094      0.0000      0.0000      0.2684      0.2378      0.7394      0.0000      0.0000
 52      0.0000      0.9690      0.1912      0.0000      0.5175      0.0999      0.1425      0.1931      0.4983
 53      0.0000      0.4751      0.3782      0.0000      0.0542      0.6524      0.0000      0.4305      0.1314
 54      0.0000      0.8218      0.0000      0.1107      0.1069      0.0000      0.0000      0.6253      0.0345
 55      0.0000      0.9510      0.1066      0.0000      0.0000      0.0083      0.0000      0.1303      0.0840
 56      0.0000      0.7406      0.1200      0.0000      0.3682      0.3123      0.1135      0.0000      0.2405
 57      0.0000      0.5085      0.7272      0.0000      0.2458      0.1388      0.0000      0.0513      0.0193
 58      0.0000      0.6497      0.0000      0.0000      0.0042      0.0144      0.3089      0.0000      0.1026
 59      0.0000      0.5991      0.0000      0.0000      0.1951      0.0207      0.3643      0.0779      0.0083
 60     21.4216      0.5902      0.2134      0.0000      0.0376      0.1730      0.0000      0.2661      0.0000
 61      0.0000      0.7932      0.0000      0.0000      0.0000      0.3378      0.0000      0.0000      0.0000
 62      0.0000      0.6716      0.0000      0.0000      0.0000      0.0268      0.1424      0.0000      0.4443
 63      0.1899      0.8055      0.3109      0.0000      0.0728      0.0000      0.0640      0.5068      0.2148
 64      0.0000     13.0086     23.4107     29.5848     24.1351     27.1665     24.4392     24.0236     27.5816
 65     17.8208      6.4091     11.7157     14.1429     11.4083     13.1815     12.7000     11.5548     12.8943
 66      1.6037      2.6337      3.9797      2.7666      4.3074      4.6794      4.5831      4.2633      4.7945

# j      m_j: min, <> & last-chain-values for 1 ...  7 chains
  1  8.9289E-03  3.7628E-03  2.1133E-03  0.0000E+00  2.5595E-04  0.0000E+00  9.5100E-04  1.7390E-04  2.6284E-05
  2  0.0000E+00  1.3251E-03  1.6948E-04  0.0000E+00  0.0000E+00  5.7001E-05  0.0000E+00  2.0671E-05  1.4485E-04
  3  0.0000E+00  1.8215E-03  2.9658E-04  0.0000E+00  1.0056E-04  0.0000E+00  0.0000E+00  1.8152E-04  3.6095E-04
  4  0.0000E+00  1.4388E-03  4.8766E-04  0.0000E+00  5.9597E-05  3.9829E-05  6.6937E-04  0.0000E+00  1.0253E-05
  5  0.0000E+00  2.4535E-03  1.4291E-03  1.4203E-04  1.3339E-04  1.0132E-05  5.5597E-04  0.0000E+00  0.0000E+00
  6  0.0000E+00  2.7736E-03  0.0000E+00  3.1007E-03  0.0000E+00  1.4928E-05  0.0000E+00  0.0000E+00  1.1244E-03
  7  3.2862E-02  7.7027E-03  1.6628E-03  3.3344E-03  1.9361E-03  1.0293E-04  1.1209E-03  2.8909E-03  0.0000E+00
  8  0.0000E+00  4.9190E-03  1.2234E-03  1.2379E-03  0.0000E+00  0.0000E+00  8.3568E-04  0.0000E+00  0.0000E+00
  9  1.6353E-02  9.7952E-03  2.2315E-03  0.0000E+00  4.4724E-04  1.4650E-03  1.9760E-03  4.8708E-03  0.0000E+00
 10  0.0000E+00  1.2342E-02  2.5153E-03  2.4284E-03  1.2141E-03  1.7390E-03  3.8372E-04  9.8338E-03  0.0000E+00
 11  0.0000E+00  2.1694E-02  3.3204E-02  0.0000E+00  5.6930E-03  1.6597E-02  6.9303E-03  1.8238E-02  6.4729E-03
 12  3.1571E-01  3.1274E-01  3.5509E-01  3.5308E-01  3.5280E-01  3.1149E-01  3.5870E-01  3.7896E-01  3.7351E-01
 13  0.0000E+00  4.1514E-01  4.6615E-01  4.9967E-01  4.2599E-01  4.3781E-01  4.2784E-01  3.9667E-01  3.9168E-01
 14  9.7289E+00  3.2219E-01  1.2855E-01  0.0000E+00  1.0373E-01  0.0000E+00  1.6175E-01  2.7127E-02  6.1902E-02
 15  3.7630E+00  5.8188E-01  6.6554E-01  2.9952E-01  2.1379E-01  0.0000E+00  0.0000E+00  0.0000E+00  0.0000E+00
 16  1.7428E+00  1.0422E+00  6.0048E-01  0.0000E+00  0.0000E+00  4.0536E-02  1.6143E-01  3.4593E-01  5.5874E-02
 17  0.0000E+00  1.0745E+00  0.0000E+00  0.0000E+00  5.6899E-01  0.0000E+00  3.3623E-01  1.5963E-02  1.6978E-02
 18  0.0000E+00  3.0254E-03  6.9665E-04  0.0000E+00  3.2274E-03  1.0695E-04  3.0716E-04  9.3388E-04  3.1655E-04
 19  1.4547E-05  1.2111E-03  4.6701E-04  0.0000E+00  1.4870E-04  2.8466E-05  3.2764E-04  1.2896E-04  0.0000E+00
 20  0.0000E+00  1.3878E-03  0.0000E+00  0.0000E+00  0.0000E+00  0.0000E+00  0.0000E+00  3.4123E-05  2.0500E-04
 21  0.0000E+00  2.0182E-03  0.0000E+00  0.0000E+00  0.0000E+00  0.0000E+00  1.0686E-03  0.0000E+00  2.0335E-04
 22  0.0000E+00  3.8424E-03  6.8278E-04  0.0000E+00  2.6316E-03  0.0000E+00  1.8663E-03  1.8250E-04  5.2201E-05
 23  0.0000E+00  2.4266E-03  0.0000E+00  0.0000E+00  0.0000E+00  0.0000E+00  1.2982E-04  0.0000E+00  2.4193E-04
 24  0.0000E+00  6.2849E-03  0.0000E+00  0.0000E+00  5.8394E-04  0.0000E+00  5.1190E-04  5.5809E-03  4.3647E-03
 25  0.0000E+00  7.0783E-03  4.4260E-03  1.4529E-04  2.2345E-03  0.0000E+00  1.2323E-03  2.2623E-03  6.4550E-04
 26  0.0000E+00  9.7784E-03  3.1025E-03  0.0000E+00  8.3547E-03  3.5098E-03  1.5212E-03  1.0731E-03  0.0000E+00
 27  0.0000E+00  3.2451E-02  2.2683E-03  0.0000E+00  2.6988E-03  5.2119E-03  2.2729E-03  1.7768E-02  2.2776E-03
 28  0.0000E+00  7.0084E-02  0.0000E+00  9.3161E-03  3.0625E-02  4.8814E-03  2.0534E-02  1.2744E-02  1.9758E-02
 29  0.0000E+00  1.1537E-01  0.0000E+00  0.0000E+00  4.5571E-02  2.8798E-02  6.8653E-03  0.0000E+00  2.3963E-02
 30  0.0000E+00  2.6817E-01  0.0000E+00  0.0000E+00  5.7236E-02  2.8105E-03  0.0000E+00  2.2523E-01  0.0000E+00
 31  0.0000E+00  4.6849E-01  2.2830E-01  2.0573E-01  2.7463E-01  0.0000E+00  1.2656E-01  5.4204E-02  8.9578E-03
 32  0.0000E+00  1.0219E+00  0.0000E+00  0.0000E+00  0.0000E+00  2.2587E-04  2.8779E-02  0.0000E+00  9.6794E-03
 33  0.0000E+00  1.3970E+00  1.8226E-01  0.0000E+00  0.0000E+00  1.0526E+00  6.7845E-01  5.6397E-01  0.0000E+00
 34  0.0000E+00  2.4232E+00  4.8392E-01  0.0000E+00  4.4453E-01  0.0000E+00  0.0000E+00  4.7450E-01  8.1273E-01
 35  0.0000E+00  1.7067E-03  2.0128E-03  0.0000E+00  8.7516E-04  0.0000E+00  6.6236E-05  1.0118E-03  0.0000E+00
 36  0.0000E+00  1.2785E-03  0.0000E+00  0.0000E+00  1.5790E-04  6.7988E-04  1.1933E-03  0.0000E+00  8.4088E-05
 37  0.0000E+00  1.3833E-03  1.1864E-05  0.0000E+00  2.9240E-05  5.3153E-05  0.0000E+00  4.0671E-04  0.0000E+00
 38  0.0000E+00  2.6816E-03  1.1735E-03  0.0000E+00  8.9707E-04  0.0000E+00  4.4178E-04  3.5351E-04  0.0000E+00
 39  0.0000E+00  4.6372E-03  1.3686E-04  0.0000E+00  1.2325E-03  0.0000E+00  3.3507E-04  4.2761E-04  7.0021E-05
 40  0.0000E+00  8.6311E-03  8.9268E-04  0.0000E+00  8.2783E-04  0.0000E+00  5.3627E-04  6.5605E-04  2.8156E-03
 41  0.0000E+00  1.0317E-02  1.3438E-03  0.0000E+00  4.3995E-03  0.0000E+00  0.0000E+00  2.1876E-03  4.5738E-04
 42  0.0000E+00  2.0794E-02  2.1499E-04  0.0000E+00  3.0157E-03  0.0000E+00  0.0000E+00  4.7521E-04  1.2141E-03
 43  1.1642E-02  2.8365E-02  2.3687E-02  0.0000E+00  0.0000E+00  6.9070E-03  8.2493E-05  1.4777E-02  1.1017E-03
 44  8.9085E-01  1.9275E-01  1.8417E-01  2.1856E-01  2.0765E-01  1.9729E-01  1.9647E-01  2.2577E-01  1.7163E-01
 45  0.0000E+00  8.7576E-02  0.0000E+00  0.0000E+00  1.8342E-02  1.4984E-02  1.1242E-02  1.8972E-02  2.4575E-03
 46  0.0000E+00  1.4991E-01  0.0000E+00  0.0000E+00  8.5070E-02  0.0000E+00  2.1052E-02  2.0362E-02  0.0000E+00
 47  0.0000E+00  4.7821E-01  6.6902E-02  5.0554E-02  1.1015E-02  0.0000E+00  8.9055E-02  2.7560E-01  7.9866E-03
 48  0.0000E+00  5.5053E-01  2.9323E-01  0.0000E+00  2.6850E-01  0.0000E+00  1.3112E-01  1.1750E-01  2.0213E-01
 49  0.0000E+00  1.1580E+00  2.5790E-01  0.0000E+00  1.3407E-01  3.7557E-01  1.0774E-01  0.0000E+00  1.2404E-01
 50  7.2099E+00  1.1847E+01  1.2682E+01  1.2444E+01  1.3380E+01  1.2333E+01  1.1734E+01  1.1321E+01  9.9332E+00
 51  0.0000E+00  2.0783E-03  0.0000E+00  0.0000E+00  3.8576E-04  3.0921E-04  1.0236E-03  0.0000E+00  0.0000E+00
 52  0.0000E+00  1.1349E-03  1.4304E-04  0.0000E+00  3.8112E-04  6.6565E-05  1.0111E-04  1.4527E-04  3.4093E-04
 53  0.0000E+00  8.3815E-04  4.2612E-04  0.0000E+00  6.0076E-05  6.5494E-04  0.0000E+00  4.8782E-04  1.3547E-04
 54  0.0000E+00  2.9709E-03  0.0000E+00  2.3421E-04  2.4299E-04  0.0000E+00  0.0000E+00  1.4519E-03  7.2816E-05
 55  0.0000E+00  5.2934E-03  3.7889E-04  0.0000E+00  0.0000E+00  2.6308E-05  0.0000E+00  4.6581E-04  2.7313E-04
 56  0.0000E+00  8.1588E-03  8.4449E-04  0.0000E+00  2.5505E-03  1.9580E-03  7.5747E-04  0.0000E+00  1.5475E-03
 57  0.0000E+00  7.4357E-03  6.7918E-03  0.0000E+00  2.2603E-03  1.1552E-03  0.0000E+00  4.8180E-04  1.6495E-04
 58  0.0000E+00  1.6069E-02  0.0000E+00  0.0000E+00  6.6023E-05  2.0260E-04  4.6272E-03  0.0000E+00  1.4827E-03
 59  0.0000E+00  3.1886E-02  0.0000E+00  0.0000E+00  6.5303E-03  6.2664E-04  1.1746E-02  2.6615E-03  2.5951E-04
 60  1.7132E+00  5.8352E-02  1.3473E-02  0.0000E+00  2.3371E-03  9.7302E-03  0.0000E+00  1.6896E-02  0.0000E+00
 61  0.0000E+00  1.7133E-01  0.0000E+00  0.0000E+00  0.0000E+00  4.1520E-02  0.0000E+00  0.0000E+00  0.0000E+00
 62  0.0000E+00  2.6449E-01  0.0000E+00  0.0000E+00  0.0000E+00  6.0008E-03  3.3978E-02  0.0000E+00  1.0222E-01
 63  1.2036E-01  6.3115E-01  1.5560E-01  0.0000E+00  3.5850E-02  0.0000E+00  3.0378E-02  2.5505E-01  9.8321E-02
 64  0.0000E+00  2.8194E+01  3.2407E+01  3.7518E+01  3.2891E+01  3.3503E+01  3.2083E+01  3.3441E+01  3.4920E+01
 65  6.6049E+01  2.9363E+01  3.4283E+01  3.7913E+01  3.2864E+01  3.4364E+01  3.5243E+01  3.4000E+01  3.4509E+01
 66  8.3969E+00  1.7046E+01  1.6452E+01  1.0477E+01  1.7530E+01  1.7234E+01  1.7967E+01  1.7722E+01  1.8127E+01

# AV, chi2 & Mass for <> & i_chain = 1 ...  7 solutions
AV      -0.9215     -0.8703     -0.7968     -0.9576     -0.8044     -0.9425     -0.8453     -0.7924     -0.9116
chi2 2.1541E-05  7.9684E-05  3.0128E-05  3.0697E-05  3.0619E-05  3.0657E-05  3.0344E-05  3.0500E-05  3.0859E-05
Mass 7.0921E-14  6.1454E-14  1.0620E-13  9.3407E-14  1.0678E-13  9.8020E-14  1.0492E-13  1.0624E-13  9.9532E-14
-183.19                                  [v0_min (km/s) before EX0s...]
 444.50                                  [vd_min (km/s) before EX0s...]


## Synthetic spectrum (Best Model) ##l_obs f_obs f_syn wei
 3478    [Nl_obs]
 3741.00   -0.35834   0.51616    0.000
 3742.00   -0.80112   0.51494    0.000
 3743.00   -2.33457   0.51360    0.000
 3744.00   -2.88444   0.51244    0.000
 3745.00   -2.86123   0.51309    0.000
 3746.00   -1.77789   0.51441    0.000
 3747.00   -0.15620   0.51859    0.000
 3748.00    0.40098   0.52286   -1.000
 3749.00    0.49007   0.52915   -1.000
 3750.00   -0.24840   0.53756    0.000
 3751.00   -1.29931   0.54723    0.000
 3752.00   -1.49778   0.55750    0.000
 3753.00   -1.42306   0.56674    0.000
 3754.00   -1.26043   0.57546    0.000
 3755.00   -1.07425   0.58211    0.000
 3756.00   -1.55002   0.58761    0.000
 3757.00   -2.17108   0.59014    0.000
 3758.00   -2.27209   0.59097    0.000
 3759.00   -2.28232   0.59132    0.000
 3760.00   -1.82226   0.59094    0.000
 3761.00   -1.29972   0.58929    0.000
 3762.00   -0.64822   0.58783    0.000
 3763.00    0.01540   0.58659   -1.000
 3764.00   -0.46971   0.58557    0.000
 3765.00   -1.02108   0.58647    0.000
 3766.00   -1.35929   0.58796    0.000
 3767.00   -1.68310   0.59159    0.000
 3768.00   -0.87473   0.59782    0.000
 3769.00   -0.09791   0.60606    0.000
 3770.00   -0.08778   0.61619    0.000
 3771.00   -0.09503   0.62836    0.000
 3772.00   -0.33019   0.64222    0.000
 3773.00   -0.55808   0.65643    0.000
 3774.00   -0.72214   0.67061    0.000
 3775.00   -0.86088   0.68410    0.000
 3776.00   -0.83544   0.69588    0.000
 3777.00   -0.82159   0.70579    0.000
 3778.00   -0.86643   0.71304    0.000
 3779.00   -0.73333   0.71741    0.000
 3780.00    0.12812   0.71908   -1.000
 3781.00    0.49878   0.71705   -1.000
 3782.00   -0.79516   0.71242    0.000
 3783.00   -1.52607   0.70456    0.000
 3784.00   -0.64665   0.69433    0.000
 3785.00   -0.28316   0.68167    0.000
 3786.00   -1.18019   0.66647    0.000
 3787.00   -1.89875   0.65115    0.000
 3788.00   -2.24111   0.63496    0.000
 3789.00   -2.10329   0.61957    0.000
 3790.00   -1.08592   0.60502    0.000
 3791.00   -0.22846   0.59286    0.000
 3792.00    0.37301   0.58288   -1.000
 3793.00    0.56894   0.57542   -1.000
 3794.00    0.19523   0.57153   -1.000
 3795.00   -0.33112   0.57047    0.000
 3796.00   -1.04612   0.57382    0.000
 3797.00   -1.31068   0.57964    0.000
 3798.00   -1.08449   0.58864    0.000
 3799.00   -0.68750   0.60070    0.000
 3800.00   -0.12638   0.61491    0.000
 3801.00    0.41547   0.63068   -1.000
 3802.00    0.94096   0.64580   -1.000
 3803.00    0.74363   0.66084   -1.000
 3804.00    0.00691   0.67355   -1.000
 3805.00   -0.66505   0.68462    0.000
 3806.00   -1.29454   0.69316    0.000
 3807.00   -0.47661   0.69943    0.000
 3808.00    1.17191   0.70442   -1.000
 3809.00    1.04091   0.70709   -1.000
 3810.00    0.02048   0.70772   -1.000
 3811.00   -0.16591   0.70567    0.000
 3812.00    0.00837   0.70157   -1.000
 3813.00    0.08948   0.69547   -1.000
 3814.00    0.13603   0.68874   -1.000
 3815.00   -0.33112   0.68105    0.000
 3816.00   -0.95975   0.67234    0.000
 3817.00   -1.05829   0.66288    0.000
 3818.00   -1.01778   0.65237    0.000
 3819.00   -0.77383   0.64044    0.000
 3820.00   -0.48630   0.62736    0.000
 3821.00   -0.57377   0.61412    0.000
 3822.00   -0.72489   0.60043    0.000
 3823.00   -0.29957   0.58607    0.000
 3824.00    0.19971   0.57054   -1.000
 3825.00   -0.26273   0.55452    0.000
 3826.00   -0.81151   0.53954    0.000
 3827.00   -1.52571   0.52534    0.000
 3828.00   -2.24881   0.51245    0.000
 3829.00   -1.52540   0.50176    0.000
 3830.00   -0.77516   0.49342    0.000
 3831.00   -0.20636   0.48790    0.000
 3832.00    0.33613   0.48491   -1.000
 3833.00    0.29401   0.48585   -1.000
 3834.00    0.24589   0.49042   -1.000
 3835.00    0.12307   0.49924   -1.000
 3836.00    0.00144   0.51164   -1.000
 3837.00   -0.11012   0.52656    0.000
 3838.00   -0.17465   0.54355    0.000
 3839.00    0.05665   0.56218   -1.000
 3840.00    0.21623   0.58185   -1.000
 3841.00    0.02191   0.60147   -1.000
 3842.00   -0.26012   0.62127    0.000
 3843.00   -0.89326   0.63936    0.000
 3844.00   -1.24160   0.65674    0.000
 3845.00   -0.64309   0.67195    0.000
 3846.00   -0.20629   0.68494    0.000
 3847.00   -0.22363   0.69614    0.000
 3848.00   -0.08141   0.70544    0.000
 3849.00    0.44408   0.71245    0.000
 3850.00    0.68608   0.71802    0.000
 3851.00    0.34015   0.72310    0.000
 3852.00    0.07555   0.72655    0.000
 3853.00   -0.04236   0.72946    0.000
 3854.00   -0.00935   0.73218    0.000
 3855.00    0.26168   0.73478    0.000
 3856.00    0.50238   0.73654    0.000
 3857.00    0.70112   0.73886    0.000
 3858.00    0.68881   0.74059    0.000
 3859.00    0.41936   0.74193    0.000
 3860.00    0.13554   0.74373    0.000
 3861.00   -0.16370   0.74546    0.000
 3862.00   -0.30456   0.74673    0.000
 3863.00   -0.29536   0.74624    0.000
 3864.00   -0.16379   0.74488    0.000
 3865.00    0.06999   0.74174    0.000
 3866.00   -0.07537   0.73837    0.000
 3867.00   -0.49961   0.73476    0.000
 3868.00   -0.69759   0.72998    0.000
 3869.00   -0.74942   0.72415    0.000
 3870.00   -0.35443   0.71648    0.000
 3871.00    0.29309   0.70737    0.000
 3872.00    0.68224   0.69788    0.000
 3873.00    0.94430   0.68882    0.000
 3874.00    0.87263   0.67865    0.000
 3875.00    0.65905   0.66766    0.000
 3876.00    0.28624   0.65590    0.000
 3877.00   -0.14457   0.64389    0.000
 3878.00   -0.36755   0.63003    0.000
 3879.00   -0.52646   0.61653    0.000
 3880.00   -0.07328   0.60512    0.000
 3881.00    0.53703   0.59348   -1.000
 3882.00    0.52222   0.58337   -1.000
 3883.00    0.37671   0.57623   -1.000
 3884.00    0.51024   0.57184   -1.000
 3885.00    0.68979   0.56945   -1.000
 3886.00    0.70449   0.56867   -1.000
 3887.00    0.69876   0.57215   -1.000
 3888.00    0.26800   0.57755   -1.000
 3889.00   -0.19913   0.58588    0.000
 3890.00   -0.09873   0.59828    0.000
 3891.00    0.02996   0.61093   -1.000
 3892.00    0.22415   0.62516   -1.000
 3893.00    0.41181   0.63909   -1.000
 3894.00    0.10870   0.65462   -1.000
 3895.00   -0.19797   0.66905    0.000
 3896.00   -0.57769   0.68256    0.000
 3897.00   -0.86377   0.69792    0.000
 3898.00   -0.04260   0.71019    0.000
 3899.00    0.65139   0.72242   -1.000
 3900.00    0.30916   0.73468   -1.000
 3901.00    0.03986   0.74721   -1.000
 3902.00    0.21601   0.75891   -1.000
 3903.00    0.38087   0.76869   -1.000
 3904.00    0.49138   0.77937   -1.000
 3905.00    0.54011   0.78817   -1.000
 3906.00    0.34689   0.79544   -1.000
 3907.00    0.13109   0.80285   -1.000
 3908.00   -0.15835   0.80949    0.000
 3909.00   -0.37252   0.81360    0.000
 3910.00   -0.37911   0.81633    0.000
 3911.00   -0.29169   0.81697    0.000
 3912.00    0.01777   0.81582   -1.000
 3913.00    0.24950   0.81235   -1.000
 3914.00    0.32259   0.80694   -1.000
 3915.00    0.42957   0.80156   -1.000
 3916.00    0.59676   0.79275   -1.000
 3917.00    0.75564   0.78364   -1.000
 3918.00    0.90160   0.77217   -1.000
 3919.00    0.76778   0.75847   -1.000
 3920.00    0.25222   0.74367   -1.000
 3921.00    0.04063   0.72658   -1.000
 3922.00    0.19417   0.70986   -1.000
 3923.00    0.24275   0.69119   -1.000
 3924.00    0.18017   0.67272   -1.000
 3925.00    0.37352   0.65374   -1.000
 3926.00    0.80595   0.63455   -1.000
 3927.00    0.48233   0.61791   -1.000
 3928.00   -0.46396   0.60350    0.000
 3929.00   -0.67464   0.59321    0.000
 3930.00   -0.35205   0.58630    0.000
 3931.00    0.02224   0.58352   -1.000
 3932.00    0.42942   0.58458   -1.000
 3933.00    0.80334   0.58935   -1.000
 3934.00    1.15875   0.59822   -1.000
 3935.00    0.99898   0.61082   -1.000
 3936.00    0.58983   0.62608   -1.000
 3937.00    0.34513   0.64241   -1.000
 3938.00    0.16919   0.66023   -1.000
 3939.00    0.37129   0.67806   -1.000
 3940.00    0.70863   0.69525   -1.000
 3941.00    0.61928   0.71078    0.093
 3942.00    0.40097   0.72521    0.040
 3943.00    0.05547   0.73802    0.037
 3944.00   -0.32197   0.74844    0.000
 3945.00   -0.37764   0.75740    0.000
 3946.00   -0.36770   0.76453    0.000
 3947.00    0.19317   0.76904    0.040
 3948.00    0.84226   0.76989    0.040
 3949.00    0.90570   0.76830    0.040
 3950.00    0.89921   0.76454    0.040
 3951.00    0.69017   0.75788    0.041
 3952.00    0.46464   0.74838    0.041
 3953.00    0.48545   0.73583    0.040
 3954.00    0.51759   0.72044    0.039
 3955.00    0.43240   0.70158    0.039
 3956.00    0.35496   0.67947    0.039
 3957.00    0.76030   0.65638    0.039
 3958.00    1.13829   0.63242    0.040
 3959.00    0.99809   0.60730    0.039
 3960.00    0.86494   0.58171    0.000
 3961.00    0.81120   0.55606    0.000
 3962.00    0.76874   0.53288    0.000
 3963.00    0.81485   0.51343    0.000
 3964.00    0.78665   0.49825    0.000
 3965.00    0.31747   0.48822    0.000
 3966.00   -0.03086   0.48295    0.000
 3967.00    0.18823   0.48287    0.000
 3968.00    0.44784   0.48853    0.000
 3969.00    0.86273   0.49960    0.000
 3970.00    1.05203   0.51650    0.000
 3971.00    0.52026   0.53795    0.000
 3972.00    0.23360   0.56238    0.000
 3973.00    0.61079   0.58947    0.000
 3974.00    0.88305   0.61708    0.000
 3975.00    0.91168   0.64545    0.000
 3976.00    0.74062   0.67355    0.000
 3977.00    0.16848   0.70003    0.000
 3978.00   -0.05002   0.72632    0.000
 3979.00    0.35006   0.75023    0.000
 3980.00    0.72107   0.77238    0.000
 3981.00    1.04761   0.79264    0.036
 3982.00    1.24282   0.80925    0.036
 3983.00    1.26142   0.82545    0.036
 3984.00    1.15854   0.83928    0.037
 3985.00    0.91180   0.85164    0.038
 3986.00    0.81598   0.86314    0.039
 3987.00    0.87775   0.87223    0.039
 3988.00    0.69294   0.88173    0.038
 3989.00    0.28101   0.88807    0.038
 3990.00    0.21372   0.89348    0.037
 3991.00    0.42624   0.89925    0.036
 3992.00    0.66203   0.90389    0.036
 3993.00    0.91445   0.90820    0.036
 3994.00    1.12553   0.91145    0.037
 3995.00    1.31069   0.91523    0.038
 3996.00    1.38483   0.91801    0.038
 3997.00    1.39812   0.91995    0.037
 3998.00    1.59269   0.92184    0.037
 3999.00    1.87362   0.92472    0.036
 4000.00    1.70397   0.92715    0.036
 4001.00    1.34915   0.92929    0.037
 4002.00    1.33208   0.93256    0.036
 4003.00    1.43365   0.93591    0.036
 4004.00    1.08208   0.93892    0.035
 4005.00    0.59625   0.94028    0.035
 4006.00    0.69659   0.94399    0.035
 4007.00    0.94092   0.94885    0.035
 4008.00    1.14121   0.95329    0.035
 4009.00    1.33274   0.95744    0.034
 4010.00    1.77444   0.96054    0.035
 4011.00    2.25500   0.96456    0.035
 4012.00    1.89934   0.96655    0.035
 4013.00    1.44753   0.96910    0.035
 4014.00    1.29337   0.97222    0.034
 4015.00    1.16222   0.97383    0.034
 4016.00    1.07614   0.97512    0.034
 4017.00    0.99195   0.97401    0.034
 4018.00    0.70343   0.97290    0.034
 4019.00    0.40985   0.97192    0.033
 4020.00   -0.02365   0.96974    0.000
 4021.00   -0.42023   0.96761    0.000
 4022.00   -0.16591   0.96468    0.000
 4023.00    0.11316   0.96125    0.033
 4024.00    0.65863   0.95730    0.034
 4025.00    1.13457   0.95280    0.034
 4026.00    1.08268   0.94992    0.033
 4027.00    1.00447   0.94797    0.033
 4028.00    0.77445   0.94550    0.034
 4029.00    0.56377   0.94415    0.034
 4030.00    0.44167   0.94275    0.033
 4031.00    0.33477   0.94235    0.033
 4032.00    0.28484   0.94359    0.033
 4033.00    0.22847   0.94352    0.033
 4034.00    0.15192   0.94401    0.033
 4035.00    0.29020   0.94487    0.033
 4036.00    1.00000   0.94533    0.034
 4037.00    1.54926   0.94651    0.034
 4038.00    1.73194   0.94575    0.034
 4039.00    1.91988   0.94365    0.034
 4040.00    2.11822   0.94104    0.035
 4041.00    1.96200   0.93870    0.035
 4042.00    1.19498   0.93935    0.035
 4043.00    0.88051   0.93927    0.034
 4044.00    1.24873   0.93719    0.035
 4045.00    1.28306   0.93476    0.035
 4046.00    0.87482   0.93315    0.035
 4047.00    0.76096   0.93387    0.035
 4048.00    0.99080   0.93456    0.035
 4049.00    1.16160   0.93395    0.035
 4050.00    1.27160   0.93269    0.035
 4051.00    1.10698   0.93106    0.035
 4052.00    0.69297   0.92843    0.035
 4053.00    0.73070   0.92592    0.034
 4054.00    1.12999   0.92372    0.035
 4055.00    1.34932   0.92138    0.035
 4056.00    1.44194   0.91862    0.035
 4057.00    1.26203   0.91433    0.034
 4058.00    0.91379   0.90970    0.034
 4059.00    0.77473   0.90658    0.034
 4060.00    0.74854   0.90589    0.033
 4061.00    0.84530   0.90403    0.033
 4062.00    0.99969   0.90083    0.033
 4063.00    0.84911   0.89839    0.033
 4064.00    0.57532   0.89717    0.032
 4065.00    0.52806   0.89728    0.032
 4066.00    0.55892   0.89511    0.032
 4067.00    0.61795   0.89265    0.032
 4068.00    0.68517   0.89339    0.032
 4069.00    0.83627   0.89411    0.032
 4070.00    1.00752   0.89311    0.032
 4071.00    0.98458   0.89055    0.032
 4072.00    0.92401   0.88835    0.032
 4073.00    0.77571   0.88988    0.032
 4074.00    0.61419   0.89201    0.032
 4075.00    0.78664   0.89297    0.031
 4076.00    0.99603   0.89407    0.030
 4077.00    1.08436   0.89388    0.030
 4078.00    1.16383   0.89486    0.031
 4079.00    0.95015   0.89698    0.030
 4080.00    0.72525   0.89836    0.030
 4081.00    0.68808   0.89984    0.030
 4082.00    0.65589   0.89917    0.031
 4083.00    0.77181   0.89674    0.031
 4084.00    0.87558   0.89337    0.031
 4085.00    0.77907   0.88741    0.031
 4086.00    0.69095   0.88083    0.031
 4087.00    0.68926   0.87224    0.031
 4088.00    0.71507   0.86159    0.031
 4089.00    0.94273   0.84956    0.031
 4090.00    1.14524   0.83370    0.031
 4091.00    1.20666   0.81734    0.032
 4092.00    1.20148   0.80135    0.000
 4093.00    0.89828   0.78591    0.000
 4094.00    0.71752   0.77151    0.000
 4095.00    0.98642   0.75608    0.000
 4096.00    1.24188   0.74179    0.000
 4097.00    1.45601   0.73156    0.000
 4098.00    1.53830   0.72591    0.000
 4099.00    1.27596   0.72286    0.000
 4100.00    0.95597   0.72193    0.000
 4101.00    0.50654   0.72358    0.000
 4102.00    0.31762   0.72843    0.000
 4103.00    0.63563   0.73760    0.000
 4104.00    0.77018   0.74823    0.000
 4105.00    0.59344   0.75990    0.000
 4106.00    0.68326   0.77300    0.000
 4107.00    1.16929   0.78582    0.000
 4108.00    1.21853   0.79932    0.000
 4109.00    0.69705   0.81223    0.000
 4110.00    0.39104   0.82436    0.000
 4111.00    0.33304   0.83606    0.000
 4112.00    0.38123   0.84610    0.000
 4113.00    0.53721   0.85444    0.030
 4114.00    0.55589   0.86178    0.030
 4115.00    0.45163   0.86915    0.030
 4116.00    0.49816   0.87496    0.041
 4117.00    0.66368   0.87893    0.142
 4118.00    0.82284   0.88139   -1.000
 4119.00    0.97761   0.88379   -1.000
 4120.00    1.03558   0.88703   -1.000
 4121.00    1.03466   0.88823   -1.000
 4122.00    1.09605   0.88759   -1.000
 4123.00    1.19054   0.88725   -1.000
 4124.00    1.14860   0.88752    0.085
 4125.00    1.04375   0.88849    0.035
 4126.00    0.91322   0.88872    0.029
 4127.00    0.77249   0.88642    0.029
 4128.00    0.77677   0.88653    0.029
 4129.00    0.83012   0.88741    0.029
 4130.00    1.01640   0.88885    0.029
 4131.00    1.24049   0.89141    0.029
 4132.00    1.12280   0.88977    0.029
 4133.00    0.92486   0.89032    0.028
 4134.00    1.37259   0.89176    0.028
 4135.00    1.94218   0.89336    0.029
 4136.00    2.01627   0.89597    0.029
 4137.00    2.01800   0.89386    0.029
 4138.00    1.12265   0.89172    0.029
 4139.00    0.13196   0.89103    0.028
 4140.00    0.42258   0.89191    0.029
 4141.00    0.80183   0.89296    0.029
 4142.00    1.03071   0.89085    0.029
 4143.00    1.25440   0.88858    0.029
 4144.00    1.11798   0.88694    0.029
 4145.00    0.98765   0.88755    0.029
 4146.00    1.08253   0.88892    0.029
 4147.00    1.18220   0.88868    0.029
 4148.00    1.35607   0.88919    0.030
 4149.00    1.45906   0.88889    0.030
 4150.00    0.86323   0.89041    0.030
 4151.00    0.34372   0.89261    0.030
 4152.00    0.36605   0.89404    0.029
 4153.00    0.39708   0.89715    0.029
 4154.00    0.47562   0.89878    0.029
 4155.00    0.52154   0.90122    0.030
 4156.00    0.42484   0.90310    0.029
 4157.00    0.42116   0.90428    0.029
 4158.00    0.75202   0.90694    0.029
 4159.00    0.96475   0.90773    0.029
 4160.00    0.82100   0.90829    0.029
 4161.00    0.69162   0.90736    0.028
 4162.00    0.59910   0.90419    0.029
 4163.00    0.64062   0.90237    0.029
 4164.00    0.97819   0.90050    0.029
 4165.00    1.14102   0.89772    0.029
 4166.00    0.96910   0.89376    0.029
 4167.00    0.74119   0.88708    0.028
 4168.00    0.41967   0.88226    0.028
 4169.00    0.34387   0.88035    0.028
 4170.00    0.62801   0.87822    0.028
 4171.00    0.80337   0.87547    0.028
 4172.00    0.83863   0.87069    0.028
 4173.00    0.77441   0.86819    0.028
 4174.00    0.59728   0.86941    0.028
 4175.00    0.65941   0.87146    0.028
 4176.00    0.96099   0.87205    0.028
 4177.00    0.95652   0.87049    0.028
 4178.00    0.68187   0.87181    0.028
 4179.00    0.80076   0.87523    0.028
 4180.00    1.22570   0.87926    0.027
 4181.00    1.13365   0.88081    0.027
 4182.00    0.68805   0.87969    0.027
 4183.00    0.53064   0.88208    0.027
 4184.00    0.54599   0.88492    0.027
 4185.00    0.59910   0.88705    0.027
 4186.00    0.67196   0.88665    0.027
 4187.00    0.83235   0.88437    0.027
 4188.00    1.03246   0.88497    0.027
 4189.00    1.06158   0.88522    0.027
 4190.00    1.02398   0.88427    0.027
 4191.00    0.93020   0.88137    0.027
 4192.00    0.81775   0.87831    0.027
 4193.00    0.92508   0.87742    0.026
 4194.00    1.09367   0.87613    0.026
 4195.00    0.91121   0.87517    0.026
 4196.00    0.64821   0.87360    0.026
 4197.00    0.53975   0.87254    0.026
 4198.00    0.45968   0.87426    0.025
 4199.00    0.48473   0.87555    0.026
 4200.00    0.52464   0.87734    0.026
 4201.00    0.61911   0.88020    0.026
 4202.00    0.71914   0.88265    0.026
 4203.00    0.88948   0.88711    0.026
 4204.00    1.06440   0.89073    0.026
 4205.00    1.06179   0.89221    0.026
 4206.00    1.05333   0.89571    0.026
 4207.00    0.79575   0.89899    0.025
 4208.00    0.54534   0.90159    0.025
 4209.00    0.50551   0.90336    0.026
 4210.00    0.47272   0.90153    0.026
 4211.00    0.54231   0.90128    0.027
 4212.00    0.62053   0.90234    0.027
 4213.00    0.78039   0.90120    0.027
 4214.00    0.95563   0.89886    0.027
 4215.00    1.23658   0.89395    0.027
 4216.00    1.44037   0.88935    0.027
 4217.00    1.23405   0.88602    0.027
 4218.00    1.07284   0.88220    0.027
 4219.00    1.10428   0.87727    0.027
 4220.00    1.12617   0.87141    0.026
 4221.00    1.11440   0.86614    0.027
 4222.00    1.05532   0.86134    0.027
 4223.00    0.85613   0.85937    0.027
 4224.00    0.77437   0.85844    0.026
 4225.00    0.98897   0.85670    0.026
 4226.00    1.08179   0.85636    0.027
 4227.00    0.90999   0.85641    0.027
 4228.00    0.74437   0.85880    0.027
 4229.00    0.59042   0.86390    0.026
 4230.00    0.59683   0.86729    0.025
 4231.00    0.86727   0.87068    0.025
 4232.00    0.91913   0.87475    0.025
 4233.00    0.65546   0.87828    0.025
 4234.00    0.49753   0.88406    0.025
 4235.00    0.47382   0.88844    0.025
 4236.00    0.50727   0.89148    0.024
 4237.00    0.60466   0.89456    0.024
 4238.00    0.69891   0.89612    0.024
 4239.00    0.79005   0.89914    0.024
 4240.00    0.79604   0.90021    0.025
 4241.00    0.72792   0.90016    0.025
 4242.00    0.70637   0.89965    0.025
 4243.00    0.72053   0.89762    0.025
 4244.00    0.88927   0.89740    0.025
 4245.00    1.16219   0.89428    0.026
 4246.00    1.23097   0.89126    0.026
 4247.00    1.17923   0.89010    0.026
 4248.00    1.09395   0.88722    0.026
 4249.00    0.99140   0.88595    0.026
 4250.00    0.57623   0.88277    0.026
 4251.00    0.02158   0.88111    0.025
 4252.00   -0.09418   0.88360    0.000
 4253.00   -0.04166   0.88330    0.000
 4254.00    0.37700   0.88291    0.025
 4255.00    0.91497   0.88237    0.025
 4256.00    1.09078   0.88315    0.025
 4257.00    1.16772   0.88734    0.025
 4258.00    1.05924   0.88826    0.025
 4259.00    0.90920   0.88706    0.025
 4260.00    0.79304   0.88644    0.025
 4261.00    0.68294   0.88552    0.025
 4262.00    0.96289   0.88556    0.025
 4263.00    1.29619   0.88428    0.026
 4264.00    1.06723   0.88024    0.025
 4265.00    0.78334   0.87696    0.025
 4266.00    0.46744   0.87301    0.024
 4267.00    0.14958   0.86880    0.024
 4268.00    0.46446   0.86769    0.024
 4269.00    0.79586   0.86441    0.024
 4270.00    1.02023   0.86135    0.024
 4271.00    1.23526   0.85994    0.023
 4272.00    1.20366   0.85750    0.023
 4273.00    1.15674   0.85990    0.024
 4274.00    0.89942   0.86054    0.024
 4275.00    0.65441   0.85826    0.024
 4276.00    0.52121   0.85940    0.024
 4277.00    0.42734   0.85884    0.024
 4278.00    0.59547   0.86001    0.024
 4279.00    0.75980   0.86004    0.024
 4280.00    0.90449   0.85515    0.024
 4281.00    1.03370   0.85277    0.025
 4282.00    1.09828   0.85051   -2.000
 4283.00    1.23772   0.84760   -2.000
 4284.00    1.63559   0.84321   -2.000
 4285.00    1.93058   0.83617   -2.000
 4286.00    1.92652   0.83015   -2.000
 4287.00    1.76544   0.82595   -2.000
 4288.00    1.21491   0.82198   -2.000
 4289.00    0.74338   0.81342   -2.000
 4290.00    0.44073   0.80529   -2.000
 4291.00    0.25655   0.79925   -2.000
 4292.00    0.29232   0.79290   -2.000
 4293.00    0.37992   0.78817   -2.000
 4294.00    0.55157   0.77777   -2.000
 4295.00    0.66067   0.76851   -2.000
 4296.00    0.68079   0.76463   -2.000
 4297.00    0.70502   0.75793   -2.000
 4298.00    0.73439   0.75322    0.025
 4299.00    0.77868   0.74751    0.025
 4300.00    0.83942   0.74193    0.025
 4301.00    0.92705   0.74305    0.025
 4302.00    1.04083   0.74269    0.025
 4303.00    0.98301   0.74335    0.025
 4304.00    0.77796   0.74764    0.025
 4305.00    0.72327   0.75185    0.025
 4306.00    0.78220   0.76014    0.025
 4307.00    0.87063   0.76865    0.025
 4308.00    0.97866   0.77708    0.025
 4309.00    0.95159   0.78837    0.025
 4310.00    0.84597   0.79881    0.025
 4311.00    0.69031   0.81039    0.024
 4312.00    0.50929   0.82044    0.024
 4313.00    0.42265   0.82796    0.024
 4314.00    0.37742   0.83626    0.024
 4315.00    0.55018   0.84178    0.024
 4316.00    0.80504   0.84670    0.024
 4317.00    0.80085   0.85008    0.024
 4318.00    0.71385   0.84888    0.024
 4319.00    0.73750   0.84872    0.024
 4320.00    0.79072   0.84643    0.025
 4321.00    1.02028   0.84243    0.025
 4322.00    1.28842   0.84082    0.025
 4323.00    1.19239   0.83618    0.025
 4324.00    1.03301   0.83084    0.025
 4325.00    0.99727   0.82475    0.024
 4326.00    0.97788   0.81744    0.024
 4327.00    0.85604   0.81309    0.024
 4328.00    0.72461   0.80763    0.024
 4329.00    0.87870   0.79946    0.024
 4330.00    1.04912   0.79008    0.000
 4331.00    1.03201   0.78113    0.000
 4332.00    1.00908   0.77299    0.000
 4333.00    0.81829   0.76506    0.000
 4334.00    0.64878   0.75759    0.000
 4335.00    0.99025   0.74996    0.000
 4336.00    1.32371   0.74509    0.000
 4337.00    1.55308   0.74197    0.000
 4338.00    1.72779   0.73910    0.000
 4339.00    1.42487   0.73986    0.000
 4340.00    1.14017   0.74291    0.000
 4341.00    0.97307   0.74792    0.000
 4342.00    0.82153   0.75565    0.000
 4343.00    0.74840   0.76263    0.000
 4344.00    0.74031   0.77091    0.000
 4345.00    0.99761   0.78217    0.000
 4346.00    1.13510   0.79168    0.000
 4347.00    0.86723   0.80103    0.000
 4348.00    0.68952   0.81237    0.000
 4349.00    0.76909   0.82349    0.000
 4350.00    0.83378   0.83376    0.000
 4351.00    0.86222   0.84162    0.023
 4352.00    0.90343   0.84960    0.027
 4353.00    0.97153   0.86063    0.070
 4354.00    1.00548   0.87007   -1.000
 4355.00    0.97702   0.87665   -1.000
 4356.00    0.88691   0.88390   -1.000
 4357.00    0.69830   0.89145   -1.000
 4358.00    0.63746   0.89750   -1.000
 4359.00    0.75576   0.90152   -1.000
 4360.00    0.88912   0.90502    0.099
 4361.00    1.04105   0.90922    0.031
 4362.00    1.16664   0.91108    0.023
 4363.00    1.26358   0.91047    0.023
 4364.00    1.28988   0.91047    0.023
 4365.00    1.24842   0.91011    0.023
 4366.00    1.15004   0.90789    0.023
 4367.00    1.00349   0.90360    0.023
 4368.00    0.79586   0.89972    0.023
 4369.00    0.54272   0.89729    0.022
 4370.00    0.52456   0.89246    0.022
 4371.00    0.66014   0.88669    0.022
 4372.00    0.89082   0.88204    0.022
 4373.00    1.17598   0.87795    0.022
 4374.00    1.27095   0.87263    0.022
 4375.00    1.27106   0.86477    0.023
 4376.00    1.10106   0.85954    0.023
 4377.00    0.85766   0.85697    0.023
 4378.00    0.72283   0.85331    0.022
 4379.00    0.62817   0.84850    0.022
 4380.00    0.66261   0.84405    0.022
 4381.00    0.73753   0.84347    0.022
 4382.00    0.66398   0.84335    0.022
 4383.00    0.55159   0.84162    0.022
 4384.00    0.63328   0.84218    0.022
 4385.00    0.75642   0.84513    0.022
 4386.00    1.02361   0.84972    0.022
 4387.00    1.31517   0.85236    0.022
 4388.00    1.26378   0.85491    0.022
 4389.00    1.16858   0.86044    0.022
 4390.00    1.08985   0.86421    0.022
 4391.00    1.01260   0.86748    0.022
 4392.00    0.84865   0.87040    0.022
 4393.00    0.68009   0.87299    0.022
 4394.00    0.79693   0.87686    0.022
 4395.00    0.91863   0.87665    0.022
 4396.00    0.98171   0.87540    0.022
 4397.00    1.03469   0.87745    0.022
 4398.00    0.86588   0.87870    0.022
 4399.00    0.71916   0.87823    0.022
 4400.00    0.84526   0.87592    0.022
 4401.00    0.96480   0.87509    0.022
 4402.00    1.02915   0.87862    0.022
 4403.00    1.06759   0.88036    0.022
 4404.00    0.94360   0.87896    0.022
 4405.00    0.84366   0.88030    0.022
 4406.00    0.86203   0.88362    0.022
 4407.00    0.90797   0.88617    0.023
 4408.00    1.06400   0.88876    0.023
 4409.00    1.14956   0.89034    0.023
 4410.00    1.00145   0.89367    0.023
 4411.00    0.89781   0.89808    0.022
 4412.00    0.91879   0.89983    0.022
 4413.00    0.93591   0.90264    0.022
 4414.00    0.94377   0.90351    0.023
 4415.00    0.87964   0.90371    0.023
 4416.00    0.66655   0.90775    0.023
 4417.00    0.64518   0.90857    0.023
 4418.00    0.96895   0.90884    0.023
 4419.00    1.10772   0.90988    0.023
 4420.00    0.95528   0.90998    0.023
 4421.00    0.91371   0.91160    0.022
 4422.00    1.02532   0.90874    0.022
 4423.00    1.07663   0.90767    0.022
 4424.00    1.05460   0.91047    0.022
 4425.00    1.02820   0.90896    0.022
 4426.00    0.99711   0.90790    0.022
 4427.00    0.99544   0.90563    0.022
 4428.00    1.02162   0.90505    0.022
 4429.00    0.95571   0.90825    0.022
 4430.00    0.81303   0.90587    0.022
 4431.00    0.80655   0.90537    0.022
 4432.00    0.90007   0.90808    0.022
 4433.00    0.99493   0.90764    0.022
 4434.00    1.09065   0.90829    0.022
 4435.00    1.13750   0.90792    0.022
 4436.00    1.15679   0.90877    0.023
 4437.00    1.19778   0.91341    0.023
 4438.00    1.24943   0.91443    0.023
 4439.00    1.19520   0.91340    0.023
 4440.00    1.09603   0.91527    0.023
 4441.00    1.04522   0.91618    0.023
 4442.00    1.01198   0.91483    0.022
 4443.00    0.89653   0.91448    0.022
 4444.00    0.75579   0.91380    0.023
 4445.00    0.79635   0.91332    0.023
 4446.00    0.88332   0.91149    0.022
 4447.00    0.89396   0.90564    0.022
 4448.00    0.88869   0.90305    0.022
 4449.00    0.89958   0.90171    0.022
 4450.00    0.91311   0.89587    0.022
 4451.00    1.06251   0.89135    0.022
 4452.00    1.22866   0.88887    0.022
 4453.00    1.16339   0.88501    0.022
 4454.00    1.07844   0.88117    0.022
 4455.00    1.08189   0.87887    0.022
 4456.00    1.08971   0.87780    0.022
 4457.00    1.03342   0.87811    0.021
 4458.00    0.97561   0.87806    0.021
 4459.00    0.88732   0.87784    0.021
 4460.00    0.80483   0.88131    0.021
 4461.00    0.83980   0.88378    0.000
 4462.00    0.87770   0.88561    0.000
 4463.00    0.95001   0.89136    0.000
 4464.00    1.03084   0.89579    0.000
 4465.00    1.18083   0.89993    0.000
 4466.00    1.30025   0.90505    0.000
 4467.00    1.23359   0.90877    0.000
 4468.00    1.18570   0.91388    0.000
 4469.00    1.22786   0.91828    0.000
 4470.00    1.23093   0.92174    0.000
 4471.00    1.08133   0.92583    0.000
 4472.00    0.96153   0.92792    0.000
 4473.00    0.93861   0.92961    0.000
 4474.00    0.95197   0.93181    0.000
 4475.00    1.06517   0.93320    0.000
 4476.00    1.13526   0.93407    0.000
 4477.00    1.10377   0.93448    0.000
 4478.00    1.04115   0.93477    0.000
 4479.00    0.91512   0.93461    0.000
 4480.00    0.91311   0.93351    0.000
 4481.00    1.13096   0.93248    0.000
 4482.00    1.20233   0.93192    0.020
 4483.00    1.04650   0.93239    0.021
 4484.00    0.98487   0.93313    0.021
 4485.00    1.05154   0.93238    0.020
 4486.00    1.02547   0.93140    0.020
 4487.00    0.88819   0.93202    0.020
 4488.00    0.78258   0.93241    0.020
 4489.00    0.71044   0.93290    0.020
 4490.00    0.76655   0.93426    0.020
 4491.00    0.94225   0.93609    0.020
 4492.00    1.04938   0.93970    0.020
 4493.00    1.10011   0.94183    0.020
 4494.00    1.00717   0.94347    0.020
 4495.00    0.81025   0.94835    0.020
 4496.00    0.77441   0.95222    0.020
 4497.00    0.84087   0.95599    0.020
 4498.00    0.93393   0.96003    0.020
 4499.00    1.04176   0.96326    0.020
 4500.00    1.03573   0.96808    0.020
 4501.00    0.97468   0.96992    0.020
 4502.00    1.02994   0.97146    0.020
 4503.00    1.13371   0.97512    0.020
 4504.00    1.07953   0.97535    0.020
 4505.00    0.96899   0.97564    0.020
 4506.00    0.97968   0.97506    0.020
 4507.00    1.02694   0.97278    0.019
 4508.00    1.02647   0.97243    0.019
 4509.00    1.01405   0.96902    0.019
 4510.00    0.91062   0.96571    0.019
 4511.00    0.78869   0.96351    0.019
 4512.00    0.71892   0.95801    0.019
 4513.00    0.65747   0.95509    0.019
 4514.00    0.71000   0.95021    0.019
 4515.00    0.77608   0.94305    0.019
 4516.00    0.79633   0.94042    0.019
 4517.00    0.81287   0.93423    0.019
 4518.00    0.80154   0.92769    0.019
 4519.00    0.78894   0.92328    0.019
 4520.00    0.75937   0.91568    0.019
 4521.00    0.73192   0.91200    0.019
 4522.00    0.82300   0.90678    0.019
 4523.00    0.90441   0.89897    0.019
 4524.00    0.80441   0.89717    0.019
 4525.00    0.71578   0.89315    0.018
 4526.00    0.75457   0.88926    0.019
 4527.00    0.80335   0.88835    0.019
 4528.00    0.93028   0.88586    0.019
 4529.00    1.01110   0.88759    0.019
 4530.00    0.81928   0.88854    0.019
 4531.00    0.68798   0.88817    0.019
 4532.00    0.83997   0.89225    0.018
 4533.00    0.93395   0.89383    0.018
 4534.00    0.80624   0.89622    0.019
 4535.00    0.72521   0.89981    0.019
 4536.00    0.79305   0.90102    0.019
 4537.00    0.83186   0.90520    0.019
 4538.00    0.79222   0.90679    0.019
 4539.00    0.76627   0.90702    0.018
 4540.00    0.77205   0.91029    0.018
 4541.00    0.81954   0.90876    0.018
 4542.00    0.95062   0.90848    0.019
 4543.00    1.01351   0.91105    0.019
 4544.00    0.95736   0.90895    0.019
 4545.00    0.87987   0.90907    0.018
 4546.00    0.76978   0.90974    0.019
 4547.00    0.70889   0.90862    0.019
 4548.00    0.71403   0.91116    0.019
 4549.00    0.80207   0.91059    0.018
 4550.00    0.98811   0.91058    0.000
 4551.00    0.99066   0.91569    0.000
 4552.00    0.80196   0.91582    0.000
 4553.00    0.69302   0.91688    0.000
 4554.00    0.65741   0.92141    0.000
 4555.00    0.58887   0.92218    0.000
 4556.00    0.49364   0.92549    0.000
 4557.00    0.55446   0.92868    0.000
 4558.00    0.72656   0.92937    0.000
 4559.00    0.85122   0.93385    0.000
 4560.00    0.94617   0.93419    0.000
 4561.00    0.86381   0.93382    0.000
 4562.00    0.68445   0.93830    0.000
 4563.00    0.77216   0.93714    0.000
 4564.00    0.98682   0.93660    0.000
 4565.00    1.00970   0.93901    0.000
 4566.00    0.95392   0.93736    0.000
 4567.00    0.83755   0.93839    0.000
 4568.00    0.69993   0.93757    0.000
 4569.00    0.77605   0.93396    0.000
 4570.00    0.91533   0.93559    0.000
 4571.00    0.88744   0.93327    0.000
 4572.00    0.81860   0.92850    0.000
 4573.00    0.75086   0.92919    0.000
 4574.00    0.68332   0.92743    0.000
 4575.00    0.81166   0.92357    0.000
 4576.00    0.97031   0.92232    0.000
 4577.00    0.91160   0.92008    0.000
 4578.00    0.82802   0.91794    0.000
 4579.00    0.80656   0.91699    0.000
 4580.00    0.78986   0.91428    0.000
 4581.00    0.72730   0.91273    0.000
 4582.00    0.66282   0.91374    0.000
 4583.00    0.77318   0.91214    0.000
 4584.00    0.88330   0.91066    0.000
 4585.00    0.91781   0.91197    0.000
 4586.00    0.94492   0.91093    0.000
 4587.00    0.84269   0.91043    0.000
 4588.00    0.75024   0.91180    0.000
 4589.00    0.76239   0.91029    0.000
 4590.00    0.76191   0.91060    0.000
 4591.00    0.66602   0.91191    0.000
 4592.00    0.59396   0.91008    0.000
 4593.00    0.65880   0.91151    0.000
 4594.00    0.69748   0.91277    0.000
 4595.00    0.61666   0.91195    0.000
 4596.00    0.54270   0.91478    0.000
 4597.00    0.49438   0.91594    0.000
 4598.00    0.48665   0.91702    0.000
 4599.00    0.60591   0.92074    0.000
 4600.00    0.70917   0.92163    0.000
 4601.00    0.76996   0.92430    0.000
 4602.00    0.82551   0.92763    0.000
 4603.00    0.86910   0.92958    0.000
 4604.00    0.89169   0.93360    0.000
 4605.00    0.87286   0.93521    0.000
 4606.00    0.87751   0.93803    0.000
 4607.00    0.92254   0.94176    0.000
 4608.00    0.98615   0.94167    0.000
 4609.00    1.07775   0.94489    0.000
 4610.00    1.09725   0.94710    0.000
 4611.00    1.02137   0.94596    0.000
 4612.00    0.94107   0.94883    0.000
 4613.00    0.85562   0.94883    0.000
 4614.00    0.77333   0.94804    0.000
 4615.00    0.69431   0.95048    0.000
 4616.00    0.75121   0.94847    0.000
 4617.00    0.93132   0.94816    0.000
 4618.00    0.96712   0.94969    0.000
 4619.00    0.88763   0.94636    0.000
 4620.00    0.83351   0.94587    0.000
 4621.00    0.79723   0.94664    0.000
 4622.00    0.86119   0.94338    0.000
 4623.00    0.98695   0.94154    0.000
 4624.00    0.90659   0.94072    0.000
 4625.00    0.71522   0.93849    0.000
 4626.00    0.67347   0.93515    0.000
 4627.00    0.70169   0.93255    0.000
 4628.00    0.66841   0.93133    0.000
 4629.00    0.61033   0.92720    0.000
 4630.00    0.77072   0.92338    0.000
 4631.00    1.00627   0.92195    0.000
 4632.00    1.00378   0.91792    0.000
 4633.00    0.93236   0.91440    0.000
 4634.00    0.86098   0.91132    0.000
 4635.00    0.78961   0.90734    0.000
 4636.00    0.87650   0.90568    0.000
 4637.00    0.99396   0.90169    0.000
 4638.00    0.82708   0.89834    0.000
 4639.00    0.61750   0.89845    0.000
 4640.00    0.58522   0.89435    0.000
 4641.00    0.57245   0.89225    0.000
 4642.00    0.75308   0.89359    0.000
 4643.00    0.94777   0.89026    0.000
 4644.00    0.81978   0.88970    0.000
 4645.00    0.67960   0.89144    0.000
 4646.00    0.67594   0.88978    0.000
 4647.00    0.67625   0.89132    0.000
 4648.00    0.79819   0.89291    0.000
 4649.00    0.91683   0.89274    0.000
 4650.00    0.98149   0.89560    0.000
 4651.00    1.03178   0.89629    0.000
 4652.00    0.93502   0.89601    0.000
 4653.00    0.84703   0.89805    0.000
 4654.00    0.82314   0.89771    0.000
 4655.00    0.78538   0.89702    0.000
 4656.00    0.67006   0.89719    0.000
 4657.00    0.60984   0.89584    0.000
 4658.00    0.79549   0.89437    0.000
 4659.00    0.91928   0.89313    0.000
 4660.00    0.81647   0.89080    0.000
 4661.00    0.76746   0.88801    0.000
 4662.00    0.88354   0.88669    0.000
 4663.00    0.92210   0.88451    0.000
 4664.00    0.75856   0.88114    0.000
 4665.00    0.64860   0.88106    0.000
 4666.00    0.65875   0.88066    0.000
 4667.00    0.71535   0.87814    0.000
 4668.00    0.86216   0.87888    0.000
 4669.00    0.90372   0.87997    0.000
 4670.00    0.76701   0.87966    0.000
 4671.00    0.66599   0.88094    0.000
 4672.00    0.61791   0.88167    0.000
 4673.00    0.68070   0.88232    0.000
 4674.00    0.88810   0.88362    0.000
 4675.00    0.99006   0.88379    0.000
 4676.00    0.97088   0.88462    0.000
 4677.00    0.88924   0.88592    0.000
 4678.00    0.74429   0.88567    0.000
 4679.00    0.72406   0.88556    0.000
 4680.00    0.81530   0.88685    0.000
 4681.00    0.82612   0.88706    0.000
 4682.00    0.77362   0.88643    0.000
 4683.00    0.75261   0.88753    0.000
 4684.00    0.75342   0.88747    0.000
 4685.00    0.74223   0.88616    0.000
 4686.00    0.72376   0.88701    0.000
 4687.00    0.64138   0.88671    0.000
 4688.00    0.52510   0.88485    0.000
 4689.00    0.57336   0.88478    0.000
 4690.00    0.69732   0.88408    0.000
 4691.00    0.79870   0.88218    0.000
 4692.00    0.89111   0.88089    0.000
 4693.00    0.90006   0.87952    0.000
 4694.00    0.88081   0.87798    0.000
 4695.00    0.85963   0.87559    0.000
 4696.00    0.83790   0.87368    0.000
 4697.00    0.80484   0.87280    0.000
 4698.00    0.76913   0.87054    0.000
 4699.00    0.68746   0.86893    0.000
 4700.00    0.59713   0.86824    0.000
 4701.00    0.63039   0.86737    0.000
 4702.00    0.68163   0.86800    0.000
 4703.00    0.79079   0.86770    0.000
 4704.00    0.90608   0.86776    0.000
 4705.00    0.69143   0.87066    0.000
 4706.00    0.45412   0.87162    0.000
 4707.00    0.63055   0.87279    0.000
 4708.00    0.82105   0.87675    0.000
 4709.00    0.74245   0.87861    0.000
 4710.00    0.66684   0.88116    0.000
 4711.00    0.70166   0.88497    0.000
 4712.00    0.73208   0.88688    0.000
 4713.00    0.69499   0.89012    0.000
 4714.00    0.66099   0.89262    0.000
 4715.00    0.65713   0.89359    0.000
 4716.00    0.67455   0.89610    0.000
 4717.00    0.84246   0.89735    0.000
 4718.00    0.98073   0.89737    0.000
 4719.00    0.95776   0.89733    0.000
 4720.00    0.92689   0.89668    0.000
 4721.00    0.86160   0.89623    0.000
 4722.00    0.78369   0.89430    0.000
 4723.00    0.66052   0.89260    0.000
 4724.00    0.57398   0.89156    0.000
 4725.00    0.59774   0.88862    0.000
 4726.00    0.58764   0.88778    0.000
 4727.00    0.49080   0.88701    0.000
 4728.00    0.44964   0.88380    0.000
 4729.00    0.53123   0.88493    0.000
 4730.00    0.58714   0.88543    0.000
 4731.00    0.59397   0.88292    0.000
 4732.00    0.62603   0.88608    0.000
 4733.00    0.70020   0.88728    0.000
 4734.00    0.73825   0.88544    0.000
 4735.00    0.72348   0.88978    0.000
 4736.00    0.75986   0.89140    0.000
 4737.00    0.86198   0.89037    0.000
 4738.00    0.82287   0.89409    0.000
 4739.00    0.62378   0.89526    0.000
 4740.00    0.59651   0.89547    0.000
 4741.00    0.74089   0.89777    0.000
 4742.00    0.79895   0.89713    0.000
 4743.00    0.78095   0.89774    0.000
 4744.00    0.75439   0.89906    0.000
 4745.00    0.72119   0.89675    0.000
 4746.00    0.73572   0.89628    0.000
 4747.00    0.78284   0.89646    0.000
 4748.00    0.84321   0.89348    0.000
 4749.00    0.91150   0.89165    0.000
 4750.00    0.90152   0.89034    0.000
 4751.00    0.85067   0.88723    0.000
 4752.00    0.77420   0.88485    0.000
 4753.00    0.68613   0.88234    0.000
 4754.00    0.72254   0.87945    0.000
 4755.00    0.80742   0.87732    0.000
 4756.00    0.84864   0.87424    0.000
 4757.00    0.87538   0.87226    0.000
 4758.00    0.85855   0.87104    0.000
 4759.00    0.82961   0.86794    0.000
 4760.00    0.70433   0.86705    0.000
 4761.00    0.55702   0.86745    0.016
 4762.00    0.52580   0.86530    0.016
 4763.00    0.51584   0.86535    0.016
 4764.00    0.63304   0.86732    0.016
 4765.00    0.76815   0.86694    0.016
 4766.00    0.71359   0.86788    0.016
 4767.00    0.63978   0.87048    0.016
 4768.00    0.69892   0.87135    0.016
 4769.00    0.76665   0.87249    0.016
 4770.00    0.72019   0.87450    0.016
 4771.00    0.67046   0.87597    0.016
 4772.00    0.71336   0.87683    0.016
 4773.00    0.75570   0.87732    0.016
 4774.00    0.78155   0.87824    0.016
 4775.00    0.79980   0.87885    0.016
 4776.00    0.70810   0.87846    0.016
 4777.00    0.62946   0.87756    0.016
 4778.00    0.67375   0.87778    0.016
 4779.00    0.70078   0.87819    0.016
 4780.00    0.60956   0.87562    0.015
 4781.00    0.55078   0.87556    0.015
 4782.00    0.66380   0.87787    0.015
 4783.00    0.73291   0.87487    0.015
 4784.00    0.61503   0.87478    0.015
 4785.00    0.51856   0.87854    0.015
 4786.00    0.49729   0.87644    0.015
 4787.00    0.50513   0.87661    0.015
 4788.00    0.59900   0.88048    0.015
 4789.00    0.66376   0.87966    0.015
 4790.00    0.65523   0.88005    0.015
 4791.00    0.62457   0.88294    0.015
 4792.00    0.54589   0.88292    0.015
 4793.00    0.52557   0.88295    0.015
 4794.00    0.61505   0.88430    0.015
 4795.00    0.68898   0.88434    0.015
 4796.00    0.73733   0.88366    0.016
 4797.00    0.69747   0.88378    0.015
 4798.00    0.53048   0.88369    0.015
 4799.00    0.45844   0.88259    0.015
 4800.00    0.50674   0.88246    0.015
 4801.00    0.59777   0.88224    0.015
 4802.00    0.73655   0.88066    0.016
 4803.00    0.76227   0.88091    0.016
 4804.00    0.67663   0.88105    0.016
 4805.00    0.63862   0.87945    0.016
 4806.00    0.64198   0.87992    0.016
 4807.00    0.66738   0.88073    0.015
 4808.00    0.70965   0.87976    0.015
 4809.00    0.71977   0.87992    0.015
 4810.00    0.70828   0.88091    0.016
 4811.00    0.71978   0.88035    0.015
 4812.00    0.74483   0.87982    0.015
 4813.00    0.76286   0.88065    0.015
 4814.00    0.77729   0.87968    0.015
 4815.00    0.71257   0.87819    0.015
 4816.00    0.61262   0.87886    0.015
 4817.00    0.52840   0.87675    0.015
 4818.00    0.45020   0.87435    0.015
 4819.00    0.48160   0.87492    0.015
 4820.00    0.54864   0.87153    0.015
 4821.00    0.66076   0.86858    0.016
 4822.00    0.78514   0.86908    0.016
 4823.00    0.80262   0.86541    0.015
 4824.00    0.79621   0.86280    0.015
 4825.00    0.81488   0.86264    0.015
 4826.00    0.83803   0.85888    0.016
 4827.00    0.69599   0.85724    0.015
 4828.00    0.53146   0.85658    0.015
 4829.00    0.52857   0.85265    0.015
 4830.00    0.54140   0.85136    0.015
 4831.00    0.53509   0.85046    0.015
 4832.00    0.52763   0.84705    0.015
 4833.00    0.53282   0.84533    0.015
 4834.00    0.53871   0.84340    0.015
 4835.00    0.61117   0.84068    0.015
 4836.00    0.68045   0.83848    0.015
 4837.00    0.66679   0.83472    0.015
 4838.00    0.65143   0.83210    0.015
 4839.00    0.61287   0.82959    0.015
 4840.00    0.57698   0.82382    0.015
 4841.00    0.56513   0.82027    0.015
 4842.00    0.56580   0.81679    0.015
 4843.00    0.64952   0.80914    0.015
 4844.00    0.69289   0.80421    0.015
 4845.00    0.52809   0.79866    0.015
 4846.00    0.43727   0.78864    0.015
 4847.00    0.65438   0.78256    0.015
 4848.00    0.83882   0.77567    0.000
 4849.00    0.91078   0.76344    0.000
 4850.00    0.90696   0.75629    0.000
 4851.00    0.68339   0.74963    0.000
 4852.00    0.54092   0.73666    0.000
 4853.00    0.59919   0.72939    0.000
 4854.00    0.65771   0.72509    0.000
 4855.00    0.71680   0.71421    0.000
 4856.00    0.71440   0.70870    0.000
 4857.00    0.59807   0.70787    0.000
 4858.00    0.52827   0.70075    0.000
 4859.00    0.53381   0.69869    0.000
 4860.00    0.56960   0.70268    0.000
 4861.00    0.64834   0.70100    0.000
 4862.00    0.73497   0.70215    0.000
 4863.00    0.83147   0.70920    0.000
 4864.00    0.83875   0.71276    0.000
 4865.00    0.74779   0.71635    0.000
 4866.00    0.66743   0.72404    0.000
 4867.00    0.59737   0.73120    0.000
 4868.00    0.59895   0.73625    0.000
 4869.00    0.66190   0.74233    0.000
 4870.00    0.72914   0.75106    0.000
 4871.00    0.79963   0.75752    0.000
 4872.00    0.77382   0.76111    0.000
 4873.00    0.68419   0.76867    0.000
 4874.00    0.61334   0.77552    0.000
 4875.00    0.55337   0.77703    0.015
 4876.00    0.54834   0.78226    0.015
 4877.00    0.57110   0.78873    0.016
 4878.00    0.67461   0.78915    0.016
 4879.00    0.81347   0.79150    0.015
 4880.00    0.77851   0.79726    0.015
 4881.00    0.67821   0.79850    0.016
 4882.00    0.64561   0.79882    0.016
 4883.00    0.63459   0.80388    0.015
 4884.00    0.59928   0.80685    0.015
 4885.00    0.55750   0.80655    0.015
 4886.00    0.58814   0.81206    0.015
 4887.00    0.63458   0.81665    0.015
 4888.00    0.69661   0.81585    0.015
 4889.00    0.76134   0.82201    0.016
 4890.00    0.77783   0.82797    0.016
 4891.00    0.78796   0.82735    0.016
 4892.00    0.77697   0.83323    0.016
 4893.00    0.76402   0.83850    0.016
 4894.00    0.84965   0.83743    0.016
 4895.00    0.94087   0.84215    0.016
 4896.00    0.76126   0.84582    0.016
 4897.00    0.57682   0.84383    0.016
 4898.00    0.53995   0.84645    0.016
 4899.00    0.51208   0.84849    0.016
 4900.00    0.69777   0.84602    0.016
 4901.00    0.85951   0.84587    0.016
 4902.00    0.71171   0.84614    0.016
 4903.00    0.58957   0.84402    0.016
 4904.00    0.69058   0.84175    0.016
 4905.00    0.77555   0.84009    0.016
 4906.00    0.75724   0.83796    0.016
 4907.00    0.74495   0.83449    0.016
 4908.00    0.76288   0.83178    0.016
 4909.00    0.76555   0.82974    0.016
 4910.00    0.70613   0.82626    0.016
 4911.00    0.66747   0.82338    0.016
 4912.00    0.69891   0.82109    0.016
 4913.00    0.72077   0.81845    0.016
 4914.00    0.71539   0.81676    0.016
 4915.00    0.72051   0.81441    0.016
 4916.00    0.75114   0.81299    0.016
 4917.00    0.76326   0.81366    0.016
 4918.00    0.73650   0.81211    0.016
 4919.00    0.73192   0.81240    0.016
 4920.00    0.76780   0.81611    0.016
 4921.00    0.77357   0.81507    0.016
 4922.00    0.73131   0.81562    0.016
 4923.00    0.70194   0.82162    0.015
 4924.00    0.69061   0.82104    0.015
 4925.00    0.70351   0.82105    0.015
 4926.00    0.74626   0.82776    0.015
 4927.00    0.74396   0.82673    0.015
 4928.00    0.69275   0.82583    0.015
 4929.00    0.68148   0.83233    0.015
 4930.00    0.70846   0.83069    0.015
 4931.00    0.67023   0.82915    0.015
 4932.00    0.57694   0.83518    0.015
 4933.00    0.50319   0.83367    0.015
 4934.00    0.44397   0.83262    0.015
 4935.00    0.47048   0.83820    0.016
 4936.00    0.55298   0.83690    0.016
 4937.00    0.58958   0.83678    0.016
 4938.00    0.59993   0.84257    0.016
 4939.00    0.65373   0.84169    0.015
 4940.00    0.72916   0.84158    0.000
 4941.00    0.73331   0.84676    0.000
 4942.00    0.70677   0.84597    0.000
 4943.00    0.69675   0.84510    0.000
 4944.00    0.69283   0.84878    0.000
 4945.00    0.74389   0.84733    0.000
 4946.00    0.81213   0.84535    0.000
 4947.00    0.76685   0.84725    0.000
 4948.00    0.69195   0.84440    0.000
 4949.00    0.74802   0.84146    0.000
 4950.00    0.83198   0.84235    0.000
 4951.00    0.84197   0.83824    0.000
 4952.00    0.83949   0.83476    0.000
 4953.00    0.72417   0.83567    0.000
 4954.00    0.59450   0.83177    0.000
 4955.00    0.63889   0.82845    0.000
 4956.00    0.69872   0.82931    0.000
 4957.00    0.71572   0.82694    0.000
 4958.00    0.73046   0.82468    0.000
 4959.00    0.79377   0.82498    0.000
 4960.00    0.85644   0.82402    0.000
 4961.00    0.79551   0.82292    0.000
 4962.00    0.73504   0.82279    0.000
 4963.00    0.68480   0.82270    0.000
 4964.00    0.63847   0.82188    0.000
 4965.00    0.64003   0.82140    0.000
 4966.00    0.64195   0.82143    0.000
 4967.00    0.64694   0.81982    0.000
 4968.00    0.65654   0.81893    0.000
 4969.00    0.69500   0.81842    0.000
 4970.00    0.72747   0.81529    0.000
 4971.00    0.73060   0.81397    0.000
 4972.00    0.73795   0.81281    0.000
 4973.00    0.76206   0.80813    0.000
 4974.00    0.78981   0.80652    0.000
 4975.00    0.82957   0.80545    0.000
 4976.00    0.84858   0.79991    0.000
 4977.00    0.80958   0.79831    0.000
 4978.00    0.77974   0.79821    0.000
 4979.00    0.77180   0.79310    0.000
 4980.00    0.75616   0.79234    0.000
 4981.00    0.72464   0.79349    0.000
 4982.00    0.69842   0.78926    0.000
 4983.00    0.68175   0.78981    0.000
 4984.00    0.69034   0.79173    0.000
 4985.00    0.73863   0.78804    0.000
 4986.00    0.70970   0.78984    0.000
 4987.00    0.57427   0.79165    0.000
 4988.00    0.53515   0.78773    0.000
 4989.00    0.61296   0.78997    0.000
 4990.00    0.66907   0.79065    0.000
 4991.00    0.70195   0.78590    0.000
 4992.00    0.67177   0.78774    0.000
 4993.00    0.58205   0.78692    0.000
 4994.00    0.56683   0.78120    0.000
 4995.00    0.61364   0.78223    0.000
 4996.00    0.69527   0.78031    0.000
 4997.00    0.80243   0.77397    0.000
 4998.00    0.84653   0.77415    0.000
 4999.00    0.85004   0.77207    0.000
 5000.00    0.77798   0.76581    0.000
 5001.00    0.66338   0.76540    0.000
 5002.00    0.66320   0.76373    0.000
 5003.00    0.71909   0.75812    0.000
 5004.00    0.73891   0.75756    0.000
 5005.00    0.74347   0.75670    0.000
 5006.00    0.81217   0.75210    0.000
 5007.00    0.90412   0.75175    0.000
 5008.00    0.84800   0.75190    0.000
 5009.00    0.74646   0.74857    0.000
 5010.00    0.66967   0.74858    0.000
 5011.00    0.59920   0.74990    0.000
 5012.00    0.56006   0.74801    0.000
 5013.00    0.52741   0.74848    0.000
 5014.00    0.59719   0.75114    0.000
 5015.00    0.68374   0.75068    0.000
 5016.00    0.74061   0.75152    0.000
 5017.00    0.79384   0.75538    0.000
 5018.00    0.78577   0.75607    0.000
 5019.00    0.77253   0.75702    0.000
 5020.00    0.77497   0.76148    0.000
 5021.00    0.77818   0.76268    0.000
 5022.00    0.73656   0.76348    0.000
 5023.00    0.69510   0.76747    0.000
 5024.00    0.70536   0.76833    0.000
 5025.00    0.71472   0.76887    0.000
 5026.00    0.70615   0.77130    0.000
 5027.00    0.70037   0.77115    0.000
 5028.00    0.72717   0.77160    0.000
 5029.00    0.75072   0.77187    0.015
 5030.00    0.74802   0.77056    0.015
 5031.00    0.74584   0.77137    0.015
 5032.00    0.74673   0.76980    0.015
 5033.00    0.74556   0.76779    0.015
 5034.00    0.73452   0.76953    0.015
 5035.00    0.72462   0.76718    0.015
 5036.00    0.71917   0.76526    0.015
 5037.00    0.69248   0.76822    0.015
 5038.00    0.59691   0.76632    0.015
 5039.00    0.54894   0.76515    0.015
 5040.00    0.63162   0.76909    0.015
 5041.00    0.68394   0.76847    0.015
 5042.00    0.66489   0.76827    0.015
 5043.00    0.66667   0.77252    0.015
 5044.00    0.71081   0.77326    0.015
 5045.00    0.73268   0.77393    0.015
 5046.00    0.71516   0.77777    0.015
 5047.00    0.68402   0.77929    0.015
 5048.00    0.63181   0.78055    0.015
 5049.00    0.60983   0.78348    0.015
 5050.00    0.62892   0.78489    0.015
 5051.00    0.63653   0.78632    0.015
 5052.00    0.63039   0.78818    0.015
 5053.00    0.64889   0.78853    0.015
 5054.00    0.69339   0.78968    0.015
 5055.00    0.67787   0.79044    0.014
 5056.00    0.60649   0.78915    0.014
 5057.00    0.59658   0.78952    0.014
 5058.00    0.63713   0.78937    0.014
 5059.00    0.72209   0.78645    0.014
 5060.00    0.83913   0.78572    0.014
 5061.00    0.79625   0.78498    0.014
 5062.00    0.65198   0.78111    0.014
 5063.00    0.64639   0.77927    0.014
 5064.00    0.71768   0.77819    0.014
 5065.00    0.68027   0.77435    0.014
 5066.00    0.59046   0.77171    0.014
 5067.00    0.59771   0.77037    0.014
 5068.00    0.64536   0.76734    0.014
 5069.00    0.67540   0.76459    0.014
 5070.00    0.69917   0.76294    0.014
 5071.00    0.67997   0.76102    0.014
 5072.00    0.64784   0.75902    0.014
 5073.00    0.62664   0.75730    0.014
 5074.00    0.60817   0.75638    0.014
 5075.00    0.67012   0.75579    0.014
 5076.00    0.74836   0.75460    0.014
 5077.00    0.72681   0.75447    0.014
 5078.00    0.68940   0.75539    0.014
 5079.00    0.64344   0.75523    0.014
 5080.00    0.59647   0.75567    0.014
 5081.00    0.55566   0.75754    0.014
 5082.00    0.51534   0.75838    0.014
 5083.00    0.55750   0.75907    0.013
 5084.00    0.60337   0.76093    0.013
 5085.00    0.60235   0.76215    0.013
 5086.00    0.60073   0.76262    0.013
 5087.00    0.59705   0.76362    0.013
 5088.00    0.59783   0.76448    0.013
 5089.00    0.68129   0.76428    0.013
 5090.00    0.75800   0.76406    0.013
 5091.00    0.75958   0.76422    0.013
 5092.00    0.75343   0.76322    0.013
 5093.00    0.68711   0.76201    0.013
 5094.00    0.63595   0.76170    0.013
 5095.00    0.67407   0.76010    0.014
 5096.00    0.71026   0.75859    0.014
 5097.00    0.73748   0.75839    0.014
 5098.00    0.74750   0.75649    0.014
 5099.00    0.69201   0.75546    0.014
 5100.00    0.64976   0.75594    0.013
 5101.00    0.64966   0.75396    0.013
 5102.00    0.65900   0.75384    0.013
 5103.00    0.69379   0.75533    0.013
 5104.00    0.70033   0.75331    0.014
 5105.00    0.64153   0.75398    0.014
 5106.00    0.60871   0.75633    0.014
 5107.00    0.62788   0.75421    0.014
 5108.00    0.64746   0.75505    0.014
 5109.00    0.66777   0.75760    0.014
 5110.00    0.71019   0.75536    0.014
 5111.00    0.78636   0.75558    0.014
 5112.00    0.83473   0.75737    0.014
 5113.00    0.84588   0.75506    0.014
 5114.00    0.80012   0.75415    0.015
 5115.00    0.68719   0.75445    0.015
 5116.00    0.65618   0.75232    0.015
 5117.00    0.71042   0.75040    0.015
 5118.00    0.71753   0.74903    0.015
 5119.00    0.68140   0.74750    0.014
 5120.00    0.70471   0.74533    0.014
 5121.00    0.77611   0.74264    0.014
 5122.00    0.75395   0.74204    0.014
 5123.00    0.66520   0.74055    0.014
 5124.00    0.62618   0.73706    0.014
 5125.00    0.61822   0.73734    0.014
 5126.00    0.64398   0.73722    0.014
 5127.00    0.68816   0.73319    0.014
 5128.00    0.65017   0.73390    0.014
 5129.00    0.57320   0.73531    0.014
 5130.00    0.56235   0.73070    0.014
 5131.00    0.57857   0.73114    0.014
 5132.00    0.62369   0.73394    0.014
 5133.00    0.67891   0.72872    0.014
 5134.00    0.73953   0.72837    0.014
 5135.00    0.80176   0.73219    0.014
 5136.00    0.76953   0.72661    0.014
 5137.00    0.71423   0.72544    0.015
 5138.00    0.65639   0.72992    0.015
 5139.00    0.59804   0.72461    0.014
 5140.00    0.62298   0.72295    0.014
 5141.00    0.66075   0.72761    0.014
 5142.00    0.60731   0.72327    0.014
 5143.00    0.54347   0.72171    0.014
 5144.00    0.55279   0.72584    0.014
 5145.00    0.56768   0.72277    0.014
 5146.00    0.63542   0.72167    0.014
 5147.00    0.70532   0.72454    0.014
 5148.00    0.66487   0.72248    0.014
 5149.00    0.62507   0.72157    0.014
 5150.00    0.65085   0.72222    0.014
 5151.00    0.67700   0.72029    0.014
 5152.00    0.70938   0.71906    0.014
 5153.00    0.72812   0.71678    0.014
 5154.00    0.60170   0.71377    0.014
 5155.00    0.50373   0.71159    0.014
 5156.00    0.61984   0.70639    0.014
 5157.00    0.71478   0.70166    0.014
 5158.00    0.68854   0.69839    0.014
 5159.00    0.67084   0.69120    0.014
 5160.00    0.69201   0.68508    0.014
 5161.00    0.72030   0.68141    0.014
 5162.00    0.77516   0.67414    0.014
 5163.00    0.80229   0.66778    0.014
 5164.00    0.74288   0.66470    0.014
 5165.00    0.68039   0.65952    0.014
 5166.00    0.60972   0.65446    0.014
 5167.00    0.57229   0.65262    0.014
 5168.00    0.61045   0.65075    0.014
 5169.00    0.61349   0.64818    0.013
 5170.00    0.54736   0.64751    0.013
 5171.00    0.53731   0.64848    0.013
 5172.00    0.62347   0.64881    0.013
 5173.00    0.66210   0.64916    0.013
 5174.00    0.62928   0.65147    0.013
 5175.00    0.58610   0.65398    0.013
 5176.00    0.52924   0.65493    0.013
 5177.00    0.52599   0.65724    0.013
 5178.00    0.58512   0.66154    0.013
 5179.00    0.61241   0.66323    0.013
 5180.00    0.60706   0.66450    0.013
 5181.00    0.60944   0.66984    0.013
 5182.00    0.61881   0.67258    0.013
 5183.00    0.67317   0.67280    0.013
 5184.00    0.76340   0.67872    0.013
 5185.00    0.78560   0.68234    0.013
 5186.00    0.76008   0.68147    0.013
 5187.00    0.69831   0.68753    0.013
 5188.00    0.61424   0.69181    0.013
 5189.00    0.63839   0.68993    0.013
 5190.00    0.72071   0.69542    0.000
 5191.00    0.72272   0.69976    0.000
 5192.00    0.68725   0.69637    0.000
 5193.00    0.71826   0.70007    0.000
 5194.00    0.77600   0.70467    0.000
 5195.00    0.73694   0.70052    0.000
 5196.00    0.66465   0.70124    0.000
 5197.00    0.59353   0.70598    0.000
 5198.00    0.52275   0.70296    0.000
 5199.00    0.57735   0.70093    0.000
 5200.00    0.66189   0.70509    0.000
 5201.00    0.63689   0.70442    0.000
 5202.00    0.59081   0.70119    0.000
 5203.00    0.67711   0.70462    0.000
 5204.00    0.78321   0.70655    0.000
 5205.00    0.70217   0.70363    0.000
 5206.00    0.60062   0.70649    0.000
 5207.00    0.50336   0.71040    0.000
 5208.00    0.40640   0.70859    0.000
 5209.00    0.54338   0.71091    0.000
 5210.00    0.68909   0.71554    0.000
 5211.00    0.62321   0.71486    0.014
 5212.00    0.56144   0.71658    0.014
 5213.00    0.68489   0.72044    0.014
 5214.00    0.80422   0.71999    0.014
 5215.00    0.85679   0.72108    0.014
 5216.00    0.89443   0.72388    0.014
 5217.00    0.78020   0.72271    0.014
 5218.00    0.68442   0.72277    0.014
 5219.00    0.72289   0.72522    0.014
 5220.00    0.76166   0.72358    0.014
 5221.00    0.80207   0.72284    0.014
 5222.00    0.82288   0.72618    0.014
 5223.00    0.75651   0.72506    0.014
 5224.00    0.67473   0.72340    0.014
 5225.00    0.53660   0.72790    0.014
 5226.00    0.45450   0.72847    0.014
 5227.00    0.54390   0.72635    0.014
 5228.00    0.62732   0.73153    0.014
 5229.00    0.69515   0.73409    0.014
 5230.00    0.72560   0.73214    0.014
 5231.00    0.67244   0.73692    0.014
 5232.00    0.64281   0.74091    0.014
 5233.00    0.65879   0.73978    0.014
 5234.00    0.70308   0.74257    0.014
 5235.00    0.79523   0.74606    0.014
 5236.00    0.83316   0.74590    0.013
 5237.00    0.79077   0.74640    0.013
 5238.00    0.75198   0.74834    0.013
 5239.00    0.71785   0.74919    0.013
 5240.00    0.68888   0.74789    0.013
 5241.00    0.66580   0.74751    0.013
 5242.00    0.64700   0.74866    0.013
 5243.00    0.63252   0.74653    0.013
 5244.00    0.66565   0.74395    0.013
 5245.00    0.74126   0.74499    0.013
 5246.00    0.76936   0.74305    0.013
 5247.00    0.76009   0.73865    0.013
 5248.00    0.74419   0.73886    0.013
 5249.00    0.72368   0.73749    0.013
 5250.00    0.71317   0.73195    0.014
 5251.00    0.70870   0.73045    0.013
 5252.00    0.69355   0.72930    0.013
 5253.00    0.67273   0.72361    0.013
 5254.00    0.65721   0.72011    0.013
 5255.00    0.64412   0.71852    0.014
 5256.00    0.70624   0.71321    0.014
 5257.00    0.79809   0.70808    0.014
 5258.00    0.80441   0.70655    0.014
 5259.00    0.78192   0.70234    0.014
 5260.00    0.70791   0.69605    0.014
 5261.00    0.61932   0.69574    0.014
 5262.00    0.58837   0.69442    0.014
 5263.00    0.57087   0.68778    0.014
 5264.00    0.58219   0.68865    0.014
 5265.00    0.59891   0.69183    0.014
 5266.00    0.63263   0.68676    0.014
 5267.00    0.66881   0.68828    0.014
 5268.00    0.67510   0.69600    0.015
 5269.00    0.67824   0.69405    0.015
 5270.00    0.73092   0.69531    0.015
 5271.00    0.78698   0.70557    0.015
 5272.00    0.72276   0.70738    0.015
 5273.00    0.65450   0.70820    0.015
 5274.00    0.68257   0.71790    0.015
 5275.00    0.70959   0.72245    0.015
 5276.00    0.69984   0.72402    0.015
 5277.00    0.69897   0.73144    0.015
 5278.00    0.83353   0.73593    0.014
 5279.00    0.94683   0.73813    0.014
 5280.00    0.85274   0.74346    0.014
 5281.00    0.77112   0.74676    0.014
 5282.00    0.77732   0.74887    0.014
 5283.00    0.77983   0.75226    0.014
 5284.00    0.76227   0.75375    0.014
 5285.00    0.73724   0.75493    0.014
 5286.00    0.67976   0.75721    0.014
 5287.00    0.63138   0.75769    0.014
 5288.00    0.61551   0.75731    0.014
 5289.00    0.62640   0.75843    0.014
 5290.00    0.71765   0.75899    0.014
 5291.00    0.77519   0.75766    0.014
 5292.00    0.74652   0.75747    0.014
 5293.00    0.73178   0.75864    0.014
 5294.00    0.74770   0.75775    0.014
 5295.00    0.75364   0.75699    0.014
 5296.00    0.74053   0.75892    0.014
 5297.00    0.75403   0.75905    0.014
 5298.00    0.81184   0.75805    0.014
 5299.00    0.80276   0.76071    0.014
 5300.00    0.69605   0.76220    0.014
 5301.00    0.65548   0.76102    0.014
 5302.00    0.69978   0.76333    0.014
 5303.00    0.70833   0.76567    0.013
 5304.00    0.67646   0.76455    0.013
 5305.00    0.66656   0.76541    0.013
 5306.00    0.67858   0.76707    0.013
 5307.00    0.71714   0.76564    0.013
 5308.00    0.77905   0.76481    0.013
 5309.00    0.77995   0.76504    0.013
 5310.00    0.73359   0.76289    0.013
 5311.00    0.70100   0.76036    0.013
 5312.00    0.67779   0.75895    0.013
 5313.00    0.69156   0.75624    0.013
 5314.00    0.72741   0.75269    0.013
 5315.00    0.76483   0.74983    0.013
 5316.00    0.80307   0.74678    0.013
 5317.00    0.80625   0.74317    0.013
 5318.00    0.79359   0.73947    0.013
 5319.00    0.76114   0.73669    0.013
 5320.00    0.72102   0.73433    0.013
 5321.00    0.74038   0.73047    0.013
 5322.00    0.77941   0.72816    0.013
 5323.00    0.74663   0.72805    0.013
 5324.00    0.69394   0.72498    0.013
 5325.00    0.69602   0.72300    0.013
 5326.00    0.71060   0.72515    0.013
 5327.00    0.62240   0.72401    0.013
 5328.00    0.51544   0.72234    0.013
 5329.00    0.54576   0.72539    0.013
 5330.00    0.59535   0.72629    0.013
 5331.00    0.64892   0.72581    0.014
 5332.00    0.70290   0.72875    0.014
 5333.00    0.67633   0.73015    0.014
 5334.00    0.64458   0.73076    0.014
 5335.00    0.72191   0.73407    0.014
 5336.00    0.80236   0.73538    0.014
 5337.00    0.83436   0.73537    0.014
 5338.00    0.86176   0.73908    0.014
 5339.00    0.75783   0.74142    0.014
 5340.00    0.66229   0.74059    0.014
 5341.00    0.68710   0.74407    0.014
 5342.00    0.71337   0.74761    0.014
 5343.00    0.75328   0.74691    0.014
 5344.00    0.77920   0.75006    0.014
 5345.00    0.70962   0.75395    0.014
 5346.00    0.65062   0.75351    0.014
 5347.00    0.64749   0.75626    0.014
 5348.00    0.65164   0.75984    0.013
 5349.00    0.68673   0.75924    0.013
 5350.00    0.71206   0.76077    0.013
 5351.00    0.70316   0.76370    0.014
 5352.00    0.68198   0.76308    0.014
 5353.00    0.62463   0.76275    0.014
 5354.00    0.63105   0.76403    0.014
 5355.00    0.79773   0.76283    0.013
 5356.00    0.87998   0.76114    0.013
 5357.00    0.77954   0.76100    0.013
 5358.00    0.73296   0.75874    0.013
 5359.00    0.78756   0.75630    0.013
 5360.00    0.79615   0.75570    0.013
 5361.00    0.72928   0.75261    0.013
 5362.00    0.68165   0.74981    0.013
 5363.00    0.66171   0.74987    0.013
 5364.00    0.68472   0.74707    0.013
 5365.00    0.76207   0.74436    0.013
 5366.00    0.80035   0.74556    0.013
 5367.00    0.79507   0.74391    0.013
 5368.00    0.80610   0.74172   -2.000
 5369.00    0.83319   0.74399   -2.000
 5370.00    0.87630   0.74368   -2.000
 5371.00    0.93330   0.74157   -2.000
 5372.00    0.95579   0.74432   -2.000
 5373.00    0.95191   0.74551   -2.000
 5374.00    0.95312   0.74318   -2.000
 5375.00    0.95775   0.74528   -2.000
 5376.00    0.87535   0.74708   -2.000
 5377.00    0.74176   0.74418   -2.000
 5378.00    0.68662   0.74472   -2.000
 5379.00    0.67172   0.74647   -2.000
 5380.00    0.70658   0.74292   -2.000
 5381.00    0.76355   0.74108   -2.000
 5382.00    0.81920   0.74267   -2.000
 5383.00    0.87434   0.73934    0.013
 5384.00    0.80851   0.73499    0.013
 5385.00    0.70346   0.73576    0.014
 5386.00    0.68975   0.73378    0.014
 5387.00    0.70086   0.72801    0.014
 5388.00    0.69962   0.72695    0.014
 5389.00    0.69563   0.72649    0.014
 5390.00    0.74032   0.72090    0.014
 5391.00    0.79366   0.71773    0.014
 5392.00    0.70773   0.71844    0.014
 5393.00    0.60290   0.71460    0.014
 5394.00    0.75232   0.70994    0.014
 5395.00    0.92631   0.71147    0.014
 5396.00    0.78098   0.71036    0.014
 5397.00    0.61644   0.70486    0.014
 5398.00    0.62189   0.70601    0.014
 5399.00    0.63178   0.70809    0.014
 5400.00    0.64456   0.70421    0.014
 5401.00    0.65831   0.70423    0.014
 5402.00    0.69691   0.70771    0.014
 5403.00    0.73010   0.70678    0.014
 5404.00    0.68990   0.70656    0.013
 5405.00    0.65461   0.70991    0.013
 5406.00    0.66341   0.71128    0.013
 5407.00    0.67206   0.71171    0.013
 5408.00    0.67972   0.71483    0.013
 5409.00    0.69675   0.71764    0.013
 5410.00    0.76201   0.71834    0.013
 5411.00    0.80467   0.72048    0.013
 5412.00    0.75349   0.72381    0.013
 5413.00    0.70796   0.72475    0.013
 5414.00    0.68187   0.72557    0.013
 5415.00    0.66295   0.72812    0.013
 5416.00    0.66479   0.72856    0.013
 5417.00    0.65547   0.72792    0.013
 5418.00    0.61859   0.72962    0.013
 5419.00    0.60432   0.72995    0.013
 5420.00    0.63817   0.72795    0.013
 5421.00    0.66044   0.72826    0.013
 5422.00    0.66128   0.72895    0.013
 5423.00    0.67660   0.72654    0.013
 5424.00    0.71531   0.72581    0.013
 5425.00    0.73817   0.72741    0.013
 5426.00    0.73854   0.72529    0.013
 5427.00    0.74697   0.72425    0.013
 5428.00    0.76544   0.72675    0.013
 5429.00    0.75178   0.72487    0.013
 5430.00    0.70283   0.72336    0.013
 5431.00    0.67200   0.72667    0.013
 5432.00    0.65875   0.72644    0.013
 5433.00    0.70723   0.72419    0.013
 5434.00    0.80848   0.72601    0.013
 5435.00    0.81526   0.72784    0.013
 5436.00    0.75092   0.72656    0.013
 5437.00    0.77017   0.72641    0.013
 5438.00    0.84474   0.72838    0.013
 5439.00    0.79260   0.72781    0.013
 5440.00    0.66706   0.72647    0.013
 5441.00    0.67521   0.72744    0.013
 5442.00    0.75085   0.72676    0.013
 5443.00    0.77514   0.72470    0.013
 5444.00    0.77698   0.72482    0.013
 5445.00    0.76110   0.72472    0.013
 5446.00    0.73857   0.72224    0.013
 5447.00    0.65118   0.72102    0.013
 5448.00    0.54315   0.72201    0.013
 5449.00    0.59670   0.72044    0.013
 5450.00    0.69321   0.71814    0.013
 5451.00    0.74708   0.71934    0.013
 5452.00    0.79168   0.71903    0.013
 5453.00    0.78520   0.71645    0.013
 5454.00    0.76989   0.71705    0.013
 5455.00    0.77812   0.71772    0.013
 5456.00    0.78944   0.71537    0.013
 5457.00    0.75175   0.71473    0.013
 5458.00    0.70952   0.71666    0.013
 5459.00    0.75448   0.71578    0.013
 5460.00    0.80434   0.71253    0.013
 5461.00    0.77992   0.71401    0.013
 5462.00    0.75385   0.71573    0.013
 5463.00    0.72798   0.71072    0.013
 5464.00    0.70583   0.70954    0.013
 5465.00    0.77090   0.71350    0.013
 5466.00    0.82801   0.71016    0.013
 5467.00    0.78287   0.70578    0.013
 5468.00    0.73915   0.70906    0.013
 5469.00    0.70774   0.70947    0.013
 5470.00    0.68443   0.70391    0.013
 5471.00    0.71302   0.70430    0.013
 5472.00    0.74598   0.70812    0.013
 5473.00    0.80082   0.70415    0.013
 5474.00    0.84946   0.70144    0.013
 5475.00    0.87288   0.70653    0.013
 5476.00    0.86414   0.70624    0.013
 5477.00    0.74711   0.70161    0.013
 5478.00    0.67653   0.70501   -2.000
 5479.00    0.73784   0.70919   -2.000
 5480.00    0.78067   0.70561   -2.000
 5481.00    0.77861   0.70513   -2.000
 5482.00    0.77120   0.71093   -2.000
 5483.00    0.75261   0.71040   -2.000
 5484.00    0.89010   0.70702   -2.000
 5485.00    1.31183   0.71160   -2.000
 5486.00    1.76682   0.71425   -2.000
 5487.00    2.27477   0.70967   -2.000
 5488.00    2.57811   0.71081   -2.000
 5489.00    2.59562   0.71541   -2.000
 5490.00    2.25123   0.71200   -2.000
 5491.00    1.46195   0.70987   -2.000
 5492.00    0.92773   0.71404   -2.000
 5493.00    0.66994   0.71244   -2.000
 5494.00    0.54789   0.70866   -2.000
 5495.00    0.55559   0.71138   -2.000
 5496.00    0.60499   0.71129   -2.000
 5497.00    0.68952   0.70708   -2.000
 5498.00    0.74970   0.70796   -2.000
 5499.00    0.79179   0.70915   -2.000
 5500.00    0.79092   0.70604   -2.000
 5501.00    0.76205   0.70526   -2.000
 5502.00    0.69259   0.70634    0.013
 5503.00    0.59997   0.70450    0.013
 5504.00    0.61710   0.70380    0.013
 5505.00    0.68875   0.70537    0.013
 5506.00    0.77142   0.70405    0.013
 5507.00    0.85883   0.70327    0.013
 5508.00    0.75972   0.70564    0.013
 5509.00    0.59192   0.70549    0.013
 5510.00    0.58336   0.70467    0.012
 5511.00    0.62449   0.70642    0.012
 5512.00    0.67552   0.70697    0.012
 5513.00    0.72913   0.70686    0.012
 5514.00    0.65528   0.70783    0.012
 5515.00    0.55437   0.70834    0.012
 5516.00    0.59980   0.70888    0.012
 5517.00    0.66979   0.70948    0.012
 5518.00    0.62503   0.70928    0.012
 5519.00    0.56574   0.70978    0.012
 5520.00    0.67056   0.71093    0.012
 5521.00    0.78986   0.71043    0.012
 5522.00    0.73801   0.70974    0.012
 5523.00    0.67720   0.71122    0.012
 5524.00    0.67837   0.71132    0.012
 5525.00    0.68019   0.70934    0.012
 5526.00    0.64362   0.71077    0.012
 5527.00    0.61117   0.71237    0.012
 5528.00    0.66743   0.71024    0.012
 5529.00    0.71785   0.71069    0.012
 5530.00    0.69707   0.71355    0.012
 5531.00    0.68059   0.71323    0.012
 5532.00    0.69995   0.71257    0.012
 5533.00    0.72192   0.71451    0.012
 5534.00    0.76021   0.71587    0.012
 5535.00    0.78317   0.71541    0.012
 5536.00    0.73114   0.71625    0.012
 5537.00    0.69257   0.71809    0.012
 5538.00    0.70744   0.71863    0.012
 5539.00    0.72888   0.71891    0.013
 5540.00    0.77200   0.71989    0.012
 5541.00    0.79340   0.72101    0.012
 5542.00    0.75423   0.72132    0.012
 5543.00    0.73898   0.72082    0.012
 5544.00    0.78078   0.72134    0.012
 5545.00    0.81107   0.72216    0.012
 5546.00    0.81766   0.72123    0.012
 5547.00    0.81319   0.72059    0.012
 5548.00    0.78892   0.72123    0.012
 5549.00    0.79117   0.72038    0.012
 5550.00    0.83504   0.71889    0.012
 5551.00    0.81963   0.71899    0.011
 5552.00    0.72261   0.71789    0.011
 5553.00    0.68899   0.71550    0.011
 5554.00    0.73222   0.71530    0.011
 5555.00    0.76178   0.71451    0.012
 5556.00    0.77673   0.71151    0.012
 5557.00    0.79131   0.71094    0.012
 5558.00    0.80552   0.71114    0.012
 5559.00    0.78698   0.70763    0.012
 5560.00    0.74121   0.70612    0.012
 5561.00    0.71693   0.70825    0.012
 5562.00    0.70836   0.70505    0.012
 5563.00    0.69467   0.70133    0.012
 5564.00    0.67768   0.70467    0.012
 5565.00    0.71482   0.70397    0.012
 5566.00    0.78237   0.69866    0.012
 5567.00    0.78384   0.70076    0.012
 5568.00    0.75298   0.70280    0.012
 5569.00    0.72229   0.69759    0.012
 5570.00    0.69167   0.69717    0.012
 5571.00    0.67772   0.70087    0.012
 5572.00    0.66979   0.69705    0.012
 5573.00    0.67209   0.69377    0.012
 5574.00    0.67752   0.69700    0.012
 5575.00    0.65991   0.69558    0.012
 5576.00    0.63643   0.69095    0.012
 5577.00    0.69979   0.69171    0.012
 5578.00    0.78114   0.69155    0.012
 5579.00    0.76513   0.68756    0.012
 5580.00    0.73324   0.68683    0.012
 5581.00    0.70013   0.68688    0.012
 5582.00    0.66686   0.68404    0.012
 5583.00    0.63663   0.68285    0.012
 5584.00    0.60665   0.68233    0.012
 5585.00    0.63302   0.68067    0.012
 5586.00    0.66212   0.68058    0.012
 5587.00    0.68794   0.68013    0.012
 5588.00    0.71349   0.67842    0.012
 5589.00    0.72696   0.67912    0.012
 5590.00    0.74119   0.68049    0.012
 5591.00    0.77042   0.67938    0.012
 5592.00    0.79683   0.67973    0.013
 5593.00    0.79055   0.68247    0.013
 5594.00    0.78613   0.68262    0.013
 5595.00    0.79664   0.68233    0.013
 5596.00    0.80426   0.68582    0.013
 5597.00    0.79439   0.68774    0.013
 5598.00    0.78298   0.68644    0.013
 5599.00    0.76419   0.68854    0.013
 5600.00    0.74806   0.69188    0.013
 5601.00    0.74221   0.69136    0.012
 5602.00    0.73459   0.69131    0.012
 5603.00    0.72121   0.69435    0.012
 5604.00    0.71458   0.69524    0.012
 5605.00    0.72643   0.69320    0.012
 5606.00    0.73000   0.69470    0.012
 5607.00    0.71413   0.69691    0.012
 5608.00    0.71379   0.69432    0.012
 5609.00    0.74495   0.69349    0.012
 5610.00    0.74551   0.69567    0.012
 5611.00    0.69204   0.69427    0.012
 5612.00    0.66054   0.69211    0.012
 5613.00    0.66300   0.69356    0.011
 5614.00    0.67200   0.69310    0.011
 5615.00    0.68986   0.68983    0.011
 5616.00    0.69152   0.69063    0.011
 5617.00    0.67380   0.69190    0.011
 5618.00    0.66005   0.68951    0.011
 5619.00    0.65048   0.68962    0.011
 5620.00    0.64099   0.69120    0.011
 5621.00    0.63157   0.68987    0.011
 5622.00    0.62043   0.68990    0.011
 5623.00    0.60789   0.69168    0.011
 5624.00    0.60868   0.69040    0.011
 5625.00    0.61908   0.68949    0.012
 5626.00    0.66492   0.69170    0.012
 5627.00    0.73319   0.69150    0.012
 5628.00    0.76601   0.69001    0.012
 5629.00    0.77923   0.69178    0.012
 5630.00    0.78702   0.69232    0.012
 5631.00    0.79218   0.69029    0.012
 5632.00    0.75172   0.69109    0.012
 5633.00    0.69230   0.69231    0.012
 5634.00    0.70289   0.69019    0.012
 5635.00    0.73835   0.68973    0.012
 5636.00    0.75911   0.69143    0.012
 5637.00    0.77547   0.69021    0.012
 5638.00    0.77370   0.68854    0.012
 5639.00    0.76742   0.69010    0.012
 5640.00    0.73960   0.69032    0.012
 5641.00    0.70742   0.68765    0.012
 5642.00    0.66608   0.68793    0.011
 5643.00    0.62329   0.68964    0.011
 5644.00    0.67331   0.68738    0.011
 5645.00    0.73426   0.68563    0.011
 5646.00    0.76092   0.68777    0.011
 5647.00    0.78485   0.68726    0.011
 5648.00    0.73899   0.68347    0.022
 5649.00    0.69001   0.68430    1.971
 5650.00    0.64276   0.68638   -1.000
 5651.00    0.59607   0.68268   -1.000
 5652.00    0.57552   0.68079   -1.000
 5653.00    0.55603   0.68427   -1.000
 5654.00    0.55590   0.68335   -1.000
 5655.00    0.55959   0.67947   -1.000
 5656.00    0.60559   0.68198   -1.000
 5657.00    0.64674   0.68435   -1.000
 5658.00    0.65026   0.68067   -1.000
 5659.00    0.65674   0.68075    0.146
 5660.00    0.68065   0.68505    0.019
 5661.00    0.69076   0.68426    0.011
 5662.00    0.63666   0.68261    0.011
 5663.00    0.59973   0.68615    0.011
 5664.00    0.62801   0.68795    0.011
 5665.00    0.64893   0.68632    0.011
 5666.00    0.64650   0.68828    0.011
 5667.00    0.64832   0.69107    0.011
 5668.00    0.66158   0.68985    0.011
 5669.00    0.65007   0.68990    0.011
 5670.00    0.58141   0.69278    0.011
 5671.00    0.56957   0.69282    0.011
 5672.00    0.67120   0.69132    0.011
 5673.00    0.74573   0.69290    0.011
 5674.00    0.77315   0.69409    0.011
 5675.00    0.80262   0.69227    0.012
 5676.00    0.83521   0.69195    0.012
 5677.00    0.84737   0.69316    0.012
 5678.00    0.83220   0.69219    0.012
 5679.00    0.81873   0.69087    0.012
 5680.00    0.80724   0.69133    0.012
 5681.00    0.78352   0.69097    0.012
 5682.00    0.74708   0.68969    0.012
 5683.00    0.71976   0.68968    0.011
 5684.00    0.70081   0.68930    0.011
 5685.00    0.66981   0.68836    0.011
 5686.00    0.62908   0.68841    0.011
 5687.00    0.61417   0.68776    0.011
 5688.00    0.61761   0.68594    0.011
 5689.00    0.61628   0.68592    0.011
 5690.00    0.61198   0.68628    0.011
 5691.00    0.62824   0.68358    0.011
 5692.00    0.65571   0.68217    0.011
 5693.00    0.71045   0.68333    0.011
 5694.00    0.77810   0.68126    0.011
 5695.00    0.79352   0.67801    0.011
 5696.00    0.78761   0.67878    0.011
 5697.00    0.75632   0.67894    0.011
 5698.00    0.71618   0.67497    0.011
 5699.00    0.69554   0.67378    0.011
 5700.00    0.68064   0.67570    0.011
 5701.00    0.69713   0.67339    0.011
 5702.00    0.72127   0.67067    0.011
 5703.00    0.73572   0.67303    0.011
 5704.00    0.74827   0.67388    0.011
 5705.00    0.72640   0.67150    0.011
 5706.00    0.69924   0.67282    0.011
 5707.00    0.63382   0.67572    0.011
 5708.00    0.56407   0.67515    0.011
 5709.00    0.60169   0.67548    0.011
 5710.00    0.64744   0.67878    0.011
 5711.00    0.69726   0.68025    0.011
 5712.00    0.74724   0.68085    0.011
 5713.00    0.75260   0.68373    0.011
 5714.00    0.75614   0.68595    0.011
 5715.00    0.69860   0.68722    0.011
 5716.00    0.64554   0.68939    0.011
 5717.00    0.66920   0.69075    0.011
 5718.00    0.68775   0.69198    0.011
 5719.00    0.65227   0.69410    0.011
 5720.00    0.61663   0.69474    0.011
 5721.00    0.57982   0.69492    0.011
 5722.00    0.56357   0.69711    0.011
 5723.00    0.66469   0.69833    0.011
 5724.00    0.73457   0.69703    0.011
 5725.00    0.66259   0.69778    0.011
 5726.00    0.60806   0.69961    0.011
 5727.00    0.61843   0.69840    0.011
 5728.00    0.63516   0.69781    0.011
 5729.00    0.67172   0.69954    0.011
 5730.00    0.69790   0.69929    0.011
 5731.00    0.69665   0.69755    0.011
 5732.00    0.70252   0.69817    0.011
 5733.00    0.72456   0.69903    0.011
 5734.00    0.74323   0.69766    0.011
 5735.00    0.75530   0.69723    0.011
 5736.00    0.75858   0.69779    0.011
 5737.00    0.74684   0.69680    0.011
 5738.00    0.73135   0.69585    0.011
 5739.00    0.71025   0.69634    0.011
 5740.00    0.69406   0.69584    0.000
 5741.00    0.68437   0.69418    0.000
 5742.00    0.70228   0.69407    0.000
 5743.00    0.75224   0.69429    0.000
 5744.00    0.75605   0.69314    0.000
 5745.00    0.71259   0.69230    0.000
 5746.00    0.70263   0.69219    0.000
 5747.00    0.72293   0.69122    0.000
 5748.00    0.73991   0.69009    0.000
 5749.00    0.75426   0.69030    0.000
 5750.00    0.73024   0.69061    0.000
 5751.00    0.67936   0.69002    0.000
 5752.00    0.68242   0.68929    0.000
 5753.00    0.71862   0.68909    0.000
 5754.00    0.74683   0.68897    0.000
 5755.00    0.77075   0.68846    0.000
 5756.00    0.76831   0.68835    0.000
 5757.00    0.75360   0.68919    0.000
 5758.00    0.78374   0.68944    0.000
 5759.00    0.83187   0.68879    0.000
 5760.00    0.79467   0.68876    0.000
 5761.00    0.72824   0.68912    0.000
 5762.00    0.70475   0.68852    0.000
 5763.00    0.69364   0.68777    0.000
 5764.00    0.69227   0.68799    0.000
 5765.00    0.69322   0.68781    0.000
 5766.00    0.69878   0.68700    0.000
 5767.00    0.70524   0.68586    0.000
 5768.00    0.68090   0.68500    0.000
 5769.00    0.65198   0.68457    0.000
 5770.00    0.65154   0.68313    0.000
 5771.00    0.65420   0.68118    0.000
 5772.00    0.73934   0.68061    0.000
 5773.00    0.83038   0.67988    0.000
 5774.00    0.82397   0.67698    0.000
 5775.00    0.81397   0.67563    0.000
 5776.00    0.77876   0.67640    0.000
 5777.00    0.74359   0.67467    0.000
 5778.00    0.71397   0.67224    0.000
 5779.00    0.68715   0.67316    0.000
 5780.00    0.70545   0.67350    0.000
 5781.00    0.72100   0.67138    0.000
 5782.00    0.70871   0.67211    0.000
 5783.00    0.69351   0.67377    0.000
 5784.00    0.65725   0.67250    0.000
 5785.00    0.62945   0.67298    0.000
 5786.00    0.64867   0.67575    0.000
 5787.00    0.67192   0.67620    0.000
 5788.00    0.71304   0.67658    0.000
 5789.00    0.74044   0.67955    0.000
 5790.00    0.71788   0.68030    0.000
 5791.00    0.71907   0.67938   -2.000
 5792.00    0.79281   0.68237   -2.000
 5793.00    0.86281   0.68511   -2.000
 5794.00    0.92309   0.68432   -2.000
 5795.00    0.95394   0.68563   -2.000
 5796.00    0.91913   0.68863   -2.000
 5797.00    0.87460   0.68810   -2.000
 5798.00    0.81124   0.68707   -2.000
 5799.00    0.78657   0.68960   -2.000
 5800.00    0.82716   0.69120   -2.000
 5801.00    0.86104   0.68987   -2.000
 5802.00    0.88501   0.69023   -2.000
 5803.00    0.87776   0.69209   -2.000
 5804.00    0.82994   0.69195   -2.000
 5805.00    0.78652   0.69092   -2.000
 5806.00    0.74811   0.69179   -2.000
 5807.00    0.72663   0.69299   -2.000
 5808.00    0.72223   0.69232   -2.000
 5809.00    0.71165   0.69158   -2.000
 5810.00    0.69557   0.69264   -2.000
 5811.00    0.68372   0.69387    0.000
 5812.00    0.67519   0.69330    0.000
 5813.00    0.68819   0.69312    0.000
 5814.00    0.71604   0.69433    0.000
 5815.00    0.74416   0.69473    0.000
 5816.00    0.77245   0.69394    0.000
 5817.00    0.76698   0.69421    0.000
 5818.00    0.74368   0.69578    0.000
 5819.00    0.70561   0.69595    0.000
 5820.00    0.66077   0.69523    0.000
 5821.00    0.70529   0.69563    0.000
 5822.00    0.78506   0.69671    0.000
 5823.00    0.87039   0.69644    0.000
 5824.00    0.95757   0.69538    0.000
 5825.00    0.94571   0.69610    0.000
 5826.00    0.90587   0.69697    0.000
 5827.00    0.82849   0.69581    0.000
 5828.00    0.74236   0.69480    0.000
 5829.00    0.71460   0.69593    0.000
 5830.00    0.69776   0.69599    0.000
 5831.00    0.69267   0.69381    0.000
 5832.00    0.68928   0.69334    0.000
 5833.00    0.70024   0.69417    0.000
 5834.00    0.71271   0.69289    0.000
 5835.00    0.73246   0.69096    0.000
 5836.00    0.75270   0.69103    0.000
 5837.00    0.78506   0.69075    0.000
 5838.00    0.81783   0.68839    0.000
 5839.00    0.79451   0.68653    0.000
 5840.00    0.77007   0.68614    0.000
 5841.00    0.71107   0.68507    0.000
 5842.00    0.65666   0.68279    0.000
 5843.00    0.67161   0.68095    0.000
 5844.00    0.68498   0.68010    0.000
 5845.00    0.68296   0.67837    0.000
 5846.00    0.67835   0.67556    0.000
 5847.00    0.65550   0.67429    0.000
 5848.00    0.63376   0.67386    0.000
 5849.00    0.61793   0.67188    0.000
 5850.00    0.60170   0.66952    0.000
 5851.00    0.58368   0.66910    0.000
 5852.00    0.56334   0.66837    0.000
 5853.00    0.53470   0.66629    0.000
 5854.00    0.52283   0.66607    0.000
 5855.00    0.56119   0.66639    0.000
 5856.00    0.60480   0.66523    0.000
 5857.00    0.66179   0.66461    0.000
 5858.00    0.69370   0.66526    0.000
 5859.00    0.67054   0.66467    0.000
 5860.00    0.63860   0.66397    0.000
 5861.00    0.58995   0.66531    0.000
 5862.00    0.56655   0.66527    0.000
 5863.00    0.58514   0.66404    0.000
 5864.00    0.62153   0.66464    0.000
 5865.00    0.68385   0.66499    0.000
 5866.00    0.72796   0.66294    0.000
 5867.00    0.74874   0.66199    0.000
 5868.00    0.75754   0.66240    0.000
 5869.00    0.75282   0.66015    0.000
 5870.00    0.73798   0.65745    0.000
 5871.00    0.71306   0.65651    0.000
 5872.00    0.70526   0.65415    0.000
 5873.00    0.71251   0.65011    0.000
 5874.00    0.70937   0.64717    0.000
 5875.00    0.69819   0.64350    0.000
 5876.00    0.68285   0.63827    0.000
 5877.00    0.66467   0.63471    0.000
 5878.00    0.65580   0.63082    0.000
 5879.00    0.65249   0.62524    0.000
 5880.00    0.67078   0.62157    0.000
 5881.00    0.70032   0.61754    0.000
 5882.00    0.69974   0.60983    0.000
 5883.00    0.68559   0.60495    0.000
 5884.00    0.67008   0.60448    0.000
 5885.00    0.65404   0.59997    0.000
 5886.00    0.63012   0.59504    0.000
 5887.00    0.60361   0.59655    0.000
 5888.00    0.56380   0.59499    0.000
 5889.00    0.52031   0.58816    0.000
 5890.00    0.52547   0.58919    0.000
 5891.00    0.54170   0.59466    0.000
 5892.00    0.54820   0.59289    0.000
 5893.00    0.55292   0.59275    0.000
 5894.00    0.53587   0.60025    0.000
 5895.00    0.51578   0.60229    0.000
 5896.00    0.50458   0.59978    0.000
 5897.00    0.49427   0.60593    0.000
 5898.00    0.51111   0.61375    0.000
 5899.00    0.52969   0.61415    0.000
 5900.00    0.56073   0.61673    0.000
 5901.00    0.59211   0.62453    0.010
 5902.00    0.61359   0.62720    0.010
 5903.00    0.63367   0.62695    0.010
 5904.00    0.61430   0.63217    0.010
 5905.00    0.59707   0.63729    0.010
 5906.00    0.61034   0.63767    0.010
 5907.00    0.62500   0.63912    0.010
 5908.00    0.65269   0.64313    0.010
 5909.00    0.66993   0.64450    0.010
 5910.00    0.61615   0.64450    0.010
 5911.00    0.56782   0.64661    0.010
 5912.00    0.54809   0.64852    0.010
 5913.00    0.53121   0.64875    0.010
 5914.00    0.52640   0.64909    0.010
 5915.00    0.52247   0.65010    0.010
 5916.00    0.52167   0.65040    0.010
 5917.00    0.52205   0.65083    0.010
 5918.00    0.52593   0.65171    0.010
 5919.00    0.52738   0.65188    0.010
 5920.00    0.52272   0.65184    0.010
 5921.00    0.53420   0.65248    0.010
 5922.00    0.58052   0.65273    0.010
 5923.00    0.60816   0.65183    0.010
 5924.00    0.60078   0.65226    0.010
 5925.00    0.61179   0.65382    0.010
 5926.00    0.65293   0.65349    0.010
 5927.00    0.68514   0.65211    0.010
 5928.00    0.70453   0.65297    0.010
 5929.00    0.67509   0.65417    0.010
 5930.00    0.58398   0.65250    0.010
 5931.00    0.53617   0.65180    0.010
 5932.00    0.53653   0.65410    0.010
 5933.00    0.53541   0.65447    0.010
 5934.00    0.53283   0.65179    0.010
 5935.00    0.53303   0.65173    0.010
 5936.00    0.53563   0.65406    0.010
 5937.00    0.56360   0.65305    0.010
 5938.00    0.61091   0.65091    0.010
 5939.00    0.59995   0.65248    0.010
 5940.00    0.54994   0.65411    0.010
 5941.00    0.51762   0.65159    0.010
 5942.00    0.49569   0.64991    0.010
 5943.00    0.51863   0.65230    0.010
 5944.00    0.56453   0.65308    0.010
 5945.00    0.61133   0.65053    0.010
 5946.00    0.65853   0.65046    0.010
 5947.00    0.65263   0.65292    0.010
 5948.00    0.62651   0.65213    0.010
 5949.00    0.60931   0.64993    0.010
 5950.00    0.59498   0.65147    0.010
 5951.00    0.58430   0.65347    0.010
 5952.00    0.57460   0.65210    0.010
 5953.00    0.55680   0.65153    0.010
 5954.00    0.53719   0.65362    0.010
 5955.00    0.55498   0.65416    0.010
 5956.00    0.57939   0.65317    0.010
 5957.00    0.59540   0.65400    0.010
 5958.00    0.61027   0.65524    0.010
 5959.00    0.58615   0.65482    0.010
 5960.00    0.55829   0.65508    0.010
 5961.00    0.56026   0.65604    0.010
 5962.00    0.56401   0.65594    0.010
 5963.00    0.61406   0.65575    0.010
 5964.00    0.66483   0.65632    0.010
 5965.00    0.64399   0.65595    0.010
 5966.00    0.62222   0.65495    0.010
 5967.00    0.57641   0.65549    0.010
 5968.00    0.53359   0.65570    0.010
 5969.00    0.53102   0.65434    0.010
 5970.00    0.53011   0.65350    0.010
 5971.00    0.54401   0.65396    0.010
 5972.00    0.55763   0.65319    0.010
 5973.00    0.56944   0.65134    0.010
 5974.00    0.58147   0.65127    0.010
 5975.00    0.59467   0.65189    0.010
 5976.00    0.59904   0.65055    0.010
 5977.00    0.56690   0.64862    0.010
 5978.00    0.54406   0.64912    0.010
 5979.00    0.55312   0.64976    0.010
 5980.00    0.56836   0.64807    0.010
 5981.00    0.60147   0.64713    0.010
 5982.00    0.61828   0.64860    0.010
 5983.00    0.59493   0.64856    0.010
 5984.00    0.57201   0.64612    0.010
 5985.00    0.54996   0.64612    0.010
 5986.00    0.53226   0.64809    0.010
 5987.00    0.52259   0.64736    0.010
 5988.00    0.52319   0.64562    0.010
 5989.00    0.54036   0.64662    0.010
 5990.00    0.55129   0.64739    0.010
 5991.00    0.55338   0.64525    0.010
 5992.00    0.54598   0.64432    0.010
 5993.00    0.52677   0.64596    0.010
 5994.00    0.53410   0.64570    0.010
 5995.00    0.57057   0.64359    0.010
 5996.00    0.60048   0.64345    0.010
 5997.00    0.62403   0.64401    0.010
 5998.00    0.62433   0.64234    0.010
 5999.00    0.60479   0.64110    0.010
 6000.00    0.59624   0.64210    0.010
 6001.00    0.59596   0.64163    0.010
 6002.00    0.60421   0.63934    0.010
 6003.00    0.61810   0.63925    0.010
 6004.00    0.61976   0.64028    0.010
 6005.00    0.61436   0.63869    0.010
 6006.00    0.60717   0.63714    0.010
 6007.00    0.59907   0.63872    0.010
 6008.00    0.58827   0.63885    0.010
 6009.00    0.57628   0.63623    0.010
 6010.00    0.61164   0.63659    0.010
 6011.00    0.66473   0.63936    0.010
 6012.00    0.66390   0.63842    0.010
 6013.00    0.64596   0.63598    0.010
 6014.00    0.61242   0.63827    0.010
 6015.00    0.57473   0.64055    0.010
 6016.00    0.55764   0.63851    0.010
 6017.00    0.54501   0.63830    0.010
 6018.00    0.54981   0.64218    0.010
 6019.00    0.55760   0.64308    0.010
 6020.00    0.56187   0.64073    0.010
 6021.00    0.56568   0.64263    0.010
 6022.00    0.55418   0.64632    0.010
 6023.00    0.54127   0.64585    0.010
 6024.00    0.54904   0.64496    0.010
 6025.00    0.55798   0.64823    0.010
 6026.00    0.57622   0.65047    0.010
 6027.00    0.59454   0.64912    0.010
 6028.00    0.60089   0.64987    0.010
 6029.00    0.60671   0.65289    0.010
 6030.00    0.60040   0.65350    0.010
 6031.00    0.59325   0.65244    0.010
 6032.00    0.57528   0.65410    0.010
 6033.00    0.56030   0.65613    0.010
 6034.00    0.57111   0.65549    0.010
 6035.00    0.57928   0.65508    0.010
 6036.00    0.57063   0.65675    0.010
 6037.00    0.56253   0.65752    0.010
 6038.00    0.55719   0.65629    0.010
 6039.00    0.55838   0.65652    0.010
 6040.00    0.58602   0.65780    0.010
 6041.00    0.60610   0.65738    0.010
 6042.00    0.60080   0.65607    0.010
 6043.00    0.59195   0.65664    0.010
 6044.00    0.57304   0.65730    0.010
 6045.00    0.56430   0.65598    0.010
 6046.00    0.58021   0.65516    0.010
 6047.00    0.60122   0.65555    0.010
 6048.00    0.63289   0.65532    0.010
 6049.00    0.65511   0.65402    0.010
 6050.00    0.66017   0.65374    0.010
 6051.00    0.65617   0.65387    0.009
 6052.00    0.63777   0.65321    0.009
 6053.00    0.61980   0.65243    0.010
 6054.00    0.60244   0.65181    0.010
 6055.00    0.57868   0.65166    0.010
 6056.00    0.54709   0.65169    0.010
 6057.00    0.52516   0.65146    0.010
 6058.00    0.51369   0.65075    0.010
 6059.00    0.51680   0.65077    0.010
 6060.00    0.53382   0.65117    0.010
 6061.00    0.54500   0.65060    0.010
 6062.00    0.55126   0.65025    0.010
 6063.00    0.56136   0.65077    0.010
 6064.00    0.57432   0.65084    0.010
 6065.00    0.57399   0.64992    0.010
 6066.00    0.56501   0.64996    0.010
 6067.00    0.54823   0.65023    0.010
 6068.00    0.52701   0.64965    0.009
 6069.00    0.53510   0.64959    0.009
 6070.00    0.55772   0.64947    0.010
 6071.00    0.57123   0.64810    0.010
 6072.00    0.58082   0.64723    0.010
 6073.00    0.56437   0.64793    0.010
 6074.00    0.53836   0.64695    0.010
 6075.00    0.52816   0.64482    0.010
 6076.00    0.52290   0.64500    0.009
 6077.00    0.51882   0.64567    0.009
 6078.00    0.51504   0.64319    0.009
 6079.00    0.51614   0.64113    0.009
 6080.00    0.51828   0.64246    0.009
 6081.00    0.54281   0.64235    0.009
 6082.00    0.57110   0.63948    0.009
 6083.00    0.57421   0.63885    0.009
 6084.00    0.57415   0.64046    0.009
 6085.00    0.53911   0.63916    0.009
 6086.00    0.50100   0.63685    0.009
 6087.00    0.47772   0.63732    0.010
 6088.00    0.45520   0.63828    0.010
 6089.00    0.44709   0.63713    0.009
 6090.00    0.43951   0.63610    0.009
 6091.00    0.45123   0.63604    0.009
 6092.00    0.46318   0.63551    0.009
 6093.00    0.48002   0.63539    0.010
 6094.00    0.49353   0.63570    0.010
 6095.00    0.46689   0.63558    0.010
 6096.00    0.44728   0.63492    0.009
 6097.00    0.48608   0.63490    0.009
 6098.00    0.52269   0.63484    0.010
 6099.00    0.54575   0.63436    0.010
 6100.00    0.56236   0.63454    0.010
 6101.00    0.54751   0.63511    0.009
 6102.00    0.53702   0.63469    0.009
 6103.00    0.54383   0.63377    0.010
 6104.00    0.54906   0.63405    0.010
 6105.00    0.54909   0.63459    0.010
 6106.00    0.54620   0.63460    0.010
 6107.00    0.53519   0.63393    0.009
 6108.00    0.52709   0.63336    0.009
 6109.00    0.52592   0.63375    0.009
 6110.00    0.52930   0.63355    0.009
 6111.00    0.54208   0.63171    0.009
 6112.00    0.54907   0.63133    0.009
 6113.00    0.54569   0.63279    0.009
 6114.00    0.55116   0.63188    0.009
 6115.00    0.57049   0.62931    0.009
 6116.00    0.58040   0.62941    0.009
 6117.00    0.57737   0.63033    0.009
 6118.00    0.57545   0.62815    0.009
 6119.00    0.57487   0.62636    0.009
 6120.00    0.57776   0.62781    0.009
 6121.00    0.58437   0.62763    0.010
 6122.00    0.57242   0.62425    0.010
 6123.00    0.54301   0.62377    0.010
 6124.00    0.51023   0.62608    0.010
 6125.00    0.47464   0.62465    0.010
 6126.00    0.46115   0.62093    0.010
 6127.00    0.46380   0.62162    0.010
 6128.00    0.46953   0.62404    0.009
 6129.00    0.47725   0.62224    0.009
 6130.00    0.49327   0.61954    0.009
 6131.00    0.51396   0.62092    0.009
 6132.00    0.52614   0.62244    0.009
 6133.00    0.53416   0.62015    0.009
 6134.00    0.52992   0.61891    0.010
 6135.00    0.52051   0.62127    0.010
 6136.00    0.53114   0.62189    0.010
 6137.00    0.54900   0.61889    0.010
 6138.00    0.55516   0.61850    0.010
 6139.00    0.55776   0.62099    0.010
 6140.00    0.55320   0.62100    0.010
 6141.00    0.54683   0.61892    0.010
 6142.00    0.56132   0.61887    0.010
 6143.00    0.58012   0.61925    0.010
 6144.00    0.56395   0.61784    0.010
 6145.00    0.54211   0.61719    0.009
 6146.00    0.52778   0.61685    0.009
 6147.00    0.51436   0.61484    0.009
 6148.00    0.53797   0.61334    0.009
 6149.00    0.56466   0.61352    0.009
 6150.00    0.56658   0.61099    0.009
 6151.00    0.56732   0.60712    0.009
 6152.00    0.52593   0.60724    0.009
 6153.00    0.48452   0.60787    0.009
 6154.00    0.47679   0.60328    0.009
 6155.00    0.47251   0.59954    0.009
 6156.00    0.53610   0.60187    0.009
 6157.00    0.59491   0.60149    0.010
 6158.00    0.59846   0.59518    0.010
 6159.00    0.59559   0.59382    0.010
 6160.00    0.54143   0.59836    0.010
 6161.00    0.49528   0.59661    0.010
 6162.00    0.49736   0.59055    0.010
 6163.00    0.50176   0.59258    0.009
 6164.00    0.51716   0.59758    0.009
 6165.00    0.53097   0.59425    0.009
 6166.00    0.53863   0.59053    0.009
 6167.00    0.55039   0.59575    0.009
 6168.00    0.57539   0.59922    0.009
 6169.00    0.58680   0.59431    0.009
 6170.00    0.56112   0.59365    0.009
 6171.00    0.53327   0.60001    0.009
 6172.00    0.50036   0.60077    0.009
 6173.00    0.47611   0.59653    0.009
 6174.00    0.46938   0.59896    0.009
 6175.00    0.46322   0.60358    0.009
 6176.00    0.45804   0.60087    0.009
 6177.00    0.45916   0.59831    0.009
 6178.00    0.46997   0.60276    0.009
 6179.00    0.48659   0.60482    0.009
 6180.00    0.51108   0.60025    0.009
 6181.00    0.54122   0.59972    0.009
 6182.00    0.57810   0.60422    0.009
 6183.00    0.60275   0.60360    0.009
 6184.00    0.61453   0.59950    0.010
 6185.00    0.59641   0.60101    0.010
 6186.00    0.55056   0.60430    0.010
 6187.00    0.52306   0.60174    0.010
 6188.00    0.51058   0.59881    0.010
 6189.00    0.51876   0.60169    0.010
 6190.00    0.54181   0.60402    0.010
 6191.00    0.54612   0.60094    0.010
 6192.00    0.53861   0.59934    0.009
 6193.00    0.62126   0.60249    0.009
 6194.00    0.75370   0.60365    0.009
 6195.00    1.07274   0.60095    0.010
 6196.00    1.48139   0.60027   -2.000
 6197.00    1.67067   0.60262   -2.000
 6198.00    1.76902   0.60271   -2.000
 6199.00    1.44666   0.60030   -2.000
 6200.00    0.97519   0.59980   -2.000
 6201.00    0.46285   0.60104   -2.000
 6202.00   -0.06172   0.60044   -2.000
 6203.00   -0.13451   0.59856   -2.000
 6204.00   -0.09508   0.59777   -2.000
 6205.00    0.06002   0.59753   -2.000
 6206.00    0.23841   0.59653   -2.000
 6207.00    0.35757   0.59511   -2.000
 6208.00    0.46738   0.59397    0.010
 6209.00    0.49538   0.59285    0.010
 6210.00    0.51380   0.59177    0.009
 6211.00    0.50147   0.59043    0.009
 6212.00    0.48670   0.58906    0.009
 6213.00    0.46545   0.58822    0.009
 6214.00    0.44392   0.58774    0.009
 6215.00    0.45379   0.58600    0.009
 6216.00    0.46442   0.58421    0.009
 6217.00    0.49454   0.58440    0.009
 6218.00    0.52273   0.58457    0.009
 6219.00    0.51544   0.58276    0.009
 6220.00    0.50617   0.58130    0.009
 6221.00    0.47497   0.58179    0.009
 6222.00    0.44771   0.58168    0.009
 6223.00    0.45079   0.58045    0.009
 6224.00    0.45536   0.57999    0.009
 6225.00    0.46873   0.58023    0.009
 6226.00    0.47698   0.57952    0.009
 6227.00    0.46151   0.57857    0.009
 6228.00    0.45118   0.57865    0.009
 6229.00    0.46036   0.57874    0.009
 6230.00    0.46221   0.57815    0.009
 6231.00    0.44087   0.57731    0.009
 6232.00    0.42454   0.57688    0.009
 6233.00    0.42164   0.57698    0.009
 6234.00    0.42716   0.57707    0.009
 6235.00    0.45204   0.57609    0.009
 6236.00    0.47147   0.57507    0.009
 6237.00    0.48008   0.57535    0.009
 6238.00    0.48366   0.57519    0.009
 6239.00    0.47852   0.57357    0.009
 6240.00    0.47622   0.57303    0.009
 6241.00    0.47823   0.57388    0.009
 6242.00    0.47733   0.57290    0.009
 6243.00    0.47253   0.57092    0.009
 6244.00    0.44832   0.57151    0.009
 6245.00    0.40130   0.57268    0.009
 6246.00    0.39317   0.57090    0.009
 6247.00    0.42538   0.56970    0.009
 6248.00    0.46594   0.57133    0.009
 6249.00    0.51412   0.57183    0.009
 6250.00    0.52499   0.56973    0.009
 6251.00    0.50577   0.56998    0.009
 6252.00    0.48932   0.57249    0.009
 6253.00    0.47482   0.57228    0.009
 6254.00    0.47315   0.57036    0.009
 6255.00    0.47948   0.57214    0.009
 6256.00    0.53219   0.57531    0.009
 6257.00    0.61013   0.57444    0.009
 6258.00    0.71794   0.57336    0.010
 6259.00    0.83986   0.57631    0.010
 6260.00    0.84234   0.57903    0.011
 6261.00    0.79615   0.57766    0.011
 6262.00    0.66889   0.57762    0.012
 6263.00    0.51342   0.58116    0.012
 6264.00    0.42383   0.58281    0.012
 6265.00    0.35356   0.58115    0.011
 6266.00    0.36715   0.58173    0.011
 6267.00    0.40111   0.58492    0.010
 6268.00    0.41436   0.58582    0.010
 6269.00    0.42356   0.58479    0.009
 6270.00    0.43615   0.58545    0.009
 6271.00    0.44926   0.58744    0.009
 6272.00    0.44188   0.58782    0.009
 6273.00    0.43220   0.58745    0.009
 6274.00    0.41646   0.58821    0.009
 6275.00    0.40025   0.58924    0.009
 6276.00    0.43957   0.58916    0.009
 6277.00    0.48111   0.58879    0.009
 6278.00    0.50475   0.58922    0.009
 6279.00    0.52689   0.59006    0.009
 6280.00    0.49332   0.59030    0.000
 6281.00    0.46133   0.58954    0.000
 6282.00    0.45634   0.58908    0.000
 6283.00    0.45540   0.58975    0.000
 6284.00    0.49715   0.59049    0.000
 6285.00    0.53048   0.58965    0.000
 6286.00    0.50104   0.58844    0.000
 6287.00    0.47356   0.58873    0.000
 6288.00    0.45724   0.58938    0.000
 6289.00    0.44637   0.58846    0.000
 6290.00    0.46017   0.58730    0.000
 6291.00    0.47040   0.58765    0.000
 6292.00    0.46736   0.58790    0.000
 6293.00    0.46114   0.58653    0.000
 6294.00    0.44501   0.58575    0.000
 6295.00    0.43529   0.58666    0.000
 6296.00    0.44248   0.58663    0.000
 6297.00    0.44901   0.58510    0.000
 6298.00    0.45405   0.58457    0.000
 6299.00    0.45654   0.58538    0.000
 6300.00    0.45400   0.58545    0.000
 6301.00    0.45230   0.58475    0.000
 6302.00    0.45201   0.58430    0.000
 6303.00    0.45438   0.58415    0.000
 6304.00    0.46072   0.58432    0.000
 6305.00    0.47388   0.58501    0.000
 6306.00    0.49601   0.58459    0.000
 6307.00    0.50400   0.58326    0.000
 6308.00    0.49557   0.58365    0.000
 6309.00    0.48314   0.58550    0.000
 6310.00    0.46661   0.58479    0.000
 6311.00    0.45873   0.58271    0.000
 6312.00    0.45866   0.58384    0.000
 6313.00    0.45284   0.58619    0.000
 6314.00    0.44245   0.58490    0.000
 6315.00    0.44174   0.58300    0.000
 6316.00    0.44780   0.58494    0.000
 6317.00    0.45143   0.58692    0.000
 6318.00    0.45358   0.58546    0.000
 6319.00    0.45040   0.58430    0.000
 6320.00    0.44436   0.58609    0.000
 6321.00    0.44062   0.58742    0.009
 6322.00    0.43795   0.58659    0.009
 6323.00    0.44991   0.58573    0.009
 6324.00    0.46774   0.58650    0.009
 6325.00    0.46479   0.58759    0.009
 6326.00    0.45474   0.58753    0.009
 6327.00    0.44919   0.58634    0.009
 6328.00    0.44492   0.58593    0.009
 6329.00    0.44751   0.58731    0.009
 6330.00    0.45172   0.58798    0.009
 6331.00    0.44872   0.58592    0.009
 6332.00    0.44435   0.58453    0.009
 6333.00    0.44953   0.58665    0.009
 6334.00    0.45613   0.58786    0.009
 6335.00    0.47112   0.58481    0.009
 6336.00    0.48703   0.58304    0.009
 6337.00    0.50584   0.58594    0.009
 6338.00    0.52486   0.58700    0.009
 6339.00    0.50482   0.58324    0.009
 6340.00    0.48336   0.58177    0.009
 6341.00    0.45076   0.58510    0.009
 6342.00    0.41910   0.58538    0.009
 6343.00    0.42231   0.58116    0.009
 6344.00    0.42402   0.58051    0.009
 6345.00    0.40200   0.58386    0.009
 6346.00    0.38388   0.58291    0.009
 6347.00    0.40505   0.57861    0.009
 6348.00    0.42735   0.57924    0.009
 6349.00    0.45778   0.58236    0.009
 6350.00    0.47775   0.58008    0.009
 6351.00    0.43981   0.57607    0.009
 6352.00    0.40424   0.57794    0.009
 6353.00    0.37908   0.58081    0.009
 6354.00    0.36528   0.57786    0.009
 6355.00    0.39274   0.57472    0.009
 6356.00    0.42218   0.57754    0.009
 6357.00    0.45765   0.58007    0.009
 6358.00    0.47599   0.57723    0.009
 6359.00    0.45000   0.57548    0.009
 6360.00    0.42932   0.57881    0.009
 6361.00    0.42050   0.58087    0.009
 6362.00    0.41982   0.57864    0.009
 6363.00    0.43486   0.57825    0.009
 6364.00    0.43630   0.58172    0.009
 6365.00    0.41483   0.58323    0.009
 6366.00    0.39431   0.58145    0.009
 6367.00    0.37521   0.58182    0.009
 6368.00    0.37429   0.58505    0.009
 6369.00    0.39699   0.58599    0.009
 6370.00    0.43244   0.58441    0.009
 6371.00    0.48249   0.58506    0.009
 6372.00    0.50734   0.58763    0.009
 6373.00    0.50679   0.58776    0.009
 6374.00    0.48166   0.58637    0.009
 6375.00    0.43467   0.58727    0.009
 6376.00    0.40312   0.58880    0.009
 6377.00    0.38367   0.58778    0.009
 6378.00    0.40209   0.58695    0.009
 6379.00    0.44661   0.58845    0.009
 6380.00    0.47941   0.58862    0.009
 6381.00    0.50513   0.58634    0.009
 6382.00    0.51246   0.58639    0.009
 6383.00    0.51008   0.58858    0.009
 6384.00    0.49577   0.58743    0.009
 6385.00    0.47601   0.58436    0.009
 6386.00    0.45840   0.58548    0.009
 6387.00    0.44165   0.58799    0.009
 6388.00    0.46755   0.58559    0.009
 6389.00    0.50777   0.58244    0.009
 6390.00    0.52744   0.58487    0.009
 6391.00    0.54133   0.58703    0.009
 6392.00    0.50993   0.58345    0.009
 6393.00    0.46803   0.58150    0.009
 6394.00    0.46829   0.58531    0.009
 6395.00    0.47640   0.58600    0.009
 6396.00    0.48344   0.58129    0.009
 6397.00    0.49033   0.58136    0.009
 6398.00    0.43835   0.58609    0.009
 6399.00    0.38023   0.58508    0.009
 6400.00    0.38449   0.58033    0.009
 6401.00    0.39294   0.58200    0.009
 6402.00    0.41918   0.58626    0.009
 6403.00    0.44599   0.58400    0.009
 6404.00    0.43841   0.58027    0.009
 6405.00    0.43125   0.58297    0.009
 6406.00    0.43746   0.58605    0.009
 6407.00    0.44387   0.58310    0.009
 6408.00    0.45334   0.58070    0.009
 6409.00    0.46129   0.58360    0.009
 6410.00    0.45460   0.58540    0.009
 6411.00    0.44759   0.58288    0.009
 6412.00    0.43841   0.58179    0.009
 6413.00    0.42714   0.58394    0.009
 6414.00    0.40461   0.58480    0.009
 6415.00    0.38470   0.58331    0.009
 6416.00    0.37615   0.58280    0.009
 6417.00    0.37489   0.58398    0.009
 6418.00    0.39958   0.58449    0.009
 6419.00    0.42217   0.58392    0.009
 6420.00    0.43847   0.58382    0.009
 6421.00    0.44989   0.58458    0.009
 6422.00    0.44886   0.58455    0.009
 6423.00    0.44208   0.58385    0.009
 6424.00    0.42269   0.58447    0.009
 6425.00    0.41572   0.58576    0.009
 6426.00    0.43236   0.58485    0.009
 6427.00    0.45129   0.58318    0.009
 6428.00    0.47404   0.58458    0.009
 6429.00    0.47848   0.58667    0.009
 6430.00    0.45626   0.58505    0.009
 6431.00    0.44264   0.58277    0.009
 6432.00    0.43999   0.58474    0.009
 6433.00    0.43580   0.58702    0.009
 6434.00    0.42985   0.58469    0.009
 6435.00    0.43172   0.58235    0.009
 6436.00    0.44136   0.58473    0.009
 6437.00    0.45860   0.58655    0.009
 6438.00    0.48250   0.58386    0.009
 6439.00    0.48400   0.58226    0.009
 6440.00    0.46820   0.58455    0.009
 6441.00    0.44900   0.58519    0.009
 6442.00    0.42748   0.58252    0.009
 6443.00    0.41403   0.58206    0.009
 6444.00    0.40537   0.58412    0.009
 6445.00    0.40360   0.58370    0.009
 6446.00    0.40540   0.58109    0.009
 6447.00    0.39539   0.58119    0.009
 6448.00    0.38005   0.58309    0.009
 6449.00    0.37614   0.58292    0.009
 6450.00    0.37664   0.58086    0.009
 6451.00    0.40288   0.58045    0.009
 6452.00    0.43758   0.58194    0.009
 6453.00    0.46390   0.58268    0.009
 6454.00    0.48791   0.58113    0.009
 6455.00    0.47907   0.58008    0.009
 6456.00    0.46279   0.58168    0.009
 6457.00    0.44271   0.58311    0.009
 6458.00    0.42193   0.58131    0.009
 6459.00    0.42980   0.57966    0.009
 6460.00    0.44165   0.58164    0.009
 6461.00    0.45797   0.58353    0.009
 6462.00    0.47472   0.58166    0.009
 6463.00    0.46193   0.57957    0.009
 6464.00    0.44726   0.58131    0.009
 6465.00    0.43255   0.58331    0.009
 6466.00    0.41799   0.58143    0.009
 6467.00    0.44901   0.57883    0.009
 6468.00    0.47985   0.58014    0.009
 6469.00    0.50571   0.58219    0.009
 6470.00    0.52751   0.57996    0.009
 6471.00    0.49176   0.57680    0.009
 6472.00    0.45732   0.57796    0.009
 6473.00    0.43503   0.57968    0.009
 6474.00    0.41490   0.57663    0.009
 6475.00    0.40935   0.57329    0.009
 6476.00    0.40582   0.57459    0.009
 6477.00    0.41284   0.57547    0.009
 6478.00    0.42073   0.57146    0.009
 6479.00    0.43225   0.56822    0.009
 6480.00    0.44295   0.56971    0.009
 6481.00    0.45078   0.56995    0.009
 6482.00    0.44823   0.56549    0.009
 6483.00    0.41518   0.56252    0.009
 6484.00    0.39734   0.56411    0.009
 6485.00    0.41756   0.56410    0.009
 6486.00    0.43967   0.55984    0.009
 6487.00    0.46590   0.55743    0.009
 6488.00    0.47916   0.55923    0.009
 6489.00    0.46816   0.55949    0.009
 6490.00    0.45887   0.55613    0.009
 6491.00    0.45235   0.55448    0.009
 6492.00    0.44394   0.55644    0.009
 6493.00    0.43284   0.55737    0.009
 6494.00    0.42466   0.55584    0.009
 6495.00    0.42017   0.55513    0.009
 6496.00    0.43072   0.55688    0.009
 6497.00    0.45797   0.55837    0.009
 6498.00    0.47026   0.55847    0.009
 6499.00    0.46791   0.55859    0.009
 6500.00    0.44483   0.55990    0.009
 6501.00    0.40382   0.56151    0.009
 6502.00    0.39231   0.56263    0.009
 6503.00    0.40325   0.56303    0.009
 6504.00    0.41045   0.56373    0.009
 6505.00    0.41516   0.56527    0.009
 6506.00    0.40924   0.56664    0.009
 6507.00    0.39711   0.56671    0.009
 6508.00    0.39309   0.56697    0.009
 6509.00    0.39322   0.56853    0.009
 6510.00    0.40336   0.56952    0.009
 6511.00    0.41793   0.56881    0.009
 6512.00    0.42099   0.56898    0.009
 6513.00    0.41967   0.57066    0.009
 6514.00    0.42227   0.57093    0.009
 6515.00    0.42612   0.56956    0.009
 6516.00    0.43307   0.57000    0.009
 6517.00    0.44086   0.57171    0.009
 6518.00    0.43947   0.57132    0.009
 6519.00    0.43605   0.56970    0.009
 6520.00    0.44293   0.57031    0.009
 6521.00    0.45163   0.57172    0.009
 6522.00    0.47717   0.57083    0.009
 6523.00    0.50497   0.56935    0.009
 6524.00    0.48763   0.56999    0.009
 6525.00    0.46598   0.57067    0.009
 6526.00    0.43379   0.56941    0.009
 6527.00    0.40099   0.56836    0.009
 6528.00    0.40413   0.56887    0.000
 6529.00    0.40828   0.56848    0.000
 6530.00    0.42897   0.56661    0.000
 6531.00    0.44892   0.56579    0.000
 6532.00    0.45030   0.56625    0.000
 6533.00    0.45243   0.56499    0.000
 6534.00    0.46443   0.56215    0.000
 6535.00    0.47438   0.56086    0.000
 6536.00    0.46614   0.56117    0.000
 6537.00    0.45730   0.55953    0.000
 6538.00    0.44460   0.55558    0.000
 6539.00    0.43898   0.55309    0.000
 6540.00    0.46951   0.55314    0.000
 6541.00    0.48912   0.55164    0.000
 6542.00    0.46368   0.54651    0.000
 6543.00    0.44159   0.54244    0.000
 6544.00    0.43099   0.54241    0.000
 6545.00    0.43298   0.54160    0.000
 6546.00    0.47125   0.53555    0.000
 6547.00    0.50325   0.52986    0.000
 6548.00    0.51985   0.53025    0.000
 6549.00    0.52561   0.53061    0.000
 6550.00    0.50841   0.52373    0.000
 6551.00    0.49731   0.51708    0.000
 6552.00    0.49744   0.51899    0.000
 6553.00    0.49269   0.52095    0.000
 6554.00    0.48008   0.51361    0.000
 6555.00    0.46969   0.50709    0.000
 6556.00    0.46243   0.51142    0.000
 6557.00    0.46970   0.51499    0.000
 6558.00    0.49503   0.50784    0.000
 6559.00    0.52623   0.50265    0.000
 6560.00    0.56388   0.50911    0.000
 6561.00    0.60927   0.51369    0.000
 6562.00    0.66214   0.50851    0.000
 6563.00    0.67374   0.50624    0.000
 6564.00    0.65017   0.51309    0.000
 6565.00    0.60738   0.51701    0.000
 6566.00    0.55018   0.51417    0.000
 6567.00    0.50154   0.51473    0.000
 6568.00    0.45854   0.52107    0.000
 6569.00    0.41994   0.52393    0.000
 6570.00    0.38389   0.52295    0.000
 6571.00    0.36484   0.52522    0.000
 6572.00    0.35435   0.53033    0.000
 6573.00    0.35659   0.53188    0.000
 6574.00    0.36437   0.53200    0.000
 6575.00    0.37874   0.53507    0.000
 6576.00    0.39557   0.53860    0.000
 6577.00    0.40454   0.53864    0.000
 6578.00    0.41102   0.53909    0.000
 6579.00    0.42921   0.54238    0.000
 6580.00    0.45050   0.54459    0.000
 6581.00    0.47756   0.54336    0.000
 6582.00    0.50587   0.54369    0.000
 6583.00    0.51559   0.54695    0.000
 6584.00    0.52212   0.54818    0.000
 6585.00    0.49089   0.54598    0.000
 6586.00    0.45475   0.54617    0.000
 6587.00    0.41040   0.54943    0.000
 6588.00    0.36530   0.55007    0.000
 6589.00    0.35254   0.54738    0.000
 6590.00    0.34157   0.54741    0.000
 6591.00    0.36258   0.55056    0.000
 6592.00    0.38420   0.55112    0.000
 6593.00    0.39902   0.54854    0.000
 6594.00    0.41326   0.54843    0.000
 6595.00    0.41421   0.55133    0.000
 6596.00    0.41603   0.55192    0.000
 6597.00    0.42896   0.54953    0.000
 6598.00    0.44124   0.54943    0.000
 6599.00    0.44802   0.55233    0.000
 6600.00    0.45175   0.55291    0.000
 6601.00    0.43600   0.55046    0.000
 6602.00    0.42082   0.55036    0.000
 6603.00    0.40852   0.55345    0.000
 6604.00    0.39594   0.55402    0.000
 6605.00    0.38220   0.55139    0.000
 6606.00    0.36948   0.55124    0.000
 6607.00    0.36017   0.55437    0.000
 6608.00    0.35657   0.55482    0.000
 6609.00    0.36913   0.55210    0.009
 6610.00    0.38253   0.55192    0.009
 6611.00    0.39797   0.55471    0.009
 6612.00    0.40813   0.55480    0.009
 6613.00    0.40727   0.55217    0.009
 6614.00    0.40649   0.55206    0.009
 6615.00    0.40587   0.55422    0.009
 6616.00    0.41579   0.55378    0.009
 6617.00    0.44243   0.55135    0.009
 6618.00    0.44863   0.55134    0.009
 6619.00    0.42638   0.55279    0.009
 6620.00    0.41107   0.55195    0.009
 6621.00    0.40426   0.54991    0.009
 6622.00    0.42072   0.54992    0.009
 6623.00    0.46232   0.55063    0.009
 6624.00    0.49375   0.54965    0.009
 6625.00    0.51551   0.54829    0.009
 6626.00    0.50234   0.54834    0.009
 6627.00    0.45983   0.54828    0.009
 6628.00    0.40447   0.54730    0.009
 6629.00    0.33960   0.54698    0.009
 6630.00    0.31197   0.54728    0.009
 6631.00    0.30853   0.54632    0.009
 6632.00    0.33662   0.54526    0.009
 6633.00    0.38264   0.54612    0.009
 6634.00    0.41323   0.54681    0.009
 6635.00    0.43620   0.54500    0.009
 6636.00    0.44392   0.54379    0.009
 6637.00    0.44511   0.54557    0.009
 6638.00    0.43868   0.54657    0.009
 6639.00    0.42946   0.54425    0.009
 6640.00    0.43394   0.54291    0.009
 6641.00    0.44267   0.54504    0.009
 6642.00    0.43937   0.54613    0.009
 6643.00    0.43296   0.54365    0.009
 6644.00    0.40104   0.54221    0.009
 6645.00    0.36373   0.54424    0.009
 6646.00    0.35516   0.54522    0.009
 6647.00    0.35138   0.54282    0.009
 6648.00    0.36135   0.54138    0.009
 6649.00    0.37305   0.54306    0.009
 6650.00    0.38689   0.54383    0.009
 6651.00    0.40092   0.54158    0.009
 6652.00    0.42050   0.54026    0.009
 6653.00    0.44037   0.54160    0.009
 6654.00    0.43575   0.54210    0.009
 6655.00    0.43065   0.54012    0.009
 6656.00    0.42170   0.53910    0.009
 6657.00    0.41383   0.54009    0.009
 6658.00    0.42890   0.54026    0.009
 6659.00    0.44268   0.53879    0.009
 6660.00    0.44083   0.53827    0.009
 6661.00    0.44096   0.53877    0.009
 6662.00    0.45737   0.53849    0.009
 6663.00    0.47086   0.53776    0.009
 6664.00    0.46625   0.53795    0.009
 6665.00    0.45642   0.53781    0.009
 6666.00    0.42126   0.53693    0.009
 6667.00    0.39778   0.53703    0.009
 6668.00    0.42040   0.53795    0.009
 6669.00    0.43541   0.53722    0.009
 6670.00    0.42543   0.53585    0.009
 6671.00    0.41179   0.53660    0.009
 6672.00    0.38801   0.53797    0.009
 6673.00    0.37054   0.53685    0.009
 6674.00    0.36806   0.53529    0.009
 6675.00    0.37445   0.53635    0.009
 6676.00    0.39904   0.53777    0.009
 6677.00    0.43009   0.53659    0.009
 6678.00    0.47270   0.53519    0.009
 6679.00    0.48735   0.53617    0.009
 6680.00    0.45834   0.53724    0.009
 6681.00    0.42800   0.53628    0.009
 6682.00    0.39586   0.53529    0.009
 6683.00    0.38334   0.53592    0.009
 6684.00    0.39452   0.53637    0.009
 6685.00    0.40169   0.53574    0.009
 6686.00    0.40458   0.53523    0.009
 6687.00    0.39866   0.53538    0.009
 6688.00    0.38446   0.53521    0.009
 6689.00    0.35623   0.53484    0.009
 6690.00    0.31640   0.53466    0.009
 6691.00    0.31510   0.53443    0.010
 6692.00    0.34189   0.53382    0.009
 6693.00    0.36317   0.53352    0.009
 6694.00    0.38092   0.53344    0.009
 6695.00    0.40751   0.53304    0.009
 6696.00    0.43903   0.53227    0.000
 6697.00    0.44411   0.53180    0.000
 6698.00    0.43631   0.53158    0.000
 6699.00    0.43002   0.53128    0.000
 6700.00    0.42437   0.53061    0.000
 6701.00    0.41130   0.52976    0.000
 6702.00    0.39557   0.52923    0.000
 6703.00    0.36555   0.52932    0.000
 6704.00    0.33119   0.52896    0.000
 6705.00    0.36241   0.52760    0.000
 6706.00    0.41023   0.52672    0.000
 6707.00    0.43655   0.52741    0.000
 6708.00    0.45844   0.52755    0.000
 6709.00    0.43777   0.52573    0.000
 6710.00    0.41021   0.52454    0.000
 6711.00    0.42765   0.52589    0.000
 6712.00    0.45054   0.52661    0.000
 6713.00    0.47029   0.52455    0.000
 6714.00    0.48978   0.52314    0.000
 6715.00    0.53193   0.52497    0.000
 6716.00    0.57516   0.52626    0.000
 6717.00    0.56090   0.52424    0.000
 6718.00    0.54556   0.52268    0.000
 6719.00    0.51534   0.52460    0.000
 6720.00    0.48547   0.52630    0.000
 6721.00    0.46228   0.52458    0.000
 6722.00    0.44192   0.52286    0.000
 6723.00    0.45387   0.52445    0.000
 6724.00    0.47002   0.52631    0.000
 6725.00    0.51953   0.52503    0.000
 6726.00    0.55367   0.52316    0.000
 6727.00    0.49563   0.52409    0.000
 6728.00    0.45491   0.52590    0.000
 6729.00    0.49625   0.52510    0.000
 6730.00    0.52778   0.52313    0.000
 6731.00    0.52139   0.52334    0.000
 6732.00    0.50597   0.52497    0.000
 6733.00    0.46149   0.52460    0.000
 6734.00    0.43212   0.52266    0.000
 6735.00    0.44398   0.52233    0.000
 6736.00    0.44270   0.52376    0.000
 6737.00    0.41075   0.52373    0.000
 6738.00    0.39021   0.52200    0.000
 6739.00    0.39270   0.52148    0.000
 6740.00    0.39169   0.52274    0.000
 6741.00    0.38450   0.52291    0.000
 6742.00    0.37623   0.52156    0.000
 6743.00    0.36630   0.52114    0.000
 6744.00    0.36520   0.52228    0.000
 6745.00    0.37604   0.52257    0.000
 6746.00    0.39085   0.52161    0.000
 6747.00    0.41037   0.52140    0.000
 6748.00    0.40830   0.52248    0.000
 6749.00    0.38357   0.52286    0.000
 6750.00    0.35626   0.52216    0.000
 6751.00    0.32658   0.52204    0.000
 6752.00    0.32188   0.52308    0.000
 6753.00    0.33755   0.52361    0.011
 6754.00    0.33281   0.52300    0.011
 6755.00    0.31340   0.52270    0.012
 6756.00    0.31214   0.52367    0.012
 6757.00    0.32231   0.52442    0.012
 6758.00    0.38670   0.52380    0.012
 6759.00    0.48096   0.52315    0.012
 6760.00    0.51809   0.52397    0.012
 6761.00    0.52786   0.52495    0.012
 6762.00    0.56076   0.52433    0.012
 6763.00    0.60323   0.52334    0.012
 6764.00    0.63129   0.52393    0.012
 6765.00    0.65427   0.52499    0.012
 6766.00    0.59869   0.52445    0.012
 6767.00    0.51967   0.52330    0.011
 6768.00    0.47377   0.52361    0.011
 6769.00    0.43608   0.52454    0.011
 6770.00    0.42700   0.52407    0.011
 6771.00    0.42366   0.52301    0.011
 6772.00    0.47519   0.52308    0.011
 6773.00    0.53535   0.52365    0.011
 6774.00    0.47282   0.52321    0.011
 6775.00    0.39597   0.52241    0.011
 6776.00    0.39894   0.52238    0.011
 6777.00    0.40820   0.52251    0.011
 6778.00    0.41563   0.52201    0.011
 6779.00    0.42299   0.52154    0.012
 6780.00    0.43060   0.52156    0.012
 6781.00    0.43843   0.52136    0.012
 6782.00    0.45652   0.52077    0.012
 6783.00    0.47106   0.52060    0.012
 6784.00    0.42129   0.52080    0.011
 6785.00    0.37879   0.52046    0.011
 6786.00    0.41593   0.51982    0.011
 6787.00    0.45031   0.51980    0.011
 6788.00    0.46355   0.52022    0.011
 6789.00    0.47310   0.51996    0.011
 6790.00    0.46124   0.51930    0.011
 6791.00    0.44877   0.51926    0.011
 6792.00    0.43350   0.51986    0.011
 6793.00    0.42057   0.51985    0.011
 6794.00    0.41647   0.51917    0.011
 6795.00    0.40811   0.51894    0.011
 6796.00    0.38627   0.51966    0.011
 6797.00    0.36404   0.51996    0.011
 6798.00    0.34077   0.51926    0.011
 6799.00    0.33265   0.51873    0.011
 6800.00    0.35934   0.51950    0.011
 6801.00    0.38338   0.52015    0.012
 6802.00    0.40213   0.51945    0.012
 6803.00    0.43230   0.51860    0.012
 6804.00    0.48224   0.51933    0.012
 6805.00    0.46969   0.52031    0.012
 6806.00    0.36236   0.51971    0.011
 6807.00    0.30580   0.51860    0.011
 6808.00    0.31693   0.51913    0.011
 6809.00    0.32380   0.52034    0.011
 6810.00    0.32570   0.52004    0.011
 6811.00    0.33223   0.51880    0.011
 6812.00    0.34355   0.51890    0.011
 6813.00    0.38071   0.52012    0.012
 6814.00    0.44144   0.52029    0.012
 6815.00    0.50967   0.51914    0.012
 6816.00    0.58392   0.51863    0.011
 6817.00    0.55602   0.51956    0.011
 6818.00    0.45580   0.52021    0.011
 6819.00    0.41318   0.51937    0.011
 6820.00    0.40634   0.51825    0.011
 6821.00    0.39196   0.51859    0.011
 6822.00    0.37349   0.51953    0.011
 6823.00    0.38182   0.51914    0.011
 6824.00    0.40279   0.51764    0.011
 6825.00    0.43100   0.51728    0.011
 6826.00    0.46217   0.51819    0.012
 6827.00    0.45378   0.51825    0.012
 6828.00    0.43167   0.51675    0.012
 6829.00    0.39666   0.51579    0.012
 6830.00    0.35789   0.51635    0.012
 6831.00    0.33328   0.51674    0.012
 6832.00    0.31210   0.51563    0.012
 6833.00    0.32440   0.51438    0.012
 6834.00    0.34326   0.51440    0.012
 6835.00    0.39108   0.51487    0.012
 6836.00    0.44332   0.51438    0.012
 6837.00    0.44295   0.51323    0.012
 6838.00    0.43667   0.51269    0.012
 6839.00    0.45946   0.51299    0.012
 6840.00    0.48442   0.51311    0.012
 6841.00    0.46163   0.51231    0.012
 6842.00    0.43694   0.51137    0.012
 6843.00    0.42875   0.51132    0.012
 6844.00    0.42244   0.51182    0.012
 6845.00    0.48661   0.51147    0.012
 6846.00    0.54481   0.51035    0.012
 6847.00    0.50234   0.50994    0.012
 6848.00    0.46179   0.51055    0.012
 6849.00    0.44136   0.51054    0.012
 6850.00    0.41980   0.50948    0.012
 6851.00    0.38983   0.50885    0.012
 6852.00    0.36818   0.50935    0.012
 6853.00    0.39372   0.50958    0.012
 6854.00    0.42213   0.50878    0.012
 6855.00    0.46350   0.50809    0.012
 6856.00    0.48960   0.50834    0.011
 6857.00    0.45915   0.50868    0.011
 6858.00    0.42114   0.50831    0.011
 6859.00    0.35969   0.50771    0.011
 6860.00    0.31935   0.50769    0.011
 6861.00    0.33455   0.50809    0.011
 6862.00    0.35029   0.50822    0.012
 6863.00    0.36726   0.50780    0.012
 6864.00    0.37320   0.50751    0.012
 6865.00    0.35757   0.50793    0.012
 6866.00    0.34522   0.50852    0.012
 6867.00    0.33845   0.50834    0.013
 6868.00    0.35219   0.50791    0.013
 6869.00    0.39659   0.50832    0.013
 6870.00    0.40740   0.50919    0.013
 6871.00    0.37409   0.50918    0.013
 6872.00    0.35679   0.50881    0.012
 6873.00    0.35801   0.50929    0.012
 6874.00    0.35411   0.51018    0.012
 6875.00    0.34499   0.51026    0.012
 6876.00    0.32838   0.51016    0.012
 6877.00    0.30503   0.51073    0.012
 6878.00    0.31578   0.51141    0.012
 6879.00    0.35357   0.51151    0.012
 6880.00    0.42234   0.51175    0.012
 6881.00    0.51272   0.51242    0.012
 6882.00    0.47694   0.51287    0.012
 6883.00    0.36397   0.51292    0.012
 6884.00    0.32547   0.51326    0.012
 6885.00    0.32677   0.51396    0.012
 6886.00    0.34002   0.51441    0.012
 6887.00    0.35881   0.51443    0.012
 6888.00    0.32660   0.51449    0.012
 6889.00    0.27400   0.51502    0.012
 6890.00    0.26848   0.51577    0.012
 6891.00    0.27901   0.51588    0.012
 6892.00    0.31865   0.51536    0.012
 6893.00    0.36664   0.51548    0.012
 6894.00    0.39959   0.51663    0.012
 6895.00    0.42897   0.51699    0.012
 6896.00    0.36418   0.51587    0.012
 6897.00    0.28143   0.51545    0.012
 6898.00    0.27487   0.51681    0.012
 6899.00    0.27956   0.51745    0.012
 6900.00    0.36716   0.51602    0.012
 6901.00    0.46371   0.51512    0.012
 6902.00    0.43622   0.51635    0.012
 6903.00    0.39996   0.51718    0.012
 6904.00    0.44224   0.51582    0.012
 6905.00    0.48734   0.51460    0.012
 6906.00    0.41155   0.51544    0.012
 6907.00    0.33627   0.51635    0.012
 6908.00    0.29230   0.51527    0.012
 6909.00    0.25644   0.51395    0.012
 6910.00    0.34905   0.51438    0.012
 6911.00    0.43584   0.51526    0.012
 6912.00    0.46429   0.51448    0.012
 6913.00    0.48128   0.51320    0.012
 6914.00    0.41579   0.51344    0.012
 6915.00    0.35214   0.51427    0.013
 6916.00    0.29866   0.51363    0.013
 6917.00    0.25736   0.51240    0.012
 6918.00    0.26980   0.51269    0.012
 6919.00    0.28927   0.51361    0.012
 6920.00    0.33429   0.51298    0.012
 6921.00    0.37701   0.51171    0.012
 6922.00    0.41277   0.51217    0.012
 6923.00    0.43751   0.51326    0.012
 6924.00    0.43377   0.51262    0.012
 6925.00    0.43930   0.51126    0.012
 6926.00    0.46542   0.51176    0.012
 6927.00    0.47467   0.51306    0.012
 6928.00    0.45140   0.51250    0.012
 6929.00    0.41273   0.51103    0.012
 6930.00    0.34817   0.51139    0.012
 6931.00    0.33660   0.51280    0.012
 6932.00    0.40307   0.51249    0.012
 6933.00    0.40493   0.51103    0.012
 6934.00    0.32314   0.51115    0.012
 6935.00    0.29699   0.51250    0.012
 6936.00    0.33432   0.51241    0.013
 6937.00    0.35053   0.51107    0.013
 6938.00    0.34549   0.51100    0.013
 6939.00    0.37263   0.51221    0.013
 6940.00    0.42832   0.51235    0.013
 6941.00    0.43789   0.51128    0.013
 6942.00    0.41137   0.51106    0.013
 6943.00    0.40351   0.51204    0.013
 6944.00    0.40847   0.51244    0.013
 6945.00    0.40269   0.51166    0.013
 6946.00    0.39045   0.51133    0.012
 6947.00    0.38675   0.51214    0.012
 6948.00    0.38756   0.51279    0.012
 6949.00    0.38825   0.51221    0.012
 6950.00    0.38889   0.51169    0.012
 6951.00    0.39922   0.51240    0.012
 6952.00    0.41336   0.51339    0.012
 6953.00    0.39957   0.51299    0.012
 6954.00    0.37645   0.51205    0.013
 6955.00    0.36840   0.51253    0.013
 6956.00    0.36460   0.51387    0.013
 6957.00    0.36881   0.51357    0.013
 6958.00    0.37487   0.51210    0.013
 6959.00    0.35836   0.51235    0.013
 6960.00    0.33765   0.51398    0.013
 6961.00    0.29631   0.51374    0.013
 6962.00    0.25203   0.51181    0.013
 6963.00    0.33664   0.51168    0.013
 6964.00    0.43460   0.51345    0.013
 6965.00    0.42686   0.51342    0.013
 6966.00    0.41209   0.51121    0.013
 6967.00    0.40682   0.51064    0.012
 6968.00    0.40185   0.51249    0.012
 6969.00    0.41889   0.51284    0.012
 6970.00    0.43287   0.51061    0.012
 6971.00    0.35348   0.50966    0.012
 6972.00    0.28023   0.51148    0.012
 6973.00    0.29849   0.51231    0.012
 6974.00    0.31391   0.51036    0.012
 6975.00    0.30202   0.50918    0.013
 6976.00    0.29970   0.51087    0.013
 6977.00    0.36390   0.51201    0.013
 6978.00    0.41560   0.51040    0.013
 6979.00    0.40026   0.50929    0.013
 6980.00    0.38383   0.51087    0.013
 6981.00    0.36270   0.51199    0.013
 6982.00    0.33002   0.51057    0.013
 6983.00    0.25637   0.50960    0.013
 6984.00    0.21945   0.51103    0.013
 6985.00    0.29209   0.51204    0.013
 6986.00    0.35169   0.51083    0.013
 6987.00    0.37816   0.50985    0.013
 6988.00    0.40305   0.51088    0.013
 6989.00    0.42448   0.51181    0.013
 6990.00    0.41081   0.51074    0.013
 6991.00    0.33059   0.50942    0.013
 6992.00    0.31555   0.51000    0.013
 6993.00    0.40843   0.51119    0.012
 6994.00    0.43630   0.51039    0.012
 6995.00    0.36982   0.50851    0.012
 6996.00    0.33097   0.50848    0.013
 6997.00    0.32738   0.51011    0.013
 6998.00    0.31269   0.50989    0.013
 6999.00    0.28551   0.50753    0.013
 7000.00    0.26982   0.50677    0.013
 7001.00    0.26553   0.50872    0.013
 7002.00    0.28533   0.50925    0.013
 7003.00    0.32619   0.50673    0.013
 7004.00    0.35972   0.50529    0.013
 7005.00    0.38758   0.50736    0.013
 7006.00    0.33595   0.50864    0.013
 7007.00    0.23046   0.50634    0.013
 7008.00    0.23354   0.50444    0.013
 7009.00    0.30109   0.50638    0.013
 7010.00    0.30837   0.50832    0.013
 7011.00    0.28444   0.50647    0.013
 7012.00    0.28002   0.50426    0.013
 7013.00    0.28436   0.50584    0.013
 7014.00    0.25426   0.50839    0.013
 7015.00    0.21087   0.50736    0.013
 7016.00    0.25122   0.50498    0.012
 7017.00    0.31906   0.50580    0.012
 7018.00    0.36516   0.50863    0.013
 7019.00    0.40528   0.50874    0.013
 7020.00    0.41003   0.50667    0.013
 7021.00    0.40678   0.50671    0.013
 7022.00    0.33224   0.50923    0.013
 7023.00    0.24483   0.51022    0.013
 7024.00    0.32550   0.50895    0.013
 7025.00    0.42945   0.50855    0.014
 7026.00    0.42697   0.51022    0.014
 7027.00    0.41393   0.51158    0.013
 7028.00    0.37577   0.51125    0.013
 7029.00    0.33604   0.51072    0.013
 7030.00    0.30795   0.51140    0.013
 7031.00    0.28011   0.51266    0.013
 7032.00    0.23384   0.51312    0.013
 7033.00    0.19111   0.51265    0.013
 7034.00    0.24532   0.51229    0.013
 7035.00    0.29793   0.51299    0.013
 7036.00    0.32809   0.51387    0.013
 7037.00    0.35271   0.51350    0.013
 7038.00    0.32622   0.51229    0.013
 7039.00    0.30571   0.51222    0.013
 7040.00    0.32551   0.51302    0.013
 7041.00    0.33796   0.51258    0.013
 7042.00    0.31201   0.51091    0.013
 7043.00    0.29154   0.51022    0.013
 7044.00    0.29413   0.51045    0.013
 7045.00    0.30635   0.50967    0.013
 7046.00    0.35213   0.50798    0.014
 7047.00    0.36627   0.50692    0.014
 7048.00    0.28786   0.50650    0.014
 7049.00    0.26111   0.50555    0.014
 7050.00    0.36329   0.50395   -2.000
 7051.00    0.41362   0.50250   -2.000
 7052.00    0.35241   0.50172   -2.000
 7053.00    0.30066   0.50112   -2.000
 7054.00    0.26657   0.49990   -2.000
 7055.00    0.21110   0.49807   -2.000
 7056.00    0.12077   0.49703   -2.000
 7057.00    0.09845   0.49703   -2.000
 7058.00    0.17344   0.49644   -2.000
 7059.00    0.25928   0.49444   -2.000
 7060.00    0.35880   0.49322   -2.000
 7061.00    0.42391   0.49375   -2.000
 7062.00    0.45087   0.49381   -2.000
 7063.00    0.46417   0.49193   -2.000
 7064.00    0.46411   0.49051   -2.000
 7065.00    0.41131   0.49113   -2.000
 7066.00    0.31300   0.49161   -2.000
 7067.00    0.24673   0.48996   -2.000
 7068.00    0.20479   0.48826   -2.000
 7069.00    0.25522   0.48867   -2.000
 7070.00    0.36733   0.48936   -2.000
 7071.00    0.44307   0.48795   -2.000
 7072.00    0.49755   0.48587   -2.000
 7073.00    0.43483   0.48577   -2.000
 7074.00    0.31235   0.48650   -2.000
 7075.00    0.30316   0.48532   -2.000
 7076.00    0.34398   0.48294   -2.000
 7077.00    0.38707   0.48233   -2.000
 7078.00    0.43101   0.48300   -2.000
 7079.00    0.39142   0.48202   -2.000
 7080.00    0.32493   0.47955   -2.000
 7081.00    0.29202   0.47844   -2.000
 7082.00    0.26816   0.47909   -2.000
 7083.00    0.28495   0.47868   -2.000
 7084.00    0.31071   0.47651   -2.000
 7085.00    0.31613   0.47488   -2.000
 7086.00    0.31798   0.47525   -2.000
 7087.00    0.33946   0.47559   -2.000
 7088.00    0.36356   0.47443   -2.000
 7089.00    0.31008   0.47259   -2.000
 7090.00    0.24922   0.47226   -2.000
 7091.00    0.22686   0.47307   -2.000
 7092.00    0.20677   0.47330   -2.000
 7093.00    0.26035   0.47183   -2.000
 7094.00    0.31595   0.47064   -2.000
 7095.00    0.40093   0.47136   -2.000
 7096.00    0.48167   0.47261   -2.000
 7097.00    0.45728   0.47194   -2.000
 7098.00    0.42565   0.47034   -2.000
 7099.00    0.29785   0.47056   -2.000
 7100.00    0.18663   0.47206   -2.000
 7101.00    0.22223   0.47221   -2.000
 7102.00    0.26607   0.47066   -2.000
 7103.00    0.36379   0.47022   -2.000
 7104.00    0.42262   0.47140   -2.000
 7105.00    0.28339   0.47198   -2.000
 7106.00    0.19016   0.47086   -2.000
 7107.00    0.28626   0.47012   -2.000
 7108.00    0.34334   0.47067   -2.000
 7109.00    0.26742   0.47106   -2.000
 7110.00    0.21708   0.47027   -2.000
 7111.00    0.24022   0.46980   -2.000
 7112.00    0.26423   0.47004   -2.000
 7113.00    0.29035   0.46974   -2.000
 7114.00    0.31817   0.46876   -2.000
 7115.00    0.34956   0.46881   -2.000
 7116.00    0.34511   0.46942   -2.000
 7117.00    0.27477   0.46864   -2.000
 7118.00    0.25864   0.46695   -2.000
 7119.00    0.32959   0.46713   -2.000
 7120.00    0.44089   0.46865   -2.000
 7121.00    0.60907   0.46803   -2.000
 7122.00    0.61301   0.46543   -2.000
 7123.00    0.41322   0.46516   -2.000
 7124.00    0.24212   0.46762   -2.000
 7125.00    0.10241   0.46784   -2.000
 7126.00    0.05209   0.46484   -2.000
 7127.00    0.08799   0.46367   -2.000
 7128.00    0.14316   0.46642   -2.000
 7129.00    0.21472   0.46788   -2.000
 7130.00    0.27352   0.46531   -2.000
 7131.00    0.32277   0.46311   -2.000
 7132.00    0.25104   0.46533   -2.000
 7133.00    0.09972   0.46792   -2.000
 7134.00    0.23773   0.46637   -2.000
 7135.00    0.54240   0.46363   -2.000
 7136.00    0.47686   0.46493   -2.000
 7137.00    0.22555   0.46806   -2.000
 7138.00    0.11410   0.46751   -2.000
 7139.00    0.06339   0.46468   -2.000
 7140.00    0.04060   0.46522   -2.000
 7141.00    0.02821   0.46840   -2.000
 7142.00    0.11581   0.46854   -2.000
 7143.00    0.23500   0.46581   -2.000
 7144.00    0.30614   0.46572   -2.000
 7145.00    0.36461   0.46878   -2.000
 7146.00    0.27956   0.46961   -2.000
 7147.00    0.16356   0.46703   -2.000
 7148.00    0.27413   0.46604   -2.000
 7149.00    0.42341   0.46893   -2.000
 7150.00    0.41117   0.47055   -2.000
 7151.00    0.37803   0.46822   -2.000
 7152.00   -0.41782   0.46644   -2.000
 7153.00   -1.28292   0.46890   -2.000
 7154.00   -0.55503   0.47107   -2.000
 7155.00    0.26004   0.46929   -2.000
 7156.00    0.46429   0.46715   -2.000
 7157.00    0.65212   0.46877   -2.000
 7158.00    0.50848   0.47106   -2.000
 7159.00    0.35710   0.46997   -2.000
 7160.00    0.03022   0.46777   -2.000
 7161.00   -0.25056   0.46848   -2.000
 7162.00    0.04935   0.47067   -2.000
 7163.00    0.32214   0.47016   -2.000
 7164.00    0.36362   0.46811   -2.000
 7165.00    0.46693   0.46812   -2.000
 7166.00    0.96209   0.46998   -2.000
 7167.00    1.27457   0.46983   -2.000
 7168.00    0.68002   0.46805   -2.000
 7169.00    0.20941   0.46779   -2.000
 7170.00    0.23762   0.46922   -2.000
 7171.00    0.27081   0.46905   -2.000
 7172.00    0.32062   0.46739   -2.000
 7173.00    0.36347   0.46719   -2.000
 7174.00    0.38667   0.46850   -2.000
 7175.00    0.38367   0.46822   -2.000
 7176.00    0.31747   0.46611   -2.000
 7177.00    0.26132   0.46568   -2.000
 7178.00    0.22611   0.46756   -2.000
 7179.00    0.25899   0.46781   -2.000
 7180.00    0.41514   0.46517   -2.000
 7181.00    0.46988   0.46399   -2.000
 7182.00    0.36412   0.46607   -2.000
 7183.00    0.33215   0.46727   -2.000
 7184.00    0.40271   0.46488   -2.000
 7185.00    0.40184   0.46297   -2.000
 7186.00    0.31365   0.46462   -2.000
 7187.00    0.30814   0.46658   -2.000
 7188.00    0.39177   0.46506   -2.000
 7189.00    0.36847   0.46258   -2.000
 7190.00    0.24352   0.46326   -2.000
 7191.00    0.22529   0.46589   -2.000
 7192.00    0.29651   0.46579   -2.000
 7193.00    0.34823   0.46312   -2.000
 7194.00    0.38554   0.46242   -2.000
 7195.00    0.38251   0.46497   -2.000
 7196.00    0.35332   0.46629   -2.000
 7197.00    0.35205   0.46430   -2.000
 7198.00    0.36661   0.46293   -2.000
 7199.00    0.32790   0.46452   -2.000
 7200.00    0.26288   0.46651   -2.000
 7201.00    0.13277   0.46591   -2.000
 7202.00   -0.02513   0.46429   -2.000
 7203.00    0.09862   0.46454   -2.000
 7204.00    0.32542   0.46667   -2.000
 7205.00    0.56467   0.46771   -2.000
 7206.00    0.80777   0.46655   -2.000
 7207.00    0.64579   0.46570   -2.000
 7208.00    0.37925   0.46725   -2.000
 7209.00    0.35339   0.46912   -2.000
 7210.00    0.37814   0.46891   -2.000
 7211.00    0.25099   0.46801   -2.000
 7212.00    0.09861   0.46880   -2.000
 7213.00    0.05678   0.47066   -2.000
 7214.00    0.02876   0.47141   -2.000
 7215.00    0.02023   0.47083   -2.000
 7216.00    0.01339   0.47074   -2.000
 7217.00    0.08803   0.47238   -2.000
 7218.00    0.16681   0.47390   -2.000
