###################################################################
## OUTPUT of StarlightChains_v04.for    [Cid@UFSC - 01/Apr/2007] ##
###################################################################

## Some input info
KUG0210-078._43_36.txt                   [arq_obs]
Base.CB07.vall.4m                        [arq_base]
Masks.EmLines.NEW.gm                     [arq_masks]
StCv04.C11.config                        [arq_config]
   66                                    [N_base]
    0                                    [N_YAV_components = # of components with extra extinction!]
    0                                    [i_FitPowerLaw (1/0 = Yes/No)]
-9.99                                    [alpha_PowerLaw]
CCM                                      [red_law_option]
 1.458241                                [q_norm = A(l_norm)/A(V)]

## (Re)Sampling Parameters
 3741.00                                 [l_ini (A)]
 7218.00                                 [l_fin (A)]
    1.00                                 [dl    (A)]     (OBS: dl_cushion =    50.00 A)

## Normalization info
 4020.00                                 [l_norm (A) - for base]
 4010.00                                 [llow_norm (A) - window for f_obs]
 4060.00                                 [lupp_norm (A) - window for f_obs]
1.635465E-17                             [fobs_norm (in input units)]

## S/N
 3691.00                                 [llow_SN (A) - window for S/N]
 7268.00                                 [lupp_SN (A) - window for S/N]
   3.958                                 [S/N in S/N window]
   5.047                                 [S/N in norm. window]
   0.015                                 [S/N_err in S/N window]
   0.019                                 [S/N_err in norm. window]
  1.0000                                 [fscale_chi2]

## etc...
    -2007808                             [idum_orig]
  2428                                   [NOl_eff]
  2402                                   [Nl_eff]
    26    NSIGMA                         [Ntot_cliped & clip_method]
   614040                                [Nglobal_steps]
   7                                     [N_chains]
   7                                     [NEX0s_base = N_base in EX0s-fits]
 0   0   1       26   2.0   3.487E+03    [Clip-Bug, RC-Crash & Burn-In warning-flags, n_censored_weights, wei_nsig_threshold & wei_limit]
    11     11.304     10.727      0.577  [idt_all, wdt_TotTime, wdt_UsrTime & wdt_SysTime (sec)]

## Synthesis Results - Best model ##

 2.31969E-05                             [chi2/Nl_eff]
    17.52766                             [adev (%)]

   108.42904                             [sum-of-x (%)]
 1.35786E-17                             [Flux_tot (units of input spectrum!)]
 6.09474E-14                             [Mini_tot (???)]
 3.76501E-14                             [Mcor_tot (???)]

 -99.37                                  [v0_min  (km/s)]
 198.72                                  [vd_min  (km/s)]
-0.1988                                  [AV_min  (mag)]
 0.0000                                  [YAV_min (mag)]

# j     x_j(%)      Mini_j(%)     Mcor_j(%)     age_j(yr)     Z_j      (L/M)_j    YAV?  Mstars   component_j        a/Fe...       SSP_chi2r SSP_adev(%)   SSP_AV   SSP_x(%)
  1      0.0000     0.0000E+00    0.0000E+00    1.000000E+06  0.00400  1.094E-02    0   1.0000   age020_m42            0.0000     3.9147E-05    25.3928   2.7265    85.2013
  2      0.0000     0.0000E+00    0.0000E+00    3.160000E+06  0.00400  4.007E-02    0   0.9999   age045_m42            0.0000     3.2792E-05    23.0828   1.9504    92.3142
  3      0.0000     0.0000E+00    0.0000E+00    5.010000E+06  0.00400  2.539E-02    0   0.9488   age055_m42            0.0000     3.5685E-05    24.2751   2.2980    89.3754
  4      0.0000     0.0000E+00    0.0000E+00    6.610000E+06  0.00400  2.620E-02    0   0.9220   age061_m42            0.0000     3.2758E-05    23.1231   1.8832    92.3216
  5      0.0000     0.0000E+00    0.0000E+00    1.000000E+07  0.00400  1.322E-02    0   0.8862   age070_m42            0.0000     3.4579E-05    24.8568   1.6644    92.5346
  6      0.0000     0.0000E+00    0.0000E+00    1.445000E+07  0.00400  7.883E-03    0   0.8571   age078_m42            0.0000     3.6153E-05    25.3644   1.9979    90.0785
  7      0.0000     0.0000E+00    0.0000E+00    2.512000E+07  0.00400  5.251E-03    0   0.8174   age090_m42            0.0000     3.4480E-05    25.0494   1.5439    92.8190
  8      0.0000     0.0000E+00    0.0000E+00    4.000000E+07  0.00400  3.649E-03    0   0.7851   age104_m42            0.0000     3.3166E-05    24.4134   1.3017    94.0088
  9      0.0000     0.0000E+00    0.0000E+00    5.500000E+07  0.00400  3.098E-03    0   0.7629   age110_m42            0.0000     3.1634E-05    23.1153   1.4169    95.0543
 10      0.0000     0.0000E+00    0.0000E+00    1.015200E+08  0.00400  2.228E-03    0   0.7207   age116_m42            0.0000     3.0572E-05    22.1958   1.4118    95.9028
 11      0.0000     0.0000E+00    0.0000E+00    2.861200E+08  0.00400  1.093E-03    0   0.6648   age125_m42            0.0000     2.9527E-05    22.2078   0.8508    98.3837
 12      0.0000     0.0000E+00    0.0000E+00    5.088000E+08  0.00400  6.597E-04    0   0.6365   age130_m42            0.0000     2.7888E-05    20.7404   0.7975   100.4612
 13      0.0000     0.0000E+00    0.0000E+00    1.434000E+09  0.00400  2.132E-04    0   0.5798   age139_m42            0.0000     2.4822E-05    19.3627  -0.2035   103.3157
 14      0.0000     0.0000E+00    0.0000E+00    4.250000E+09  0.00400  5.895E-05    0   0.5377   age158_m42            0.0000     2.5313E-05    19.3196  -0.6726   100.0926
 15      0.0000     0.0000E+00    0.0000E+00    7.500000E+09  0.00400  3.510E-05    0   0.5212   age171_m42            0.0000     2.5280E-05    18.9075  -0.8828    99.9827
 16      0.0000     0.0000E+00    0.0000E+00    1.300000E+10  0.00400  2.005E-05    0   0.5034   age193_m42            0.0000     2.5522E-05    19.2702  -1.0000    98.8099
 17      0.0000     0.0000E+00    0.0000E+00    1.800000E+10  0.00400  1.525E-05    0   0.4967   age213_m42            0.0000     2.5767E-05    19.7127  -1.0000    97.9317
 18      0.0000     0.0000E+00    0.0000E+00    1.000000E+06  0.00800  1.238E-02    0   1.0000   age020_m52            0.0000     3.9202E-05    25.4155   2.7228    85.3733
 19      0.0000     0.0000E+00    0.0000E+00    3.160000E+06  0.00800  3.074E-02    0   0.9966   age045_m52            0.0000     3.8715E-05    25.2610   2.6415    86.2708
 20      0.0000     0.0000E+00    0.0000E+00    5.010000E+06  0.00800  2.668E-02    0   0.9443   age055_m52            0.0000     3.6625E-05    24.6445   2.3894    88.3675
 21      0.0000     0.0000E+00    0.0000E+00    6.610000E+06  0.00800  2.136E-02    0   0.9177   age061_m52            0.0000     3.4154E-05    24.7860   1.1639    93.6739
 22      0.0000     0.0000E+00    0.0000E+00    1.000000E+07  0.00800  1.215E-02    0   0.8827   age070_m52            0.0000     3.6085E-05    25.8035   1.8677    91.7000
 23      0.0000     0.0000E+00    0.0000E+00    1.445000E+07  0.00800  8.717E-03    0   0.8552   age078_m52            0.0000     3.5586E-05    25.2246   1.9609    91.3958
 24      0.0000     0.0000E+00    0.0000E+00    2.512000E+07  0.00800  5.592E-03    0   0.8162   age090_m52            0.0000     3.4189E-05    25.0199   1.6060    93.9509
 25      0.0000     0.0000E+00    0.0000E+00    4.000000E+07  0.00800  3.896E-03    0   0.7841   age104_m52            0.0000     3.2634E-05    24.1167   1.4945    95.3035
 26      0.0000     0.0000E+00    0.0000E+00    1.015200E+08  0.00800  2.148E-03    0   0.7226   age116_m52            0.0000     3.0766E-05    22.7570   1.3963    96.1644
 27      0.0000     0.0000E+00    0.0000E+00    2.861200E+08  0.00800  9.925E-04    0   0.6683   age125_m52            0.0000     2.7669E-05    20.5744   0.8641   101.3610
 28      0.0000     0.0000E+00    0.0000E+00    9.047900E+08  0.00800  3.141E-04    0   0.6138   age135_m52            0.0000     2.3750E-05    18.3786  -0.0182   107.9938
 29      0.0000     0.0000E+00    0.0000E+00    1.434000E+09  0.00800  1.719E-04    0   0.5853   age139_m52            0.0000     2.4123E-05    19.0596  -0.5840   105.2938
 30      0.0000     0.0000E+00    0.0000E+00    2.500000E+09  0.00800  7.872E-05    0   0.5600   age150_m52            0.0000     2.4037E-05    18.2068  -0.8967   103.7599
 31      0.0000     0.0000E+00    0.0000E+00    4.250000E+09  0.00800  4.336E-05    0   0.5426   age158_m52            0.0000     2.4501E-05    18.3168  -0.9129   102.7884
 32      0.0000     0.0000E+00    0.0000E+00    6.250000E+09  0.00800  3.159E-05    0   0.5319   age166_m52            0.0000     2.4550E-05    19.0323  -1.0000   101.1646
 33      0.0000     0.0000E+00    0.0000E+00    1.300000E+10  0.00800  1.361E-05    0   0.5073   age193_m52            0.0000     3.1986E-05    27.5181  -1.0000    91.5341
 34      0.0000     0.0000E+00    0.0000E+00    1.800000E+10  0.00800  9.886E-06    0   0.4990   age213_m52            0.0000     3.5891E-05    29.3637  -1.0000    88.8670
 35      0.0000     0.0000E+00    0.0000E+00    1.000000E+06  0.02000  1.544E-02    0   1.0000   age020_m62            0.0000     3.9423E-05    25.4693   2.7183    85.5737
 36      0.0000     0.0000E+00    0.0000E+00    3.160000E+06  0.02000  3.762E-02    0   0.9858   age045_m62            0.0000     3.9360E-05    25.4210   2.6534    86.4446
 37      0.0000     0.0000E+00    0.0000E+00    5.010000E+06  0.02000  3.296E-02    0   0.9342   age055_m62            0.0000     3.4447E-05    23.6073   2.2395    90.9566
 38      0.0000     0.0000E+00    0.0000E+00    8.710000E+06  0.02000  1.154E-02    0   0.8861   age067_m62            0.0000     4.2500E-05    30.2416   1.4369    90.9436
 39      0.0000     0.0000E+00    0.0000E+00    1.445000E+07  0.02000  7.663E-03    0   0.8472   age078_m62            0.0000     3.7040E-05    26.8951   1.5453    92.8861
 40      0.0000     0.0000E+00    0.0000E+00    2.512000E+07  0.02000  4.532E-03    0   0.8099   age090_m62            0.0000     3.7001E-05    26.9194   1.5388    92.5158
 41      0.0000     0.0000E+00    0.0000E+00    5.500000E+07  0.02000  2.733E-03    0   0.7595   age110_m62            0.0000     3.3157E-05    24.3494   1.4849    94.4155
 42      0.0000     0.0000E+00    0.0000E+00    1.609000E+08  0.02000  1.369E-03    0   0.6985   age120_m62            0.0000     2.9784E-05    21.8042   1.2602    98.7771
 43      0.0000     0.0000E+00    0.0000E+00    2.861200E+08  0.02000  9.013E-04    0   0.6714   age125_m62            0.0000     2.7782E-05    20.1714   0.9691   102.8356
 44      0.0000     0.0000E+00    0.0000E+00    5.088000E+08  0.02000  5.028E-04    0   0.6449   age130_m62            0.0000     2.4830E-05    18.1024   0.5129   107.9231
 45      0.0000     0.0000E+00    0.0000E+00    9.047900E+08  0.02000  2.428E-04    0   0.6179   age135_m62            0.0000     2.3328E-05    17.9780  -0.1021   108.0356
 46      0.0000     0.0000E+00    0.0000E+00    1.434000E+09  0.02000  1.263E-04    0   0.5908   age139_m62            0.0000     2.3650E-05    18.1681  -0.5492   106.4756
 47      0.0000     0.0000E+00    0.0000E+00    2.500000E+09  0.02000  5.985E-05    0   0.5673   age150_m62            0.0000     2.3931E-05    17.7038  -0.9555   106.1374
 48      0.0000     0.0000E+00    0.0000E+00    4.250000E+09  0.02000  3.271E-05    0   0.5468   age158_m62            0.0000     2.5492E-05    20.1620  -1.0000   100.9658
 49      0.0000     0.0000E+00    0.0000E+00    1.000000E+10  0.02000  1.360E-05    0   0.5167   age181_m62            0.0000     3.3317E-05    26.4289  -1.0000    93.5801
 50      0.0000     0.0000E+00    0.0000E+00    1.800000E+10  0.02000  7.124E-06    0   0.5013   age213_m62            0.0000     4.1657E-05    30.3162  -1.0000    88.1373
 51      0.0000     0.0000E+00    0.0000E+00    1.000000E+06  0.05000  2.592E-02    0   0.9998   age020_m72            0.0000     4.0111E-05    25.7903   2.7178    85.4268
 52      0.0000     0.0000E+00    0.0000E+00    3.160000E+06  0.05000  4.845E-02    0   0.9577   age045_m72            0.0000     3.7383E-05    24.6687   2.5182    88.0420
 53      0.0000     0.0000E+00    0.0000E+00    5.010000E+06  0.05000  3.072E-02    0   0.9147   age055_m72            0.0000     3.8086E-05    26.3890   2.1006    90.0918
 54      0.0000     0.0000E+00    0.0000E+00    6.610000E+06  0.05000  1.455E-02    0   0.8877   age061_m72            0.0000     4.6304E-05    32.1102   1.5050    90.5759
 55      0.0000     0.0000E+00    0.0000E+00    1.000000E+07  0.05000  9.074E-03    0   0.8524   age070_m72            0.0000     3.8541E-05    26.4046   2.2697    89.8920
 56      0.0000     0.0000E+00    0.0000E+00    2.512000E+07  0.05000  4.250E-03    0   0.7902   age090_m72            0.0000     3.5715E-05    25.5056   1.9623    91.9507
 57      0.0000     0.0000E+00    0.0000E+00    4.000000E+07  0.05000  3.087E-03    0   0.7618   age104_m72            0.0000     3.4786E-05    25.3564   1.7376    93.4193
 58      0.0000     0.0000E+00    0.0000E+00    1.015200E+08  0.05000  1.700E-03    0   0.7096   age116_m72            0.0000     3.0807E-05    22.6944   1.4251    97.6944
 59      0.0000     0.0000E+00    0.0000E+00    2.861200E+08  0.05000  7.384E-04    0   0.6633   age125_m72            0.0000     2.6184E-05    19.0251   0.7952   105.4897
 60     47.8690     2.5755E+01    2.6566E+01    5.088000E+08  0.05000  3.819E-04    0   0.6372   age130_m72            0.0000     2.3696E-05    17.8271   0.2402   109.1037
 61     60.5601     7.4245E+01    7.3434E+01    9.047900E+08  0.05000  1.676E-04    0   0.6110   age135_m72            0.0000     2.3385E-05    17.5665  -0.5128   108.7449
 62      0.0000     0.0000E+00    0.0000E+00    1.434000E+09  0.05000  8.837E-05    0   0.5874   age139_m72            0.0000     2.3734E-05    17.5491  -0.9768   108.2842
 63      0.0000     0.0000E+00    0.0000E+00    2.500000E+09  0.05000  4.233E-05    0   0.5598   age150_m72            0.0000     2.5786E-05    20.0415  -1.0000   102.0640
 64      0.0000     0.0000E+00    0.0000E+00    6.250000E+09  0.05000  1.435E-05    0   0.5249   age166_m72            0.0000     3.6552E-05    28.3035  -1.0000    91.0831
 65      0.0000     0.0000E+00    0.0000E+00    1.300000E+10  0.05000  6.513E-06    0   0.5036   age193_m72            0.0000     4.9335E-05    33.4134  -1.0000    85.2439
 66      0.0000     0.0000E+00    0.0000E+00    1.800000E+10  0.05000  4.527E-06    0   0.4945   age213_m72            0.0000     5.8497E-05    36.2723  -1.0000    80.9781


## Synthesis Results - Average & Chains ##

# j      x_j: min, <> & last-chain-values for 1 ...  7 chains
  1      0.0000      1.0829      0.0044      0.0000      0.0000      0.0000      0.0000      0.0000      0.0000
  2      0.0000      0.7631      0.0000      0.0000      0.0035      0.0000      0.0000      0.0000      0.0000
  3      0.0000      0.8682      0.0000      0.0000      0.0000      0.0000      0.0000      0.0000      0.0000
  4      0.0000      0.7348      0.0000      0.0000      0.0000      0.0000      0.0000      0.0000      0.0000
  5      0.0000      0.9719      0.0000      0.0000      0.0001      0.0072      0.0000      0.0000      0.0000
  6      0.0000      0.4961      0.0000      0.0000      0.0000      0.0000      0.0014      0.0000      0.0000
  7      0.0000      0.8476      0.0000      0.0000      0.0024      0.0000      0.0000      0.0000      0.0000
  8      0.0000      0.8411      0.0000      0.0000      0.0000      0.0000      0.0000      0.0000      0.0000
  9      0.0000      0.7910      0.0000      0.0000      0.0000      0.0010      0.0000      0.0000      0.0000
 10      0.0000      0.8546      0.0000      0.0000      0.0000      0.0000      0.0000      0.0213      0.0029
 11      0.0000      0.7025      0.0000      0.0000      0.0035      0.0000      0.0000      0.0000      0.0000
 12      0.0000      0.9449      0.0000      0.0000      0.0017      0.0000      0.0000      0.0000      0.0065
 13      0.0000      0.7092      0.0108      0.0000      0.0000      0.0000      0.0000      0.0000      0.0000
 14      0.0000      0.5319      0.0019      0.0000      0.0000      0.0000      0.0000      0.0000      0.0000
 15      0.0000      0.6391      0.0000      0.0000      0.0000      0.0006      0.0000      0.0028      0.0000
 16      0.0000      0.6856      0.0000      0.0000      0.0000      0.0000      0.0000      0.0000      0.0000
 17      0.0000      0.9018      0.0000      0.0000      0.0000      0.0019      0.0000      0.0000      0.0000
 18      0.0000      1.1071      0.0000      0.0000      0.0000      0.0000      0.0000      0.0000      0.0000
 19      0.0000      0.9937      0.0000      0.0000      0.0000      0.0000      0.0000      0.0034      0.0000
 20      0.0000      2.1810      2.7660      3.0906      2.5598      2.1528      3.2592      2.9333      3.2486
 21      0.0000      0.8196      0.0000      0.0000      0.0000      0.0000      0.0000      0.0000      0.0000
 22      0.0000      0.8714      0.0022      0.0000      0.0000      0.0000      0.0005      0.0000      0.0000
 23      0.0000      0.9614      0.0006      0.0000      0.0000      0.0000      0.0000      0.0000      0.0000
 24      0.0000      0.7054      0.0000      0.0000      0.0117      0.0000      0.0000      0.0057      0.0000
 25      0.0000      0.8396      0.0000      0.0017      0.0000      0.0000      0.0000      0.0000      0.0000
 26      0.0000      0.4450      0.0000      0.0000      0.0000      0.0000      0.0000      0.0000      0.0000
 27      0.0000      0.8100      0.0057      0.0060      0.0000      0.0000      0.0000      0.0000      0.0000
 28      0.0000      0.7720      0.0000      0.0000      0.0000      0.0000      0.0000      0.0021      0.0000
 29      0.0000      0.9834      0.0000      0.0000      0.0000      0.0000      0.0000      0.0000      0.0000
 30      0.0000      0.8579      0.0000      0.0000      0.0000      0.0000      0.0000      0.0000      0.0012
 31      0.0000      0.8395      0.0000      0.0000      0.0000      0.0000      0.0000      0.0000      0.0000
 32      0.0000      1.0493      0.0000      0.0000      0.0000      0.0000      0.0001      0.0000      0.0000
 33      0.0000      0.7551      0.0006      0.0000      0.0000      0.0000      0.0000      0.0000      0.0000
 34      0.0000      0.5935      0.0000      0.0017      0.0000      0.0000      0.0000      0.0000      0.0000
 35      0.0000      0.7115      0.0015      0.0042      0.0000      0.0000      0.0000      0.0000      0.0000
 36      0.0000      0.7022      0.0017      0.0000      0.0000      0.0000      0.0000      0.0000      0.0075
 37      0.0000      0.7150      0.0000      0.0000      0.0022      0.0000      0.0000      0.0000      0.0000
 38      0.0000      0.9241      0.0000      0.0000      0.0000      0.0000      0.0000      0.0000      0.0000
 39      0.0000      1.0507      0.0000      0.0000      0.0000      0.0000      0.0000      0.0000      0.0000
 40      0.0000      1.3472      0.0000      0.0000      0.0000      0.0030      0.0000      0.0000      0.0000
 41      0.0000      0.7883      0.0000      0.0000      0.0000      0.0000      0.0000      0.0000      0.0000
 42      0.0000      0.8154      0.0666      0.0000      0.3771      0.1655      0.0022      0.0758      0.4553
 43      0.0000      2.5112      3.3667      3.3684      3.6434      3.5105      3.0668      3.5544      3.4208
 44      0.0000      0.9889      0.0195      0.0038      0.0000      0.0279      0.0000      0.0000      0.0077
 45      0.0000      0.6301      0.0035      0.0000      0.0000      0.0000      0.0043      0.0000      0.0000
 46      0.0000      1.1631      0.0000      0.0000      0.0000      0.0000      0.0026      0.0000      0.0000
 47      0.0000      0.8367      0.0000      0.0000      0.0000      0.0000      0.0000      0.0003      0.0000
 48      0.0000      0.9417      0.0000      0.0000      0.0000      0.0000      0.0000      0.0000      0.0000
 49      0.0000      0.7307      0.0000      0.0000      0.0000      0.0000      0.0000      0.0000      0.0000
 50      0.0000      0.9023      0.0000      0.0000      0.0000      0.0000      0.0000      0.0000      0.0000
 51      0.0000      0.7809      0.0000      0.0000      0.0000      0.0001      0.0000      0.0000      0.0000
 52      0.0000      3.4349      4.8165      5.3563      4.6503      5.5943      5.5834      5.3407      5.3956
 53      0.0000      0.9358      0.0023      0.0000      0.0000      0.0000      0.0000      0.0000      0.0000
 54      0.0000      0.8063      0.0000      0.0000      0.0000      0.0000      0.0000      0.0000      0.0000
 55      0.0000      0.6331      0.0000      0.0000      0.0000      0.0000      0.0000      0.0000      0.0000
 56      0.0000      0.8697      0.0000      0.0000      0.0000      0.0000      0.0000      0.0000      0.0000
 57      0.0000      0.4885      0.0000      0.0000      0.0000      0.0000      0.0000      0.0000      0.0000
 58      0.0000      0.9597      0.0000      0.0000      0.0000      0.0000      0.0000      0.0039      0.0000
 59      0.0000      6.4083     10.8204      9.9802      9.6204     10.0829      9.6523     11.1415      9.7177
 60     47.8690     30.4714     50.4257     49.8240     51.5778     50.6069     51.4830     49.2477     49.7965
 61     60.5601     33.5656     55.5830     55.8748     55.4564     55.6968     54.8208     55.4714     55.6999
 62      0.0000      1.0249      0.0000      0.0003      0.0000      0.0000      0.0000      0.0000      0.0000
 63      0.0000      0.8309      0.0000      0.0000      0.0010      0.0000      0.0000      0.0000      0.0000
 64      0.0000      0.7982      0.0000      0.0000      0.0028      0.0000      0.0000      0.0000      0.0000
 65      0.0000      0.5487      0.0000      0.0000      0.0000      0.0000      0.0000      0.0000      0.0000
 66      0.0000      0.6323      0.0000      0.3230      0.0000      0.0000      0.0000      0.0000      0.0000

# j      m_j: min, <> & last-chain-values for 1 ...  7 chains
  1  0.0000E+00  1.5749E-02  1.3403E-04  0.0000E+00  0.0000E+00  0.0000E+00  0.0000E+00  0.0000E+00  0.0000E+00
  2  0.0000E+00  3.0297E-03  0.0000E+00  0.0000E+00  2.8715E-05  0.0000E+00  0.0000E+00  0.0000E+00  0.0000E+00
  3  0.0000E+00  5.1619E-03  0.0000E+00  0.0000E+00  0.0000E+00  0.0000E+00  0.0000E+00  0.0000E+00  0.0000E+00
  4  0.0000E+00  4.1142E-03  0.0000E+00  0.0000E+00  0.0000E+00  0.0000E+00  0.0000E+00  0.0000E+00  0.0000E+00
  5  0.0000E+00  1.0366E-02  0.0000E+00  0.0000E+00  2.5308E-06  1.6069E-04  0.0000E+00  0.0000E+00  0.0000E+00
  6  0.0000E+00  8.5825E-03  0.0000E+00  0.0000E+00  0.0000E+00  0.0000E+00  5.2449E-05  0.0000E+00  0.0000E+00
  7  0.0000E+00  2.0992E-02  0.0000E+00  0.0000E+00  1.2330E-04  0.0000E+00  0.0000E+00  0.0000E+00  0.0000E+00
  8  0.0000E+00  2.8792E-02  3.0002E-06  0.0000E+00  0.0000E+00  0.0000E+00  0.0000E+00  0.0000E+00  0.0000E+00
  9  0.0000E+00  3.0992E-02  0.0000E+00  0.0000E+00  0.0000E+00  8.3931E-05  0.0000E+00  0.0000E+00  0.0000E+00
 10  0.0000E+00  4.3984E-02  0.0000E+00  0.0000E+00  0.0000E+00  0.0000E+00  0.0000E+00  2.3189E-03  3.1053E-04
 11  0.0000E+00  6.7986E-02  0.0000E+00  0.0000E+00  7.1256E-04  0.0000E+00  0.0000E+00  0.0000E+00  0.0000E+00
 12  0.0000E+00  1.4506E-01  0.0000E+00  0.0000E+00  5.5149E-04  0.0000E+00  0.0000E+00  0.0000E+00  2.0990E-03
 13  0.0000E+00  3.0685E-01  9.8036E-03  0.0000E+00  0.0000E+00  0.0000E+00  0.0000E+00  0.0000E+00  0.0000E+00
 14  0.0000E+00  7.7188E-01  5.8513E-03  0.0000E+00  0.0000E+00  0.0000E+00  0.0000E+00  0.0000E+00  0.0000E+00
 15  0.0000E+00  1.5099E+00  0.0000E+00  0.0000E+00  0.0000E+00  3.1596E-03  0.0000E+00  1.4124E-02  0.0000E+00
 16  0.0000E+00  2.7390E+00  0.0000E+00  0.0000E+00  0.0000E+00  0.0000E+00  0.0000E+00  0.0000E+00  0.0000E+00
 17  0.0000E+00  4.6732E+00  0.0000E+00  0.0000E+00  0.0000E+00  2.1198E-02  0.0000E+00  0.0000E+00  0.0000E+00
 18  0.0000E+00  1.4228E-02  0.0000E+00  0.0000E+00  0.0000E+00  0.0000E+00  0.0000E+00  0.0000E+00  0.0000E+00
 19  0.0000E+00  5.1257E-03  0.0000E+00  4.3732E-07  0.0000E+00  0.0000E+00  0.0000E+00  3.7431E-05  0.0000E+00
 20  0.0000E+00  1.2282E-02  3.2706E-02  3.2762E-02  3.0192E-02  2.5437E-02  3.8845E-02  3.4914E-02  3.8596E-02
 21  0.0000E+00  5.6024E-03  0.0000E+00  0.0000E+00  0.0000E+00  0.0000E+00  0.0000E+00  0.0000E+00  0.0000E+00
 22  0.0000E+00  1.0073E-02  5.2468E-05  0.0000E+00  0.0000E+00  0.0000E+00  1.2435E-05  0.0000E+00  0.0000E+00
 23  0.0000E+00  1.5007E-02  1.8462E-05  0.0000E+00  0.0000E+00  0.0000E+00  0.0000E+00  0.0000E+00  0.0000E+00
 24  0.0000E+00  1.6381E-02  0.0000E+00  0.0000E+00  5.7137E-04  0.0000E+00  0.0000E+00  2.8186E-04  0.0000E+00
 25  0.0000E+00  2.6884E-02  0.0000E+00  1.0248E-04  0.0000E+00  0.0000E+00  0.0000E+00  0.0000E+00  0.0000E+00
 26  0.0000E+00  2.3818E-02  0.0000E+00  0.0000E+00  0.0000E+00  0.0000E+00  0.0000E+00  0.0000E+00  0.0000E+00
 27  0.0000E+00  8.6782E-02  1.2832E-03  1.2005E-03  0.0000E+00  0.0000E+00  0.0000E+00  0.0000E+00  0.0000E+00
 28  0.0000E+00  2.4005E-01  0.0000E+00  0.0000E+00  0.0000E+00  0.0000E+00  0.0000E+00  1.3974E-03  0.0000E+00
 29  0.0000E+00  5.3273E-01  0.0000E+00  0.0000E+00  0.0000E+00  0.0000E+00  0.0000E+00  0.0000E+00  0.0000E+00
 30  0.0000E+00  9.7102E-01  0.0000E+00  0.0000E+00  0.0000E+00  0.0000E+00  0.0000E+00  0.0000E+00  2.9526E-03
 31  0.0000E+00  1.6714E+00  0.0000E+00  0.0000E+00  0.0000E+00  0.0000E+00  0.0000E+00  0.0000E+00  0.0000E+00
 32  0.0000E+00  2.8110E+00  0.0000E+00  0.0000E+00  0.0000E+00  0.0000E+00  7.0431E-04  0.0000E+00  0.0000E+00
 33  0.0000E+00  4.4779E+00  6.8838E-03  0.0000E+00  0.0000E+00  0.0000E+00  0.0000E+00  0.0000E+00  0.0000E+00
 34  0.0000E+00  4.7662E+00  0.0000E+00  2.5466E-02  0.0000E+00  0.0000E+00  0.0000E+00  0.0000E+00  0.0000E+00
 35  0.0000E+00  7.3324E-03  3.2551E-05  8.0997E-05  0.0000E+00  0.0000E+00  0.0000E+00  0.0000E+00  0.0000E+00
 36  0.0000E+00  2.9276E-03  1.4830E-05  0.0000E+00  0.0000E+00  0.0000E+00  0.0000E+00  0.0000E+00  6.5765E-05
 37  0.0000E+00  3.2245E-03  0.0000E+00  0.0000E+00  2.0982E-05  0.0000E+00  0.0000E+00  0.0000E+00  0.0000E+00
 38  0.0000E+00  1.1290E-02  0.0000E+00  0.0000E+00  0.0000E+00  0.0000E+00  0.0000E+00  0.0000E+00  0.0000E+00
 39  0.0000E+00  1.8482E-02  0.0000E+00  0.0000E+00  0.0000E+00  0.0000E+00  0.0000E+00  0.0000E+00  0.0000E+00
 40  0.0000E+00  3.8307E-02  0.0000E+00  0.0000E+00  0.0000E+00  1.8017E-04  0.0000E+00  0.0000E+00  0.0000E+00
 41  0.0000E+00  3.4856E-02  0.0000E+00  0.0000E+00  0.0000E+00  0.0000E+00  0.0000E+00  0.0000E+00  0.0000E+00
 42  0.0000E+00  6.6195E-02  1.1347E-02  0.0000E+00  6.4110E-02  2.8189E-02  3.7982E-04  1.3013E-02  7.7981E-02
 43  0.0000E+00  2.9763E-01  8.3786E-01  7.5150E-01  9.0445E-01  8.7302E-01  7.6930E-01  8.9043E-01  8.5538E-01
 44  0.0000E+00  2.0181E-01  8.3716E-03  1.4694E-03  0.0000E+00  1.1944E-02  0.0000E+00  0.0000E+00  3.3041E-03
 45  0.0000E+00  2.5512E-01  2.9675E-03  0.0000E+00  0.0000E+00  0.0000E+00  3.7240E-03  0.0000E+00  0.0000E+00
 46  0.0000E+00  8.6569E-01  0.0000E+00  0.0000E+00  0.0000E+00  0.0000E+00  4.1299E-03  0.0000E+00  0.0000E+00
 47  0.0000E+00  1.2619E+00  0.0000E+00  0.0000E+00  0.0000E+00  0.0000E+00  0.0000E+00  8.3377E-04  0.0000E+00
 48  0.0000E+00  2.5046E+00  1.5482E-04  0.0000E+00  0.0000E+00  0.0000E+00  0.0000E+00  0.0000E+00  0.0000E+00
 49  0.0000E+00  4.4170E+00  0.0000E+00  0.0000E+00  0.0000E+00  0.0000E+00  0.0000E+00  0.0000E+00  0.0000E+00
 50  0.0000E+00  1.0103E+01  0.0000E+00  0.0000E+00  0.0000E+00  0.0000E+00  0.0000E+00  0.0000E+00  0.0000E+00
 51  0.0000E+00  4.7923E-03  0.0000E+00  0.0000E+00  0.0000E+00  6.5296E-07  0.0000E+00  0.0000E+00  0.0000E+00
 52  0.0000E+00  1.0803E-02  3.1807E-02  3.1710E-02  3.0632E-02  3.6917E-02  3.7165E-02  3.5502E-02  3.5801E-02
 53  0.0000E+00  4.4331E-03  2.2618E-05  0.0000E+00  0.0000E+00  0.0000E+00  0.0000E+00  0.0000E+00  0.0000E+00
 54  0.0000E+00  7.8265E-03  0.0000E+00  0.0000E+00  0.0000E+00  0.0000E+00  0.0000E+00  0.0000E+00  0.0000E+00
 55  0.0000E+00  9.4626E-03  0.0000E+00  0.0000E+00  0.0000E+00  0.0000E+00  0.0000E+00  0.0000E+00  0.0000E+00
 56  0.0000E+00  2.5729E-02  0.0000E+00  0.0000E+00  0.0000E+00  0.0000E+00  0.0000E+00  0.0000E+00  0.0000E+00
 57  0.0000E+00  1.9181E-02  0.0000E+00  0.0000E+00  0.0000E+00  0.0000E+00  0.0000E+00  0.0000E+00  0.0000E+00
 58  0.0000E+00  6.3740E-02  0.0000E+00  0.0000E+00  0.0000E+00  0.0000E+00  0.0000E+00  5.5386E-04  0.0000E+00
 59  0.0000E+00  9.1592E-01  3.2472E+00  2.6851E+00  2.8799E+00  3.0238E+00  2.9198E+00  3.3657E+00  2.9303E+00
 60  2.6566E+01  8.0893E+00  2.8108E+01  2.4898E+01  2.8678E+01  2.8189E+01  2.8926E+01  2.7633E+01  2.7890E+01
 61  7.3434E+01  1.9469E+01  6.7696E+01  6.1007E+01  6.7372E+01  6.7787E+01  6.7300E+01  6.8008E+01  6.8163E+01
 62  0.0000E+00  1.0839E+00  0.0000E+00  6.0566E-04  0.0000E+00  0.0000E+00  0.0000E+00  0.0000E+00  0.0000E+00
 63  0.0000E+00  1.7483E+00  0.0000E+00  0.0000E+00  4.3507E-03  0.0000E+00  0.0000E+00  0.0000E+00  0.0000E+00
 64  0.0000E+00  4.6455E+00  0.0000E+00  0.0000E+00  3.4703E-02  0.0000E+00  0.0000E+00  0.0000E+00  0.0000E+00
 65  0.0000E+00  6.7508E+00  0.0000E+00  0.0000E+00  0.0000E+00  0.0000E+00  0.0000E+00  0.0000E+00  0.0000E+00
 66  0.0000E+00  1.0990E+01  0.0000E+00  1.0566E+01  0.0000E+00  0.0000E+00  0.0000E+00  0.0000E+00  0.0000E+00

# AV, chi2 & Mass for <> & i_chain = 1 ...  7 solutions
AV      -0.1988     -0.3734     -0.4440     -0.4509     -0.4475     -0.4440     -0.4315     -0.4326     -0.4338
chi2 2.3197E-05  4.1306E-05  3.3739E-05  3.3845E-05  3.3659E-05  3.3738E-05  3.4007E-05  3.3882E-05  3.3929E-05
Mass 3.7650E-14  6.2247E-14  2.6965E-14  2.9803E-14  2.6907E-14  2.6984E-14  2.7205E-14  2.7201E-14  2.7206E-14
 -99.37                                  [v0_min (km/s) before EX0s...]
 198.72                                  [vd_min (km/s) before EX0s...]


## Synthetic spectrum (Best Model) ##l_obs f_obs f_syn wei
 3478    [Nl_obs]
 3741.00   -0.07104   0.55071    0.000
 3742.00   -0.16104   0.53662    0.000
 3743.00   -0.23799   0.51373    0.000
 3744.00   -0.18141   0.48541    0.000
 3745.00   -0.04703   0.45561    0.000
 3746.00    0.17244   0.42922    0.044
 3747.00    0.43513   0.41184    0.045
 3748.00    0.45509   0.40845    0.047
 3749.00    0.36831   0.42154    0.051
 3750.00    0.30216   0.44960    0.049
 3751.00    0.24379   0.48702    0.044
 3752.00    0.23356   0.52562    0.043
 3753.00    0.23875   0.55729    0.043
 3754.00    0.43643   0.57666    0.043
 3755.00    0.68570   0.58282    0.045
 3756.00    0.83552   0.57923    0.045
 3757.00    0.96351   0.57189    0.046
 3758.00    0.74357   0.56640    0.046
 3759.00    0.46290   0.56561    0.046
 3760.00    0.24480   0.56897    0.044
 3761.00    0.03500   0.57336    0.041
 3762.00    0.24077   0.57492    0.042
 3763.00    0.48559   0.57061    0.044
 3764.00    0.27011   0.55933    0.042
 3765.00    0.02809   0.54222    0.040
 3766.00    0.17453   0.52244    0.042
 3767.00    0.32920   0.50440    0.044
 3768.00    0.36444   0.49263    0.044
 3769.00    0.40339   0.49043    0.044
 3770.00    0.53213   0.49890    0.045
 3771.00    0.64206   0.51681    0.046
 3772.00    0.50547   0.54140    0.043
 3773.00    0.39689   0.56986    0.041
 3774.00    0.53433   0.60024    0.041
 3775.00    0.65578   0.63143    0.041
 3776.00    0.67355   0.66248    0.044
 3777.00    0.66093   0.69197    0.045
 3778.00    0.49443   0.71788    0.041
 3779.00    0.33954   0.73811    0.038
 3780.00    0.23213   0.75086    0.038
 3781.00    0.16807   0.75489    0.038
 3782.00    0.25104   0.74966    0.039
 3783.00    0.36910   0.73561    0.040
 3784.00    0.58753   0.71465    0.042
 3785.00    0.73291   0.69010    0.043
 3786.00    0.69981   0.66585    0.043
 3787.00    0.65634   0.64472    0.044
 3788.00    0.59100   0.62728    0.046
 3789.00    0.59072   0.61164    0.047
 3790.00    0.70960   0.59464    0.043
 3791.00    0.74633   0.57350    0.041
 3792.00    0.65157   0.54734    0.041
 3793.00    0.53041   0.51786    0.041
 3794.00    0.37216   0.48916    0.041
 3795.00    0.26098   0.46674    0.041
 3796.00    0.20798   0.45614    0.040
 3797.00    0.20842   0.46119    0.039
 3798.00    0.26708   0.48253    0.040
 3799.00    0.34158   0.51707    0.041
 3800.00    0.43133   0.55874    0.042
 3801.00    0.37543   0.60051    0.042
 3802.00    0.19612   0.63678    0.041
 3803.00    0.22493   0.66504    0.041
 3804.00    0.40904   0.68622    0.043
 3805.00    0.59220   0.70336    0.044
 3806.00    0.77472   0.71933    0.045
 3807.00    0.69630   0.73468    0.044
 3808.00    0.46814   0.74710    0.043
 3809.00    0.44076   0.75293    0.043
 3810.00    0.51375   0.74980    0.044
 3811.00    0.66259   0.73872    0.050
 3812.00    0.84424   0.72402    0.060
 3813.00    0.86972   0.71118    0.053
 3814.00    0.83729   0.70394    0.043
 3815.00    0.80745   0.70260    0.041
 3816.00    0.77843   0.70447    0.041
 3817.00    0.58032   0.70591    0.043
 3818.00    0.33787   0.70428    0.046
 3819.00    0.34684   0.69862    0.043
 3820.00    0.40968   0.68892    0.040
 3821.00    0.40096   0.67532    0.039
 3822.00    0.38010   0.65810    0.039
 3823.00    0.20963   0.63813    0.038
 3824.00    0.01996   0.61700    0.037
 3825.00    0.04891   0.59623    0.037
 3826.00    0.09748   0.57627    0.037
 3827.00    0.22801   0.55608    0.041
 3828.00    0.36294   0.53380    0.046
 3829.00    0.38596   0.50805    0.044
 3830.00    0.40582   0.47922    0.042
 3831.00    0.34869   0.44989    0.041
 3832.00    0.31191   0.42423    0.040
 3833.00    0.72705   0.40663    0.042
 3834.00    1.12134   0.40019    0.045
 3835.00    1.25620   0.40598    0.047
 3836.00    1.33226   0.42312    0.050
 3837.00    0.91118   0.44954    0.052
 3838.00    0.56505   0.48272    0.054
 3839.00    0.69045   0.52006    0.050
 3840.00    0.77315   0.55883    0.046
 3841.00    0.64524   0.59633    0.043
 3842.00    0.49012   0.63023    0.041
 3843.00    0.22608   0.65913    0.041
 3844.00    0.01192   0.68270    0.040
 3845.00   -0.03640   0.70152    0.000
 3846.00   -0.04500   0.71667    0.000
 3847.00    0.05792   0.72944    0.000
 3848.00    0.13213   0.74104    0.000
 3849.00    0.13736   0.75214    0.000
 3850.00    0.05179   0.76250    0.000
 3851.00   -0.22206   0.77099    0.000
 3852.00   -0.24778   0.77629    0.000
 3853.00    0.17406   0.77777    0.000
 3854.00    0.42917   0.77607    0.000
 3855.00    0.42134   0.77295    0.000
 3856.00    0.41945   0.77075    0.000
 3857.00    0.42577   0.77164    0.000
 3858.00    0.41622   0.77696    0.000
 3859.00    0.38734   0.78657    0.000
 3860.00    0.34035   0.79889    0.000
 3861.00    0.27391   0.81140    0.000
 3862.00    0.24716   0.82183    0.000
 3863.00    0.25801   0.82900    0.000
 3864.00    0.33119   0.83285    0.000
 3865.00    0.45643   0.83364    0.000
 3866.00    0.57459   0.83119    0.000
 3867.00    0.68753   0.82479    0.000
 3868.00    0.73999   0.81398    0.000
 3869.00    0.75338   0.79963    0.000
 3870.00    0.72560   0.78418    0.000
 3871.00    0.67455   0.77068    0.000
 3872.00    0.69506   0.76096    0.000
 3873.00    0.75078   0.75450    0.000
 3874.00    0.77753   0.74885    0.000
 3875.00    0.79195   0.74141    0.000
 3876.00    0.71343   0.73104    0.000
 3877.00    0.60106   0.71818    0.000
 3878.00    0.56585   0.70369    0.000
 3879.00    0.55444   0.68752    0.000
 3880.00    0.57448   0.66839    0.000
 3881.00    0.60258   0.64463    0.044
 3882.00    0.48271   0.61543    0.042
 3883.00    0.33191   0.58168    0.039
 3884.00    0.31768   0.54631    0.040
 3885.00    0.32597   0.51384    0.041
 3886.00    0.37848   0.48948    0.042
 3887.00    0.43646   0.47763    0.042
 3888.00    0.35036   0.48043    0.041
 3889.00    0.25193   0.49689    0.040
 3890.00    0.27538   0.52321    0.040
 3891.00    0.30491   0.55420    0.040
 3892.00    0.12130   0.58515    0.040
 3893.00   -0.05739   0.61312    0.000
 3894.00    0.30769   0.63719    0.040
 3895.00    0.65675   0.65795    0.040
 3896.00    0.67810   0.67654    0.040
 3897.00    0.70307   0.69396    0.041
 3898.00    0.77069   0.71057    0.039
 3899.00    0.80709   0.72585    0.037
 3900.00    0.58912   0.73869    0.036
 3901.00    0.40210   0.74823    0.036
 3902.00    0.40415   0.75486    0.034
 3903.00    0.42880   0.76063    0.033
 3904.00    0.56224   0.76860    0.033
 3905.00    0.62901   0.78129    0.033
 3906.00    0.43471   0.79919    0.032
 3907.00    0.28232   0.82020    0.032
 3908.00    0.26652   0.84041    0.033
 3909.00    0.31498   0.85573    0.035
 3910.00    0.54063   0.86349    0.036
 3911.00    0.73363   0.86326    0.037
 3912.00    0.84954   0.85658    0.039
 3913.00    0.92223   0.84596    0.040
 3914.00    0.90670   0.83394    0.040
 3915.00    0.84182   0.82241    0.040
 3916.00    0.68927   0.81260    0.040
 3917.00    0.57056   0.80527    0.041
 3918.00    0.50440   0.80077    0.041
 3919.00    0.46910   0.79883    0.041
 3920.00    0.47592   0.79819    0.040
 3921.00    0.59050   0.79638    0.041
 3922.00    0.83452   0.79016    0.043
 3923.00    0.92052   0.77623    0.043
 3924.00    0.83914   0.75214    0.042
 3925.00    0.70841   0.71687    0.042
 3926.00    0.53157   0.67102    0.042
 3927.00    0.38166   0.61670    0.042
 3928.00    0.25391   0.55749    0.042
 3929.00    0.24988   0.49845    0.042
 3930.00    0.33553   0.44604    0.041
 3931.00    0.34945   0.40728    0.041
 3932.00    0.31771   0.38838    0.042
 3933.00    0.37912   0.39283    0.042
 3934.00    0.49235   0.41999    0.041
 3935.00    0.64903   0.46504    0.042
 3936.00    0.82674   0.52016    0.043
 3937.00    0.85894   0.57682    0.044
 3938.00    0.83031   0.62799    0.044
 3939.00    0.51015   0.66961    0.043
 3940.00    0.08570   0.70098    0.041
 3941.00    0.39514   0.72397    0.042
 3942.00    0.92640   0.74154    0.044
 3943.00    0.98643   0.75616    0.044
 3944.00    0.92811   0.76886    0.044
 3945.00    0.71336   0.77940    0.043
 3946.00    0.46672   0.78722    0.042
 3947.00    0.71425   0.79233    0.042
 3948.00    1.04092   0.79552    0.042
 3949.00    0.90710   0.79778    0.042
 3950.00    0.71831   0.79959    0.042
 3951.00    0.63796   0.80051    0.042
 3952.00    0.56645   0.79950    0.041
 3953.00    0.48600   0.79555    0.040
 3954.00    0.40515   0.78813    0.040
 3955.00    0.80545   0.77719    0.040
 3956.00    1.20339   0.76262    0.041
 3957.00    1.15780   0.74370    0.042
 3958.00    1.10056   0.71917    0.043
 3959.00    0.82252   0.68778    0.042
 3960.00    0.57004   0.64902    0.000
 3961.00    0.60568   0.60348    0.000
 3962.00    0.63373   0.55262    0.000
 3963.00    0.60216   0.49853    0.000
 3964.00    0.57619   0.44420    0.000
 3965.00    0.58343   0.39398    0.000
 3966.00    0.57652   0.35338    0.000
 3967.00    0.50311   0.32797    0.000
 3968.00    0.45078   0.32173    0.000
 3969.00    0.47921   0.33570    0.000
 3970.00    0.47683   0.36766    0.000
 3971.00    0.37595   0.41299    0.000
 3972.00    0.40329   0.46618    0.000
 3973.00    0.77786   0.52219    0.000
 3974.00    1.08574   0.57722    0.000
 3975.00    1.23876   0.62862    0.000
 3976.00    1.31050   0.67460    0.000
 3977.00    1.21900   0.71386    0.000
 3978.00    1.08992   0.74567    0.000
 3979.00    0.89511   0.77025    0.000
 3980.00    0.81648   0.78894    0.000
 3981.00    0.91569   0.80398    0.045
 3982.00    1.01508   0.81770    0.045
 3983.00    1.11472   0.83169    0.045
 3984.00    1.14241   0.84633    0.045
 3985.00    1.08490   0.86110    0.044
 3986.00    0.89185   0.87524    0.043
 3987.00    0.55727   0.88827    0.043
 3988.00    0.46057   0.90000    0.043
 3989.00    0.58296   0.91022    0.043
 3990.00    0.69102   0.91831    0.042
 3991.00    0.78745   0.92330    0.042
 3992.00    0.87559   0.92447    0.042
 3993.00    0.95779   0.92217    0.042
 3994.00    0.95814   0.91830    0.042
 3995.00    0.90718   0.91579    0.042
 3996.00    0.95950   0.91730    0.042
 3997.00    1.06842   0.92369    0.041
 3998.00    0.87245   0.93342    0.041
 3999.00    0.53124   0.94309    0.040
 4000.00    0.52905   0.94919    0.041
 4001.00    0.66620   0.94992    0.041
 4002.00    0.90537   0.94623    0.041
 4003.00    1.18037   0.94136    0.041
 4004.00    1.03345   0.93931    0.040
 4005.00    0.76152   0.94292    0.040
 4006.00    0.97858   0.95257    0.040
 4007.00    1.31576   0.96618    0.040
 4008.00    1.45307   0.98040    0.041
 4009.00    1.55064   0.99241    0.041
 4010.00    1.47953   1.00096    0.041
 4011.00    1.38221   1.00641    0.041
 4012.00    1.37470   1.01004    0.041
 4013.00    1.37752   1.01330    0.040
 4014.00    1.22162   1.01720    0.040
 4015.00    1.05346   1.02196    0.040
 4016.00    1.02469   1.02704    0.040
 4017.00    1.00178   1.03133    0.040
 4018.00    0.90529   1.03351    0.040
 4019.00    0.80562   1.03273    0.039
 4020.00    0.59589   1.02920    0.040
 4021.00    0.42763   1.02429    0.040
 4022.00    0.99040   1.01996    0.040
 4023.00    1.51283   1.01728    0.041
 4024.00    1.60117   1.01548    0.042
 4025.00    1.64592   1.01203    0.043
 4026.00    1.35967   1.00392    0.041
 4027.00    1.12264   0.98951    0.040
 4028.00    1.16950   0.97009    0.041
 4029.00    1.13660   0.94995    0.042
 4030.00    0.73816   0.93476    0.041
 4031.00    0.46039   0.92925    0.040
 4032.00    0.63524   0.93548    0.039
 4033.00    0.76841   0.95209    0.039
 4034.00    0.77089   0.97492    0.039
 4035.00    0.83636   0.99858    0.039
 4036.00    1.06937   1.01803    0.040
 4037.00    1.19584   1.02975    0.041
 4038.00    1.07902   1.03233    0.041
 4039.00    1.00000   1.02620    0.041
 4040.00    0.99573   1.01319    0.042
 4041.00    0.93592   0.99619    0.042
 4042.00    0.78045   0.97883    0.042
 4043.00    0.70345   0.96507    0.041
 4044.00    0.74484   0.95824    0.041
 4045.00    0.76862   0.95972    0.041
 4046.00    0.76907   0.96810    0.041
 4047.00    0.83069   0.97958    0.041
 4048.00    0.96374   0.98944    0.042
 4049.00    1.11364   0.99413    0.043
 4050.00    1.28090   0.99232    0.044
 4051.00    1.30502   0.98507    0.044
 4052.00    1.19915   0.97519    0.043
 4053.00    1.20583   0.96598    0.042
 4054.00    1.30258   0.95985    0.042
 4055.00    1.18119   0.95755    0.041
 4056.00    0.90619   0.95829    0.041
 4057.00    0.79541   0.96003    0.040
 4058.00    0.78607   0.96036    0.040
 4059.00    0.86588   0.95756    0.040
 4060.00    0.99378   0.95150    0.041
 4061.00    1.04682   0.94382    0.041
 4062.00    1.06478   0.93727    0.041
 4063.00    1.04512   0.93421    0.040
 4064.00    1.01025   0.93548    0.040
 4065.00    1.05430   0.94007    0.040
 4066.00    1.12556   0.94576    0.041
 4067.00    1.11455   0.95008    0.040
 4068.00    1.07965   0.95118    0.039
 4069.00    0.94830   0.94815    0.039
 4070.00    0.79379   0.94113    0.039
 4071.00    0.83305   0.93072    0.039
 4072.00    0.90986   0.91746    0.039
 4073.00    1.16689   0.90239    0.040
 4074.00    1.45107   0.88780    0.040
 4075.00    1.32053   0.87701    0.039
 4076.00    1.14412   0.87306    0.039
 4077.00    0.98861   0.87722    0.039
 4078.00    0.83463   0.88823    0.039
 4079.00    0.91185   0.90249    0.039
 4080.00    0.99792   0.91556    0.039
 4081.00    0.87260   0.92434    0.039
 4082.00    0.74863   0.92827    0.038
 4083.00    0.71948   0.92910    0.038
 4084.00    0.70176   0.92955    0.037
 4085.00    0.87251   0.93134    0.038
 4086.00    1.01027   0.93428    0.039
 4087.00    0.80861   0.93655    0.039
 4088.00    0.62138   0.93568    0.038
 4089.00    0.53999   0.92965    0.038
 4090.00    0.50116   0.91744    0.037
 4091.00    0.70110   0.89883    0.037
 4092.00    0.89370   0.87415    0.000
 4093.00    1.05347   0.84396    0.000
 4094.00    1.19939   0.80890    0.000
 4095.00    1.29442   0.76998    0.000
 4096.00    1.30626   0.72893    0.000
 4097.00    1.06220   0.68857    0.000
 4098.00    0.86630   0.65284    0.000
 4099.00    0.79626   0.62644    0.000
 4100.00    0.74094   0.61339    0.000
 4101.00    0.71869   0.61584    0.000
 4102.00    0.75061   0.63302    0.000
 4103.00    0.88795   0.66126    0.000
 4104.00    0.88806   0.69504    0.000
 4105.00    0.65535   0.72893    0.000
 4106.00    0.68727   0.75912    0.000
 4107.00    1.11257   0.78435    0.000
 4108.00    1.26642   0.80581    0.000
 4109.00    1.06559   0.82572    0.000
 4110.00    0.89828   0.84575    0.000
 4111.00    0.76956   0.86627    0.000
 4112.00    0.82889   0.88604    0.000
 4113.00    1.07911   0.90296    0.041
 4114.00    1.17556   0.91502    0.041
 4115.00    1.13436   0.92125    0.040
 4116.00    1.03165   0.92217    0.040
 4117.00    0.88043   0.91968    0.040
 4118.00    0.83275   0.91625    0.039
 4119.00    0.85694   0.91400    0.039
 4120.00    0.91303   0.91390    0.056
 4121.00    0.98854   0.91571    0.218
 4122.00    1.03188   0.91825   -1.000
 4123.00    1.05812   0.91978   -1.000
 4124.00    1.10487   0.91866   -1.000
 4125.00    1.16108   0.91443   -1.000
 4126.00    1.10099   0.90778   -1.000
 4127.00    0.99473   0.90008   -1.000
 4128.00    1.03616   0.89318    0.105
 4129.00    1.12758   0.88926    0.045
 4130.00    1.03109   0.89032    0.039
 4131.00    0.88115   0.89754    0.038
 4132.00    0.94914   0.91092    0.038
 4133.00    1.06830   0.92921    0.038
 4134.00    0.99579   0.95006    0.038
 4135.00    0.88711   0.97041    0.038
 4136.00    0.69637   0.98689    0.038
 4137.00    0.49365   0.99647    0.037
 4138.00    0.73995   0.99760    0.038
 4139.00    1.03397   0.99089    0.039
 4140.00    1.19834   0.97904    0.038
 4141.00    1.35374   0.96606    0.038
 4142.00    1.07149   0.95565    0.038
 4143.00    0.77414   0.95018    0.038
 4144.00    0.73869   0.94995    0.038
 4145.00    0.70292   0.95323    0.037
 4146.00    0.63925   0.95728    0.037
 4147.00    0.58546   0.95953    0.036
 4148.00    0.68451   0.95846    0.036
 4149.00    0.79995   0.95414    0.037
 4150.00    1.07689   0.94795    0.038
 4151.00    1.30984   0.94146    0.039
 4152.00    1.23042   0.93604    0.039
 4153.00    1.17258   0.93287    0.039
 4154.00    1.23252   0.93288    0.038
 4155.00    1.27537   0.93650    0.038
 4156.00    1.24353   0.94361    0.037
 4157.00    1.11718   0.95345    0.037
 4158.00    0.65089   0.96470    0.036
 4159.00    0.35854   0.97583    0.035
 4160.00    0.59104   0.98567    0.035
 4161.00    0.83994   0.99350    0.035
 4162.00    1.13093   0.99881    0.037
 4163.00    1.38524   1.00131    0.038
 4164.00    1.55852   1.00070    0.038
 4165.00    1.58211   0.99643    0.038
 4166.00    1.31898   0.98780    0.038
 4167.00    1.00527   0.97464    0.038
 4168.00    0.60704   0.95748    0.037
 4169.00    0.49557   0.93764    0.037
 4170.00    0.80414   0.91750    0.037
 4171.00    0.91178   0.89975    0.037
 4172.00    0.76062   0.88660    0.037
 4173.00    0.75254   0.87939    0.038
 4174.00    0.90684   0.87826    0.038
 4175.00    1.02438   0.88218    0.039
 4176.00    1.10514   0.88938    0.039
 4177.00    1.10878   0.89814    0.039
 4178.00    1.04436   0.90743    0.038
 4179.00    1.05049   0.91670    0.038
 4180.00    1.11149   0.92552    0.038
 4181.00    1.10133   0.93332    0.038
 4182.00    1.04251   0.93949    0.038
 4183.00    1.02448   0.94372    0.037
 4184.00    1.03090   0.94676    0.037
 4185.00    0.99936   0.95010    0.037
 4186.00    0.94796   0.95487    0.037
 4187.00    1.07851   0.96145    0.038
 4188.00    1.29159   0.96951    0.038
 4189.00    1.35892   0.97798    0.038
 4190.00    1.36939   0.98524    0.038
 4191.00    1.32156   0.98883    0.038
 4192.00    1.25437   0.98649    0.038
 4193.00    1.16077   0.97785    0.038
 4194.00    1.05982   0.96446    0.038
 4195.00    1.05461   0.94877    0.038
 4196.00    1.07136   0.93338    0.038
 4197.00    1.18050   0.92083    0.038
 4198.00    1.30663   0.91309    0.038
 4199.00    1.11157   0.91064    0.038
 4200.00    0.87110   0.91265    0.037
 4201.00    0.87927   0.91831    0.037
 4202.00    0.91280   0.92684    0.036
 4203.00    1.05463   0.93718    0.036
 4204.00    1.20351   0.94872    0.037
 4205.00    1.01050   0.96105    0.036
 4206.00    0.80727   0.97296    0.035
 4207.00    0.78298   0.98312    0.036
 4208.00    0.76558   0.99063    0.036
 4209.00    0.95066   0.99489    0.037
 4210.00    1.13056   0.99582    0.038
 4211.00    1.23479   0.99406    0.037
 4212.00    1.31932   0.99104    0.037
 4213.00    1.21743   0.98862    0.037
 4214.00    1.11766   0.98835    0.037
 4215.00    1.03239   0.99088    0.037
 4216.00    0.98115   0.99579    0.037
 4217.00    1.11076   1.00101    0.036
 4218.00    1.18315   1.00323    0.036
 4219.00    1.01112   0.99875    0.036
 4220.00    0.88913   0.98509    0.035
 4221.00    0.94343   0.96332    0.035
 4222.00    0.94817   0.93786    0.035
 4223.00    0.80616   0.91455    0.035
 4224.00    0.72847   0.89878    0.035
 4225.00    0.81311   0.89431    0.035
 4226.00    0.86424   0.90170    0.035
 4227.00    0.84252   0.91797    0.034
 4228.00    0.82622   0.93780    0.034
 4229.00    0.82014   0.95536    0.034
 4230.00    0.85584   0.96634    0.033
 4231.00    0.96036   0.96889    0.033
 4232.00    0.96083   0.96461    0.033
 4233.00    0.81110   0.95779    0.032
 4234.00    0.81483   0.95254    0.032
 4235.00    1.01341   0.95142    0.033
 4236.00    1.10772   0.95540    0.033
 4237.00    1.08538   0.96354    0.032
 4238.00    1.03862   0.97423    0.032
 4239.00    0.96777   0.98598    0.033
 4240.00    0.91783   0.99664    0.033
 4241.00    0.88610   1.00419    0.033
 4242.00    0.88554   1.00742    0.033
 4243.00    0.90888   1.00533    0.033
 4244.00    0.97913   0.99797    0.033
 4245.00    1.08099   0.98736    0.034
 4246.00    1.08418   0.97616    0.034
 4247.00    1.02911   0.96613    0.035
 4248.00    1.11026   0.95894    0.035
 4249.00    1.26154   0.95601    0.036
 4250.00    1.34229   0.95738    0.036
 4251.00    1.39157   0.96146    0.036
 4252.00    1.25272   0.96645    0.035
 4253.00    1.04174   0.97125    0.034
 4254.00    1.01118   0.97444    0.034
 4255.00    1.03944   0.97482    0.033
 4256.00    0.87863   0.97326    0.034
 4257.00    0.66622   0.97207    0.034
 4258.00    0.68027   0.97333    0.033
 4259.00    0.74507   0.97842    0.033
 4260.00    0.87920   0.98813    0.034
 4261.00    1.02573   1.00184    0.035
 4262.00    0.91377   1.01668    0.035
 4263.00    0.76643   1.02850    0.034
 4264.00    0.93653   1.03308    0.034
 4265.00    1.13764   1.02747    0.034
 4266.00    1.01496   1.01199    0.035
 4267.00    0.87248   0.98981    0.035
 4268.00    0.81615   0.96490    0.034
 4269.00    0.76238   0.94172    0.034
 4270.00    0.75250   0.92487    0.034
 4271.00    0.74142   0.91732    0.033
 4272.00    0.69879   0.91952    0.034
 4273.00    0.65851   0.93011    0.034
 4274.00    0.65063   0.94647    0.034
 4275.00    0.66000   0.96456    0.034
 4276.00    0.82616   0.97985    0.034
 4277.00    0.98826   0.99016    0.035
 4278.00    1.12340   0.99509    0.035
 4279.00    1.20128   0.99447    0.036
 4280.00    0.98276   0.98928    0.036
 4281.00    0.79992   0.98130    0.036
 4282.00    0.76607   0.97148   -2.000
 4283.00    0.74104   0.95976   -2.000
 4284.00    0.74639   0.94597   -2.000
 4285.00    0.71865   0.93123   -2.000
 4286.00    0.59468   0.91737   -2.000
 4287.00    0.63444   0.90594   -2.000
 4288.00    1.08029   0.89858   -2.000
 4289.00    1.37502   0.89634   -2.000
 4290.00    1.34670   0.89853   -2.000
 4291.00    1.32514   0.90293   -2.000
 4292.00    1.31613   0.90659   -2.000
 4293.00    1.17865   0.90586   -2.000
 4294.00    0.83279   0.89778   -2.000
 4295.00    0.62560   0.88223   -2.000
 4296.00    0.61571   0.86189   -2.000
 4297.00    0.73073   0.84090   -2.000
 4298.00    1.00209   0.82248    0.036
 4299.00    1.00062   0.80849    0.036
 4300.00    0.69819   0.80004    0.035
 4301.00    0.61461   0.79709    0.035
 4302.00    0.74397   0.79865    0.035
 4303.00    0.82205   0.80279    0.035
 4304.00    0.85615   0.80759    0.036
 4305.00    0.76043   0.81316    0.035
 4306.00    0.56662   0.82013    0.035
 4307.00    0.60879   0.82835    0.035
 4308.00    0.80767   0.83844    0.035
 4309.00    0.98152   0.85118    0.035
 4310.00    1.14080   0.86678    0.035
 4311.00    1.18093   0.88483    0.035
 4312.00    1.16068   0.90409    0.035
 4313.00    1.10062   0.92306    0.034
 4314.00    1.02310   0.94048    0.033
 4315.00    0.81000   0.95560    0.033
 4316.00    0.54583   0.96748    0.033
 4317.00    0.75286   0.97422    0.034
 4318.00    1.11055   0.97314    0.035
 4319.00    1.04775   0.96253    0.035
 4320.00    0.87257   0.94445    0.034
 4321.00    0.97571   0.92347    0.035
 4322.00    1.13976   0.90377    0.035
 4323.00    0.95801   0.88841    0.035
 4324.00    0.71611   0.87908    0.035
 4325.00    0.74958   0.87575    0.035
 4326.00    0.81947   0.87773    0.034
 4327.00    1.05994   0.88353    0.035
 4328.00    1.31635   0.89039    0.035
 4329.00    1.22523   0.89429    0.035
 4330.00    1.11423   0.89090    0.000
 4331.00    1.06139   0.87784    0.000
 4332.00    1.00977   0.85532    0.000
 4333.00    0.94339   0.82451    0.000
 4334.00    0.88096   0.78624    0.000
 4335.00    0.91319   0.74280    0.000
 4336.00    0.93558   0.69972    0.000
 4337.00    0.82982   0.66313    0.000
 4338.00    0.73473   0.63795    0.000
 4339.00    0.73288   0.62843    0.000
 4340.00    0.77619   0.63658    0.000
 4341.00    1.11126   0.66009    0.000
 4342.00    1.35039   0.69432    0.000
 4343.00    1.10556   0.73446    0.000
 4344.00    0.87142   0.77429    0.000
 4345.00    0.68094   0.80759    0.000
 4346.00    0.58404   0.83190    0.000
 4347.00    0.80369   0.84818    0.000
 4348.00    0.95634   0.85817    0.000
 4349.00    0.91778   0.86446    0.000
 4350.00    0.91377   0.87058    0.000
 4351.00    0.99397   0.87911    0.034
 4352.00    1.09829   0.89085    0.035
 4353.00    1.25337   0.90589    0.034
 4354.00    1.29572   0.92378    0.041
 4355.00    1.13200   0.94244    0.108
 4356.00    1.00510   0.95915   -1.000
 4357.00    0.93705   0.97350   -1.000
 4358.00    0.99873   0.98681   -1.000
 4359.00    1.24231   0.99985   -1.000
 4360.00    1.32884   1.01249   -1.000
 4361.00    1.22160   1.02381   -1.000
 4362.00    1.13806   1.03182    0.136
 4363.00    1.08028   1.03451    0.044
 4364.00    1.14323   1.03159    0.033
 4365.00    1.32199   1.02461    0.033
 4366.00    1.36674   1.01570    0.033
 4367.00    1.29814   1.00606    0.033
 4368.00    1.22002   0.99608    0.033
 4369.00    1.13483   0.98642    0.033
 4370.00    1.05735   0.97864    0.033
 4371.00    0.98491   0.97388    0.033
 4372.00    0.92078   0.97229    0.032
 4373.00    0.86141   0.97363    0.032
 4374.00    0.80920   0.97731    0.032
 4375.00    0.76055   0.98233    0.032
 4376.00    0.82911   0.98703    0.032
 4377.00    0.94825   0.98819    0.033
 4378.00    0.97276   0.98163    0.033
 4379.00    0.96227   0.96576    0.032
 4380.00    0.88863   0.94365    0.032
 4381.00    0.79519   0.92099    0.032
 4382.00    0.81873   0.90281    0.032
 4383.00    0.87286   0.89228    0.032
 4384.00    0.81476   0.89051    0.031
 4385.00    0.73267   0.89724    0.031
 4386.00    0.72756   0.91109    0.031
 4387.00    0.73547   0.92832    0.031
 4388.00    0.91509   0.94351    0.032
 4389.00    1.11664   0.95345    0.032
 4390.00    1.07057   0.95927    0.031
 4391.00    1.00240   0.96382    0.031
 4392.00    1.01765   0.96826    0.031
 4393.00    1.03734   0.97222    0.032
 4394.00    1.09545   0.97474    0.032
 4395.00    1.15290   0.97494    0.031
 4396.00    1.09584   0.97410    0.031
 4397.00    1.03915   0.97385    0.031
 4398.00    0.99095   0.97272    0.032
 4399.00    0.94676   0.96831    0.032
 4400.00    0.95223   0.96213    0.031
 4401.00    0.96235   0.95747    0.031
 4402.00    1.01159   0.95517    0.031
 4403.00    1.02928   0.95480    0.032
 4404.00    0.84919   0.95618    0.032
 4405.00    0.72374   0.95936    0.032
 4406.00    0.86704   0.96535    0.032
 4407.00    0.98928   0.97466    0.032
 4408.00    1.02746   0.98426    0.032
 4409.00    1.04600   0.98984    0.032
 4410.00    0.99941   0.99059    0.032
 4411.00    1.00121   0.98791    0.032
 4412.00    1.13857   0.98217    0.032
 4413.00    1.23643   0.97489    0.032
 4414.00    1.23961   0.96955    0.032
 4415.00    1.21034   0.96800    0.032
 4416.00    1.11389   0.97031    0.031
 4417.00    1.01925   0.97638    0.031
 4418.00    0.92788   0.98507    0.031
 4419.00    0.88732   0.99402    0.031
 4420.00    0.92677   1.00108    0.031
 4421.00    0.92959   1.00519    0.031
 4422.00    0.88179   1.00626    0.031
 4423.00    0.88926   1.00587    0.031
 4424.00    0.96395   1.00551    0.031
 4425.00    1.04375   1.00486    0.031
 4426.00    1.12902   1.00331    0.031
 4427.00    1.06764   1.00048    0.031
 4428.00    0.86757   0.99599    0.032
 4429.00    0.93895   0.99006    0.032
 4430.00    1.23671   0.98374    0.032
 4431.00    1.38976   0.97912    0.032
 4432.00    1.43657   0.97861    0.032
 4433.00    1.31510   0.98294    0.032
 4434.00    1.08512   0.99040    0.032
 4435.00    1.06083   0.99845    0.032
 4436.00    1.15254   1.00500    0.032
 4437.00    1.16952   1.00826    0.032
 4438.00    1.14980   1.00687    0.032
 4439.00    1.12460   1.00126    0.032
 4440.00    1.09706   0.99406    0.032
 4441.00    1.06360   0.98794    0.032
 4442.00    1.02797   0.98485    0.033
 4443.00    1.11991   0.98684    0.033
 4444.00    1.25108   0.99380    0.033
 4445.00    1.27995   1.00297    0.033
 4446.00    1.28263   1.01148    0.033
 4447.00    1.26293   1.01640    0.032
 4448.00    1.23857   1.01541    0.032
 4449.00    1.00706   1.00838    0.032
 4450.00    0.74153   0.99685    0.032
 4451.00    0.98020   0.98311    0.032
 4452.00    1.28103   0.96936    0.032
 4453.00    1.31625   0.95664    0.032
 4454.00    1.32887   0.94500    0.031
 4455.00    1.01249   0.93497    0.031
 4456.00    0.67987   0.92758    0.031
 4457.00    0.74957   0.92429    0.031
 4458.00    0.82540   0.92553    0.031
 4459.00    0.88360   0.92937    0.031
 4460.00    0.93869   0.93432    0.030
 4461.00    0.93084   0.94032    0.000
 4462.00    0.92425   0.94658    0.000
 4463.00    0.93240   0.95195    0.000
 4464.00    0.95477   0.95614    0.000
 4465.00    1.09247   0.95922    0.000
 4466.00    1.20385   0.96195    0.000
 4467.00    1.15501   0.96644    0.000
 4468.00    1.11592   0.97437    0.000
 4469.00    1.12362   0.98586    0.000
 4470.00    1.12159   0.99995    0.000
 4471.00    1.08151   1.01552    0.000
 4472.00    1.04976   1.03091    0.000
 4473.00    1.04510   1.04311    0.000
 4474.00    1.09057   1.04882    0.000
 4475.00    1.27395   1.04621    0.000
 4476.00    1.37473   1.03591    0.000
 4477.00    1.28087   1.02160    0.000
 4478.00    1.22715   1.00823    0.000
 4479.00    1.25519   0.99853    0.000
 4480.00    1.24060   0.99336    0.000
 4481.00    1.15042   0.99359    0.000
 4482.00    1.05040   0.99894    0.031
 4483.00    0.93508   1.00688    0.031
 4484.00    0.98198   1.01372    0.031
 4485.00    1.24981   1.01660    0.031
 4486.00    1.32387   1.01507    0.031
 4487.00    1.16561   1.01085    0.032
 4488.00    1.06988   1.00551    0.032
 4489.00    1.04025   0.99987    0.031
 4490.00    1.00796   0.99582    0.031
 4491.00    0.97319   0.99550    0.031
 4492.00    0.97866   0.99890    0.031
 4493.00    1.01720   1.00467    0.031
 4494.00    0.97628   1.01138    0.031
 4495.00    0.87785   1.01803    0.031
 4496.00    0.83487   1.02498    0.031
 4497.00    0.82712   1.03361    0.031
 4498.00    0.96151   1.04475    0.031
 4499.00    1.17487   1.05733    0.031
 4500.00    1.31272   1.06930    0.031
 4501.00    1.41411   1.07932    0.031
 4502.00    1.41987   1.08721    0.031
 4503.00    1.38574   1.09346    0.031
 4504.00    1.26263   1.09798    0.031
 4505.00    1.10777   1.09971    0.031
 4506.00    1.13613   1.09827    0.031
 4507.00    1.21975   1.09439    0.030
 4508.00    1.19945   1.08894    0.031
 4509.00    1.15314   1.08259    0.031
 4510.00    1.21262   1.07572    0.031
 4511.00    1.29361   1.06857    0.031
 4512.00    1.18026   1.06086    0.031
 4513.00    1.03591   1.05259    0.030
 4514.00    0.98111   1.04503    0.031
 4515.00    0.93695   1.03945    0.031
 4516.00    0.96081   1.03592    0.031
 4517.00    0.99018   1.03323    0.031
 4518.00    1.13434   1.02936    0.030
 4519.00    1.28372   1.02366    0.030
 4520.00    1.14751   1.01641    0.030
 4521.00    1.01218   1.00704    0.030
 4522.00    1.10019   0.99535    0.030
 4523.00    1.18005   0.98177    0.031
 4524.00    1.10687   0.96791    0.030
 4525.00    1.04122   0.95615    0.030
 4526.00    1.06006   0.94736    0.030
 4527.00    1.07553   0.94160    0.030
 4528.00    1.06469   0.93877    0.030
 4529.00    1.04187   0.93790    0.029
 4530.00    0.94815   0.93950    0.030
 4531.00    0.87017   0.94546    0.031
 4532.00    0.86584   0.95613    0.031
 4533.00    0.87096   0.96968    0.031
 4534.00    0.91216   0.98312    0.031
 4535.00    0.94823   0.99505    0.030
 4536.00    0.96792   1.00606    0.030
 4537.00    1.02791   1.01598    0.030
 4538.00    1.19683   1.02334    0.031
 4539.00    1.24373   1.02593    0.031
 4540.00    1.00786   1.02333    0.031
 4541.00    0.86381   1.01842    0.030
 4542.00    0.90380   1.01375    0.030
 4543.00    0.93654   1.00905    0.030
 4544.00    0.95665   1.00204    0.030
 4545.00    0.97261   0.99204    0.030
 4546.00    0.98224   0.98238    0.030
 4547.00    0.97813   0.97563    0.030
 4548.00    0.95561   0.97012    0.030
 4549.00    0.96044   0.96424    0.030
 4550.00    0.99761   0.95902    0.000
 4551.00    1.06958   0.95758    0.000
 4552.00    1.17782   0.96160    0.000
 4553.00    1.12260   0.96884    0.000
 4554.00    0.91711   0.97699    0.000
 4555.00    0.79164   0.98647    0.000
 4556.00    0.73102   0.99802    0.000
 4557.00    0.83755   1.01038    0.000
 4558.00    1.06329   1.02022    0.000
 4559.00    1.08633   1.02432    0.000
 4560.00    0.98253   1.02360    0.000
 4561.00    0.99457   1.02169    0.000
 4562.00    1.06997   1.02087    0.000
 4563.00    1.14724   1.02156    0.000
 4564.00    1.22541   1.02324    0.000
 4565.00    1.24076   1.02615    0.000
 4566.00    1.23034   1.03011    0.000
 4567.00    1.24125   1.03333    0.000
 4568.00    1.25962   1.03562    0.000
 4569.00    1.14407   1.03757    0.000
 4570.00    0.98893   1.03798    0.000
 4571.00    1.03365   1.03650    0.000
 4572.00    1.12734   1.03426    0.000
 4573.00    1.16089   1.03260    0.000
 4574.00    1.18252   1.03083    0.000
 4575.00    1.13487   1.02564    0.000
 4576.00    1.07649   1.01622    0.000
 4577.00    1.05363   1.00522    0.000
 4578.00    1.03483   0.99428    0.000
 4579.00    0.96679   0.98370    0.000
 4580.00    0.89497   0.97508    0.000
 4581.00    0.85739   0.97065    0.000
 4582.00    0.82123   0.97092    0.000
 4583.00    0.96280   0.97482    0.000
 4584.00    1.10247   0.98079    0.000
 4585.00    1.09457   0.98785    0.000
 4586.00    1.08902   0.99450    0.000
 4587.00    1.12455   0.99862    0.000
 4588.00    1.15499   0.99994    0.000
 4589.00    1.13085   0.99988    0.000
 4590.00    1.10923   0.99906    0.000
 4591.00    1.10656   0.99734    0.000
 4592.00    1.10085   0.99571    0.000
 4593.00    1.07768   0.99549    0.000
 4594.00    1.03417   0.99713    0.000
 4595.00    0.89776   0.99944    0.000
 4596.00    0.81280   1.00064    0.000
 4597.00    0.92031   1.00154    0.000
 4598.00    0.97560   1.00340    0.000
 4599.00    0.86757   1.00565    0.000
 4600.00    0.81966   1.00785    0.000
 4601.00    0.93136   1.01024    0.000
 4602.00    1.04625   1.01460    0.000
 4603.00    1.16843   1.02203    0.000
 4604.00    1.22941   1.03122    0.000
 4605.00    1.16965   1.04039    0.000
 4606.00    1.11202   1.04800    0.000
 4607.00    1.05806   1.05374    0.000
 4608.00    1.02540   1.05772    0.000
 4609.00    1.02482   1.05922    0.000
 4610.00    1.00783   1.05823    0.000
 4611.00    0.96914   1.05500    0.000
 4612.00    0.99690   1.05014    0.000
 4613.00    1.10211   1.04573    0.000
 4614.00    1.18472   1.04199    0.000
 4615.00    1.24410   1.03852    0.000
 4616.00    1.17121   1.03680    0.000
 4617.00    0.97839   1.03732    0.000
 4618.00    0.96945   1.03936    0.000
 4619.00    1.10742   1.04216    0.000
 4620.00    1.13704   1.04483    0.000
 4621.00    1.09050   1.04718    0.000
 4622.00    1.14756   1.04923    0.000
 4623.00    1.26848   1.04990    0.000
 4624.00    1.21487   1.04794    0.000
 4625.00    1.06725   1.04372    0.000
 4626.00    0.96030   1.03995    0.000
 4627.00    0.87236   1.03829    0.000
 4628.00    0.89731   1.03670    0.000
 4629.00    0.96777   1.03300    0.000
 4630.00    0.96068   1.02844    0.000
 4631.00    0.92692   1.02530    0.000
 4632.00    0.95984   1.02306    0.000
 4633.00    1.01207   1.01925    0.000
 4634.00    1.03866   1.01449    0.000
 4635.00    1.05911   1.01136    0.000
 4636.00    1.01175   1.01054    0.000
 4637.00    0.95130   1.01134    0.000
 4638.00    0.96825   1.01210    0.000
 4639.00    0.99683   1.01143    0.000
 4640.00    1.00792   1.00931    0.000
 4641.00    1.01708   1.00509    0.000
 4642.00    1.05658   0.99825    0.000
 4643.00    1.09828   0.99008    0.000
 4644.00    1.06966   0.98265    0.000
 4645.00    1.03838   0.97811    0.000
 4646.00    0.94379   0.97732    0.000
 4647.00    0.84967   0.97936    0.000
 4648.00    0.78458   0.98415    0.000
 4649.00    0.72806   0.99100    0.000
 4650.00    0.81154   0.99709    0.000
 4651.00    0.88912   1.00109    0.000
 4652.00    0.90622   1.00340    0.000
 4653.00    0.92925   1.00556    0.000
 4654.00    0.99560   1.00950    0.000
 4655.00    1.06263   1.01473    0.000
 4656.00    1.13349   1.01981    0.000
 4657.00    1.17731   1.02354    0.000
 4658.00    1.10049   1.02447    0.000
 4659.00    1.04403   1.02177    0.000
 4660.00    1.06215   1.01491    0.000
 4661.00    1.05296   1.00289    0.000
 4662.00    0.96000   0.98550    0.000
 4663.00    0.88467   0.96573    0.000
 4664.00    0.85529   0.94922    0.000
 4665.00    0.85748   0.93933    0.000
 4666.00    0.93043   0.93560    0.000
 4667.00    0.98189   0.93693    0.000
 4668.00    0.99164   0.94323    0.000
 4669.00    0.97568   0.95435    0.000
 4670.00    0.91620   0.96841    0.000
 4671.00    0.86410   0.98250    0.000
 4672.00    0.82293   0.99460    0.000
 4673.00    0.81816   1.00261    0.000
 4674.00    0.86088   1.00560    0.000
 4675.00    0.91298   1.00540    0.000
 4676.00    0.97585   1.00388    0.000
 4677.00    0.99805   1.00145    0.000
 4678.00    0.97905   0.99846    0.000
 4679.00    0.92769   0.99645    0.000
 4680.00    0.84743   0.99663    0.000
 4681.00    0.80588   0.99863    0.000
 4682.00    0.79483   1.00147    0.000
 4683.00    0.85482   1.00441    0.000
 4684.00    0.96403   1.00687    0.000
 4685.00    1.02490   1.00813    0.000
 4686.00    1.05642   1.00781    0.000
 4687.00    1.07702   1.00645    0.000
 4688.00    1.09183   1.00514    0.000
 4689.00    1.07730   1.00456    0.000
 4690.00    1.04927   1.00470    0.000
 4691.00    0.99997   1.00522    0.000
 4692.00    0.94223   1.00556    0.000
 4693.00    0.97529   1.00461    0.000
 4694.00    1.03901   1.00102    0.000
 4695.00    0.96235   0.99523    0.000
 4696.00    0.84585   0.98883    0.000
 4697.00    0.84829   0.98173    0.000
 4698.00    0.87858   0.97303    0.000
 4699.00    0.91043   0.96400    0.000
 4700.00    0.94258   0.95814    0.000
 4701.00    0.98004   0.95624    0.000
 4702.00    1.01827   0.95547    0.000
 4703.00    1.00149   0.95406    0.000
 4704.00    0.97889   0.95327    0.000
 4705.00    0.91783   0.95486    0.000
 4706.00    0.85412   0.95849    0.000
 4707.00    0.77113   0.96280    0.000
 4708.00    0.68749   0.96699    0.000
 4709.00    0.80200   0.97101    0.000
 4710.00    0.91448   0.97517    0.000
 4711.00    0.95098   0.98058    0.000
 4712.00    0.98708   0.98785    0.000
 4713.00    1.01699   0.99543    0.000
 4714.00    1.04270   1.00227    0.000
 4715.00    1.02713   1.00951    0.000
 4716.00    1.00463   1.01829    0.000
 4717.00    0.93310   1.02731    0.000
 4718.00    0.87758   1.03372    0.000
 4719.00    0.90911   1.03703    0.000
 4720.00    0.93911   1.03861    0.000
 4721.00    0.96245   1.03816    0.000
 4722.00    0.95402   1.03392    0.000
 4723.00    0.83158   1.02513    0.000
 4724.00    0.78994   1.01377    0.000
 4725.00    0.99153   1.00244    0.000
 4726.00    1.13451   0.99164    0.000
 4727.00    1.12732   0.98125    0.000
 4728.00    1.07607   0.97311    0.000
 4729.00    0.92766   0.96960    0.000
 4730.00    0.88621   0.97081    0.000
 4731.00    1.04924   0.97449    0.000
 4732.00    1.12688   0.97842    0.000
 4733.00    1.06207   0.98277    0.000
 4734.00    0.99894   0.98868    0.000
 4735.00    0.93826   0.99496    0.000
 4736.00    0.89473   0.99946    0.000
 4737.00    0.87325   1.00210    0.000
 4738.00    0.88208   1.00549    0.000
 4739.00    0.92525   1.01063    0.000
 4740.00    0.96484   1.01469    0.000
 4741.00    1.00086   1.01655    0.000
 4742.00    1.00961   1.01850    0.000
 4743.00    0.99433   1.02138    0.000
 4744.00    0.97188   1.02338    0.000
 4745.00    0.94387   1.02367    0.000
 4746.00    0.91897   1.02327    0.000
 4747.00    0.89620   1.02239    0.000
 4748.00    0.95985   1.01958    0.000
 4749.00    1.07519   1.01469    0.000
 4750.00    1.11761   1.00929    0.000
 4751.00    1.12196   1.00417    0.000
 4752.00    1.05029   0.99916    0.000
 4753.00    0.94422   0.99487    0.000
 4754.00    0.87614   0.99222    0.000
 4755.00    0.82286   0.99094    0.000
 4756.00    0.80398   0.98986    0.000
 4757.00    0.79649   0.98723    0.000
 4758.00    0.80903   0.98208    0.000
 4759.00    0.82712   0.97524    0.000
 4760.00    1.00681   0.96792    0.000
 4761.00    1.22347   0.96060    0.026
 4762.00    1.15360   0.95400    0.026
 4763.00    1.03125   0.95032    0.026
 4764.00    0.98026   0.95152    0.026
 4765.00    0.93932   0.95696    0.026
 4766.00    0.93504   0.96465    0.026
 4767.00    0.93448   0.97285    0.026
 4768.00    0.91210   0.98099    0.025
 4769.00    0.88832   0.98957    0.025
 4770.00    1.00183   0.99840    0.025
 4771.00    1.11915   1.00575    0.026
 4772.00    1.06422   1.01058    0.026
 4773.00    1.00910   1.01480    0.026
 4774.00    0.94803   1.01932    0.026
 4775.00    0.89061   1.02179    0.025
 4776.00    0.88583   1.02082    0.025
 4777.00    0.88806   1.01815    0.025
 4778.00    0.95625   1.01482    0.025
 4779.00    1.01427   1.00956    0.025
 4780.00    1.00262   1.00283    0.025
 4781.00    1.00596   0.99702    0.025
 4782.00    1.08872   0.99195    0.025
 4783.00    1.11893   0.98669    0.025
 4784.00    0.92532   0.98286    0.025
 4785.00    0.80240   0.98185    0.025
 4786.00    0.92788   0.98273    0.025
 4787.00    1.04246   0.98505    0.025
 4788.00    1.12483   0.99010    0.025
 4789.00    1.18158   0.99755    0.025
 4790.00    1.17379   1.00566    0.025
 4791.00    1.13856   1.01347    0.025
 4792.00    1.04382   1.01959    0.025
 4793.00    0.99480   1.02281    0.025
 4794.00    1.03185   1.02327    0.026
 4795.00    1.00933   1.02116    0.026
 4796.00    0.88894   1.01698    0.025
 4797.00    0.84696   1.01233    0.025
 4798.00    0.91796   1.00876    0.026
 4799.00    0.97924   1.00596    0.026
 4800.00    1.02821   1.00293    0.026
 4801.00    1.03634   0.99971    0.026
 4802.00    0.99885   0.99724    0.025
 4803.00    0.96536   0.99539    0.026
 4804.00    0.93581   0.99275    0.026
 4805.00    0.98941   0.98972    0.026
 4806.00    1.11525   0.98824    0.026
 4807.00    1.10302   0.98903    0.026
 4808.00    0.98514   0.99085    0.026
 4809.00    0.95794   0.99337    0.026
 4810.00    0.99176   0.99736    0.026
 4811.00    0.96964   1.00235    0.026
 4812.00    0.91457   1.00743    0.026
 4813.00    0.91435   1.01240    0.025
 4814.00    0.94230   1.01688    0.025
 4815.00    0.89229   1.01985    0.026
 4816.00    0.80757   1.02047    0.026
 4817.00    0.79884   1.01857    0.026
 4818.00    0.81917   1.01383    0.026
 4819.00    0.91833   1.00560    0.026
 4820.00    1.04311   0.99508    0.027
 4821.00    1.03198   0.98597    0.026
 4822.00    0.98384   0.98021    0.026
 4823.00    0.87160   0.97588    0.026
 4824.00    0.74504   0.97165    0.026
 4825.00    0.85656   0.96985    0.026
 4826.00    1.01051   0.97146    0.026
 4827.00    1.01473   0.97313    0.026
 4828.00    0.99856   0.97228    0.026
 4829.00    0.87843   0.97041    0.026
 4830.00    0.74820   0.96979    0.025
 4831.00    0.78276   0.96957    0.025
 4832.00    0.82732   0.96768    0.025
 4833.00    0.82956   0.96506    0.025
 4834.00    0.83090   0.96328    0.026
 4835.00    0.87102   0.96060    0.026
 4836.00    0.90884   0.95586    0.025
 4837.00    0.88648   0.95119    0.025
 4838.00    0.86880   0.94813    0.025
 4839.00    0.91495   0.94465    0.025
 4840.00    0.95913   0.94008    0.025
 4841.00    0.98540   0.93683    0.025
 4842.00    1.02558   0.93508    0.025
 4843.00    1.15796   0.93160    0.024
 4844.00    1.23521   0.92489    0.024
 4845.00    1.02794   0.91725    0.025
 4846.00    0.87375   0.91028    0.025
 4847.00    0.94046   0.90221    0.025
 4848.00    0.97939   0.89094    0.000
 4849.00    0.92264   0.87736    0.000
 4850.00    0.88013   0.86262    0.000
 4851.00    0.87891   0.84474    0.000
 4852.00    0.90049   0.82235    0.000
 4853.00    0.97851   0.79805    0.000
 4854.00    0.97823   0.77311    0.000
 4855.00    0.81088   0.74580    0.000
 4856.00    0.74932   0.71681    0.000
 4857.00    0.88379   0.69050    0.000
 4858.00    0.97307   0.67099    0.000
 4859.00    0.98920   0.66063    0.000
 4860.00    0.95665   0.65899    0.000
 4861.00    0.85495   0.66486    0.000
 4862.00    0.80837   0.67931    0.000
 4863.00    0.83065   0.70186    0.000
 4864.00    0.80463   0.72714    0.000
 4865.00    0.72543   0.75010    0.000
 4866.00    0.79233   0.76967    0.000
 4867.00    1.00114   0.78443    0.000
 4868.00    1.05632   0.79432    0.000
 4869.00    0.97991   0.80328    0.000
 4870.00    0.82822   0.81340    0.000
 4871.00    0.61974   0.82286    0.000
 4872.00    0.60818   0.83209    0.000
 4873.00    0.72715   0.84427    0.000
 4874.00    0.85766   0.85904    0.000
 4875.00    0.99485   0.87332    0.024
 4876.00    1.02177   0.88601    0.024
 4877.00    0.99292   0.89566    0.023
 4878.00    0.92485   0.90115    0.023
 4879.00    0.83960   0.90388    0.024
 4880.00    0.89878   0.90480    0.024
 4881.00    1.01225   0.90211    0.024
 4882.00    0.92483   0.89622    0.024
 4883.00    0.77333   0.89062    0.024
 4884.00    0.73752   0.88707    0.024
 4885.00    0.73255   0.88482    0.024
 4886.00    0.76662   0.88361    0.024
 4887.00    0.80922   0.88395    0.024
 4888.00    0.85476   0.88808    0.024
 4889.00    0.90081   0.89827    0.024
 4890.00    0.87592   0.91231    0.024
 4891.00    0.84168   0.92661    0.024
 4892.00    0.89113   0.94105    0.024
 4893.00    0.94836   0.95633    0.024
 4894.00    0.97210   0.96948    0.024
 4895.00    0.99393   0.97684    0.024
 4896.00    0.96796   0.97820    0.024
 4897.00    0.94026   0.97658    0.024
 4898.00    0.84199   0.97501    0.024
 4899.00    0.74875   0.97252    0.024
 4900.00    0.77457   0.96826    0.024
 4901.00    0.80264   0.96586    0.024
 4902.00    0.85976   0.96718    0.024
 4903.00    0.90234   0.96798    0.024
 4904.00    0.81847   0.96555    0.024
 4905.00    0.75922   0.96207    0.024
 4906.00    0.85833   0.95835    0.024
 4907.00    0.93186   0.95335    0.024
 4908.00    0.87675   0.94869    0.024
 4909.00    0.84928   0.94631    0.025
 4910.00    0.93429   0.94494    0.025
 4911.00    0.98480   0.94342    0.025
 4912.00    0.91893   0.94236    0.024
 4913.00    0.86349   0.93991    0.024
 4914.00    0.83779   0.93259    0.025
 4915.00    0.83470   0.92027    0.025
 4916.00    0.88660   0.90571    0.025
 4917.00    0.95150   0.89178    0.025
 4918.00    1.04368   0.88128    0.025
 4919.00    1.07556   0.87569    0.025
 4920.00    0.99738   0.87423    0.025
 4921.00    0.95794   0.87830    0.024
 4922.00    0.98029   0.89058    0.024
 4923.00    0.92420   0.90814    0.024
 4924.00    0.75835   0.92435    0.024
 4925.00    0.67876   0.93836    0.024
 4926.00    0.70541   0.95186    0.024
 4927.00    0.78494   0.96220    0.024
 4928.00    0.92189   0.96666    0.024
 4929.00    0.99095   0.96521    0.024
 4930.00    0.99501   0.95841    0.024
 4931.00    1.00870   0.94924    0.024
 4932.00    1.03054   0.94157    0.024
 4933.00    0.95235   0.93411    0.024
 4934.00    0.79980   0.92523    0.024
 4935.00    0.78377   0.91900    0.024
 4936.00    0.85693   0.91973    0.024
 4937.00    0.89383   0.92578    0.024
 4938.00    0.91000   0.93303    0.024
 4939.00    0.81017   0.94074    0.024
 4940.00    0.65258   0.95115    0.000
 4941.00    0.72590   0.96325    0.000
 4942.00    0.89865   0.97241    0.000
 4943.00    0.91286   0.97802    0.000
 4944.00    0.86853   0.98326    0.000
 4945.00    0.90268   0.98741    0.000
 4946.00    0.96138   0.98848    0.000
 4947.00    0.96355   0.98834    0.000
 4948.00    0.95096   0.98842    0.000
 4949.00    0.92195   0.98571    0.000
 4950.00    0.88944   0.97906    0.000
 4951.00    0.87434   0.97177    0.000
 4952.00    0.86218   0.96507    0.000
 4953.00    0.74162   0.95562    0.000
 4954.00    0.60728   0.94399    0.000
 4955.00    0.80712   0.93827    0.000
 4956.00    1.03660   0.94080    0.000
 4957.00    1.03041   0.94421    0.000
 4958.00    1.01177   0.94579    0.000
 4959.00    0.98578   0.95102    0.000
 4960.00    0.96008   0.95986    0.000
 4961.00    0.96904   0.96447    0.000
 4962.00    0.97608   0.96275    0.000
 4963.00    0.94161   0.95969    0.000
 4964.00    0.91169   0.95792    0.000
 4965.00    0.93768   0.95561    0.000
 4966.00    0.96068   0.95291    0.000
 4967.00    0.95868   0.95260    0.000
 4968.00    0.94357   0.95564    0.000
 4969.00    0.84657   0.96007    0.000
 4970.00    0.77480   0.96419    0.000
 4971.00    0.82672   0.96758    0.000
 4972.00    0.88756   0.96943    0.000
 4973.00    0.98386   0.96840    0.000
 4974.00    1.05481   0.96316    0.000
 4975.00    1.04191   0.95342    0.000
 4976.00    1.01777   0.94061    0.000
 4977.00    0.96223   0.92641    0.000
 4978.00    0.90661   0.91052    0.000
 4979.00    0.85082   0.89378    0.000
 4980.00    0.79910   0.88110    0.000
 4981.00    0.75582   0.87504    0.000
 4982.00    0.75097   0.87343    0.000
 4983.00    0.81514   0.87569    0.000
 4984.00    0.87549   0.88338    0.000
 4985.00    0.92985   0.89425    0.000
 4986.00    0.94408   0.90411    0.000
 4987.00    0.90299   0.91206    0.000
 4988.00    0.85602   0.91901    0.000
 4989.00    0.80193   0.92436    0.000
 4990.00    0.84190   0.92662    0.000
 4991.00    0.98257   0.92702    0.000
 4992.00    1.03084   0.92788    0.000
 4993.00    0.99187   0.92811    0.000
 4994.00    0.91597   0.92563    0.000
 4995.00    0.80932   0.92096    0.000
 4996.00    0.75299   0.91506    0.000
 4997.00    0.73354   0.90725    0.000
 4998.00    0.80220   0.89781    0.000
 4999.00    0.92756   0.88835    0.000
 5000.00    0.93973   0.88061    0.000
 5001.00    0.88818   0.87452    0.000
 5002.00    0.87428   0.86876    0.000
 5003.00    0.87882   0.86482    0.000
 5004.00    0.88063   0.86557    0.000
 5005.00    0.88128   0.86867    0.000
 5006.00    0.91986   0.86951    0.000
 5007.00    0.97220   0.86855    0.000
 5008.00    0.94688   0.86830    0.000
 5009.00    0.89773   0.86656    0.000
 5010.00    0.83934   0.86093    0.000
 5011.00    0.77859   0.85336    0.000
 5012.00    0.74353   0.84803    0.000
 5013.00    0.71381   0.84460    0.000
 5014.00    0.77573   0.84044    0.000
 5015.00    0.85264   0.83701    0.000
 5016.00    0.81924   0.83934    0.000
 5017.00    0.77230   0.84582    0.000
 5018.00    0.81531   0.85093    0.000
 5019.00    0.86592   0.85547    0.000
 5020.00    0.85426   0.86370    0.000
 5021.00    0.83957   0.87402    0.000
 5022.00    0.83891   0.88216    0.000
 5023.00    0.83807   0.88770    0.000
 5024.00    0.81266   0.89222    0.000
 5025.00    0.79114   0.89783    0.000
 5026.00    0.84749   0.90439    0.000
 5027.00    0.89086   0.90900    0.000
 5028.00    0.78271   0.91113    0.000
 5029.00    0.69684   0.91422    0.023
 5030.00    0.79081   0.91818    0.024
 5031.00    0.87365   0.91775    0.024
 5032.00    0.88897   0.91125    0.023
 5033.00    0.89233   0.90276    0.023
 5034.00    0.83843   0.89492    0.023
 5035.00    0.80371   0.88528    0.023
 5036.00    0.84365   0.87360    0.023
 5037.00    0.87167   0.86364    0.023
 5038.00    0.86102   0.85877    0.023
 5039.00    0.86757   0.86051    0.023
 5040.00    0.92136   0.86694    0.023
 5041.00    0.96106   0.87434    0.023
 5042.00    0.96763   0.88316    0.023
 5043.00    1.00173   0.89438    0.023
 5044.00    1.09178   0.90284    0.023
 5045.00    1.11014   0.90456    0.023
 5046.00    1.00169   0.90356    0.023
 5047.00    0.91845   0.90295    0.023
 5048.00    0.87424   0.90103    0.023
 5049.00    0.87002   0.89856    0.023
 5050.00    0.92016   0.90014    0.023
 5051.00    0.88694   0.90604    0.022
 5052.00    0.75394   0.91277    0.022
 5053.00    0.72266   0.91951    0.022
 5054.00    0.79875   0.92804    0.022
 5055.00    0.84645   0.93678    0.022
 5056.00    0.86772   0.94270    0.022
 5057.00    0.86141   0.94548    0.022
 5058.00    0.83245   0.94658    0.022
 5059.00    0.81273   0.94575    0.022
 5060.00    0.79969   0.94135    0.022
 5061.00    0.79756   0.93283    0.022
 5062.00    0.80234   0.92345    0.021
 5063.00    0.81193   0.91651    0.022
 5064.00    0.82418   0.90956    0.022
 5065.00    0.84898   0.90090    0.022
 5066.00    0.87983   0.89531    0.022
 5067.00    0.91882   0.89490    0.022
 5068.00    0.96120   0.89338    0.022
 5069.00    0.93911   0.88922    0.022
 5070.00    0.89406   0.88796    0.022
 5071.00    0.86227   0.88844    0.022
 5072.00    0.83447   0.88442    0.022
 5073.00    0.81509   0.87812    0.022
 5074.00    0.79780   0.87460    0.022
 5075.00    0.86736   0.87022    0.022
 5076.00    0.95452   0.86116    0.022
 5077.00    0.93645   0.85352    0.022
 5078.00    0.90166   0.85185    0.022
 5079.00    0.90429   0.85190    0.022
 5080.00    0.91135   0.85109    0.022
 5081.00    0.90637   0.85443    0.021
 5082.00    0.90042   0.86356    0.021
 5083.00    0.90234   0.87287    0.021
 5084.00    0.90462   0.87977    0.021
 5085.00    0.87474   0.88763    0.021
 5086.00    0.84474   0.89694    0.021
 5087.00    0.82721   0.90384    0.021
 5088.00    0.81321   0.90779    0.020
 5089.00    0.86495   0.91134    0.021
 5090.00    0.90906   0.91370    0.021
 5091.00    0.86810   0.91222    0.021
 5092.00    0.83122   0.90711    0.022
 5093.00    0.82607   0.90038    0.022
 5094.00    0.81726   0.89245    0.022
 5095.00    0.78685   0.88345    0.022
 5096.00    0.77099   0.87496    0.022
 5097.00    0.82296   0.86988    0.022
 5098.00    0.85205   0.86869    0.022
 5099.00    0.79387   0.86934    0.022
 5100.00    0.76307   0.87057    0.022
 5101.00    0.81934   0.87313    0.021
 5102.00    0.84574   0.87615    0.021
 5103.00    0.79159   0.87706    0.021
 5104.00    0.74218   0.87542    0.022
 5105.00    0.70373   0.87411    0.021
 5106.00    0.70358   0.87404    0.022
 5107.00    0.78006   0.87398    0.022
 5108.00    0.80600   0.87550    0.022
 5109.00    0.74390   0.88015    0.022
 5110.00    0.73107   0.88604    0.022
 5111.00    0.79339   0.89185    0.022
 5112.00    0.81280   0.89803    0.022
 5113.00    0.77472   0.90358    0.022
 5114.00    0.81820   0.90720    0.023
 5115.00    0.95790   0.90824    0.023
 5116.00    1.01389   0.90580    0.023
 5117.00    0.98278   0.90032    0.023
 5118.00    0.95388   0.89298    0.023
 5119.00    0.92700   0.88372    0.023
 5120.00    0.92597   0.87246    0.023
 5121.00    0.94585   0.86144    0.022
 5122.00    0.89680   0.85269    0.022
 5123.00    0.79866   0.84602    0.022
 5124.00    0.78069   0.84104    0.022
 5125.00    0.81279   0.83859    0.022
 5126.00    0.78339   0.83871    0.022
 5127.00    0.72041   0.84087    0.022
 5128.00    0.74102   0.84486    0.022
 5129.00    0.80128   0.84914    0.022
 5130.00    0.85493   0.85240    0.022
 5131.00    0.90586   0.85580    0.022
 5132.00    0.91524   0.85930    0.022
 5133.00    0.91009   0.85989    0.022
 5134.00    0.84696   0.85780    0.022
 5135.00    0.76673   0.85532    0.021
 5136.00    0.76451   0.85189    0.021
 5137.00    0.78135   0.84856    0.022
 5138.00    0.73474   0.84638    0.022
 5139.00    0.67560   0.84296    0.022
 5140.00    0.73493   0.83981    0.021
 5141.00    0.81252   0.84072    0.021
 5142.00    0.79631   0.84179    0.021
 5143.00    0.76941   0.83959    0.021
 5144.00    0.78130   0.83847    0.021
 5145.00    0.79613   0.83974    0.021
 5146.00    0.79410   0.84009    0.021
 5147.00    0.79137   0.83882    0.021
 5148.00    0.79944   0.83797    0.021
 5149.00    0.80863   0.83880    0.021
 5150.00    0.86160   0.84044    0.021
 5151.00    0.91116   0.84215    0.022
 5152.00    0.90154   0.84555    0.022
 5153.00    0.89103   0.85123    0.021
 5154.00    0.87096   0.85724    0.021
 5155.00    0.85070   0.86211    0.021
 5156.00    0.82897   0.86568    0.021
 5157.00    0.81802   0.86741    0.021
 5158.00    0.86883   0.86515    0.021
 5159.00    0.90802   0.85720    0.021
 5160.00    0.89424   0.84510    0.022
 5161.00    0.87976   0.83007    0.022
 5162.00    0.86268   0.81109    0.022
 5163.00    0.82612   0.78996    0.021
 5164.00    0.72880   0.76997    0.021
 5165.00    0.65030   0.75201    0.021
 5166.00    0.62165   0.73812    0.021
 5167.00    0.62362   0.73157    0.021
 5168.00    0.69520   0.73021    0.021
 5169.00    0.72982   0.73197    0.021
 5170.00    0.69164   0.74102    0.021
 5171.00    0.68254   0.75844    0.022
 5172.00    0.72335   0.77640    0.022
 5173.00    0.77297   0.79082    0.022
 5174.00    0.83583   0.80579    0.022
 5175.00    0.86047   0.82039    0.022
 5176.00    0.83463   0.82722    0.022
 5177.00    0.78922   0.82537    0.022
 5178.00    0.72105   0.82039    0.022
 5179.00    0.68113   0.81330    0.022
 5180.00    0.67018   0.80213    0.021
 5181.00    0.65363   0.79197    0.021
 5182.00    0.63200   0.78863    0.021
 5183.00    0.65328   0.78991    0.021
 5184.00    0.70876   0.79214    0.021
 5185.00    0.71522   0.79602    0.021
 5186.00    0.68729   0.80338    0.021
 5187.00    0.68519   0.81151    0.021
 5188.00    0.69899   0.81446    0.021
 5189.00    0.67044   0.81264    0.021
 5190.00    0.61913   0.81344    0.000
 5191.00    0.65078   0.81635    0.000
 5192.00    0.72117   0.81559    0.000
 5193.00    0.79828   0.81551    0.000
 5194.00    0.87810   0.82063    0.000
 5195.00    0.84245   0.82620    0.000
 5196.00    0.76717   0.82982    0.000
 5197.00    0.78132   0.83349    0.000
 5198.00    0.82132   0.83518    0.000
 5199.00    0.84243   0.83311    0.000
 5200.00    0.85903   0.82947    0.000
 5201.00    0.82797   0.82338    0.000
 5202.00    0.78775   0.81389    0.000
 5203.00    0.75034   0.80582    0.000
 5204.00    0.71335   0.80195    0.000
 5205.00    0.71210   0.79898    0.000
 5206.00    0.71476   0.79858    0.000
 5207.00    0.73320   0.80463    0.000
 5208.00    0.75277   0.81355    0.000
 5209.00    0.83440   0.82158    0.000
 5210.00    0.91836   0.83064    0.000
 5211.00    0.88233   0.83992    0.021
 5212.00    0.84669   0.84624    0.021
 5213.00    0.84548   0.85105    0.021
 5214.00    0.84210   0.85609    0.021
 5215.00    0.80357   0.86063    0.021
 5216.00    0.77111   0.86379    0.021
 5217.00    0.80033   0.86579    0.021
 5218.00    0.81909   0.86661    0.021
 5219.00    0.76167   0.86470    0.021
 5220.00    0.71916   0.85832    0.021
 5221.00    0.75967   0.84869    0.021
 5222.00    0.79527   0.83861    0.021
 5223.00    0.80897   0.82752    0.021
 5224.00    0.81083   0.81695    0.021
 5225.00    0.76937   0.81219    0.021
 5226.00    0.74083   0.81191    0.021
 5227.00    0.75185   0.81208    0.021
 5228.00    0.74728   0.81534    0.021
 5229.00    0.70211   0.82213    0.021
 5230.00    0.69529   0.82762    0.021
 5231.00    0.77420   0.83201    0.021
 5232.00    0.83873   0.83804    0.021
 5233.00    0.87536   0.84434    0.021
 5234.00    0.89398   0.85064    0.021
 5235.00    0.88214   0.85837    0.021
 5236.00    0.90385   0.86614    0.021
 5237.00    0.97524   0.87310    0.021
 5238.00    1.00526   0.87967    0.021
 5239.00    0.98143   0.88426    0.021
 5240.00    0.97087   0.88545    0.021
 5241.00    0.97551   0.88521    0.021
 5242.00    0.95321   0.88472    0.021
 5243.00    0.90366   0.88081    0.021
 5244.00    0.88298   0.87383    0.021
 5245.00    0.88806   0.86866    0.021
 5246.00    0.89467   0.86481    0.021
 5247.00    0.90248   0.85896    0.021
 5248.00    0.87937   0.85395    0.021
 5249.00    0.83487   0.85327    0.021
 5250.00    0.85368   0.85460    0.022
 5251.00    0.91087   0.85555    0.022
 5252.00    0.88966   0.85765    0.022
 5253.00    0.82697   0.86178    0.021
 5254.00    0.89786   0.86530    0.021
 5255.00    1.03009   0.86545    0.021
 5256.00    0.94072   0.86212    0.021
 5257.00    0.76373   0.85604    0.021
 5258.00    0.69129   0.84566    0.021
 5259.00    0.65406   0.83011    0.021
 5260.00    0.78323   0.81210    0.021
 5261.00    0.95952   0.79473    0.022
 5262.00    0.88368   0.77781    0.022
 5263.00    0.74898   0.76137    0.022
 5264.00    0.68757   0.75045    0.021
 5265.00    0.63992   0.74622    0.021
 5266.00    0.62915   0.74305    0.021
 5267.00    0.62373   0.74219    0.022
 5268.00    0.74787   0.74925    0.021
 5269.00    0.88563   0.75896    0.021
 5270.00    0.89154   0.76652    0.022
 5271.00    0.88845   0.77745    0.022
 5272.00    0.78634   0.79148    0.022
 5273.00    0.68091   0.80311    0.022
 5274.00    0.71220   0.81380    0.021
 5275.00    0.74309   0.82473    0.021
 5276.00    0.75640   0.83238    0.021
 5277.00    0.77145   0.83721    0.021
 5278.00    0.81307   0.84183    0.021
 5279.00    0.84605   0.84593    0.021
 5280.00    0.79481   0.84895    0.021
 5281.00    0.74876   0.85217    0.020
 5282.00    0.73928   0.85826    0.020
 5283.00    0.73879   0.86733    0.020
 5284.00    0.78710   0.87641    0.020
 5285.00    0.82437   0.88482    0.021
 5286.00    0.81370   0.89358    0.021
 5287.00    0.80766   0.90056    0.021
 5288.00    0.81822   0.90368    0.021
 5289.00    0.84031   0.90338    0.021
 5290.00    0.89704   0.89997    0.021
 5291.00    0.91470   0.89363    0.021
 5292.00    0.83248   0.88554    0.021
 5293.00    0.78262   0.87684    0.021
 5294.00    0.80395   0.86760    0.021
 5295.00    0.80615   0.85920    0.021
 5296.00    0.77184   0.85438    0.021
 5297.00    0.76478   0.85308    0.021
 5298.00    0.80307   0.85348    0.021
 5299.00    0.82133   0.85634    0.021
 5300.00    0.81037   0.86276    0.021
 5301.00    0.81500   0.87036    0.021
 5302.00    0.83964   0.87709    0.021
 5303.00    0.87225   0.88355    0.021
 5304.00    0.91388   0.88957    0.021
 5305.00    0.94920   0.89439    0.021
 5306.00    0.97822   0.89773    0.021
 5307.00    0.97403   0.89915    0.021
 5308.00    0.94062   0.89915    0.021
 5309.00    0.93972   0.89806    0.021
 5310.00    0.96401   0.89478    0.021
 5311.00    0.96444   0.89029    0.021
 5312.00    0.94861   0.88629    0.021
 5313.00    0.93709   0.88135    0.021
 5314.00    0.92812   0.87575    0.020
 5315.00    0.90143   0.87242    0.020
 5316.00    0.86549   0.87008    0.020
 5317.00    0.81601   0.86592    0.020
 5318.00    0.76042   0.86102    0.020
 5319.00    0.75880   0.85669    0.020
 5320.00    0.77815   0.85066    0.020
 5321.00    0.76743   0.84065    0.020
 5322.00    0.74677   0.82894    0.020
 5323.00    0.73408   0.81990    0.020
 5324.00    0.72361   0.81226    0.020
 5325.00    0.76590   0.80404    0.020
 5326.00    0.82022   0.80045    0.020
 5327.00    0.82832   0.80397    0.020
 5328.00    0.82797   0.80975    0.020
 5329.00    0.86034   0.81615    0.020
 5330.00    0.89731   0.82533    0.020
 5331.00    0.87112   0.83536    0.020
 5332.00    0.83857   0.84300    0.019
 5333.00    0.84879   0.84715    0.020
 5334.00    0.86176   0.84817    0.020
 5335.00    0.83814   0.84854    0.020
 5336.00    0.81352   0.84846    0.020
 5337.00    0.82901   0.84617    0.020
 5338.00    0.84373   0.84439    0.020
 5339.00    0.83620   0.84547    0.019
 5340.00    0.82956   0.84689    0.019
 5341.00    0.83568   0.84817    0.019
 5342.00    0.84678   0.85061    0.020
 5343.00    0.90452   0.85293    0.020
 5344.00    0.95729   0.85513    0.020
 5345.00    0.97623   0.85819    0.020
 5346.00    0.98377   0.86072    0.020
 5347.00    0.93111   0.86382    0.019
 5348.00    0.87659   0.87008    0.019
 5349.00    0.81413   0.87730    0.020
 5350.00    0.77509   0.88380    0.020
 5351.00    0.81817   0.89158    0.020
 5352.00    0.84166   0.90004    0.020
 5353.00    0.80746   0.90625    0.020
 5354.00    0.79076   0.91005    0.020
 5355.00    0.81804   0.91221    0.020
 5356.00    0.83926   0.91154    0.020
 5357.00    0.84737   0.90795    0.020
 5358.00    0.83674   0.90210    0.020
 5359.00    0.79094   0.89392    0.020
 5360.00    0.78586   0.88476    0.020
 5361.00    0.84760   0.87541    0.020
 5362.00    0.86629   0.86547    0.020
 5363.00    0.82309   0.85597    0.020
 5364.00    0.77400   0.84762    0.020
 5365.00    0.71748   0.83999    0.020
 5366.00    0.71121   0.83440    0.020
 5367.00    0.76098   0.83142    0.020
 5368.00    0.81511   0.83008   -2.000
 5369.00    0.87353   0.83226   -2.000
 5370.00    0.89997   0.83830   -2.000
 5371.00    0.89869   0.84527   -2.000
 5372.00    0.88015   0.85320   -2.000
 5373.00    0.84843   0.86222   -2.000
 5374.00    0.85594   0.86913   -2.000
 5375.00    0.88981   0.87338   -2.000
 5376.00    0.90315   0.87629   -2.000
 5377.00    0.90442   0.87647   -2.000
 5378.00    0.86225   0.87485   -2.000
 5379.00    0.79780   0.87403   -2.000
 5380.00    0.79455   0.87265   -2.000
 5381.00    0.81848   0.87069   -2.000
 5382.00    0.80923   0.87049   -2.000
 5383.00    0.78732   0.87023    0.019
 5384.00    0.84054   0.86824    0.019
 5385.00    0.91813   0.86635    0.019
 5386.00    0.92869   0.86380    0.019
 5387.00    0.92106   0.85878    0.019
 5388.00    0.89717   0.85315    0.019
 5389.00    0.86966   0.84796    0.019
 5390.00    0.85580   0.84157    0.019
 5391.00    0.84436   0.83468    0.019
 5392.00    0.80869   0.82995    0.019
 5393.00    0.76972   0.82629    0.018
 5394.00    0.81200   0.82159    0.019
 5395.00    0.86214   0.81852    0.019
 5396.00    0.82431   0.81827    0.019
 5397.00    0.78118   0.81652    0.019
 5398.00    0.83028   0.81306    0.019
 5399.00    0.88144   0.81113    0.019
 5400.00    0.87800   0.80843    0.019
 5401.00    0.87448   0.80321    0.019
 5402.00    0.86878   0.79864    0.019
 5403.00    0.86511   0.79560    0.019
 5404.00    0.88891   0.79331    0.019
 5405.00    0.90435   0.79340    0.019
 5406.00    0.84468   0.79618    0.019
 5407.00    0.79829   0.80047    0.019
 5408.00    0.83966   0.80677    0.019
 5409.00    0.87146   0.81479    0.019
 5410.00    0.85404   0.82278    0.019
 5411.00    0.84390   0.83021    0.019
 5412.00    0.86396   0.83743    0.019
 5413.00    0.88655   0.84409    0.019
 5414.00    0.91785   0.84901    0.019
 5415.00    0.93493   0.85167    0.019
 5416.00    0.91090   0.85342    0.019
 5417.00    0.89297   0.85419    0.019
 5418.00    0.89012   0.85266    0.019
 5419.00    0.87125   0.85057    0.019
 5420.00    0.81825   0.84898    0.019
 5421.00    0.77625   0.84631    0.019
 5422.00    0.75460   0.84362    0.018
 5423.00    0.78043   0.84177    0.018
 5424.00    0.88298   0.83925    0.019
 5425.00    0.92781   0.83652    0.019
 5426.00    0.89084   0.83347    0.019
 5427.00    0.86958   0.82944    0.019
 5428.00    0.86793   0.82666    0.019
 5429.00    0.84578   0.82478    0.019
 5430.00    0.80108   0.82230    0.018
 5431.00    0.77816   0.82259    0.018
 5432.00    0.77636   0.82644    0.018
 5433.00    0.77749   0.83108    0.018
 5434.00    0.78113   0.83737    0.018
 5435.00    0.79761   0.84577    0.018
 5436.00    0.82375   0.85401    0.018
 5437.00    0.82839   0.86071    0.018
 5438.00    0.81878   0.86531    0.018
 5439.00    0.84043   0.86721    0.018
 5440.00    0.88018   0.86581    0.018
 5441.00    0.86931   0.86166    0.018
 5442.00    0.83288   0.85647    0.018
 5443.00    0.82732   0.85103    0.018
 5444.00    0.83523   0.84593    0.018
 5445.00    0.84153   0.84317    0.018
 5446.00    0.84722   0.84278    0.018
 5447.00    0.80420   0.84292    0.018
 5448.00    0.74566   0.84380    0.018
 5449.00    0.78286   0.84495    0.018
 5450.00    0.84550   0.84473    0.018
 5451.00    0.85898   0.84398    0.018
 5452.00    0.86177   0.84291    0.018
 5453.00    0.83353   0.84129    0.018
 5454.00    0.79994   0.84113    0.018
 5455.00    0.81035   0.84223    0.018
 5456.00    0.82653   0.84267    0.019
 5457.00    0.84301   0.84315    0.018
 5458.00    0.85952   0.84443    0.018
 5459.00    0.86524   0.84496    0.018
 5460.00    0.87035   0.84383    0.018
 5461.00    0.89139   0.84295    0.018
 5462.00    0.91220   0.84384    0.018
 5463.00    0.87216   0.84412    0.018
 5464.00    0.83352   0.84338    0.018
 5465.00    0.82768   0.84440    0.018
 5466.00    0.82225   0.84521    0.018
 5467.00    0.82200   0.84276    0.018
 5468.00    0.81662   0.83949    0.019
 5469.00    0.76680   0.83645    0.018
 5470.00    0.72980   0.83049    0.018
 5471.00    0.77495   0.82262    0.018
 5472.00    0.81465   0.81699    0.018
 5473.00    0.82705   0.81210    0.018
 5474.00    0.83786   0.80630    0.018
 5475.00    0.84222   0.80388    0.018
 5476.00    0.84821   0.80542    0.018
 5477.00    0.85966   0.80704    0.019
 5478.00    0.86239   0.80975   -2.000
 5479.00    0.84036   0.81547   -2.000
 5480.00    0.84081   0.82147   -2.000
 5481.00    0.89585   0.82567   -2.000
 5482.00    0.93064   0.82984   -2.000
 5483.00    0.92302   0.83434   -2.000
 5484.00    0.89431   0.83648   -2.000
 5485.00    0.82718   0.83709   -2.000
 5486.00    0.80195   0.83869   -2.000
 5487.00    0.84341   0.83932   -2.000
 5488.00    0.86907   0.83844   -2.000
 5489.00    0.87263   0.83902   -2.000
 5490.00    0.86509   0.83978   -2.000
 5491.00    0.84387   0.83867   -2.000
 5492.00    0.81038   0.83827   -2.000
 5493.00    0.76359   0.83892   -2.000
 5494.00    0.77386   0.83778   -2.000
 5495.00    0.83867   0.83586   -2.000
 5496.00    0.89793   0.83520   -2.000
 5497.00    0.95251   0.83378   -2.000
 5498.00    0.94106   0.83064   -2.000
 5499.00    0.88062   0.82817   -2.000
 5500.00    0.83355   0.82602   -2.000
 5501.00    0.79521   0.82289   -2.000
 5502.00    0.79639   0.82052    0.018
 5503.00    0.82014   0.81869    0.018
 5504.00    0.83171   0.81654    0.018
 5505.00    0.83725   0.81573    0.018
 5506.00    0.84109   0.81528    0.018
 5507.00    0.84421   0.81409    0.018
 5508.00    0.83105   0.81446    0.018
 5509.00    0.81188   0.81579    0.017
 5510.00    0.82882   0.81669    0.018
 5511.00    0.85703   0.81913    0.018
 5512.00    0.86238   0.82317    0.018
 5513.00    0.86178   0.82737    0.018
 5514.00    0.87462   0.83198    0.018
 5515.00    0.89032   0.83694    0.018
 5516.00    0.86008   0.84125    0.018
 5517.00    0.82213   0.84409    0.018
 5518.00    0.81063   0.84538    0.018
 5519.00    0.80248   0.84507    0.018
 5520.00    0.79580   0.84279    0.018
 5521.00    0.78926   0.83903    0.018
 5522.00    0.77311   0.83415    0.018
 5523.00    0.75646   0.82877    0.018
 5524.00    0.77886   0.82432    0.017
 5525.00    0.80172   0.82049    0.017
 5526.00    0.80362   0.81749    0.017
 5527.00    0.80486   0.81705    0.017
 5528.00    0.79188   0.81792    0.017
 5529.00    0.78182   0.81852    0.017
 5530.00    0.80756   0.82051    0.017
 5531.00    0.83412   0.82345    0.017
 5532.00    0.86763   0.82516    0.017
 5533.00    0.89293   0.82715    0.017
 5534.00    0.86719   0.83043    0.017
 5535.00    0.84626   0.83293    0.017
 5536.00    0.84890   0.83497    0.017
 5537.00    0.85912   0.83760    0.017
 5538.00    0.89938   0.83943    0.017
 5539.00    0.91771   0.84042    0.020
 5540.00    0.86363   0.84111    0.047
 5541.00    0.82593   0.84134   -1.000
 5542.00    0.83389   0.84211   -1.000
 5543.00    0.84414   0.84313   -1.000
 5544.00    0.85985   0.84409   -1.000
 5545.00    0.85483   0.84620   -1.000
 5546.00    0.80708   0.84851   -1.000
 5547.00    0.76739   0.84983    0.095
 5548.00    0.74215   0.85097    0.025
 5549.00    0.73878   0.85146    0.017
 5550.00    0.76972   0.85076    0.017
 5551.00    0.79544   0.84945    0.017
 5552.00    0.81399   0.84761    0.017
 5553.00    0.82951   0.84568    0.017
 5554.00    0.84138   0.84378    0.017
 5555.00    0.83617   0.84151    0.017
 5556.00    0.81269   0.83942    0.017
 5557.00    0.80662   0.83726    0.017
 5558.00    0.81695   0.83456    0.017
 5559.00    0.81359   0.83189    0.017
 5560.00    0.79884   0.82884    0.017
 5561.00    0.80669   0.82554    0.017
 5562.00    0.83106   0.82307    0.017
 5563.00    0.83261   0.82042    0.017
 5564.00    0.81949   0.81761    0.017
 5565.00    0.82534   0.81655    0.017
 5566.00    0.84183   0.81593    0.017
 5567.00    0.82494   0.81439    0.017
 5568.00    0.79171   0.81479    0.017
 5569.00    0.79993   0.81666    0.017
 5570.00    0.82565   0.81676    0.017
 5571.00    0.81729   0.81814    0.017
 5572.00    0.79660   0.82182    0.017
 5573.00    0.80111   0.82339    0.017
 5574.00    0.81332   0.82485    0.017
 5575.00    0.82951   0.82810    0.017
 5576.00    0.84671   0.82905    0.017
 5577.00    0.85663   0.82839    0.017
 5578.00    0.86504   0.82805    0.017
 5579.00    0.84529   0.82521    0.017
 5580.00    0.82095   0.82017    0.017
 5581.00    0.81696   0.81459    0.017
 5582.00    0.81547   0.80756    0.017
 5583.00    0.84989   0.79972    0.017
 5584.00    0.88734   0.79247    0.017
 5585.00    0.88842   0.78643    0.017
 5586.00    0.88775   0.78214    0.017
 5587.00    0.82061   0.77993    0.017
 5588.00    0.75368   0.78018    0.017
 5589.00    0.75841   0.78209    0.017
 5590.00    0.76136   0.78531    0.017
 5591.00    0.72898   0.78957    0.017
 5592.00    0.70395   0.79293    0.017
 5593.00    0.76417   0.79582    0.017
 5594.00    0.81724   0.79876    0.017
 5595.00    0.81282   0.79960    0.017
 5596.00    0.81381   0.79953    0.017
 5597.00    0.84754   0.80051    0.018
 5598.00    0.87380   0.80130    0.018
 5599.00    0.86450   0.80267    0.018
 5600.00    0.85289   0.80622    0.018
 5601.00    0.83233   0.81135    0.018
 5602.00    0.81424   0.81756    0.018
 5603.00    0.80421   0.82441    0.018
 5604.00    0.79301   0.83116    0.018
 5605.00    0.77866   0.83704    0.017
 5606.00    0.78133   0.84089    0.017
 5607.00    0.82396   0.84238    0.017
 5608.00    0.84873   0.84185    0.017
 5609.00    0.83730   0.83871    0.017
 5610.00    0.82634   0.83332    0.017
 5611.00    0.81621   0.82770    0.017
 5612.00    0.79881   0.82161    0.017
 5613.00    0.77018   0.81512    0.017
 5614.00    0.77086   0.81103    0.016
 5615.00    0.81131   0.80867    0.016
 5616.00    0.82931   0.80646    0.016
 5617.00    0.82048   0.80617    0.016
 5618.00    0.80043   0.80687    0.016
 5619.00    0.76855   0.80663    0.016
 5620.00    0.77736   0.80686    0.016
 5621.00    0.82399   0.80758    0.016
 5622.00    0.82887   0.80763    0.016
 5623.00    0.79954   0.80882    0.016
 5624.00    0.78263   0.81162    0.016
 5625.00    0.77467   0.81425    0.016
 5626.00    0.77963   0.81756    0.016
 5627.00    0.79278   0.82180    0.016
 5628.00    0.80747   0.82463    0.016
 5629.00    0.82302   0.82607    0.016
 5630.00    0.81391   0.82688    0.016
 5631.00    0.79294   0.82587    0.016
 5632.00    0.75214   0.82317    0.016
 5633.00    0.70310   0.82025    0.016
 5634.00    0.69861   0.81714    0.016
 5635.00    0.70996   0.81356    0.016
 5636.00    0.71376   0.81079    0.016
 5637.00    0.71530   0.80946    0.016
 5638.00    0.73617   0.80841    0.017
 5639.00    0.76186   0.80812    0.017
 5640.00    0.79605   0.80954    0.017
 5641.00    0.83195   0.81117    0.017
 5642.00    0.82983   0.81286    0.017
 5643.00    0.82169   0.81534    0.016
 5644.00    0.79089   0.81739    0.016
 5645.00    0.75742   0.81884    0.016
 5646.00    0.78706   0.81999    0.016
 5647.00    0.82176   0.81999    0.016
 5648.00    0.82460   0.81918    0.016
 5649.00    0.82602   0.81723    0.016
 5650.00    0.83121   0.81374    0.016
 5651.00    0.83604   0.80999    0.016
 5652.00    0.82168   0.80494    0.016
 5653.00    0.80678   0.79856    0.016
 5654.00    0.78186   0.79369    0.016
 5655.00    0.75840   0.78920    0.016
 5656.00    0.75119   0.78434    0.016
 5657.00    0.74792   0.78229    0.016
 5658.00    0.77528   0.78248    0.016
 5659.00    0.79787   0.78281    0.016
 5660.00    0.79247   0.78477    0.016
 5661.00    0.78374   0.78850    0.016
 5662.00    0.75952   0.79208    0.016
 5663.00    0.74330   0.79558    0.016
 5664.00    0.75751   0.79965    0.016
 5665.00    0.77620   0.80353    0.016
 5666.00    0.80905   0.80716    0.016
 5667.00    0.82600   0.81112    0.016
 5668.00    0.80017   0.81523    0.016
 5669.00    0.79096   0.81906    0.016
 5670.00    0.82009   0.82262    0.016
 5671.00    0.82623   0.82597    0.016
 5672.00    0.78644   0.82828    0.016
 5673.00    0.75623   0.82909    0.016
 5674.00    0.74266   0.82901    0.016
 5675.00    0.74232   0.82783    0.017
 5676.00    0.76209   0.82495    0.017
 5677.00    0.77538   0.82105    0.017
 5678.00    0.77998   0.81702    0.017
 5679.00    0.77907   0.81253    0.017
 5680.00    0.77166   0.80777    0.017
 5681.00    0.76087   0.80403    0.017
 5682.00    0.74658   0.80129    0.017
 5683.00    0.73360   0.79926    0.016
 5684.00    0.72183   0.79886    0.016
 5685.00    0.72926   0.79982    0.016
 5686.00    0.75219   0.80155    0.016
 5687.00    0.76367   0.80462    0.016
 5688.00    0.76701   0.80824    0.016
 5689.00    0.77396   0.81142    0.016
 5690.00    0.78318   0.81459    0.016
 5691.00    0.79992   0.81717    0.016
 5692.00    0.82075   0.81808    0.016
 5693.00    0.85279   0.81769    0.016
 5694.00    0.89014   0.81662    0.016
 5695.00    0.88343   0.81413    0.016
 5696.00    0.85872   0.81031    0.016
 5697.00    0.82857   0.80664    0.016
 5698.00    0.79652   0.80264    0.016
 5699.00    0.79143   0.79812    0.016
 5700.00    0.79428   0.79390    0.016
 5701.00    0.79319   0.78967    0.016
 5702.00    0.79114   0.78568    0.016
 5703.00    0.80616   0.78149    0.016
 5704.00    0.82455   0.77726    0.016
 5705.00    0.84277   0.77477    0.016
 5706.00    0.86096   0.77260    0.016
 5707.00    0.81332   0.77118    0.016
 5708.00    0.75822   0.77328    0.016
 5709.00    0.76902   0.77619    0.016
 5710.00    0.78482   0.77992    0.016
 5711.00    0.81948   0.78678    0.016
 5712.00    0.85490   0.79336    0.016
 5713.00    0.83764   0.79949    0.016
 5714.00    0.82015   0.80693    0.016
 5715.00    0.81039   0.81299    0.016
 5716.00    0.80141   0.81784    0.016
 5717.00    0.80574   0.82298    0.016
 5718.00    0.81297   0.82660    0.016
 5719.00    0.85073   0.82894    0.016
 5720.00    0.88094   0.83117    0.016
 5721.00    0.85460   0.83209    0.016
 5722.00    0.82926   0.83171    0.016
 5723.00    0.80970   0.83116    0.016
 5724.00    0.79533   0.83004    0.016
 5725.00    0.80452   0.82825    0.016
 5726.00    0.81365   0.82654    0.016
 5727.00    0.82258   0.82534    0.016
 5728.00    0.82107   0.82446    0.016
 5729.00    0.78709   0.82368    0.016
 5730.00    0.76542   0.82372    0.016
 5731.00    0.77625   0.82433    0.016
 5732.00    0.79549   0.82467    0.016
 5733.00    0.83382   0.82525    0.016
 5734.00    0.85360   0.82583    0.016
 5735.00    0.83694   0.82587    0.016
 5736.00    0.81525   0.82576    0.016
 5737.00    0.78494   0.82545    0.016
 5738.00    0.75899   0.82480    0.016
 5739.00    0.73958   0.82406    0.016
 5740.00    0.73203   0.82326    0.000
 5741.00    0.74011   0.82240    0.000
 5742.00    0.74564   0.82127    0.000
 5743.00    0.74823   0.81984    0.000
 5744.00    0.76419   0.81843    0.000
 5745.00    0.79384   0.81648    0.000
 5746.00    0.82067   0.81402    0.000
 5747.00    0.84496   0.81186    0.000
 5748.00    0.83826   0.80951    0.000
 5749.00    0.80689   0.80710    0.000
 5750.00    0.78332   0.80564    0.000
 5751.00    0.76523   0.80468    0.000
 5752.00    0.76127   0.80406    0.000
 5753.00    0.76599   0.80451    0.000
 5754.00    0.79039   0.80516    0.000
 5755.00    0.82534   0.80555    0.000
 5756.00    0.82062   0.80633    0.000
 5757.00    0.79742   0.80660    0.000
 5758.00    0.80227   0.80649    0.000
 5759.00    0.81839   0.80734    0.000
 5760.00    0.83586   0.80821    0.000
 5761.00    0.85380   0.80933    0.000
 5762.00    0.84211   0.81195    0.000
 5763.00    0.82188   0.81456    0.000
 5764.00    0.81598   0.81676    0.000
 5765.00    0.81350   0.81929    0.000
 5766.00    0.81443   0.82080    0.000
 5767.00    0.81600   0.82104    0.000
 5768.00    0.82572   0.82108    0.000
 5769.00    0.83665   0.82008    0.000
 5770.00    0.83564   0.81812    0.000
 5771.00    0.83333   0.81651    0.000
 5772.00    0.84849   0.81416    0.000
 5773.00    0.86490   0.81090    0.000
 5774.00    0.84236   0.80787    0.000
 5775.00    0.81838   0.80383    0.000
 5776.00    0.80627   0.79859    0.000
 5777.00    0.79523   0.79366    0.000
 5778.00    0.82087   0.78873    0.000
 5779.00    0.84509   0.78360    0.000
 5780.00    0.84670   0.77953    0.000
 5781.00    0.84604   0.77747    0.000
 5782.00    0.82244   0.77666    0.000
 5783.00    0.80181   0.77685    0.000
 5784.00    0.80262   0.77928    0.000
 5785.00    0.80844   0.78250    0.000
 5786.00    0.84207   0.78544    0.000
 5787.00    0.87032   0.78964    0.000
 5788.00    0.87473   0.79339    0.000
 5789.00    0.87992   0.79610    0.000
 5790.00    0.88800   0.79942    0.000
 5791.00    0.88824   0.80208   -2.000
 5792.00    0.86458   0.80374   -2.000
 5793.00    0.84646   0.80570   -2.000
 5794.00    0.84269   0.80781   -2.000
 5795.00    0.82922   0.80927   -2.000
 5796.00    0.79407   0.81047   -2.000
 5797.00    0.78878   0.81212   -2.000
 5798.00    0.84122   0.81319   -2.000
 5799.00    0.86710   0.81326   -2.000
 5800.00    0.84818   0.81349   -2.000
 5801.00    0.82192   0.81324   -2.000
 5802.00    0.78478   0.81225   -2.000
 5803.00    0.77969   0.81158   -2.000
 5804.00    0.81622   0.81094   -2.000
 5805.00    0.85113   0.81051   -2.000
 5806.00    0.88416   0.81067   -2.000
 5807.00    0.89694   0.81081   -2.000
 5808.00    0.88927   0.81110   -2.000
 5809.00    0.88034   0.81165   -2.000
 5810.00    0.87028   0.81181   -2.000
 5811.00    0.85541   0.81172    0.000
 5812.00    0.83678   0.81208    0.000
 5813.00    0.83778   0.81271    0.000
 5814.00    0.85234   0.81319    0.000
 5815.00    0.84363   0.81440    0.000
 5816.00    0.82084   0.81625    0.000
 5817.00    0.83729   0.81782    0.000
 5818.00    0.87447   0.81954    0.000
 5819.00    0.86928   0.82135    0.000
 5820.00    0.84467   0.82265    0.000
 5821.00    0.79572   0.82361    0.000
 5822.00    0.73715   0.82433    0.000
 5823.00    0.76067   0.82473    0.000
 5824.00    0.81178   0.82495    0.000
 5825.00    0.85805   0.82493    0.000
 5826.00    0.90296   0.82455    0.000
 5827.00    0.90037   0.82416    0.000
 5828.00    0.88671   0.82360    0.000
 5829.00    0.87020   0.82253    0.000
 5830.00    0.85316   0.82145    0.000
 5831.00    0.90158   0.82075    0.000
 5832.00    0.95945   0.81987    0.000
 5833.00    0.93044   0.81895    0.000
 5834.00    0.89233   0.81892    0.000
 5835.00    0.86787   0.81921    0.000
 5836.00    0.84434   0.81928    0.000
 5837.00    0.86973   0.81981    0.000
 5838.00    0.89675   0.82046    0.000
 5839.00    0.87179   0.82047    0.000
 5840.00    0.84777   0.82011    0.000
 5841.00    0.85463   0.81934    0.000
 5842.00    0.86187   0.81766    0.000
 5843.00    0.87480   0.81552    0.000
 5844.00    0.88463   0.81300    0.000
 5845.00    0.86433   0.80974    0.000
 5846.00    0.84401   0.80636    0.000
 5847.00    0.82346   0.80267    0.000
 5848.00    0.80807   0.79836    0.000
 5849.00    0.82059   0.79421    0.000
 5850.00    0.83498   0.79018    0.000
 5851.00    0.85747   0.78580    0.000
 5852.00    0.87653   0.78174    0.000
 5853.00    0.88337   0.77898    0.000
 5854.00    0.89486   0.77697    0.000
 5855.00    0.92029   0.77536    0.000
 5856.00    0.92377   0.77557    0.000
 5857.00    0.87125   0.77689    0.000
 5858.00    0.82648   0.77866    0.000
 5859.00    0.79871   0.78171    0.000
 5860.00    0.78015   0.78485    0.000
 5861.00    0.77908   0.78777    0.000
 5862.00    0.77662   0.79120    0.000
 5863.00    0.77185   0.79444    0.000
 5864.00    0.76777   0.79701    0.000
 5865.00    0.76469   0.79937    0.000
 5866.00    0.76955   0.80179    0.000
 5867.00    0.78458   0.80358    0.000
 5868.00    0.79830   0.80474    0.000
 5869.00    0.81053   0.80577    0.000
 5870.00    0.81895   0.80607    0.000
 5871.00    0.82355   0.80553    0.000
 5872.00    0.82551   0.80467    0.000
 5873.00    0.82514   0.80315    0.000
 5874.00    0.80653   0.80090    0.000
 5875.00    0.77380   0.79804    0.000
 5876.00    0.75734   0.79481    0.000
 5877.00    0.75194   0.79124    0.000
 5878.00    0.74431   0.78653    0.000
 5879.00    0.73535   0.78105    0.000
 5880.00    0.74984   0.77485    0.000
 5881.00    0.77651   0.76663    0.000
 5882.00    0.79708   0.75633    0.000
 5883.00    0.81490   0.74487    0.000
 5884.00    0.81654   0.73111    0.000
 5885.00    0.81191   0.71598    0.000
 5886.00    0.78948   0.70275    0.000
 5887.00    0.76117   0.68931    0.000
 5888.00    0.72695   0.67693    0.000
 5889.00    0.69109   0.67073    0.000
 5890.00    0.68743   0.66656    0.000
 5891.00    0.69110   0.66415    0.000
 5892.00    0.70182   0.66827    0.000
 5893.00    0.71381   0.67374    0.000
 5894.00    0.70679   0.68019    0.000
 5895.00    0.69712   0.69216    0.000
 5896.00    0.71842   0.70491    0.000
 5897.00    0.74283   0.71681    0.000
 5898.00    0.75717   0.73020    0.000
 5899.00    0.77086   0.74260    0.000
 5900.00    0.76200   0.75296    0.000
 5901.00    0.75252   0.76211    0.015
 5902.00    0.75461   0.76936    0.015
 5903.00    0.75682   0.77460    0.015
 5904.00    0.76212   0.77845    0.015
 5905.00    0.77062   0.78107    0.015
 5906.00    0.82464   0.78269    0.015
 5907.00    0.87392   0.78333    0.015
 5908.00    0.87910   0.78305    0.015
 5909.00    0.87867   0.78230    0.015
 5910.00    0.84011   0.78156    0.015
 5911.00    0.80718   0.78020    0.015
 5912.00    0.80394   0.77900    0.015
 5913.00    0.80173   0.77884    0.015
 5914.00    0.80392   0.77876    0.015
 5915.00    0.80369   0.77956    0.015
 5916.00    0.79503   0.78098    0.015
 5917.00    0.79542   0.78214    0.015
 5918.00    0.82242   0.78393    0.015
 5919.00    0.83855   0.78546    0.015
 5920.00    0.82742   0.78616    0.015
 5921.00    0.81190   0.78696    0.015
 5922.00    0.78689   0.78707    0.015
 5923.00    0.76228   0.78649    0.015
 5924.00    0.73843   0.78586    0.015
 5925.00    0.71394   0.78450    0.015
 5926.00    0.68840   0.78338    0.015
 5927.00    0.68018   0.78245    0.015
 5928.00    0.69683   0.78118    0.015
 5929.00    0.70508   0.78093    0.015
 5930.00    0.70271   0.78116    0.015
 5931.00    0.70172   0.78152    0.015
 5932.00    0.70226   0.78204    0.015
 5933.00    0.72088   0.78260    0.015
 5934.00    0.75724   0.78393    0.015
 5935.00    0.77822   0.78475    0.015
 5936.00    0.78588   0.78491    0.015
 5937.00    0.78197   0.78564    0.015
 5938.00    0.76925   0.78577    0.015
 5939.00    0.75499   0.78537    0.015
 5940.00    0.73970   0.78527    0.015
 5941.00    0.74640   0.78492    0.014
 5942.00    0.76601   0.78432    0.014
 5943.00    0.78085   0.78362    0.014
 5944.00    0.79323   0.78266    0.015
 5945.00    0.78181   0.78172    0.015
 5946.00    0.75983   0.78054    0.014
 5947.00    0.74473   0.77903    0.015
 5948.00    0.73226   0.77816    0.015
 5949.00    0.72512   0.77784    0.014
 5950.00    0.71970   0.77707    0.014
 5951.00    0.74261   0.77646    0.014
 5952.00    0.77319   0.77702    0.015
 5953.00    0.79233   0.77783    0.015
 5954.00    0.80894   0.77855    0.015
 5955.00    0.77388   0.77973    0.015
 5956.00    0.72967   0.78133    0.015
 5957.00    0.72874   0.78329    0.015
 5958.00    0.73364   0.78514    0.015
 5959.00    0.75439   0.78698    0.015
 5960.00    0.77667   0.78868    0.015
 5961.00    0.79250   0.78998    0.015
 5962.00    0.80795   0.79144    0.015
 5963.00    0.80504   0.79236    0.015
 5964.00    0.80154   0.79294    0.015
 5965.00    0.77833   0.79387    0.015
 5966.00    0.75650   0.79438    0.015
 5967.00    0.76993   0.79442    0.015
 5968.00    0.78300   0.79425    0.015
 5969.00    0.79142   0.79353    0.015
 5970.00    0.79571   0.79210    0.015
 5971.00    0.76311   0.79016    0.014
 5972.00    0.73443   0.78795    0.014
 5973.00    0.73165   0.78531    0.014
 5974.00    0.72996   0.78243    0.014
 5975.00    0.73395   0.78012    0.014
 5976.00    0.73349   0.77782    0.014
 5977.00    0.71458   0.77549    0.014
 5978.00    0.69727   0.77389    0.014
 5979.00    0.68540   0.77186    0.014
 5980.00    0.67930   0.77018    0.014
 5981.00    0.68981   0.76889    0.014
 5982.00    0.70896   0.76713    0.014
 5983.00    0.74937   0.76675    0.014
 5984.00    0.77613   0.76719    0.014
 5985.00    0.77391   0.76737    0.014
 5986.00    0.76635   0.76831    0.014
 5987.00    0.74892   0.76965    0.014
 5988.00    0.74051   0.77112    0.015
 5989.00    0.74664   0.77207    0.014
 5990.00    0.74912   0.77270    0.014
 5991.00    0.74642   0.77368    0.014
 5992.00    0.74446   0.77377    0.015
 5993.00    0.74342   0.77328    0.015
 5994.00    0.74274   0.77279    0.015
 5995.00    0.74248   0.77155    0.015
 5996.00    0.74357   0.77042    0.015
 5997.00    0.74600   0.76943    0.014
 5998.00    0.73295   0.76792    0.014
 5999.00    0.70672   0.76701    0.014
 6000.00    0.70111   0.76564    0.014
 6001.00    0.71101   0.76368    0.014
 6002.00    0.72215   0.76285    0.014
 6003.00    0.73411   0.76146    0.014
 6004.00    0.74012   0.76006    0.014
 6005.00    0.74269   0.75942    0.014
 6006.00    0.74163   0.75796    0.014
 6007.00    0.73876   0.75755    0.014
 6008.00    0.72953   0.75793    0.014
 6009.00    0.71754   0.75731    0.014
 6010.00    0.73021   0.75685    0.014
 6011.00    0.75213   0.75609    0.014
 6012.00    0.76458   0.75530    0.014
 6013.00    0.77404   0.75501    0.014
 6014.00    0.76607   0.75367    0.015
 6015.00    0.75347   0.75240    0.015
 6016.00    0.72841   0.75225    0.015
 6017.00    0.70065   0.75161    0.015
 6018.00    0.70734   0.75118    0.015
 6019.00    0.71997   0.75179    0.015
 6020.00    0.73124   0.75292    0.015
 6021.00    0.74233   0.75473    0.015
 6022.00    0.75284   0.75657    0.015
 6023.00    0.76329   0.75942    0.015
 6024.00    0.76454   0.76268    0.014
 6025.00    0.76528   0.76527    0.014
 6026.00    0.75750   0.76848    0.015
 6027.00    0.74942   0.77166    0.015
 6028.00    0.73135   0.77424    0.015
 6029.00    0.71434   0.77654    0.015
 6030.00    0.72218   0.77846    0.014
 6031.00    0.72943   0.78014    0.014
 6032.00    0.72909   0.78114    0.014
 6033.00    0.72912   0.78162    0.014
 6034.00    0.73227   0.78194    0.014
 6035.00    0.73653   0.78176    0.014
 6036.00    0.74779   0.78154    0.014
 6037.00    0.75659   0.78105    0.014
 6038.00    0.75314   0.78050    0.014
 6039.00    0.75063   0.78035    0.014
 6040.00    0.75195   0.78009    0.014
 6041.00    0.75088   0.78034    0.014
 6042.00    0.74176   0.78086    0.014
 6043.00    0.73445   0.78099    0.014
 6044.00    0.73225   0.78119    0.014
 6045.00    0.73885   0.78140    0.014
 6046.00    0.76678   0.78096    0.014
 6047.00    0.77969   0.78007    0.015
 6048.00    0.76120   0.77896    0.015
 6049.00    0.74271   0.77743    0.015
 6050.00    0.72420   0.77563    0.015
 6051.00    0.72251   0.77362    0.015
 6052.00    0.74756   0.77202    0.015
 6053.00    0.76072   0.77082    0.015
 6054.00    0.75731   0.76954    0.015
 6055.00    0.75558   0.76881    0.015
 6056.00    0.75592   0.76841    0.015
 6057.00    0.76837   0.76806    0.015
 6058.00    0.79393   0.76748    0.015
 6059.00    0.81495   0.76692    0.015
 6060.00    0.83165   0.76642    0.014
 6061.00    0.82815   0.76604    0.014
 6062.00    0.80764   0.76632    0.014
 6063.00    0.77782   0.76647    0.014
 6064.00    0.74109   0.76765    0.014
 6065.00    0.73681   0.77027    0.014
 6066.00    0.75363   0.77250    0.014
 6067.00    0.77302   0.77477    0.014
 6068.00    0.79388   0.77694    0.014
 6069.00    0.79819   0.77842    0.014
 6070.00    0.79429   0.77948    0.014
 6071.00    0.76993   0.77919    0.014
 6072.00    0.73679   0.77794    0.014
 6073.00    0.73686   0.77615    0.014
 6074.00    0.74913   0.77340    0.014
 6075.00    0.76754   0.77039    0.014
 6076.00    0.78785   0.76695    0.014
 6077.00    0.76759   0.76356    0.014
 6078.00    0.73680   0.76121    0.014
 6079.00    0.73296   0.75883    0.014
 6080.00    0.73483   0.75651    0.014
 6081.00    0.73372   0.75527    0.014
 6082.00    0.73211   0.75450    0.014
 6083.00    0.75507   0.75381    0.014
 6084.00    0.78113   0.75357    0.014
 6085.00    0.77089   0.75351    0.014
 6086.00    0.75746   0.75378    0.014
 6087.00    0.74528   0.75411    0.014
 6088.00    0.73315   0.75419    0.014
 6089.00    0.73080   0.75467    0.014
 6090.00    0.72882   0.75544    0.014
 6091.00    0.74118   0.75577    0.014
 6092.00    0.75407   0.75600    0.014
 6093.00    0.77844   0.75627    0.014
 6094.00    0.80000   0.75581    0.014
 6095.00    0.78758   0.75423    0.014
 6096.00    0.77475   0.75231    0.014
 6097.00    0.75854   0.75035    0.014
 6098.00    0.74557   0.74802    0.014
 6099.00    0.75262   0.74607    0.014
 6100.00    0.76182   0.74378    0.014
 6101.00    0.78148   0.74221    0.014
 6102.00    0.79442   0.74355    0.014
 6103.00    0.78077   0.74506    0.014
 6104.00    0.77196   0.74656    0.014
 6105.00    0.77904   0.74892    0.014
 6106.00    0.78474   0.75099    0.014
 6107.00    0.78658   0.75361    0.014
 6108.00    0.78396   0.75576    0.014
 6109.00    0.77067   0.75633    0.014
 6110.00    0.75538   0.75679    0.014
 6111.00    0.73596   0.75700    0.014
 6112.00    0.71971   0.75623    0.014
 6113.00    0.70914   0.75492    0.014
 6114.00    0.71574   0.75255    0.014
 6115.00    0.74922   0.74966    0.014
 6116.00    0.76633   0.74736    0.014
 6117.00    0.76095   0.74448    0.014
 6118.00    0.75257   0.74155    0.014
 6119.00    0.74055   0.73947    0.014
 6120.00    0.74644   0.73738    0.014
 6121.00    0.77145   0.73679    0.014
 6122.00    0.77666   0.73764    0.014
 6123.00    0.76327   0.73801    0.014
 6124.00    0.74389   0.73888    0.014
 6125.00    0.71955   0.73997    0.014
 6126.00    0.70736   0.74049    0.014
 6127.00    0.70404   0.74064    0.014
 6128.00    0.71512   0.73999    0.014
 6129.00    0.73542   0.73809    0.014
 6130.00    0.74086   0.73499    0.014
 6131.00    0.73797   0.73155    0.014
 6132.00    0.73569   0.72781    0.014
 6133.00    0.73369   0.72381    0.014
 6134.00    0.74230   0.71992    0.014
 6135.00    0.75538   0.71667    0.014
 6136.00    0.76846   0.71618    0.015
 6137.00    0.78154   0.71766    0.014
 6138.00    0.76883   0.71946    0.014
 6139.00    0.74825   0.72166    0.014
 6140.00    0.75125   0.72443    0.014
 6141.00    0.76024   0.72842    0.014
 6142.00    0.77676   0.73188    0.014
 6143.00    0.79483   0.73397    0.015
 6144.00    0.79498   0.73572    0.014
 6145.00    0.79222   0.73675    0.014
 6146.00    0.78582   0.73732    0.014
 6147.00    0.77899   0.73748    0.014
 6148.00    0.77166   0.73709    0.014
 6149.00    0.76430   0.73687    0.014
 6150.00    0.76207   0.73607    0.014
 6151.00    0.76008   0.73480    0.014
 6152.00    0.75286   0.73292    0.014
 6153.00    0.74552   0.72998    0.013
 6154.00    0.73618   0.72652    0.014
 6155.00    0.72821   0.72218    0.014
 6156.00    0.74697   0.71734    0.014
 6157.00    0.76295   0.71282    0.014
 6158.00    0.74673   0.70827    0.014
 6159.00    0.73001   0.70363    0.014
 6160.00    0.70924   0.70044    0.014
 6161.00    0.69167   0.69912    0.014
 6162.00    0.69334   0.69873    0.014
 6163.00    0.69886   0.69940    0.014
 6164.00    0.72275   0.70077    0.014
 6165.00    0.74099   0.70301    0.014
 6166.00    0.73737   0.70563    0.014
 6167.00    0.72921   0.70762    0.014
 6168.00    0.70637   0.71006    0.014
 6169.00    0.69396   0.71347    0.014
 6170.00    0.71006   0.71677    0.014
 6171.00    0.71759   0.71964    0.014
 6172.00    0.70505   0.72261    0.014
 6173.00    0.70147   0.72559    0.014
 6174.00    0.71601   0.72852    0.014
 6175.00    0.72876   0.73111    0.014
 6176.00    0.73835   0.73337    0.014
 6177.00    0.73504   0.73535    0.013
 6178.00    0.71183   0.73655    0.013
 6179.00    0.69819   0.73728    0.013
 6180.00    0.69749   0.73755    0.013
 6181.00    0.70950   0.73685    0.013
 6182.00    0.73667   0.73557    0.013
 6183.00    0.74841   0.73376    0.013
 6184.00    0.74393   0.73070    0.014
 6185.00    0.74415   0.72789    0.014
 6186.00    0.74873   0.72570    0.014
 6187.00    0.75411   0.72350    0.014
 6188.00    0.76014   0.72218    0.014
 6189.00    0.75433   0.72101    0.014
 6190.00    0.74001   0.72122    0.014
 6191.00    0.73873   0.72329    0.014
 6192.00    0.74567   0.72488    0.014
 6193.00    0.76121   0.72661    0.014
 6194.00    0.78150   0.72884    0.014
 6195.00    0.82679   0.73098    0.014
 6196.00    0.88407   0.73295   -2.000
 6197.00    0.93609   0.73415   -2.000
 6198.00    0.98592   0.73514   -2.000
 6199.00    0.95148   0.73672   -2.000
 6200.00    0.88716   0.73814   -2.000
 6201.00    0.77926   0.73906   -2.000
 6202.00    0.65833   0.73969   -2.000
 6203.00    0.58118   0.73978   -2.000
 6204.00    0.51492   0.73955   -2.000
 6205.00    0.55793   0.73851   -2.000
 6206.00    0.62295   0.73622   -2.000
 6207.00    0.66966   0.73323   -2.000
 6208.00    0.71348   0.72957    0.014
 6209.00    0.71795   0.72546    0.014
 6210.00    0.71781   0.72145    0.014
 6211.00    0.72923   0.71719    0.014
 6212.00    0.74156   0.71309    0.014
 6213.00    0.74345   0.71009    0.014
 6214.00    0.74488   0.70801    0.014
 6215.00    0.73802   0.70698    0.014
 6216.00    0.73111   0.70674    0.013
 6217.00    0.72618   0.70649    0.014
 6218.00    0.72108   0.70711    0.014
 6219.00    0.71287   0.70842    0.014
 6220.00    0.70367   0.70958    0.014
 6221.00    0.68364   0.71062    0.014
 6222.00    0.66478   0.71073    0.014
 6223.00    0.65502   0.71014    0.014
 6224.00    0.64711   0.70950    0.014
 6225.00    0.65003   0.70830    0.014
 6226.00    0.65388   0.70669    0.013
 6227.00    0.66209   0.70515    0.014
 6228.00    0.66472   0.70351    0.014
 6229.00    0.64615   0.70252    0.014
 6230.00    0.63691   0.70257    0.014
 6231.00    0.65721   0.70252    0.014
 6232.00    0.67789   0.70298    0.014
 6233.00    0.69958   0.70327    0.013
 6234.00    0.71141   0.70301    0.013
 6235.00    0.70055   0.70246    0.013
 6236.00    0.69135   0.70076    0.013
 6237.00    0.68545   0.69907    0.013
 6238.00    0.68596   0.69714    0.016
 6239.00    0.69758   0.69490    0.043
 6240.00    0.70709   0.69331   -1.000
 6241.00    0.71336   0.69150   -1.000
 6242.00    0.72094   0.69055   -1.000
 6243.00    0.73027   0.69048   -1.000
 6244.00    0.74212   0.69014   -1.000
 6245.00    0.75692   0.69021   -1.000
 6246.00    0.76468   0.69050   -1.000
 6247.00    0.76513   0.69043   -1.000
 6248.00    0.74941   0.69002    0.051
 6249.00    0.71891   0.68899    0.017
 6250.00    0.69847   0.68728    0.013
 6251.00    0.68613   0.68585    0.013
 6252.00    0.68643   0.68470    0.014
 6253.00    0.69570   0.68410    0.014
 6254.00    0.70190   0.68393    0.014
 6255.00    0.70619   0.68450    0.014
 6256.00    0.69648   0.68633    0.014
 6257.00    0.67916   0.68871    0.014
 6258.00    0.69179   0.69200    0.014
 6259.00    0.71857   0.69535    0.014
 6260.00    0.76278   0.69869    0.015
 6261.00    0.81409   0.70211    0.016
 6262.00    0.80792   0.70469    0.017
 6263.00    0.78174   0.70677    0.017
 6264.00    0.72960   0.70870    0.017
 6265.00    0.66985   0.71038    0.017
 6266.00    0.65304   0.71163    0.016
 6267.00    0.64667   0.71246    0.015
 6268.00    0.67710   0.71316    0.014
 6269.00    0.71475   0.71409    0.014
 6270.00    0.73584   0.71486    0.014
 6271.00    0.75439   0.71530    0.014
 6272.00    0.74406   0.71541    0.013
 6273.00    0.73048   0.71503    0.013
 6274.00    0.72149   0.71481    0.014
 6275.00    0.71284   0.71436    0.014
 6276.00    0.71531   0.71363    0.014
 6277.00    0.71823   0.71338    0.014
 6278.00    0.70910   0.71286    0.013
 6279.00    0.69935   0.71312    0.013
 6280.00    0.66815   0.71407    0.000
 6281.00    0.63892   0.71491    0.000
 6282.00    0.64310   0.71644    0.000
 6283.00    0.64969   0.71751    0.000
 6284.00    0.68167   0.71847    0.000
 6285.00    0.71124   0.71957    0.000
 6286.00    0.72279   0.71982    0.000
 6287.00    0.73344   0.71971    0.000
 6288.00    0.73898   0.71888    0.000
 6289.00    0.74454   0.71717    0.000
 6290.00    0.75018   0.71548    0.000
 6291.00    0.75374   0.71332    0.000
 6292.00    0.74959   0.71092    0.000
 6293.00    0.74539   0.70850    0.000
 6294.00    0.74100   0.70556    0.000
 6295.00    0.73451   0.70310    0.000
 6296.00    0.72244   0.70122    0.000
 6297.00    0.71401   0.69983    0.000
 6298.00    0.71381   0.69894    0.000
 6299.00    0.71228   0.69846    0.000
 6300.00    0.70813   0.69887    0.000
 6301.00    0.70510   0.70018    0.000
 6302.00    0.70399   0.70187    0.000
 6303.00    0.70178   0.70339    0.000
 6304.00    0.69793   0.70474    0.000
 6305.00    0.69161   0.70592    0.000
 6306.00    0.68203   0.70655    0.000
 6307.00    0.67714   0.70621    0.000
 6308.00    0.67767   0.70481    0.000
 6309.00    0.68676   0.70289    0.000
 6310.00    0.70458   0.70054    0.000
 6311.00    0.72034   0.69779    0.000
 6312.00    0.73422   0.69505    0.000
 6313.00    0.72112   0.69242    0.000
 6314.00    0.68656   0.69063    0.000
 6315.00    0.65458   0.68981    0.000
 6316.00    0.62440   0.68950    0.000
 6317.00    0.62069   0.69057    0.000
 6318.00    0.63321   0.69251    0.000
 6319.00    0.64925   0.69503    0.000
 6320.00    0.66716   0.69799    0.000
 6321.00    0.66814   0.70079    0.013
 6322.00    0.66125   0.70388    0.013
 6323.00    0.65563   0.70631    0.013
 6324.00    0.65052   0.70813    0.013
 6325.00    0.66207   0.70922    0.013
 6326.00    0.67931   0.70939    0.013
 6327.00    0.67103   0.70918    0.013
 6328.00    0.65542   0.70778    0.013
 6329.00    0.65424   0.70591    0.013
 6330.00    0.65648   0.70386    0.013
 6331.00    0.66382   0.70143    0.013
 6332.00    0.67215   0.69898    0.013
 6333.00    0.66361   0.69641    0.013
 6334.00    0.65257   0.69441    0.013
 6335.00    0.65776   0.69306    0.013
 6336.00    0.66472   0.69234    0.013
 6337.00    0.68145   0.69158    0.013
 6338.00    0.69887   0.69115    0.013
 6339.00    0.70366   0.69116    0.013
 6340.00    0.70800   0.69099    0.013
 6341.00    0.69930   0.69132    0.013
 6342.00    0.69064   0.69147    0.013
 6343.00    0.68510   0.69201    0.013
 6344.00    0.67969   0.69300    0.013
 6345.00    0.67649   0.69370    0.013
 6346.00    0.67338   0.69486    0.013
 6347.00    0.67106   0.69584    0.013
 6348.00    0.67184   0.69647    0.013
 6349.00    0.69497   0.69669    0.013
 6350.00    0.71643   0.69605    0.013
 6351.00    0.72862   0.69476    0.013
 6352.00    0.73263   0.69277    0.013
 6353.00    0.70044   0.69017    0.013
 6354.00    0.66805   0.68731    0.013
 6355.00    0.63493   0.68428    0.013
 6356.00    0.61118   0.68126    0.013
 6357.00    0.61599   0.67858    0.013
 6358.00    0.63069   0.67670    0.013
 6359.00    0.67105   0.67572    0.013
 6360.00    0.69695   0.67548    0.013
 6361.00    0.69062   0.67618    0.013
 6362.00    0.67703   0.67768    0.013
 6363.00    0.64942   0.67990    0.013
 6364.00    0.63941   0.68260    0.013
 6365.00    0.65902   0.68534    0.013
 6366.00    0.67603   0.68830    0.013
 6367.00    0.68919   0.69106    0.013
 6368.00    0.69827   0.69366    0.013
 6369.00    0.70205   0.69606    0.014
 6370.00    0.70040   0.69828    0.014
 6371.00    0.69254   0.70017    0.013
 6372.00    0.67401   0.70143    0.013
 6373.00    0.64471   0.70227    0.013
 6374.00    0.63399   0.70268    0.013
 6375.00    0.63978   0.70294    0.013
 6376.00    0.65240   0.70276    0.013
 6377.00    0.67036   0.70233    0.013
 6378.00    0.67268   0.70198    0.013
 6379.00    0.66421   0.70168    0.013
 6380.00    0.66275   0.70165    0.013
 6381.00    0.66553   0.70166    0.013
 6382.00    0.67271   0.70172    0.013
 6383.00    0.68221   0.70189    0.013
 6384.00    0.68017   0.70185    0.013
 6385.00    0.67285   0.70166    0.013
 6386.00    0.66928   0.70101    0.013
 6387.00    0.66720   0.70002    0.013
 6388.00    0.68713   0.69885    0.013
 6389.00    0.71444   0.69727    0.013
 6390.00    0.72886   0.69562    0.013
 6391.00    0.73965   0.69386    0.013
 6392.00    0.71946   0.69258    0.013
 6393.00    0.69207   0.69197    0.013
 6394.00    0.67485   0.69139    0.013
 6395.00    0.65951   0.69095    0.014
 6396.00    0.65224   0.69040    0.014
 6397.00    0.64613   0.69042    0.014
 6398.00    0.62943   0.69077    0.014
 6399.00    0.61163   0.69135    0.014
 6400.00    0.61753   0.69221    0.014
 6401.00    0.62502   0.69233    0.014
 6402.00    0.65257   0.69224    0.014
 6403.00    0.68078   0.69185    0.014
 6404.00    0.67946   0.69124    0.013
 6405.00    0.67803   0.69090    0.013
 6406.00    0.67337   0.68994    0.013
 6407.00    0.66978   0.68902    0.013
 6408.00    0.68230   0.68837    0.013
 6409.00    0.69384   0.68750    0.013
 6410.00    0.69588   0.68693    0.013
 6411.00    0.69759   0.68658    0.013
 6412.00    0.69693   0.68640    0.013
 6413.00    0.69539   0.68626    0.013
 6414.00    0.68910   0.68627    0.013
 6415.00    0.68365   0.68625    0.013
 6416.00    0.68188   0.68675    0.013
 6417.00    0.67934   0.68742    0.013
 6418.00    0.67406   0.68834    0.013
 6419.00    0.66635   0.69008    0.013
 6420.00    0.65136   0.69185    0.013
 6421.00    0.63716   0.69379    0.013
 6422.00    0.62496   0.69513    0.013
 6423.00    0.62108   0.69599    0.013
 6424.00    0.63544   0.69647    0.013
 6425.00    0.64668   0.69648    0.013
 6426.00    0.65196   0.69582    0.013
 6427.00    0.65162   0.69436    0.013
 6428.00    0.64194   0.69272    0.013
 6429.00    0.64287   0.69104    0.013
 6430.00    0.65921   0.68996    0.013
 6431.00    0.67513   0.68932    0.013
 6432.00    0.69049   0.68885    0.013
 6433.00    0.69743   0.68868    0.013
 6434.00    0.69488   0.68850    0.013
 6435.00    0.68502   0.68884    0.013
 6436.00    0.66791   0.68976    0.013
 6437.00    0.66501   0.69080    0.013
 6438.00    0.67456   0.69235    0.013
 6439.00    0.68813   0.69382    0.013
 6440.00    0.70480   0.69457    0.013
 6441.00    0.70587   0.69487    0.013
 6442.00    0.69635   0.69465    0.013
 6443.00    0.68904   0.69410    0.013
 6444.00    0.68304   0.69289    0.013
 6445.00    0.67266   0.69045    0.013
 6446.00    0.66002   0.68743    0.013
 6447.00    0.65285   0.68451    0.013
 6448.00    0.64814   0.68199    0.014
 6449.00    0.65022   0.68055    0.014
 6450.00    0.65492   0.67954    0.014
 6451.00    0.65423   0.67867    0.014
 6452.00    0.65178   0.67807    0.013
 6453.00    0.65481   0.67773    0.013
 6454.00    0.65935   0.67832    0.013
 6455.00    0.65213   0.67945    0.013
 6456.00    0.64225   0.68033    0.013
 6457.00    0.61156   0.68094    0.013
 6458.00    0.57711   0.68096    0.013
 6459.00    0.56695   0.68109    0.013
 6460.00    0.56017   0.68176    0.013
 6461.00    0.58219   0.68262    0.013
 6462.00    0.60709   0.68392    0.013
 6463.00    0.63279   0.68495    0.012
 6464.00    0.65854   0.68610    0.012
 6465.00    0.67566   0.68690    0.013
 6466.00    0.69247   0.68775    0.013
 6467.00    0.69124   0.68878    0.013
 6468.00    0.68996   0.68952    0.013
 6469.00    0.68728   0.69016    0.013
 6470.00    0.68489   0.69044    0.013
 6471.00    0.68637   0.69083    0.013
 6472.00    0.68765   0.69080    0.014
 6473.00    0.68694   0.69056    0.014
 6474.00    0.68663   0.69015    0.014
 6475.00    0.68906   0.68953    0.013
 6476.00    0.68937   0.68888    0.013
 6477.00    0.67860   0.68765    0.013
 6478.00    0.66715   0.68620    0.013
 6479.00    0.65286   0.68481    0.013
 6480.00    0.63789   0.68358    0.013
 6481.00    0.62054   0.68240    0.013
 6482.00    0.60638   0.68105    0.013
 6483.00    0.60157   0.67949    0.013
 6484.00    0.60109   0.67714    0.012
 6485.00    0.61143   0.67374    0.012
 6486.00    0.62381   0.66953    0.012
 6487.00    0.64060   0.66444    0.012
 6488.00    0.65086   0.65843    0.013
 6489.00    0.64891   0.65193    0.013
 6490.00    0.64090   0.64503    0.013
 6491.00    0.62301   0.63909    0.013
 6492.00    0.60836   0.63435    0.013
 6493.00    0.59835   0.63138    0.013
 6494.00    0.60168   0.63107    0.013
 6495.00    0.62184   0.63240    0.013
 6496.00    0.65070   0.63601    0.013
 6497.00    0.68925   0.64075    0.013
 6498.00    0.71132   0.64650    0.013
 6499.00    0.71726   0.65315    0.013
 6500.00    0.70382   0.65937    0.013
 6501.00    0.67365   0.66533    0.013
 6502.00    0.64760   0.67026    0.013
 6503.00    0.62469   0.67419    0.013
 6504.00    0.62051   0.67722    0.013
 6505.00    0.62885   0.67918    0.013
 6506.00    0.63308   0.68027    0.013
 6507.00    0.63492   0.68061    0.013
 6508.00    0.63767   0.68035    0.012
 6509.00    0.64090   0.67960    0.012
 6510.00    0.64037   0.67844    0.013
 6511.00    0.63817   0.67695    0.013
 6512.00    0.63866   0.67538    0.013
 6513.00    0.64016   0.67415    0.013
 6514.00    0.65119   0.67306    0.013
 6515.00    0.66531   0.67242    0.013
 6516.00    0.68020   0.67243    0.013
 6517.00    0.69531   0.67261    0.013
 6518.00    0.69172   0.67313    0.013
 6519.00    0.68399   0.67365    0.013
 6520.00    0.68725   0.67428    0.013
 6521.00    0.69245   0.67477    0.013
 6522.00    0.70107   0.67469    0.013
 6523.00    0.71015   0.67449    0.013
 6524.00    0.68839   0.67395    0.013
 6525.00    0.66369   0.67316    0.013
 6526.00    0.64733   0.67237    0.013
 6527.00    0.63146   0.67150    0.013
 6528.00    0.63817   0.67058    0.000
 6529.00    0.64546   0.66968    0.000
 6530.00    0.65695   0.66891    0.000
 6531.00    0.66759   0.66851    0.000
 6532.00    0.65679   0.66822    0.000
 6533.00    0.64644   0.66778    0.000
 6534.00    0.64193   0.66726    0.000
 6535.00    0.63982   0.66647    0.000
 6536.00    0.65906   0.66545    0.000
 6537.00    0.67644   0.66403    0.000
 6538.00    0.68156   0.66222    0.000
 6539.00    0.68325   0.65992    0.000
 6540.00    0.66733   0.65713    0.000
 6541.00    0.65330   0.65405    0.000
 6542.00    0.64708   0.65068    0.000
 6543.00    0.64844   0.64744    0.000
 6544.00    0.67570   0.64404    0.000
 6545.00    0.70350   0.64070    0.000
 6546.00    0.73281   0.63719    0.000
 6547.00    0.75144   0.63324    0.000
 6548.00    0.74382   0.62881    0.000
 6549.00    0.72686   0.62349    0.000
 6550.00    0.69007   0.61731    0.000
 6551.00    0.66303   0.61002    0.000
 6552.00    0.65393   0.60145    0.000
 6553.00    0.64616   0.59176    0.000
 6554.00    0.64051   0.58095    0.000
 6555.00    0.65233   0.56982    0.000
 6556.00    0.68881   0.55852    0.000
 6557.00    0.76631   0.54773    0.000
 6558.00    0.89477   0.53780    0.000
 6559.00    1.03768   0.53014    0.000
 6560.00    1.19639   0.52677    0.000
 6561.00    1.28179   0.52670    0.000
 6562.00    1.29636   0.53044    0.000
 6563.00    1.23520   0.53707    0.000
 6564.00    1.10953   0.54564    0.000
 6565.00    0.97582   0.55533    0.000
 6566.00    0.83609   0.56564    0.000
 6567.00    0.73724   0.57671    0.000
 6568.00    0.66534   0.58695    0.000
 6569.00    0.63487   0.59589    0.000
 6570.00    0.62830   0.60361    0.000
 6571.00    0.63145   0.61032    0.000
 6572.00    0.63949   0.61640    0.000
 6573.00    0.63842   0.62192    0.000
 6574.00    0.63339   0.62710    0.000
 6575.00    0.63911   0.63156    0.000
 6576.00    0.64883   0.63541    0.000
 6577.00    0.69917   0.63863    0.000
 6578.00    0.76236   0.64145    0.000
 6579.00    0.83528   0.64392    0.000
 6580.00    0.91076   0.64581    0.000
 6581.00    0.95220   0.64727    0.000
 6582.00    0.98628   0.64796    0.000
 6583.00    0.95322   0.64842    0.000
 6584.00    0.90863   0.64849    0.000
 6585.00    0.83759   0.64821    0.000
 6586.00    0.76312   0.64779    0.000
 6587.00    0.72023   0.64682    0.000
 6588.00    0.68023   0.64565    0.000
 6589.00    0.67527   0.64416    0.000
 6590.00    0.67224   0.64344    0.000
 6591.00    0.67350   0.64329    0.000
 6592.00    0.67493   0.64359    0.000
 6593.00    0.68374   0.64450    0.000
 6594.00    0.69176   0.64564    0.000
 6595.00    0.68160   0.64717    0.000
 6596.00    0.67095   0.64885    0.000
 6597.00    0.65421   0.65070    0.000
 6598.00    0.63885   0.65233    0.000
 6599.00    0.63526   0.65334    0.000
 6600.00    0.63503   0.65379    0.000
 6601.00    0.65625   0.65372    0.000
 6602.00    0.67497   0.65339    0.000
 6603.00    0.68127   0.65289    0.000
 6604.00    0.68162   0.65245    0.000
 6605.00    0.65797   0.65199    0.000
 6606.00    0.63459   0.65203    0.000
 6607.00    0.61212   0.65258    0.000
 6608.00    0.59851   0.65344    0.000
 6609.00    0.60996   0.65466    0.013
 6610.00    0.62400   0.65604    0.013
 6611.00    0.64431   0.65778    0.013
 6612.00    0.65857   0.65935    0.013
 6613.00    0.66017   0.66083    0.013
 6614.00    0.65641   0.66208    0.013
 6615.00    0.64293   0.66303    0.013
 6616.00    0.63448   0.66351    0.013
 6617.00    0.63399   0.66361    0.013
 6618.00    0.63617   0.66339    0.013
 6619.00    0.64206   0.66269    0.013
 6620.00    0.64849   0.66163    0.013
 6621.00    0.65560   0.66024    0.013
 6622.00    0.67058   0.65903    0.013
 6623.00    0.69407   0.65753    0.013
 6624.00    0.70634   0.65607    0.013
 6625.00    0.70793   0.65455    0.013
 6626.00    0.68288   0.65295    0.013
 6627.00    0.63545   0.65143    0.013
 6628.00    0.59612   0.64995    0.013
 6629.00    0.56278   0.64870    0.013
 6630.00    0.55695   0.64773    0.013
 6631.00    0.56898   0.64732    0.013
 6632.00    0.58815   0.64726    0.013
 6633.00    0.61138   0.64751    0.013
 6634.00    0.63734   0.64802    0.013
 6635.00    0.66465   0.64856    0.013
 6636.00    0.66833   0.64910    0.013
 6637.00    0.66189   0.64975    0.013
 6638.00    0.64099   0.65031    0.013
 6639.00    0.61479   0.65056    0.013
 6640.00    0.62569   0.65075    0.013
 6641.00    0.64811   0.65116    0.013
 6642.00    0.66079   0.65151    0.013
 6643.00    0.67095   0.65189    0.013
 6644.00    0.67472   0.65241    0.013
 6645.00    0.67714   0.65309    0.013
 6646.00    0.68258   0.65365    0.013
 6647.00    0.68853   0.65424    0.013
 6648.00    0.69617   0.65476    0.013
 6649.00    0.70401   0.65515    0.013
 6650.00    0.68336   0.65519    0.013
 6651.00    0.66022   0.65514    0.013
 6652.00    0.63457   0.65468    0.013
 6653.00    0.60880   0.65396    0.013
 6654.00    0.61977   0.65307    0.013
 6655.00    0.63151   0.65178    0.013
 6656.00    0.65179   0.65031    0.013
 6657.00    0.67041   0.64860    0.013
 6658.00    0.65399   0.64698    0.013
 6659.00    0.63776   0.64517    0.013
 6660.00    0.62373   0.64383    0.013
 6661.00    0.61135   0.64300    0.013
 6662.00    0.61253   0.64245    0.013
 6663.00    0.61670   0.64237    0.013
 6664.00    0.63942   0.64268    0.013
 6665.00    0.65877   0.64341    0.013
 6666.00    0.66180   0.64425    0.013
 6667.00    0.66267   0.64511    0.013
 6668.00    0.65497   0.64580    0.013
 6669.00    0.64578   0.64615    0.013
 6670.00    0.63166   0.64612    0.013
 6671.00    0.61386   0.64566    0.013
 6672.00    0.58582   0.64488    0.013
 6673.00    0.57253   0.64367    0.013
 6674.00    0.59428   0.64239    0.013
 6675.00    0.61446   0.64178    0.013
 6676.00    0.63142   0.64180    0.013
 6677.00    0.63675   0.64207    0.013
 6678.00    0.62131   0.64293    0.013
 6679.00    0.61470   0.64413    0.013
 6680.00    0.62189   0.64568    0.013
 6681.00    0.62745   0.64729    0.013
 6682.00    0.63079   0.64897    0.013
 6683.00    0.64144   0.65053    0.013
 6684.00    0.66094   0.65161    0.013
 6685.00    0.68001   0.65245    0.013
 6686.00    0.69862   0.65281    0.013
 6687.00    0.70937   0.65279    0.013
 6688.00    0.71272   0.65238    0.013
 6689.00    0.68853   0.65169    0.013
 6690.00    0.64153   0.65075    0.013
 6691.00    0.60453   0.64959    0.013
 6692.00    0.57482   0.64824    0.013
 6693.00    0.57225   0.64709    0.013
 6694.00    0.58704   0.64613    0.013
 6695.00    0.60746   0.64531    0.013
 6696.00    0.63103   0.64486    0.000
 6697.00    0.65501   0.64437    0.000
 6698.00    0.67920   0.64407    0.000
 6699.00    0.69388   0.64365    0.000
 6700.00    0.70456   0.64329    0.000
 6701.00    0.69982   0.64304    0.000
 6702.00    0.68952   0.64276    0.000
 6703.00    0.66439   0.64239    0.000
 6704.00    0.63476   0.64169    0.000
 6705.00    0.61429   0.64105    0.000
 6706.00    0.59613   0.63999    0.000
 6707.00    0.59372   0.63885    0.000
 6708.00    0.59455   0.63757    0.000
 6709.00    0.60321   0.63610    0.000
 6710.00    0.61313   0.63458    0.000
 6711.00    0.66537   0.63308    0.000
 6712.00    0.72272   0.63169    0.000
 6713.00    0.79118   0.63057    0.000
 6714.00    0.86057   0.62991    0.000
 6715.00    0.85936   0.63016    0.000
 6716.00    0.85481   0.63063    0.000
 6717.00    0.81507   0.63147    0.000
 6718.00    0.77453   0.63257    0.000
 6719.00    0.71696   0.63400    0.000
 6720.00    0.66065   0.63548    0.000
 6721.00    0.62889   0.63680    0.000
 6722.00    0.59842   0.63794    0.000
 6723.00    0.58293   0.63905    0.000
 6724.00    0.57350   0.63990    0.000
 6725.00    0.61227   0.64061    0.000
 6726.00    0.65241   0.64108    0.000
 6727.00    0.70075   0.64140    0.000
 6728.00    0.74321   0.64152    0.000
 6729.00    0.75775   0.64132    0.000
 6730.00    0.76411   0.64114    0.000
 6731.00    0.73884   0.64067    0.000
 6732.00    0.71182   0.64016    0.000
 6733.00    0.67912   0.63929    0.000
 6734.00    0.64381   0.63834    0.000
 6735.00    0.60139   0.63719    0.000
 6736.00    0.57097   0.63616    0.000
 6737.00    0.56856   0.63505    0.000
 6738.00    0.57351   0.63395    0.000
 6739.00    0.59332   0.63280    0.000
 6740.00    0.60710   0.63181    0.000
 6741.00    0.61024   0.63100    0.000
 6742.00    0.60548   0.63004    0.000
 6743.00    0.58857   0.62939    0.000
 6744.00    0.58190   0.62861    0.000
 6745.00    0.58908   0.62823    0.000
 6746.00    0.58714   0.62784    0.000
 6747.00    0.57436   0.62785    0.000
 6748.00    0.57081   0.62817    0.000
 6749.00    0.57696   0.62845    0.000
 6750.00    0.59847   0.62943    0.000
 6751.00    0.63420   0.63031    0.000
 6752.00    0.65254   0.63163    0.000
 6753.00    0.65669   0.63289    0.014
 6754.00    0.65002   0.63434    0.014
 6755.00    0.63559   0.63571    0.015
 6756.00    0.61727   0.63672    0.015
 6757.00    0.59648   0.63765    0.015
 6758.00    0.58214   0.63793    0.015
 6759.00    0.57134   0.63806    0.015
 6760.00    0.61525   0.63770    0.015
 6761.00    0.68539   0.63699    0.016
 6762.00    0.71408   0.63606    0.016
 6763.00    0.72561   0.63488    0.017
 6764.00    0.72682   0.63391    0.016
 6765.00    0.72437   0.63311    0.016
 6766.00    0.71178   0.63263    0.016
 6767.00    0.69615   0.63236    0.015
 6768.00    0.69449   0.63261    0.015
 6769.00    0.69630   0.63323    0.015
 6770.00    0.70406   0.63422    0.014
 6771.00    0.71301   0.63520    0.014
 6772.00    0.68784   0.63635    0.014
 6773.00    0.65731   0.63716    0.014
 6774.00    0.63559   0.63783    0.013
 6775.00    0.61491   0.63807    0.013
 6776.00    0.58990   0.63788    0.014
 6777.00    0.56454   0.63716    0.014
 6778.00    0.57623   0.63607    0.014
 6779.00    0.58953   0.63473    0.014
 6780.00    0.63012   0.63319    0.015
 6781.00    0.67047   0.63188    0.015
 6782.00    0.68689   0.63068    0.015
 6783.00    0.70179   0.62984    0.015
 6784.00    0.68931   0.62927    0.015
 6785.00    0.67487   0.62894    0.014
 6786.00    0.63911   0.62877    0.014
 6787.00    0.60841   0.62874    0.014
 6788.00    0.61669   0.62879    0.014
 6789.00    0.62191   0.62875    0.014
 6790.00    0.60925   0.62869    0.014
 6791.00    0.59926   0.62869    0.014
 6792.00    0.60161   0.62865    0.014
 6793.00    0.60765   0.62867    0.014
 6794.00    0.62763   0.62870    0.014
 6795.00    0.64311   0.62881    0.014
 6796.00    0.64440   0.62893    0.014
 6797.00    0.64458   0.62913    0.014
 6798.00    0.64179   0.62921    0.014
 6799.00    0.63291   0.62930    0.014
 6800.00    0.61004   0.62920    0.014
 6801.00    0.58908   0.62908    0.014
 6802.00    0.57189   0.62884    0.014
 6803.00    0.55867   0.62841    0.014
 6804.00    0.55232   0.62802    0.015
 6805.00    0.55386   0.62753    0.015
 6806.00    0.56737   0.62704    0.014
 6807.00    0.57272   0.62664    0.014
 6808.00    0.56721   0.62632    0.014
 6809.00    0.58528   0.62606    0.014
 6810.00    0.63103   0.62593    0.014
 6811.00    0.66131   0.62595    0.014
 6812.00    0.67560   0.62611    0.015
 6813.00    0.66800   0.62644    0.015
 6814.00    0.64044   0.62675    0.015
 6815.00    0.62118   0.62717    0.015
 6816.00    0.60860   0.62757    0.015
 6817.00    0.60187   0.62810    0.014
 6818.00    0.59927   0.62855    0.014
 6819.00    0.60050   0.62891    0.014
 6820.00    0.60410   0.62917    0.014
 6821.00    0.62153   0.62920    0.014
 6822.00    0.64646   0.62912    0.014
 6823.00    0.64120   0.62883    0.014
 6824.00    0.62171   0.62841    0.014
 6825.00    0.60768   0.62802    0.014
 6826.00    0.59586   0.62759    0.014
 6827.00    0.62838   0.62716    0.014
 6828.00    0.67628   0.62655    0.015
 6829.00    0.69126   0.62590    0.015
 6830.00    0.69660   0.62504    0.015
 6831.00    0.68843   0.62398    0.015
 6832.00    0.67699   0.62267    0.015
 6833.00    0.64988   0.62097    0.014
 6834.00    0.61972   0.61923    0.014
 6835.00    0.62935   0.61723    0.014
 6836.00    0.64505   0.61543    0.014
 6837.00    0.62364   0.61374    0.015
 6838.00    0.59806   0.61258    0.015
 6839.00    0.58895   0.61196    0.015
 6840.00    0.58106   0.61196    0.015
 6841.00    0.58382   0.61250    0.015
 6842.00    0.58700   0.61343    0.015
 6843.00    0.58752   0.61467    0.014
 6844.00    0.58940   0.61599    0.014
 6845.00    0.64604   0.61725    0.014
 6846.00    0.69837   0.61823    0.014
 6847.00    0.67781   0.61885    0.014
 6848.00    0.65772   0.61899    0.015
 6849.00    0.64247   0.61866    0.015
 6850.00    0.63038   0.61792    0.014
 6851.00    0.64176   0.61682    0.014
 6852.00    0.64832   0.61565    0.014
 6853.00    0.62759   0.61452    0.014
 6854.00    0.61043   0.61345    0.014
 6855.00    0.60938   0.61253    0.014
 6856.00    0.60994   0.61187    0.014
 6857.00    0.61649   0.61145    0.014
 6858.00    0.62147   0.61135    0.014
 6859.00    0.62156   0.61140    0.014
 6860.00    0.61826   0.61156    0.014
 6861.00    0.60601   0.61167    0.014
 6862.00    0.59947   0.61180    0.014
 6863.00    0.60582   0.61182    0.014
 6864.00    0.61830   0.61177    0.014
 6865.00    0.64275   0.61175    0.015
 6866.00    0.64451   0.61150    0.015
 6867.00    0.60756   0.61142    0.015
 6868.00    0.58613   0.61126    0.015
 6869.00    0.58789   0.61127    0.015
 6870.00    0.58010   0.61126    0.015
 6871.00    0.55978   0.61136    0.015
 6872.00    0.56377   0.61153    0.015
 6873.00    0.59589   0.61167    0.014
 6874.00    0.60301   0.61193    0.014
 6875.00    0.58462   0.61193    0.014
 6876.00    0.57696   0.61200    0.014
 6877.00    0.57894   0.61190    0.014
 6878.00    0.57076   0.61200    0.014
 6879.00    0.55453   0.61216    0.014
 6880.00    0.54391   0.61244    0.014
 6881.00    0.53721   0.61295    0.014
 6882.00    0.56118   0.61363    0.014
 6883.00    0.60391   0.61453    0.014
 6884.00    0.60786   0.61556    0.014
 6885.00    0.59107   0.61662    0.014
 6886.00    0.55248   0.61766    0.014
 6887.00    0.50377   0.61852    0.014
 6888.00    0.50768   0.61929    0.014
 6889.00    0.53262   0.61973    0.014
 6890.00    0.56245   0.62003    0.014
 6891.00    0.59393   0.62008    0.015
 6892.00    0.60301   0.62001    0.014
 6893.00    0.60567   0.61990    0.014
 6894.00    0.57859   0.61965    0.015
 6895.00    0.54446   0.61955    0.015
 6896.00    0.56144   0.61936    0.015
 6897.00    0.58816   0.61938    0.015
 6898.00    0.60990   0.61932    0.015
 6899.00    0.63091   0.61946    0.015
 6900.00    0.65200   0.61942    0.015
 6901.00    0.67311   0.61960    0.015
 6902.00    0.63786   0.61954    0.015
 6903.00    0.59862   0.61956    0.015
 6904.00    0.61026   0.61931    0.015
 6905.00    0.62372   0.61890    0.015
 6906.00    0.59602   0.61837    0.015
 6907.00    0.56861   0.61760    0.015
 6908.00    0.55622   0.61673    0.014
 6909.00    0.54374   0.61579    0.014
 6910.00    0.52985   0.61495    0.014
 6911.00    0.51673   0.61413    0.014
 6912.00    0.51145   0.61361    0.014
 6913.00    0.50894   0.61330    0.014
 6914.00    0.52639   0.61317    0.014
 6915.00    0.54460   0.61332    0.014
 6916.00    0.56706   0.61342    0.015
 6917.00    0.59204   0.61366    0.015
 6918.00    0.62812   0.61361    0.015
 6919.00    0.65703   0.61356    0.015
 6920.00    0.65991   0.61327    0.015
 6921.00    0.65159   0.61301    0.015
 6922.00    0.60920   0.61262    0.015
 6923.00    0.58336   0.61219    0.015
 6924.00    0.60031   0.61190    0.015
 6925.00    0.60366   0.61151    0.015
 6926.00    0.57681   0.61141    0.015
 6927.00    0.56234   0.61115    0.015
 6928.00    0.57176   0.61127    0.015
 6929.00    0.58151   0.61131    0.015
 6930.00    0.59184   0.61153    0.015
 6931.00    0.59898   0.61171    0.015
 6932.00    0.60141   0.61192    0.015
 6933.00    0.59864   0.61216    0.015
 6934.00    0.58915   0.61225    0.015
 6935.00    0.59304   0.61231    0.015
 6936.00    0.61218   0.61211    0.015
 6937.00    0.61942   0.61171    0.015
 6938.00    0.61468   0.61114    0.015
 6939.00    0.60218   0.61028    0.015
 6940.00    0.58279   0.60954    0.015
 6941.00    0.56025   0.60862    0.015
 6942.00    0.53524   0.60785    0.015
 6943.00    0.53897   0.60703    0.015
 6944.00    0.56245   0.60643    0.015
 6945.00    0.57237   0.60577    0.015
 6946.00    0.57411   0.60539    0.015
 6947.00    0.57340   0.60512    0.015
 6948.00    0.57139   0.60498    0.015
 6949.00    0.56729   0.60500    0.015
 6950.00    0.56222   0.60518    0.015
 6951.00    0.58169   0.60555    0.015
 6952.00    0.61081   0.60596    0.015
 6953.00    0.57317   0.60656    0.015
 6954.00    0.51320   0.60711    0.015
 6955.00    0.53756   0.60786    0.015
 6956.00    0.58561   0.60850    0.015
 6957.00    0.57196   0.60917    0.015
 6958.00    0.54403   0.60974    0.015
 6959.00    0.55836   0.61023    0.015
 6960.00    0.58053   0.61049    0.016
 6961.00    0.59413   0.61076    0.016
 6962.00    0.60650   0.61090    0.016
 6963.00    0.59025   0.61082    0.015
 6964.00    0.57105   0.61060    0.015
 6965.00    0.60416   0.61002    0.015
 6966.00    0.64075   0.60933    0.016
 6967.00    0.61333   0.60832    0.016
 6968.00    0.58384   0.60692    0.015
 6969.00    0.57488   0.60510    0.015
 6970.00    0.56670   0.60301    0.015
 6971.00    0.58216   0.60070    0.015
 6972.00    0.59526   0.59829    0.015
 6973.00    0.57309   0.59602    0.015
 6974.00    0.55194   0.59430    0.015
 6975.00    0.54058   0.59309    0.015
 6976.00    0.53451   0.59247    0.015
 6977.00    0.56512   0.59261    0.015
 6978.00    0.59320   0.59338    0.015
 6979.00    0.60776   0.59468    0.015
 6980.00    0.62798   0.59635    0.015
 6981.00    0.67255   0.59823    0.015
 6982.00    0.69713   0.60012    0.016
 6983.00    0.65072   0.60179    0.016
 6984.00    0.60920   0.60327    0.016
 6985.00    0.58225   0.60444    0.016
 6986.00    0.56767   0.60534    0.016
 6987.00    0.58449   0.60583    0.016
 6988.00    0.58729   0.60607    0.016
 6989.00    0.55940   0.60598    0.016
 6990.00    0.54571   0.60570    0.015
 6991.00    0.55894   0.60513    0.015
 6992.00    0.56544   0.60435    0.015
 6993.00    0.56081   0.60331    0.015
 6994.00    0.55664   0.60212    0.015
 6995.00    0.55311   0.60090    0.015
 6996.00    0.56769   0.59965    0.015
 6997.00    0.60539   0.59840    0.015
 6998.00    0.60951   0.59719    0.015
 6999.00    0.57586   0.59620    0.015
 7000.00    0.55651   0.59541    0.015
 7001.00    0.55136   0.59490    0.015
 7002.00    0.56221   0.59460    0.015
 7003.00    0.58706   0.59448    0.015
 7004.00    0.59035   0.59446    0.016
 7005.00    0.57702   0.59445    0.016
 7006.00    0.58026   0.59439    0.016
 7007.00    0.59474   0.59425    0.016
 7008.00    0.57751   0.59387    0.016
 7009.00    0.54147   0.59332    0.016
 7010.00    0.53637   0.59252    0.016
 7011.00    0.54728   0.59177    0.016
 7012.00    0.52757   0.59107    0.016
 7013.00    0.49410   0.59053    0.016
 7014.00    0.47825   0.59004    0.015
 7015.00    0.46919   0.58977    0.015
 7016.00    0.49150   0.58963    0.015
 7017.00    0.52410   0.58967    0.015
 7018.00    0.50480   0.58984    0.015
 7019.00    0.47121   0.59018    0.015
 7020.00    0.48641   0.59060    0.015
 7021.00    0.51263   0.59116    0.015
 7022.00    0.52833   0.59171    0.015
 7023.00    0.54213   0.59245    0.016
 7024.00    0.53767   0.59314    0.016
 7025.00    0.53069   0.59402    0.016
 7026.00    0.56111   0.59473    0.016
 7027.00    0.59524   0.59552    0.016
 7028.00    0.59887   0.59614    0.016
 7029.00    0.60058   0.59674    0.016
 7030.00    0.54994   0.59718    0.016
 7031.00    0.49815   0.59764    0.016
 7032.00    0.53616   0.59803    0.016
 7033.00    0.57354   0.59859    0.016
 7034.00    0.59329   0.59931    0.016
 7035.00    0.60838   0.60021    0.016
 7036.00    0.55789   0.60124    0.016
 7037.00    0.51452   0.60239    0.015
 7038.00    0.53675   0.60363    0.015
 7039.00    0.55241   0.60484    0.016
 7040.00    0.52377   0.60601    0.015
 7041.00    0.50301   0.60698    0.015
 7042.00    0.52346   0.60769    0.016
 7043.00    0.54412   0.60807    0.016
 7044.00    0.56560   0.60804    0.016
 7045.00    0.58233   0.60760    0.016
 7046.00    0.58253   0.60681    0.016
 7047.00    0.57870   0.60572    0.016
 7048.00    0.56308   0.60444    0.017
 7049.00    0.54780   0.60297    0.017
 7050.00    0.53340   0.60147   -2.000
 7051.00    0.53577   0.59995   -2.000
 7052.00    0.57423   0.59851   -2.000
 7053.00    0.59254   0.59727   -2.000
 7054.00    0.57321   0.59614   -2.000
 7055.00    0.57420   0.59529   -2.000
 7056.00    0.60831   0.59450   -2.000
 7057.00    0.63918   0.59394   -2.000
 7058.00    0.66543   0.59330   -2.000
 7059.00    0.65775   0.59282   -2.000
 7060.00    0.60739   0.59217   -2.000
 7061.00    0.57388   0.59169   -2.000
 7062.00    0.55903   0.59119   -2.000
 7063.00    0.56690   0.59083   -2.000
 7064.00    0.59698   0.59054   -2.000
 7065.00    0.58166   0.59043   -2.000
 7066.00    0.52719   0.59054   -2.000
 7067.00    0.52347   0.59083   -2.000
 7068.00    0.55830   0.59136   -2.000
 7069.00    0.57641   0.59202   -2.000
 7070.00    0.58335   0.59279   -2.000
 7071.00    0.62337   0.59347   -2.000
 7072.00    0.68274   0.59409   -2.000
 7073.00    0.70886   0.59441   -2.000
 7074.00    0.71801   0.59441   -2.000
 7075.00    0.67033   0.59397   -2.000
 7076.00    0.59755   0.59306   -2.000
 7077.00    0.60861   0.59170   -2.000
 7078.00    0.65146   0.59000   -2.000
 7079.00    0.60890   0.58792   -2.000
 7080.00    0.53883   0.58564   -2.000
 7081.00    0.59020   0.58325   -2.000
 7082.00    0.67427   0.58090   -2.000
 7083.00    0.65018   0.57872   -2.000
 7084.00    0.60221   0.57689   -2.000
 7085.00    0.58987   0.57531   -2.000
 7086.00    0.58380   0.57424   -2.000
 7087.00    0.55888   0.57344   -2.000
 7088.00    0.53142   0.57312   -2.000
 7089.00    0.59253   0.57305   -2.000
 7090.00    0.66206   0.57334   -2.000
 7091.00    0.58379   0.57383   -2.000
 7092.00    0.49686   0.57452   -2.000
 7093.00    0.50454   0.57531   -2.000
 7094.00    0.51464   0.57613   -2.000
 7095.00    0.53506   0.57693   -2.000
 7096.00    0.55449   0.57769   -2.000
 7097.00    0.54943   0.57830   -2.000
 7098.00    0.54435   0.57873   -2.000
 7099.00    0.53905   0.57888   -2.000
 7100.00    0.53213   0.57884   -2.000
 7101.00    0.51087   0.57851   -2.000
 7102.00    0.49520   0.57796   -2.000
 7103.00    0.51615   0.57711   -2.000
 7104.00    0.52968   0.57614   -2.000
 7105.00    0.50541   0.57502   -2.000
 7106.00    0.49363   0.57393   -2.000
 7107.00    0.53328   0.57276   -2.000
 7108.00    0.56115   0.57178   -2.000
 7109.00    0.54888   0.57080   -2.000
 7110.00    0.54011   0.57011   -2.000
 7111.00    0.54138   0.56944   -2.000
 7112.00    0.53303   0.56901   -2.000
 7113.00    0.50108   0.56861   -2.000
 7114.00    0.48795   0.56831   -2.000
 7115.00    0.51465   0.56805   -2.000
 7116.00    0.53987   0.56786   -2.000
 7117.00    0.56237   0.56764   -2.000
 7118.00    0.59506   0.56742   -2.000
 7119.00    0.64412   0.56720   -2.000
 7120.00    0.68408   0.56700   -2.000
 7121.00    0.71120   0.56677   -2.000
 7122.00    0.73402   0.56651   -2.000
 7123.00    0.75151   0.56627   -2.000
 7124.00    0.72704   0.56610   -2.000
 7125.00    0.65668   0.56601   -2.000
 7126.00    0.64172   0.56605   -2.000
 7127.00    0.68017   0.56629   -2.000
 7128.00    0.65288   0.56671   -2.000
 7129.00    0.56967   0.56741   -2.000
 7130.00    0.51627   0.56827   -2.000
 7131.00    0.48518   0.56933   -2.000
 7132.00    0.49489   0.57038   -2.000
 7133.00    0.53144   0.57151   -2.000
 7134.00    0.58528   0.57242   -2.000
 7135.00    0.64907   0.57315   -2.000
 7136.00    0.62774   0.57357   -2.000
 7137.00    0.56370   0.57367   -2.000
 7138.00    0.54066   0.57340   -2.000
 7139.00    0.53544   0.57286   -2.000
 7140.00    0.52595   0.57202   -2.000
 7141.00    0.51487   0.57109   -2.000
 7142.00    0.49068   0.57010   -2.000
 7143.00    0.46235   0.56920   -2.000
 7144.00    0.48631   0.56847   -2.000
 7145.00    0.52406   0.56803   -2.000
 7146.00    0.56372   0.56793   -2.000
 7147.00    0.60379   0.56821   -2.000
 7148.00    0.59936   0.56879   -2.000
 7149.00    0.58733   0.56970   -2.000
 7150.00    0.51505   0.57066   -2.000
 7151.00    0.43498   0.57172   -2.000
 7152.00    0.52686   0.57258   -2.000
 7153.00    0.63437   0.57330   -2.000
 7154.00    0.60257   0.57361   -2.000
 7155.00    0.56315   0.57364   -2.000
 7156.00    0.63096   0.57330   -2.000
 7157.00    0.69997   0.57276   -2.000
 7158.00    0.67348   0.57206   -2.000
 7159.00    0.64733   0.57136   -2.000
 7160.00    0.62869   0.57078   -2.000
 7161.00    0.60070   0.57045   -2.000
 7162.00    0.45504   0.57051   -2.000
 7163.00    0.34225   0.57097   -2.000
 7164.00    0.50996   0.57184   -2.000
 7165.00    0.64755   0.57300   -2.000
 7166.00    0.59427   0.57438   -2.000
 7167.00    0.55006   0.57577   -2.000
 7168.00    0.55092   0.57710   -2.000
 7169.00    0.55291   0.57810   -2.000
 7170.00    0.55944   0.57876   -2.000
 7171.00    0.55506   0.57891   -2.000
 7172.00    0.51427   0.57870   -2.000
 7173.00    0.46818   0.57804   -2.000
 7174.00    0.40713   0.57707   -2.000
 7175.00    0.40132   0.57581   -2.000
 7176.00    0.52874   0.57439   -2.000
 7177.00    0.61943   0.57283   -2.000
 7178.00    0.63361   0.57127   -2.000
 7179.00    0.62789   0.56974   -2.000
 7180.00    0.58614   0.56827   -2.000
 7181.00    0.55472   0.56690   -2.000
 7182.00    0.53963   0.56560   -2.000
 7183.00    0.50632   0.56446   -2.000
 7184.00    0.44768   0.56344   -2.000
 7185.00    0.42183   0.56272   -2.000
 7186.00    0.43605   0.56218   -2.000
 7187.00    0.44434   0.56196   -2.000
 7188.00    0.44624   0.56200   -2.000
 7189.00    0.44488   0.56234   -2.000
 7190.00    0.44042   0.56289   -2.000
 7191.00    0.45157   0.56362   -2.000
 7192.00    0.47579   0.56442   -2.000
 7193.00    0.49122   0.56525   -2.000
 7194.00    0.50016   0.56602   -2.000
 7195.00    0.54439   0.56663   -2.000
 7196.00    0.61148   0.56704   -2.000
 7197.00    0.62836   0.56719   -2.000
 7198.00    0.61676   0.56714   -2.000
 7199.00    0.57703   0.56683   -2.000
 7200.00    0.52342   0.56637   -2.000
 7201.00    0.51170   0.56575   -2.000
 7202.00    0.51788   0.56508   -2.000
 7203.00    0.52728   0.56441   -2.000
 7204.00    0.53786   0.56385   -2.000
 7205.00    0.49960   0.56347   -2.000
 7206.00    0.44623   0.56326   -2.000
 7207.00    0.47806   0.56330   -2.000
 7208.00    0.53189   0.56348   -2.000
 7209.00    0.55223   0.56381   -2.000
 7210.00    0.56554   0.56420   -2.000
 7211.00    0.49497   0.56460   -2.000
 7212.00    0.41048   0.56497   -2.000
 7213.00    0.44121   0.56525   -2.000
 7214.00    0.48634   0.56548   -2.000
 7215.00    0.50080   0.56562   -2.000
 7216.00    0.51261   0.56573   -2.000
 7217.00    0.50478   0.56583   -2.000
 7218.00    0.49596   0.56601   -2.000
