###################################################################
## OUTPUT of StarlightChains_v04.for    [Cid@UFSC - 01/Apr/2007] ##
###################################################################

## Some input info
KUG0210-078._41_42.txt                   [arq_obs]
Base.CB07.vall.4m                        [arq_base]
Masks.EmLines.NEW.gm                     [arq_masks]
StCv04.C11.config                        [arq_config]
   66                                    [N_base]
    0                                    [N_YAV_components = # of components with extra extinction!]
    0                                    [i_FitPowerLaw (1/0 = Yes/No)]
-9.99                                    [alpha_PowerLaw]
CCM                                      [red_law_option]
 1.458241                                [q_norm = A(l_norm)/A(V)]

## (Re)Sampling Parameters
 3741.00                                 [l_ini (A)]
 7218.00                                 [l_fin (A)]
    1.00                                 [dl    (A)]     (OBS: dl_cushion =    50.00 A)

## Normalization info
 4020.00                                 [l_norm (A) - for base]
 4010.00                                 [llow_norm (A) - window for f_obs]
 4060.00                                 [lupp_norm (A) - window for f_obs]
1.356635E-17                             [fobs_norm (in input units)]

## S/N
 3691.00                                 [llow_SN (A) - window for S/N]
 7268.00                                 [lupp_SN (A) - window for S/N]
   4.982                                 [S/N in S/N window]
   4.277                                 [S/N in norm. window]
   0.022                                 [S/N_err in S/N window]
   0.019                                 [S/N_err in norm. window]
  1.0000                                 [fscale_chi2]

## etc...
    -2007755                             [idum_orig]
  2432                                   [NOl_eff]
  2183                                   [Nl_eff]
   249    NSIGMA                         [Ntot_cliped & clip_method]
 11611460                                [Nglobal_steps]
   7                                     [N_chains]
  29                                     [NEX0s_base = N_base in EX0s-fits]
 0   0   1      249   2.0   9.465E+03    [Clip-Bug, RC-Crash & Burn-In warning-flags, n_censored_weights, wei_nsig_threshold & wei_limit]
    96     92.926     91.507      1.419  [idt_all, wdt_TotTime, wdt_UsrTime & wdt_SysTime (sec)]

## Synthesis Results - Best model ##

 5.92450E-06                             [chi2/Nl_eff]
     7.02133                             [adev (%)]

   113.22714                             [sum-of-x (%)]
 1.19268E-17                             [Flux_tot (units of input spectrum!)]
 3.05679E-13                             [Mini_tot (???)]
 1.66011E-13                             [Mcor_tot (???)]

-148.16                                  [v0_min  (km/s)]
 212.76                                  [vd_min  (km/s)]
-0.1884                                  [AV_min  (mag)]
 0.0000                                  [YAV_min (mag)]

# j     x_j(%)      Mini_j(%)     Mcor_j(%)     age_j(yr)     Z_j      (L/M)_j    YAV?  Mstars   component_j        a/Fe...       SSP_chi2r SSP_adev(%)   SSP_AV   SSP_x(%)
  1      0.0000     0.0000E+00    0.0000E+00    1.000000E+06  0.00400  1.094E-02    0   1.0000   age020_m42            0.0000     7.8248E-06     7.9313   3.2358   104.0047
  2      0.0000     0.0000E+00    0.0000E+00    3.160000E+06  0.00400  4.007E-02    0   0.9999   age045_m42            0.0000     7.9438E-06     7.9179   2.5780   107.8310
  3      0.0000     0.0000E+00    0.0000E+00    5.010000E+06  0.00400  2.539E-02    0   0.9488   age055_m42            0.0000     7.8245E-06     7.8669   2.8676   106.6655
  4      0.4479     5.8913E-04    1.0002E-03    6.610000E+06  0.00400  2.620E-02    0   0.9220   age061_m42            0.0000     7.9016E-06     7.8940   2.5049   108.0863
  5      0.0000     0.0000E+00    0.0000E+00    1.000000E+07  0.00400  1.322E-02    0   0.8862   age070_m42            0.0000     8.3166E-06     8.1900   2.2085   111.3832
  6      0.0000     0.0000E+00    0.0000E+00    1.445000E+07  0.00400  7.883E-03    0   0.8571   age078_m42            0.0000     8.1890E-06     8.0807   2.5182   109.3532
  7      0.0000     0.0000E+00    0.0000E+00    2.512000E+07  0.00400  5.251E-03    0   0.8174   age090_m42            0.0000     8.5412E-06     8.3425   2.0828   111.8520
  8      0.0000     0.0000E+00    0.0000E+00    4.000000E+07  0.00400  3.649E-03    0   0.7851   age104_m42            0.0000     8.4801E-06     8.3098   1.8691   112.0755
  9      0.0000     0.0000E+00    0.0000E+00    5.500000E+07  0.00400  3.098E-03    0   0.7629   age110_m42            0.0000     8.3162E-06     8.1683   2.0399   111.0943
 10      0.0000     0.0000E+00    0.0000E+00    1.015200E+08  0.00400  2.228E-03    0   0.7207   age116_m42            0.0000     8.2158E-06     8.0890   2.0710   110.6905
 11      0.0000     0.0000E+00    0.0000E+00    2.861200E+08  0.00400  1.093E-03    0   0.6648   age125_m42            0.0000     8.5367E-06     8.4018   1.5092   113.5115
 12      0.0000     0.0000E+00    0.0000E+00    5.088000E+08  0.00400  6.597E-04    0   0.6365   age130_m42            0.0000     8.1414E-06     8.1325   1.5182   113.4123
 13      0.0000     0.0000E+00    0.0000E+00    1.434000E+09  0.00400  2.132E-04    0   0.5798   age139_m42            0.0000     7.3285E-06     7.7782   0.5748   114.3072
 14      6.3639     3.7201E+00    3.6831E+00    4.250000E+09  0.00400  5.895E-05    0   0.5377   age158_m42            0.0000     6.4178E-06     7.2712   0.1256   110.2007
 15      0.0000     0.0000E+00    0.0000E+00    7.500000E+09  0.00400  3.510E-05    0   0.5212   age171_m42            0.0000     6.1974E-06     7.1561  -0.0584   109.1897
 16      6.8466     1.1767E+01    1.0907E+01    1.300000E+10  0.00400  2.005E-05    0   0.5034   age193_m42            0.0000     6.0754E-06     7.0916  -0.2212   108.3959
 17      0.0000     0.0000E+00    0.0000E+00    1.800000E+10  0.00400  1.525E-05    0   0.4967   age213_m42            0.0000     6.1301E-06     7.1118  -0.2471   108.0620
 18      0.0000     0.0000E+00    0.0000E+00    1.000000E+06  0.00800  1.238E-02    0   1.0000   age020_m52            0.0000     7.7988E-06     7.9185   3.2299   104.2987
 19      0.0000     0.0000E+00    0.0000E+00    3.160000E+06  0.00800  3.074E-02    0   0.9966   age045_m52            0.0000     7.7473E-06     7.8981   3.1592   104.9786
 20      0.0000     0.0000E+00    0.0000E+00    5.010000E+06  0.00800  2.668E-02    0   0.9443   age055_m52            0.0000     7.7259E-06     7.8219   2.9371   106.3242
 21      0.0000     0.0000E+00    0.0000E+00    6.610000E+06  0.00800  2.136E-02    0   0.9177   age061_m52            0.0000     7.6172E-06     7.8526   1.7060   112.8160
 22      0.2468     7.0003E-04    1.1378E-03    1.000000E+07  0.00800  1.215E-02    0   0.8827   age070_m52            0.0000     8.4452E-06     8.2964   2.3711   111.9963
 23      0.0000     0.0000E+00    0.0000E+00    1.445000E+07  0.00800  8.717E-03    0   0.8552   age078_m52            0.0000     8.1772E-06     8.0767   2.4894   110.6210
 24      0.0000     0.0000E+00    0.0000E+00    2.512000E+07  0.00800  5.592E-03    0   0.8162   age090_m52            0.0000     8.5940E-06     8.3887   2.1486   113.0642
 25      0.0000     0.0000E+00    0.0000E+00    4.000000E+07  0.00800  3.896E-03    0   0.7841   age104_m52            0.0000     8.5201E-06     8.3543   2.0769   113.0310
 26      0.0000     0.0000E+00    0.0000E+00    1.015200E+08  0.00800  2.148E-03    0   0.7226   age116_m52            0.0000     8.1639E-06     8.1407   2.0326   111.8867
 27      0.0000     0.0000E+00    0.0000E+00    2.861200E+08  0.00800  9.925E-04    0   0.6683   age125_m52            0.0000     8.0793E-06     8.1350   1.5840   114.4660
 28      0.0000     0.0000E+00    0.0000E+00    9.047900E+08  0.00800  3.141E-04    0   0.6138   age135_m52            0.0000     7.2867E-06     7.7704   0.8285   116.7728
 29      0.0000     0.0000E+00    0.0000E+00    1.434000E+09  0.00800  1.719E-04    0   0.5853   age139_m52            0.0000     6.7180E-06     7.5249   0.2303   115.2457
 30      4.9664     2.1740E+00    2.2417E+00    2.500000E+09  0.00800  7.872E-05    0   0.5600   age150_m52            0.0000     6.0680E-06     7.0770  -0.0320   111.8640
 31      0.0000     0.0000E+00    0.0000E+00    4.250000E+09  0.00800  4.336E-05    0   0.5426   age158_m52            0.0000     6.0255E-06     7.0549  -0.0478   110.8382
 32      1.9272     2.1023E+00    2.0590E+00    6.250000E+09  0.00800  3.159E-05    0   0.5319   age166_m52            0.0000     5.9296E-06     7.0070  -0.2396   110.2479
 33      0.0000     0.0000E+00    0.0000E+00    1.300000E+10  0.00800  1.361E-05    0   0.5073   age193_m52            0.0000     5.9972E-06     7.0846  -0.6970   108.9322
 34      0.0000     0.0000E+00    0.0000E+00    1.800000E+10  0.00800  9.886E-06    0   0.4990   age213_m52            0.0000     6.0940E-06     7.1585  -0.7976   107.9638
 35      0.0000     0.0000E+00    0.0000E+00    1.000000E+06  0.02000  1.544E-02    0   1.0000   age020_m62            0.0000     7.7786E-06     7.9103   3.2231   104.6729
 36      0.0000     0.0000E+00    0.0000E+00    3.160000E+06  0.02000  3.762E-02    0   0.9858   age045_m62            0.0000     7.7354E-06     7.8809   3.1628   105.5681
 37      0.0000     0.0000E+00    0.0000E+00    5.010000E+06  0.02000  3.296E-02    0   0.9342   age055_m62            0.0000     7.7697E-06     7.8258   2.8375   107.4820
 38      0.0000     0.0000E+00    0.0000E+00    8.710000E+06  0.02000  1.154E-02    0   0.8861   age067_m62            0.0000     1.0575E-05     9.8119   1.7658   118.5886
 39      0.0000     0.0000E+00    0.0000E+00    1.445000E+07  0.02000  7.663E-03    0   0.8472   age078_m62            0.0000     8.9755E-06     8.7125   2.0075   115.1019
 40      0.1103     8.3832E-04    1.2502E-03    2.512000E+07  0.02000  4.532E-03    0   0.8099   age090_m62            0.0000     9.2526E-06     8.9063   2.0029   114.6218
 41      0.0000     0.0000E+00    0.0000E+00    5.500000E+07  0.02000  2.733E-03    0   0.7595   age110_m62            0.0000     8.3008E-06     8.2320   2.0509   112.6648
 42      0.0000     0.0000E+00    0.0000E+00    1.609000E+08  0.02000  1.369E-03    0   0.6985   age120_m62            0.0000     8.1441E-06     8.1290   1.9262   113.7619
 43      0.0000     0.0000E+00    0.0000E+00    2.861200E+08  0.02000  9.013E-04    0   0.6714   age125_m62            0.0000     8.1121E-06     8.0898   1.7028   115.5804
 44      3.3194     2.2749E-01    2.7014E-01    5.088000E+08  0.02000  5.028E-04    0   0.6449   age130_m62            0.0000     7.6609E-06     7.8039   1.3621   116.5533
 45      0.0000     0.0000E+00    0.0000E+00    9.047900E+08  0.02000  2.428E-04    0   0.6179   age135_m62            0.0000     6.6647E-06     7.3704   0.7774   115.6812
 46      0.0000     0.0000E+00    0.0000E+00    1.434000E+09  0.02000  1.263E-04    0   0.5908   age139_m62            0.0000     6.2241E-06     7.1651   0.3260   114.3292
 47     17.6955     1.0188E+01    1.0643E+01    2.500000E+09  0.02000  5.985E-05    0   0.5673   age150_m62            0.0000     5.9426E-06     7.0133  -0.0398   112.6549
 48     28.5037     3.0028E+01    3.0233E+01    4.250000E+09  0.02000  3.271E-05    0   0.5468   age158_m62            0.0000     5.9366E-06     7.0786  -0.3363   111.1824
 49      1.9104     4.8404E+00    4.6052E+00    1.000000E+10  0.02000  1.360E-05    0   0.5167   age181_m62            0.0000     6.3072E-06     7.2947  -0.6711   109.9325
 50      0.0000     0.0000E+00    0.0000E+00    1.800000E+10  0.02000  7.124E-06    0   0.5013   age213_m62            0.0000     6.7924E-06     7.5690  -0.8749   108.6529
 51      0.0000     0.0000E+00    0.0000E+00    1.000000E+06  0.05000  2.592E-02    0   0.9998   age020_m72            0.0000     7.7599E-06     7.9081   3.2070   105.0731
 52      0.0000     0.0000E+00    0.0000E+00    3.160000E+06  0.05000  4.845E-02    0   0.9577   age045_m72            0.0000     7.7569E-06     7.8751   3.0663   105.9744
 53      0.0000     0.0000E+00    0.0000E+00    5.010000E+06  0.05000  3.072E-02    0   0.9147   age055_m72            0.0000     8.3156E-06     8.2919   2.5757   111.2527
 54      0.0000     0.0000E+00    0.0000E+00    6.610000E+06  0.05000  1.455E-02    0   0.8877   age061_m72            0.0000     1.3563E-05    11.8191   1.7672   121.3789
 55      0.0000     0.0000E+00    0.0000E+00    1.000000E+07  0.05000  9.074E-03    0   0.8524   age070_m72            0.0000     9.1398E-06     8.9820   2.7398   111.2893
 56      0.0000     0.0000E+00    0.0000E+00    2.512000E+07  0.05000  4.250E-03    0   0.7902   age090_m72            0.0000     8.9748E-06     8.7472   2.4826   111.6471
 57      0.0000     0.0000E+00    0.0000E+00    4.000000E+07  0.05000  3.087E-03    0   0.7618   age104_m72            0.0000     9.2871E-06     8.9396   2.2646   113.0531
 58      0.0000     0.0000E+00    0.0000E+00    1.015200E+08  0.05000  1.700E-03    0   0.7096   age116_m72            0.0000     8.5460E-06     8.3766   2.0568   113.8671
 59      0.0000     0.0000E+00    0.0000E+00    2.861200E+08  0.05000  7.384E-04    0   0.6633   age125_m72            0.0000     7.7935E-06     7.9192   1.5891   116.1536
 60      2.4485     2.2093E-01    2.5921E-01    5.088000E+08  0.05000  3.819E-04    0   0.6372   age130_m72            0.0000     6.9361E-06     7.4868   1.1162   116.9501
 61      7.5217     1.5465E+00    1.7399E+00    9.047900E+08  0.05000  1.676E-04    0   0.6110   age135_m72            0.0000     6.0890E-06     7.1417   0.4262   114.4810
 62      0.0000     0.0000E+00    0.0000E+00    1.434000E+09  0.05000  8.837E-05    0   0.5874   age139_m72            0.0000     5.9683E-06     7.0485  -0.0348   113.9824
 63     26.9924     2.1974E+01    2.2650E+01    2.500000E+09  0.05000  4.233E-05    0   0.5598   age150_m72            0.0000     6.0331E-06     7.1365  -0.3351   111.9957
 64      3.3104     7.9495E+00    7.6832E+00    6.250000E+09  0.05000  1.435E-05    0   0.5249   age166_m72            0.0000     6.5360E-06     7.4503  -0.7694   109.4963
 65      0.6160     3.2594E+00    3.0224E+00    1.300000E+10  0.05000  6.513E-06    0   0.5036   age193_m72            0.0000     7.3740E-06     7.7879  -1.0000   108.4935
 66      0.0000     0.0000E+00    0.0000E+00    1.800000E+10  0.05000  4.527E-06    0   0.4945   age213_m72            0.0000     8.6978E-06     8.2426  -1.0000   102.3001


## Synthesis Results - Average & Chains ##

# j      x_j: min, <> & last-chain-values for 1 ...  7 chains
  1      0.0000      6.2969      6.5062      6.4471      6.3571      6.9418      6.3499      7.7788      7.6373
  2      0.0000      0.3004      0.1752      0.0802      0.0030      0.0274      0.0741      0.0035      0.0000
  3      0.0000      0.2022      0.0000      0.0000      0.0004      0.0224      0.0000      0.0000      0.0000
  4      0.4479      0.2689      0.4351      0.0304      0.0088      0.0013      0.0000      0.0028      0.0043
  5      0.0000      0.1800      0.0000      0.0732      0.0014      0.0161      0.0143      0.0000      0.0043
  6      0.0000      0.2247      0.6089      0.0137      0.0075      0.0079      0.0000      0.0082      0.0047
  7      0.0000      0.2510      0.0000      0.0305      0.0063      0.0499      0.0000      0.0091      0.0115
  8      0.0000      0.2330      0.1726      0.0557      0.0041      0.0035      0.0123      0.0195      0.0159
  9      0.0000      0.2597      0.4572      0.0666      0.0181      0.0172      0.0482      0.0354      0.0184
 10      0.0000      0.2495      0.1736      0.0000      0.0000      0.0000      0.0000      0.0126      0.0025
 11      0.0000      0.3185      0.0000      0.0394      0.0000      0.0000      0.0000      0.0000      0.0136
 12      0.0000      0.1324      0.0000      0.0111      0.0000      0.0235      0.0038      0.0000      0.0039
 13      0.0000      0.1846      0.0000      0.0722      0.0000      0.0117      0.0000      0.0000      0.0034
 14      6.3639      0.2241      0.2575      0.0524      0.0021      0.0162      0.0125      0.0035      0.0001
 15      0.0000      0.2051      0.0000      0.0646      0.0000      0.0578      0.0739      0.0141      0.0135
 16      6.8466      0.2969      0.3807      0.0481      0.0000      0.0489      0.0417      0.0133      0.0076
 17      0.0000      0.2913      0.4315      0.0275      0.0329      0.0268      0.0000      0.0054      0.0000
 18      0.0000      0.2357      0.0646      0.0210      0.0000      0.0135      0.0353      0.0086      0.0030
 19      0.0000      0.2527      0.0443      0.1127      0.0014      0.0455      0.0106      0.0118      0.0021
 20      0.0000      0.1568      0.0000      0.0000      0.0000      0.0216      0.0053      0.0091      0.0114
 21      0.0000      0.1419      0.0016      0.0211      0.0050      0.0249      0.0118      0.0111      0.0027
 22      0.2468      0.2332      0.3878      0.0127      0.0067      0.1158      0.0000      0.0048      0.0000
 23      0.0000      0.2363      0.1826      0.0476      0.0021      0.0203      0.0328      0.0005      0.0000
 24      0.0000      0.2602      0.1218      0.0000      0.0000      0.0487      0.0107      0.0082      0.0054
 25      0.0000      0.2225      0.1398      0.0973      0.0028      0.0000      0.0000      0.0000      0.0158
 26      0.0000      0.1532      0.0175      0.0000      0.0021      0.0900      0.0125      0.0038      0.0110
 27      0.0000      0.2491      0.0000      0.0149      0.0075      0.2288      0.0338      0.0129      0.0049
 28      0.0000      0.2642      0.1052      0.0000      0.0000      0.1001      0.0000      0.0000      0.0000
 29      0.0000      0.1974      0.2798      0.0493      0.0000      0.0361      0.1099      0.0026      0.0000
 30      4.9664      0.1901      0.2267      0.0894      0.0001      0.0061      0.0677      0.0000      0.0142
 31      0.0000      0.1975      0.0000      0.0344      0.0083      0.0394      0.0267      0.0006      0.0045
 32      1.9272      0.2338      0.4734      0.0236      0.0017      0.0178      0.0952      0.0017      0.0053
 33      0.0000      0.2187      0.0000      0.0370      0.0102      0.0049      0.0170      0.0045      0.0100
 34      0.0000      0.2680      0.0554      0.0716      0.0000      0.0797      0.0029      0.0089      0.0000
 35      0.0000      0.1760      0.3735      0.0560      0.0040      0.0076      0.0469      0.0000      0.0090
 36      0.0000      0.2077      0.0000      0.0944      0.0070      0.0172      0.0225      0.0000      0.0026
 37      0.0000      0.2271      0.3001      0.0210      0.0000      0.0292      0.0442      0.0029      0.0038
 38      0.0000      0.2150      0.3503      0.0319      0.0021      0.1030      0.0253      0.0000      0.0000
 39      0.0000      0.2293      0.0000      0.0085      0.0000      0.0030      0.0000      0.0077      0.0000
 40      0.1103      0.2216      0.2906      0.0212      0.0000      0.0090      0.0267      0.0000      0.0027
 41      0.0000      0.2035      0.0391      0.0166      0.0013      0.0914      0.0000      0.0184      0.0001
 42      0.0000      0.1624      0.1361      0.0076      0.0092      0.0000      0.0236      0.0022      0.0108
 43      0.0000      5.9822      4.7863      6.4924      7.0638      6.2917      8.7147      6.7218      4.2132
 44      3.3194     17.9604     13.1095     20.3818     22.9292     19.2960     20.2617     21.7648     25.4907
 45      0.0000      0.2072      0.1093      0.0000      0.0000      0.0233      0.0000      0.0027      0.0013
 46      0.0000      0.2129      0.2016      0.1089      0.0026      0.0471      0.0018      0.0038      0.0120
 47     17.6955      0.2332      0.9946      0.1083      0.0000      0.0143      0.0505      0.0279      0.0000
 48     28.5037      0.2588      0.5908      0.0945      0.0000      0.0936      0.1248      0.0067      0.0052
 49      1.9104      0.2249      0.4458      0.0000      0.0048      0.0029      0.1449      0.0032      0.0017
 50      0.0000      0.2507      0.1308      0.0393      0.0007      0.1006      0.0037      0.0000      0.0079
 51      0.0000      0.1855      0.0000      0.0139      0.0000      0.0901      0.0569      0.0097      0.0000
 52      0.0000      0.2234      0.0958      0.0911      0.0073      0.0471      0.0015      0.0000      0.0000
 53      0.0000      0.1869      0.0440      0.0000      0.0095      0.0031      0.0191      0.0010      0.0046
 54      0.0000      0.2315      0.1990      0.0000      0.0041      0.0502      0.0075      0.0000      0.0000
 55      0.0000      0.1963      0.0000      0.0000      0.0028      0.0439      0.0082      0.0036      0.0118
 56      0.0000      0.1792      0.0136      0.0000      0.0000      0.0199      0.0000      0.0049      0.0048
 57      0.0000      0.1823      0.0000      0.0834      0.0008      0.0351      0.0184      0.0022      0.0065
 58      0.0000      0.2777      0.1619      0.0026      0.0044      0.0733      0.0000      0.0000      0.0010
 59      0.0000     13.2340     16.4746     14.5160     13.0239     14.5790     12.6509     11.1524     11.1445
 60      2.4485      0.2183      0.3059      0.0114      0.0011      0.0961      0.0000      0.0033      0.0011
 61      7.5217      0.2187      0.5169      0.0193      0.0048      0.1460      0.0000      0.0006      0.0000
 62      0.0000      0.1846      0.0554      0.0119      0.0003      0.0465      0.0702      0.0067      0.0060
 63     26.9924      0.3208      0.3947      0.0076      0.0000      0.0111      0.0533      0.0068      0.0018
 64      3.3104      0.1814      0.4191      0.0138      0.0073      0.0061      0.0000      0.0000      0.0193
 65      0.6160      7.8814      7.4013      7.4223      7.6950      6.9989      8.3876      8.8205     12.4732
 66      0.0000     42.7756     47.8071     50.0941     50.1649     50.9498     49.5809     50.8517     46.1711

# j      m_j: min, <> & last-chain-values for 1 ...  7 chains
  1  0.0000E+00  1.0612E-02  1.0012E-02  9.6487E-03  9.4890E-03  1.0286E-02  9.4775E-03  1.1318E-02  1.1526E-02
  2  0.0000E+00  1.3820E-04  7.3591E-05  3.2754E-05  1.2202E-06  1.1082E-05  3.0187E-05  1.3956E-06  0.0000E+00
  3  0.0000E+00  1.3931E-04  0.0000E+00  0.0000E+00  2.4391E-07  1.3574E-05  0.0000E+00  0.0000E+00  0.0000E+00
  4  1.0002E-03  1.7445E-04  2.5773E-04  1.7516E-05  5.0722E-06  7.1401E-07  0.0000E+00  1.5512E-06  2.4862E-06
  5  0.0000E+00  2.2241E-04  0.0000E+00  8.0378E-05  1.5734E-06  1.7486E-05  1.5649E-05  0.0000E+00  4.7152E-06
  6  0.0000E+00  4.5044E-04  1.1145E-03  2.4445E-05  1.3366E-05  1.4011E-05  0.0000E+00  1.4199E-05  8.5254E-06
  7  0.0000E+00  7.2022E-04  0.0000E+00  7.7678E-05  1.5935E-05  1.2586E-04  0.0000E+00  2.2440E-05  2.9633E-05
  8  0.0000E+00  9.2414E-04  6.2501E-04  1.9631E-04  1.4330E-05  1.2235E-05  4.3095E-05  6.6616E-05  5.6584E-05
  9  0.0000E+00  1.1790E-03  1.8953E-03  2.6865E-04  7.2660E-05  6.8696E-05  1.9384E-04  1.3876E-04  7.4623E-05
 10  0.0000E+00  1.4879E-03  9.4536E-04  0.0000E+00  0.0000E+00  0.0000E+00  0.0000E+00  6.4930E-05  1.3242E-05
 11  0.0000E+00  3.5712E-03  0.0000E+00  3.9193E-04  0.0000E+00  0.0000E+00  0.0000E+00  0.0000E+00  1.3653E-04
 12  0.0000E+00  2.3550E-03  0.0000E+00  1.7580E-04  0.0000E+00  3.6829E-04  5.9531E-05  0.0000E+00  6.1506E-05
 13  0.0000E+00  9.2536E-03  0.0000E+00  3.2141E-03  0.0000E+00  5.1471E-04  0.0000E+00  0.0000E+00  1.5290E-04
 14  3.6831E+00  3.7692E-02  3.9535E-02  7.8231E-03  3.1856E-04  2.3934E-03  1.8650E-03  5.1126E-04  1.8117E-05
 15  0.0000E+00  5.6140E-02  0.0000E+00  1.5704E-02  0.0000E+00  1.3914E-02  1.7923E-02  3.3260E-03  3.3078E-03
 16  1.0907E+01  1.3743E-01  1.6089E-01  1.9783E-02  0.0000E+00  1.9909E-02  1.7103E-02  5.3235E-03  3.1470E-03
 17  0.0000E+00  1.7490E-01  2.3657E-01  1.4675E-02  1.7492E-02  1.4136E-02  0.0000E+00  2.7834E-03  0.0000E+00
 18  0.0000E+00  3.5103E-04  8.7819E-05  2.7748E-05  0.0000E+00  1.7680E-05  4.6534E-05  1.1098E-05  4.0447E-06
 19  0.0000E+00  1.5104E-04  2.4164E-05  5.9837E-05  7.5744E-07  2.3936E-05  5.6201E-06  6.0678E-06  1.1203E-06
 20  0.0000E+00  1.0232E-04  0.0000E+00  0.0000E+00  0.0000E+00  1.2389E-05  3.0717E-06  5.1299E-06  6.6890E-06
 21  0.0000E+00  1.1243E-04  1.1296E-06  1.4863E-05  3.5324E-06  1.7327E-05  8.2816E-06  7.6160E-06  1.8930E-06
 22  1.1378E-03  3.1233E-04  4.7429E-04  1.5147E-05  7.9262E-06  1.3642E-04  0.0000E+00  5.5560E-06  0.0000E+00
 23  0.0000E+00  4.2737E-04  3.0157E-04  7.6426E-05  3.4019E-06  3.2226E-05  5.2490E-05  7.2489E-07  0.0000E+00
 24  0.0000E+00  7.0028E-04  2.9939E-04  0.0000E+00  0.0000E+00  1.1521E-04  2.5564E-05  1.9034E-05  1.3059E-05
 25  0.0000E+00  8.2572E-04  4.7376E-04  3.2050E-04  9.2479E-06  0.0000E+00  0.0000E+00  0.0000E+00  5.2578E-05
 26  0.0000E+00  9.5029E-04  9.9032E-05  0.0000E+00  1.1703E-05  4.9065E-04  6.8692E-05  2.0583E-05  6.1264E-05
 27  0.0000E+00  3.0919E-03  0.0000E+00  1.6418E-04  8.2841E-05  2.4971E-03  3.7176E-04  1.3847E-04  5.4613E-05
 28  0.0000E+00  9.5179E-03  3.4619E-03  0.0000E+00  0.0000E+00  3.1716E-03  0.0000E+00  0.0000E+00  0.0000E+00
 29  0.0000E+00  1.2390E-02  1.6038E-02  2.7494E-03  0.0000E+00  1.9920E-03  6.1093E-03  1.4033E-04  0.0000E+00
 30  2.2417E+00  2.4936E-02  2.7147E-02  1.0410E-02  1.6845E-05  7.0484E-04  7.8657E-03  0.0000E+00  1.6718E-03
 31  0.0000E+00  4.5569E-02  0.0000E+00  7.0555E-03  1.6990E-03  7.9841E-03  5.4516E-03  1.0960E-04  9.3893E-04
 32  2.0590E+00  7.2590E-02  1.3419E-01  6.5151E-03  4.6687E-04  4.8516E-03  2.6175E-02  4.6262E-04  1.4781E-03
 33  0.0000E+00  1.5027E-01  0.0000E+00  2.2565E-02  6.2080E-03  2.9661E-03  1.0377E-02  2.6978E-03  6.1317E-03
 34  0.0000E+00  2.4944E-01  4.7055E-02  5.9211E-02  0.0000E+00  6.5201E-02  2.4127E-03  7.1356E-03  0.0000E+00
 35  0.0000E+00  2.1011E-04  4.0727E-04  5.9376E-05  4.1956E-06  7.9784E-06  4.9605E-05  0.0000E+00  9.6066E-06
 36  0.0000E+00  1.0034E-04  0.0000E+00  4.0508E-05  2.9754E-06  7.2970E-06  9.6301E-06  0.0000E+00  1.1097E-06
 37  0.0000E+00  1.1867E-04  1.4318E-04  9.7670E-06  0.0000E+00  1.3416E-05  2.0455E-05  1.3067E-06  1.7995E-06
 38  0.0000E+00  3.0434E-04  4.5275E-04  4.0047E-05  2.5713E-06  1.2817E-04  3.1753E-05  0.0000E+00  0.0000E+00
 39  0.0000E+00  4.6730E-04  0.0000E+00  1.5465E-05  0.0000E+00  5.3780E-06  0.0000E+00  1.3623E-05  0.0000E+00
 40  1.2502E-03  7.3004E-04  8.7433E-04  6.1914E-05  0.0000E+00  2.5967E-05  7.7867E-05  0.0000E+00  8.0694E-06
 41  0.0000E+00  1.0424E-03  1.8302E-04  7.5718E-05  5.8864E-06  4.1171E-04  0.0000E+00  8.1526E-05  3.8798E-07
 42  0.0000E+00  1.5278E-03  1.1687E-03  6.3588E-05  7.6358E-05  0.0000E+00  1.9702E-04  1.7962E-05  9.1357E-05
 43  0.0000E+00  8.2158E-02  6.0021E-02  7.9185E-02  8.5927E-02  7.5972E-02  1.0600E-01  7.9701E-02  5.1815E-02
 44  2.7014E-01  4.2471E-01  2.8306E-01  4.2802E-01  4.8025E-01  4.0118E-01  4.2434E-01  4.4434E-01  5.3978E-01
 45  0.0000E+00  9.7225E-03  4.6814E-03  0.0000E+00  0.0000E+00  9.6118E-04  0.0000E+00  1.0783E-04  5.2708E-05
 46  0.0000E+00  1.8364E-02  1.5873E-02  8.3389E-03  2.0173E-04  3.5682E-03  1.3670E-04  2.8016E-04  9.2967E-04
 47  1.0643E+01  4.0754E-02  1.5870E-01  1.6810E-02  0.0000E+00  2.2042E-03  7.8152E-03  4.2038E-03  0.0000E+00
 48  3.0233E+01  7.9755E-02  1.6626E-01  2.5858E-02  0.0000E+00  2.5372E-02  3.4077E-02  1.7935E-03  1.4484E-03
 49  4.6052E+00  1.5750E-01  2.8509E-01  0.0000E+00  2.9508E-03  1.7684E-03  8.9898E-02  1.9259E-03  1.0905E-03
 50  0.0000E+00  3.2520E-01  1.5497E-01  4.5295E-02  7.6001E-04  1.1470E-01  4.2478E-03  0.0000E+00  9.2127E-03
 51  0.0000E+00  1.3190E-04  0.0000E+00  8.8086E-06  0.0000E+00  5.6343E-05  3.5843E-05  5.9680E-06  0.0000E+00
 52  0.0000E+00  8.1430E-05  3.1881E-05  2.9486E-05  2.3591E-06  1.5091E-05  4.9762E-07  0.0000E+00  0.0000E+00
 53  0.0000E+00  1.0261E-04  2.2060E-05  0.0000E+00  4.6252E-06  1.4964E-06  9.2886E-06  4.6475E-07  2.2851E-06
 54  0.0000E+00  2.6034E-04  2.0440E-04  0.0000E+00  4.0418E-06  4.9653E-05  7.4596E-06  0.0000E+00  0.0000E+00
 55  0.0000E+00  3.4004E-04  0.0000E+00  0.0000E+00  4.3233E-06  6.6824E-05  1.2535E-05  5.3409E-06  1.8235E-05
 56  0.0000E+00  6.1428E-04  4.2570E-05  0.0000E+00  0.0000E+00  5.9842E-05  0.0000E+00  1.4554E-05  1.4640E-05
 57  0.0000E+00  8.2918E-04  0.0000E+00  3.3678E-04  3.2324E-06  1.4028E-04  7.4141E-05  8.8376E-06  2.6443E-05
 58  0.0000E+00  2.1367E-03  1.1375E-03  1.7835E-05  3.0194E-05  4.9582E-04  0.0000E+00  0.0000E+00  6.7756E-06
 59  0.0000E+00  2.1917E-01  2.4913E-01  2.1350E-01  1.9105E-01  2.1229E-01  1.8556E-01  1.5946E-01  1.6528E-01
 60  2.5921E-01  6.7146E-03  8.5915E-03  3.1143E-04  3.1056E-05  2.5989E-03  0.0000E+00  8.6370E-05  3.1430E-05
 61  1.7399E+00  1.4696E-02  3.1724E-02  1.1497E-03  2.8831E-04  8.6275E-03  0.0000E+00  3.7216E-05  0.0000E+00
 62  0.0000E+00  2.2618E-02  6.2042E-03  1.2992E-03  3.3990E-05  5.0081E-03  7.6226E-03  7.0652E-04  6.5341E-04
 63  2.2650E+01  7.8204E-02  8.7867E-02  1.6351E-03  0.0000E+00  2.3828E-03  1.1516E-02  1.4221E-03  4.0164E-04
 64  7.6832E+00  1.2234E-01  2.5808E-01  8.2859E-03  4.3446E-03  3.6428E-03  0.0000E+00  0.0000E+00  1.1645E-02
 65  3.0224E+00  1.1235E+01  9.6339E+00  9.3966E+00  9.7162E+00  8.7722E+00  1.0590E+01  1.0856E+01  1.5923E+01
 66  0.0000E+00  8.6145E+01  8.7910E+01  8.9592E+01  8.9482E+01  9.0214E+01  8.8433E+01  8.8416E+01  8.3266E+01

# AV, chi2 & Mass for <> & i_chain = 1 ...  7 solutions
AV      -0.1884     -0.2309     -0.2211     -0.2322     -0.2333     -0.2393     -0.2397     -0.2658     -0.2391
chi2 5.9245E-06  8.6285E-06  7.2493E-06  7.2839E-06  7.3003E-06  7.2884E-06  7.2828E-06  7.2704E-06  7.2694E-06
Mass 1.6601E-13  5.3965E-13  5.9882E-13  6.0655E-13  6.0726E-13  6.0687E-13  6.0215E-13  5.9645E-13  5.9600E-13
-148.16                                  [v0_min (km/s) before EX0s...]
 212.76                                  [vd_min (km/s) before EX0s...]


## Synthetic spectrum (Best Model) ##l_obs f_obs f_syn wei
 3478    [Nl_obs]
 3741.00    0.50016   0.56861    0.000
 3742.00    0.47899   0.54422    0.000
 3743.00    0.35259   0.51577    0.000
 3744.00    0.31064   0.48803    0.000
 3745.00    0.31788   0.46627   -1.000
 3746.00    0.51112   0.45610   -1.000
 3747.00    0.79882   0.46131   -1.000
 3748.00    0.74571   0.48254   -1.000
 3749.00    0.54274   0.51701   -1.000
 3750.00    0.60167   0.55886   -1.000
 3751.00    0.75948   0.59957   -1.000
 3752.00    0.79452   0.63026   -1.000
 3753.00    0.79021   0.64500   -1.000
 3754.00    0.73766   0.64376   -1.000
 3755.00    0.67219   0.63202   -1.000
 3756.00    0.93000   0.61704   -1.000
 3757.00    1.25877   0.60488   -1.000
 3758.00    1.07475   0.59878   -1.000
 3759.00    0.80122   0.59847   -1.000
 3760.00    0.60700   0.60172   -1.000
 3761.00    0.42332   0.60565   -1.000
 3762.00    0.49533   0.60721   -1.000
 3763.00    0.59138   0.60565   -1.000
 3764.00    0.50494   0.60274   -1.000
 3765.00    0.40797   0.60019   -1.000
 3766.00    0.30298   0.59964   -1.000
 3767.00    0.19997   0.60362   -1.000
 3768.00    0.36069   0.61377   -1.000
 3769.00    0.52220   0.62924   -1.000
 3770.00    0.70272   0.64786   -1.000
 3771.00    0.88485   0.66749   -1.000
 3772.00    1.08795   0.68666   -1.000
 3773.00    1.26364   0.70474   -1.000
 3774.00    1.19876   0.72192   -1.000
 3775.00    1.12120   0.73914   -1.000
 3776.00    0.96142   0.75677   -1.000
 3777.00    0.82241   0.77370   -1.000
 3778.00    0.78862   0.78807   -1.000
 3779.00    0.71335   0.79802   -1.000
 3780.00    0.46835   0.80141   -1.000
 3781.00    0.29912   0.79568   -1.000
 3782.00    0.38690   0.77963   -1.000
 3783.00    0.45541   0.75534   -1.000
 3784.00    0.46881   0.72677   -1.000
 3785.00    0.48763   0.69812   -1.000
 3786.00    0.51969   0.67323   -1.000
 3787.00    0.55080   0.65432   -1.000
 3788.00    0.57991   0.64044   -1.000
 3789.00    0.54019   0.62842   -1.000
 3790.00    0.37442   0.61520   -1.000
 3791.00    0.28731   0.59937   -1.000
 3792.00    0.32609   0.58126   -1.000
 3793.00    0.38247   0.56260   -1.000
 3794.00    0.46357   0.54684   -1.000
 3795.00    0.50602   0.53892   -1.000
 3796.00    0.50070   0.54311   -1.000
 3797.00    0.39224   0.56044   -1.000
 3798.00    0.17142   0.58867   -1.000
 3799.00    0.06083   0.62339   -1.000
 3800.00    0.05619   0.65886   -1.000
 3801.00    0.09421   0.68946   -1.000
 3802.00    0.16839   0.71174   -1.000
 3803.00    0.23298   0.72573   -1.000
 3804.00    0.29041   0.73440   -1.000
 3805.00    0.41101   0.74121   -1.000
 3806.00    0.57300   0.74724   -1.000
 3807.00    0.63293   0.75086   -1.000
 3808.00    0.63429   0.74901   -1.000
 3809.00    0.63699   0.73905   -1.000
 3810.00    0.64035   0.72091   -1.000
 3811.00    0.64732   0.69757   -1.000
 3812.00    0.65584   0.67357   -1.000
 3813.00    0.70133   0.65325   -1.000
 3814.00    0.76053   0.63841   -1.000
 3815.00    0.70352   0.62709   -1.000
 3816.00    0.60998   0.61650   -1.000
 3817.00    0.49046   0.60601   -1.000
 3818.00    0.36412   0.59652   -1.000
 3819.00    0.44440   0.58752   -1.000
 3820.00    0.56896   0.57666   -1.000
 3821.00    0.56533   0.56267   -1.000
 3822.00    0.53996   0.54676   -1.000
 3823.00    0.50414   0.53093   -1.000
 3824.00    0.46698   0.51672   -1.000
 3825.00    0.31755   0.50485   -1.000
 3826.00    0.15803   0.49504   -1.000
 3827.00    0.29424   0.48570   -1.000
 3828.00    0.44635   0.47454   -1.000
 3829.00    0.43285   0.46076   -1.000
 3830.00    0.41443   0.44621   -1.000
 3831.00    0.26083   0.43358   -1.000
 3832.00    0.12323   0.42526   -1.000
 3833.00    0.34105   0.42250   -1.000
 3834.00    0.54240   0.42510   -1.000
 3835.00    0.53903   0.43294   -1.000
 3836.00    0.51341   0.44683   -1.000
 3837.00    0.29983   0.46741   -1.000
 3838.00    0.13516   0.49496   -1.000
 3839.00    0.27821   0.52820   -1.000
 3840.00    0.39296   0.56344   -1.000
 3841.00    0.36803   0.59686   -1.000
 3842.00    0.35194   0.62564   -1.000
 3843.00    0.37128   0.64834   -1.000
 3844.00    0.39208   0.66501   -1.000
 3845.00    0.41773   0.67558   -1.000
 3846.00    0.45381   0.68050   -1.000
 3847.00    0.51915   0.68246    0.000
 3848.00    0.55189   0.68422    0.000
 3849.00    0.50633   0.68549    0.000
 3850.00    0.43947   0.68431    0.000
 3851.00    0.32845   0.67986    0.000
 3852.00    0.29181   0.67184    0.000
 3853.00    0.38929   0.66086    0.000
 3854.00    0.42751   0.64876    0.000
 3855.00    0.37229   0.63686    0.000
 3856.00    0.30985   0.62775    0.000
 3857.00    0.23741   0.62581    0.000
 3858.00    0.24663   0.63343    0.000
 3859.00    0.35534   0.64882    0.000
 3860.00    0.45427   0.66736    0.000
 3861.00    0.54270   0.68424    0.000
 3862.00    0.60123   0.69629    0.000
 3863.00    0.63145   0.70227    0.000
 3864.00    0.62168   0.70217    0.000
 3865.00    0.57850   0.69652    0.000
 3866.00    0.71346   0.68635    0.000
 3867.00    0.97943   0.67323    0.000
 3868.00    1.01390   0.65983    0.000
 3869.00    0.89886   0.64946    0.000
 3870.00    0.84092   0.64522    0.000
 3871.00    0.81527   0.64763    0.000
 3872.00    0.76523   0.65342    0.000
 3873.00    0.70319   0.65776    0.000
 3874.00    0.69525   0.65734    0.000
 3875.00    0.71032   0.65213    0.000
 3876.00    0.74389   0.64524    0.000
 3877.00    0.78420   0.63856    0.000
 3878.00    0.85942   0.63112    0.000
 3879.00    0.94539   0.62277    0.000
 3880.00    0.83011   0.61450    0.000
 3881.00    0.66316   0.60542   -1.000
 3882.00    0.56349   0.59301   -1.000
 3883.00    0.47788   0.57781   -1.000
 3884.00    0.33660   0.56421   -1.000
 3885.00    0.18614   0.55639   -1.000
 3886.00    0.26229   0.55739   -1.000
 3887.00    0.36650   0.56943   -1.000
 3888.00    0.43311   0.59153   -1.000
 3889.00    0.49650   0.61926   -1.000
 3890.00    0.41211   0.64733   -1.000
 3891.00    0.32035   0.67192   -1.000
 3892.00    0.24143   0.69154   -1.000
 3893.00    0.16347   0.70702   -1.000
 3894.00    0.13389   0.71948   -1.000
 3895.00    0.11295   0.72880   -1.000
 3896.00    0.26863   0.73539   -1.000
 3897.00    0.41838   0.74068   -1.000
 3898.00    0.49811   0.74519   -1.000
 3899.00    0.56631   0.74737   -1.000
 3900.00    0.54068   0.74643   -1.000
 3901.00    0.52793   0.74428   -1.000
 3902.00    0.59392   0.74314   -1.000
 3903.00    0.64867   0.74571   -1.000
 3904.00    0.64938   0.75516   -1.000
 3905.00    0.67390   0.77171   -1.000
 3906.00    0.79166   0.79220   -1.000
 3907.00    0.85173   0.81280   -1.000
 3908.00    0.72375   0.83065   -1.000
 3909.00    0.62916   0.84355   -1.000
 3910.00    0.62663   0.84967   -1.000
 3911.00    0.68327   0.84878   -1.000
 3912.00    0.87962   0.84206   -1.000
 3913.00    1.03723   0.83046   -1.000
 3914.00    1.11578   0.81506   -1.000
 3915.00    1.05014   0.79723   -1.000
 3916.00    0.72838   0.77788   -1.000
 3917.00    0.62516   0.75815   -1.000
 3918.00    0.86151   0.73985   -1.000
 3919.00    0.96118   0.72421   -1.000
 3920.00    0.87435   0.71038   -1.000
 3921.00    0.78343   0.69550   -1.000
 3922.00    0.68760   0.67564   -1.000
 3923.00    0.64205   0.64760   -1.000
 3924.00    0.64977   0.61025   -1.000
 3925.00    0.71505   0.56429   -1.000
 3926.00    0.83412   0.51220   -1.000
 3927.00    0.75743   0.45796   -1.000
 3928.00    0.51954   0.40596   -1.000
 3929.00    0.44826   0.36077   -1.000
 3930.00    0.49778   0.32700   -1.000
 3931.00    0.46188   0.30881   -1.000
 3932.00    0.37164   0.30888   -1.000
 3933.00    0.40699   0.32726   -1.000
 3934.00    0.51225   0.36113   -1.000
 3935.00    0.57871   0.40566   -1.000
 3936.00    0.62639   0.45521   -1.000
 3937.00    0.70695   0.50423   -1.000
 3938.00    0.80125   0.54824   -1.000
 3939.00    0.84758   0.58535   -1.000
 3940.00    0.87675   0.61619   -1.000
 3941.00    0.87939   0.64298   -1.000
 3942.00    0.87402   0.66899   -1.000
 3943.00    0.77292   0.69606   -1.000
 3944.00    0.64777   0.72223   -1.000
 3945.00    0.72382   0.74511   -1.000
 3946.00    0.84090   0.76513   -1.000
 3947.00    0.95636   0.78326   -1.000
 3948.00    1.07157   0.79835   -1.000
 3949.00    1.00753   0.80857   -1.000
 3950.00    0.92210   0.81423   -1.000
 3951.00    0.88721   0.81737   -1.000
 3952.00    0.85644   0.81755   -1.000
 3953.00    0.85783   0.81211   -1.000
 3954.00    0.86071   0.80095   -1.000
 3955.00    0.66041   0.78563   -1.000
 3956.00    0.46158   0.76514   -1.000
 3957.00    0.47427   0.73633   -1.000
 3958.00    0.49320   0.69726   -1.000
 3959.00    0.63001   0.64976   -1.000
 3960.00    0.74951   0.59812    0.000
 3961.00    0.67393   0.54498    0.000
 3962.00    0.62525   0.49117    0.000
 3963.00    0.78804   0.43856    0.000
 3964.00    0.87944   0.39105    0.000
 3965.00    0.54723   0.35388    0.000
 3966.00    0.26957   0.33221    0.000
 3967.00    0.24803   0.32960    0.000
 3968.00    0.29051   0.34679    0.000
 3969.00    0.57835   0.38144    0.000
 3970.00    0.72785   0.42923    0.000
 3971.00    0.43519   0.48546    0.000
 3972.00    0.28273   0.54604    0.000
 3973.00    0.50996   0.60716    0.000
 3974.00    0.65294   0.66540    0.000
 3975.00    0.60027   0.71881    0.000
 3976.00    0.61249   0.76608    0.000
 3977.00    0.75506   0.80555    0.000
 3978.00    0.84187   0.83584    0.000
 3979.00    0.83116   0.85711    0.000
 3980.00    0.82402   0.87215    0.000
 3981.00    0.82238   0.88459   -1.000
 3982.00    0.93481   0.89667   -1.000
 3983.00    1.20064   0.90914   -1.000
 3984.00    1.31102   0.92191   -1.000
 3985.00    1.23730   0.93511   -1.000
 3986.00    1.14595   0.94805   -1.000
 3987.00    1.03620   0.95853   -1.000
 3988.00    0.94646   0.96671   -1.000
 3989.00    0.87513   0.97363   -1.000
 3990.00    0.68724   0.97822   -1.000
 3991.00    0.40472   0.97931   -1.000
 3992.00    0.43502   0.97714   -1.000
 3993.00    0.68884   0.97377   -1.000
 3994.00    0.93512   0.97174   -1.000
 3995.00    1.17668   0.97344   -1.000
 3996.00    1.13987   0.98084   -1.000
 3997.00    0.95050   0.99281   -1.000
 3998.00    0.90446   1.00428   -1.000
 3999.00    0.92671   1.01110   -1.000
 4000.00    0.83132   1.01256   -1.000
 4001.00    0.68759   1.00827   -1.000
 4002.00    0.74250   0.99848   -1.000
 4003.00    0.86719   0.98819   -1.000
 4004.00    0.94884   0.98529   -1.000
 4005.00    1.01774   0.99195   -1.000
 4006.00    0.88720   1.00437   -1.000
 4007.00    0.70766   1.01868   -1.000
 4008.00    0.90560   1.03301   -1.000
 4009.00    1.17859   1.04607   -1.000
 4010.00    1.13283   1.05681   -1.000
 4011.00    1.03755   1.06536   -1.000
 4012.00    1.09238   1.07212   -1.000
 4013.00    1.16446   1.07770   -1.000
 4014.00    1.27670   1.08160   -1.000
 4015.00    1.39204   1.08369   -1.000
 4016.00    1.40665   1.08614   -1.000
 4017.00    1.41703   1.08900   -1.000
 4018.00    1.20324   1.08941   -1.000
 4019.00    0.98788   1.08719   -1.000
 4020.00    0.79304   1.08448   -1.000
 4021.00    0.61661   1.08213   -1.000
 4022.00    0.76468   1.07999   -1.000
 4023.00    0.90324   1.07885   -1.000
 4024.00    0.93951   1.07775   -1.000
 4025.00    1.00822   1.07251   -1.000
 4026.00    1.32331   1.05994   -1.000
 4027.00    1.51475   1.03939   -1.000
 4028.00    0.99304   1.01372   -1.000
 4029.00    0.53589   0.99106   -1.000
 4030.00    0.37459   0.97827   -1.000
 4031.00    0.31900   0.97742   -1.000
 4032.00    0.65987   0.98916   -1.000
 4033.00    0.94442   1.01144   -1.000
 4034.00    1.05234   1.03928   -1.000
 4035.00    1.14274   1.06572   -1.000
 4036.00    1.18651   1.08384   -1.000
 4037.00    1.17413   1.08989   -1.000
 4038.00    1.03353   1.08381   -1.000
 4039.00    0.96253   1.06865   -1.000
 4040.00    1.02909   1.04797   -1.000
 4041.00    1.04183   1.02289   -1.000
 4042.00    0.96186   0.99639   -1.000
 4043.00    0.84536   0.97698    0.138
 4044.00    0.67376   0.97389    0.039
 4045.00    0.64653   0.98826    0.028
 4046.00    0.81068   1.01057    0.028
 4047.00    0.97649   1.03197    0.028
 4048.00    1.14424   1.04876    0.028
 4049.00    1.17159   1.05745    0.028
 4050.00    1.05439   1.05638    0.028
 4051.00    1.01298   1.04801    0.028
 4052.00    1.04038   1.03571    0.028
 4053.00    1.03379   1.02302    0.028
 4054.00    1.00000   1.01251    0.028
 4055.00    0.90225   1.00379    0.027
 4056.00    0.75946   0.99735    0.027
 4057.00    0.77555   0.99416    0.027
 4058.00    0.88977   0.99140    0.027
 4059.00    0.93641   0.98499    0.027
 4060.00    0.94657   0.97416    0.027
 4061.00    0.83082   0.96357    0.027
 4062.00    0.65605   0.96094    0.027
 4063.00    0.69827   0.96806    0.027
 4064.00    0.82815   0.97876    0.027
 4065.00    0.81353   0.98975    0.027
 4066.00    0.74908   1.00178    0.027
 4067.00    0.71432   1.01179    0.027
 4068.00    0.68818   1.01409    0.027
 4069.00    0.85475   1.00838    0.027
 4070.00    1.06760   1.00124    0.028
 4071.00    1.14850   0.99628    0.028
 4072.00    1.20384   0.98983    0.028
 4073.00    1.24634   0.98009    0.028
 4074.00    1.28690   0.97053    0.028
 4075.00    1.05123   0.96681    0.028
 4076.00    0.78502   0.97370    0.028
 4077.00    0.94187   0.99051    0.028
 4078.00    1.12971   1.01211    0.028
 4079.00    0.86116   1.03291    0.028
 4080.00    0.57514   1.04855    0.028
 4081.00    0.77801   1.05897    0.028
 4082.00    0.98377   1.06767    0.029
 4083.00    1.19610   1.07727    0.029
 4084.00    1.38771   1.08879    0.029
 4085.00    1.23796   1.10155    0.029
 4086.00    1.09876   1.11230    0.029
 4087.00    1.06805   1.11719    0.029
 4088.00    1.03375   1.11472    0.029
 4089.00    0.97298   1.10535    0.029
 4090.00    0.89676   1.08987    0.028
 4091.00    0.73389   1.06966    0.028
 4092.00    0.66339   1.04444    0.000
 4093.00    1.00621   1.01276    0.000
 4094.00    1.23718   0.97729    0.000
 4095.00    1.05732   0.94213    0.000
 4096.00    0.92681   0.90904    0.000
 4097.00    0.94808   0.87917    0.000
 4098.00    0.99374   0.85454    0.000
 4099.00    1.10314   0.83939    0.000
 4100.00    1.12422   0.83973    0.000
 4101.00    0.94696   0.85645    0.000
 4102.00    0.84197   0.88361    0.000
 4103.00    0.87760   0.91492    0.000
 4104.00    0.90554   0.94549    0.000
 4105.00    0.92044   0.97115    0.000
 4106.00    0.96029   0.99055    0.000
 4107.00    1.03721   1.00480    0.000
 4108.00    1.12197   1.01622    0.000
 4109.00    1.21697   1.02730    0.000
 4110.00    1.16097   1.03926    0.000
 4111.00    0.93117   1.05179    0.000
 4112.00    0.87016   1.06288    0.000
 4113.00    0.98051   1.07041    0.027
 4114.00    1.03005   1.07361    0.027
 4115.00    1.02515   1.07182    0.027
 4116.00    1.06855   1.06550    0.027
 4117.00    1.15007   1.05872    0.027
 4118.00    1.19835   1.05543    0.027
 4119.00    1.22356   1.05462    0.027
 4120.00    1.20528   1.05430    0.027
 4121.00    1.16054   1.05473    0.027
 4122.00    1.02236   1.05597    0.027
 4123.00    0.83455   1.05559    0.027
 4124.00    0.72052   1.05066    0.027
 4125.00    0.64051   1.04127    0.027
 4126.00    0.75243   1.02956    0.027
 4127.00    0.94057   1.01807    0.026
 4128.00    1.07684   1.00818    0.026
 4129.00    1.19556   1.00050    0.026
 4130.00    1.16892   0.99700    0.027
 4131.00    1.10091   1.00125    0.027
 4132.00    1.10302   1.01399    0.027
 4133.00    1.12159   1.03277    0.027
 4134.00    1.11607   1.05254    0.026
 4135.00    1.10602   1.06722    0.026
 4136.00    0.93045   1.07488    0.026
 4137.00    0.73071   1.07532    0.026
 4138.00    0.81113   1.06790    0.026
 4139.00    0.92133   1.05358    0.027
 4140.00    0.98839   1.03506    0.027
 4141.00    1.05247   1.01787    0.028
 4142.00    0.97171   1.00934    0.027
 4143.00    0.88596   1.01148    0.027
 4144.00    1.07676   1.01865    0.027
 4145.00    1.26070   1.02528    0.027
 4146.00    1.20033   1.02913    0.027
 4147.00    1.13108   1.02930    0.027
 4148.00    0.92451   1.02666    0.027
 4149.00    0.76672   1.02299    0.026
 4150.00    1.08968   1.01874    0.027
 4151.00    1.36107   1.01456    0.027
 4152.00    1.26631   1.01202    0.027
 4153.00    1.15301   1.01336    0.027
 4154.00    0.93855   1.01953    0.027
 4155.00    0.82279   1.03028    0.027
 4156.00    1.13848   1.04503    0.027
 4157.00    1.36446   1.06133    0.027
 4158.00    1.26780   1.07586    0.027
 4159.00    1.13305   1.08696    0.026
 4160.00    0.88338   1.09510    0.026
 4161.00    0.78854   1.09938    0.026
 4162.00    1.09127   1.09795    0.027
 4163.00    1.33245   1.09162    0.027
 4164.00    1.43769   1.08148    0.027
 4165.00    1.43196   1.06807    0.027
 4166.00    1.21365   1.05372    0.026
 4167.00    1.08522   1.03977    0.026
 4168.00    1.10703   1.02428    0.027
 4169.00    1.05149   1.00596    0.027
 4170.00    0.88265   0.98731    0.026
 4171.00    0.82662   0.97380    0.026
 4172.00    0.91589   0.96890    0.026
 4173.00    0.84758   0.97088    0.026
 4174.00    0.60046   0.97600    0.026
 4175.00    0.65937   0.98218    0.026
 4176.00    1.02455   0.98976    0.027
 4177.00    1.21515   0.99976    0.027
 4178.00    1.25162   1.01039    0.026
 4179.00    1.18776   1.01814    0.026
 4180.00    1.04587   1.02292    0.026
 4181.00    1.02134   1.02752    0.026
 4182.00    1.07707   1.03283    0.026
 4183.00    1.04841   1.03758    0.025
 4184.00    0.96918   1.03980    0.025
 4185.00    0.89590   1.04000    0.025
 4186.00    0.82573   1.04301    0.025
 4187.00    0.92807   1.05080    0.025
 4188.00    1.10865   1.05902    0.025
 4189.00    1.20209   1.06368    0.025
 4190.00    1.26152   1.06511    0.025
 4191.00    1.20033   1.06348    0.025
 4192.00    1.09908   1.05560    0.025
 4193.00    0.99260   1.03994    0.025
 4194.00    0.88466   1.02049    0.025
 4195.00    0.91739   1.00249    0.025
 4196.00    0.98238   0.98834    0.025
 4197.00    1.10687   0.98012    0.025
 4198.00    1.24230   0.97926    0.025
 4199.00    1.18250   0.98383    0.025
 4200.00    1.09511   0.99276    0.025
 4201.00    1.13942   1.00724    0.025
 4202.00    1.19717   1.02547    0.024
 4203.00    1.14198   1.04419    0.024
 4204.00    1.07944   1.06233    0.025
 4205.00    1.27060   1.07870    0.025
 4206.00    1.46925   1.09121    0.025
 4207.00    1.47744   1.09797    0.025
 4208.00    1.48169   1.09900    0.025
 4209.00    1.37016   1.09727    0.025
 4210.00    1.25901   1.09486    0.025
 4211.00    1.15345   1.09119    0.025
 4212.00    1.05828   1.08655    0.024
 4213.00    1.06148   1.08354    0.025
 4214.00    1.06911   1.08623    0.025
 4215.00    1.10719   1.09611    0.024
 4216.00    1.13986   1.10722    0.024
 4217.00    1.14379   1.11152    0.024
 4218.00    1.15327   1.10527    0.024
 4219.00    1.18649   1.08748    0.024
 4220.00    1.21257   1.05846    0.024
 4221.00    1.21351   1.02210    0.024
 4222.00    1.19246   0.98506    0.024
 4223.00    1.10630   0.95387    0.024
 4224.00    1.05970   0.93451    0.024
 4225.00    1.11292   0.93285    0.024
 4226.00    1.13926   0.95138    0.024
 4227.00    1.10719   0.98258    0.024
 4228.00    1.10130   1.01363    0.024
 4229.00    1.14478   1.03718    0.024
 4230.00    1.13803   1.05091    0.023
 4231.00    1.04856   1.05525    0.023
 4232.00    0.96014   1.05479    0.023
 4233.00    0.87323   1.05304    0.023
 4234.00    0.93750   1.05139    0.023
 4235.00    1.19371   1.05337    0.023
 4236.00    1.33386   1.06119    0.023
 4237.00    1.34418   1.07351    0.023
 4238.00    1.27073   1.08902    0.023
 4239.00    1.11461   1.10592    0.023
 4240.00    1.09534   1.12011    0.023
 4241.00    1.19515   1.12874    0.023
 4242.00    1.25179   1.13193    0.024
 4243.00    1.27532   1.12823    0.024
 4244.00    1.26739   1.11634    0.024
 4245.00    1.23825   1.09931    0.025
 4246.00    1.20881   1.08184    0.025
 4247.00    1.17919   1.06660    0.025
 4248.00    1.19400   1.05468    0.025
 4249.00    1.23167   1.04888    0.025
 4250.00    1.25976   1.05057    0.026
 4251.00    1.28358   1.05450    0.026
 4252.00    1.17195   1.05559    0.026
 4253.00    1.00838   1.05543    0.025
 4254.00    0.90568   1.05773    0.025
 4255.00    0.82281   1.06181    0.025
 4256.00    0.78949   1.06370    0.025
 4257.00    0.76969   1.06347    0.025
 4258.00    0.91760   1.06672    0.025
 4259.00    1.10309   1.07823    0.025
 4260.00    1.10949   1.09778    0.025
 4261.00    1.08385   1.11941    0.026
 4262.00    1.12664   1.13524    0.025
 4263.00    1.17878   1.14082    0.025
 4264.00    1.12170   1.13457    0.025
 4265.00    1.05395   1.11624    0.025
 4266.00    1.11939   1.08842    0.025
 4267.00    1.19297   1.05578    0.025
 4268.00    1.09220   1.02301    0.025
 4269.00    0.98714   0.99518    0.024
 4270.00    0.96384   0.97921    0.025
 4271.00    0.94109   0.97955    0.025
 4272.00    0.93263   0.99205    0.024
 4273.00    0.93087   1.01066    0.024
 4274.00    1.02126   1.03435    0.025
 4275.00    1.10820   1.05985    0.025
 4276.00    1.16366   1.08058    0.025
 4277.00    1.20734   1.09217    0.025
 4278.00    1.17258   1.09386    0.025
 4279.00    1.15280   1.09004    0.024
 4280.00    1.21063   1.08473    0.025
 4281.00    1.26694   1.07673    0.025
 4282.00    1.31687   1.06420   -2.000
 4283.00    1.32238   1.04725   -2.000
 4284.00    1.17453   1.02891   -2.000
 4285.00    1.05216   1.01354   -2.000
 4286.00    1.00383   1.00113   -2.000
 4287.00    1.03101   0.98948   -2.000
 4288.00    1.24548   0.98143   -2.000
 4289.00    1.40381   0.98152   -2.000
 4290.00    1.44213   0.98788   -2.000
 4291.00    1.47285   0.99257   -2.000
 4292.00    1.48946   0.98802   -2.000
 4293.00    1.41711   0.97420   -2.000
 4294.00    1.20049   0.95528   -2.000
 4295.00    0.99709   0.93144   -2.000
 4296.00    0.81248   0.90280   -2.000
 4297.00    0.75977   0.87326   -2.000
 4298.00    0.87213   0.84820    0.025
 4299.00    0.93415   0.83214    0.024
 4300.00    0.94066   0.82294    0.024
 4301.00    0.94174   0.81592    0.024
 4302.00    0.93752   0.81121    0.024
 4303.00    0.80942   0.80909    0.024
 4304.00    0.57503   0.80866    0.024
 4305.00    0.59156   0.81087    0.024
 4306.00    0.79771   0.81792    0.024
 4307.00    0.85014   0.83378    0.024
 4308.00    0.80048   0.86193    0.024
 4309.00    0.93249   0.90174    0.024
 4310.00    1.17015   0.94950    0.024
 4311.00    1.20241   1.00117    0.024
 4312.00    1.13057   1.05340    0.024
 4313.00    1.06890   1.10383    0.024
 4314.00    1.01169   1.14968    0.023
 4315.00    1.10249   1.18467    0.023
 4316.00    1.24904   1.20153    0.023
 4317.00    1.24577   1.19921    0.023
 4318.00    1.19461   1.18108    0.023
 4319.00    1.19989   1.15200    0.024
 4320.00    1.22026   1.11921    0.024
 4321.00    1.18105   1.08835    0.024
 4322.00    1.12880   1.06267    0.024
 4323.00    0.99025   1.04718    0.024
 4324.00    0.83668   1.04772    0.023
 4325.00    1.01570   1.06670    0.024
 4326.00    1.23872   1.09798    0.024
 4327.00    1.26033   1.12920    0.024
 4328.00    1.26311   1.15268    0.024
 4329.00    1.13959   1.16734    0.024
 4330.00    1.00885   1.17290    0.000
 4331.00    1.09254   1.16666    0.000
 4332.00    1.18010   1.14666    0.000
 4333.00    1.13882   1.11459    0.000
 4334.00    1.10148   1.07356    0.000
 4335.00    1.15874   1.02804    0.000
 4336.00    1.21417   0.98574    0.000
 4337.00    1.24561   0.95506    0.000
 4338.00    1.26563   0.94041    0.000
 4339.00    1.18578   0.94413    0.000
 4340.00    1.12448   0.96649    0.000
 4341.00    1.18298   1.00084    0.000
 4342.00    1.21930   1.03861    0.000
 4343.00    1.14379   1.07549    0.000
 4344.00    1.08455   1.10659    0.000
 4345.00    1.09174   1.12654    0.000
 4346.00    1.09472   1.13686    0.000
 4347.00    1.08347   1.14161    0.000
 4348.00    1.06396   1.14000    0.000
 4349.00    1.02085   1.13158    0.000
 4350.00    1.00158   1.12376    0.000
 4351.00    1.04042   1.12595    0.024
 4352.00    1.04862   1.13736    0.024
 4353.00    0.99238   1.15106    0.024
 4354.00    1.05763   1.16583    0.024
 4355.00    1.34498   1.18292    0.024
 4356.00    1.48998   1.19899    0.024
 4357.00    1.40754   1.21172    0.024
 4358.00    1.34117   1.22488    0.024
 4359.00    1.29734   1.24087    0.024
 4360.00    1.28546   1.25472    0.024
 4361.00    1.31300   1.26144    0.024
 4362.00    1.24228   1.26284    0.024
 4363.00    1.06470   1.26163    0.024
 4364.00    1.03314   1.25525    0.024
 4365.00    1.14165   1.24180    0.024
 4366.00    1.15318   1.22516    0.024
 4367.00    1.08267   1.20961    0.024
 4368.00    0.99132   1.19508    0.024
 4369.00    0.88444   1.18096    0.024
 4370.00    0.86618   1.16967    0.024
 4371.00    0.90590   1.16186    0.024
 4372.00    0.95168   1.15535    0.024
 4373.00    1.00093   1.15070    0.024
 4374.00    0.98858   1.15087    0.024
 4375.00    0.94552   1.15412    0.024
 4376.00    1.04323   1.15140    0.024
 4377.00    1.20169   1.13573    0.024
 4378.00    1.07278   1.11043    0.024
 4379.00    0.83754   1.08326    0.024
 4380.00    0.79053   1.05710    0.024
 4381.00    0.80256   1.03131    0.024
 4382.00    0.84380   1.01226    0.024
 4383.00    0.89269   1.01036    0.024
 4384.00    0.80566   1.02559    0.024
 4385.00    0.68959   1.04791    0.024
 4386.00    0.92536   1.06937    0.024
 4387.00    1.22061   1.08872    0.024
 4388.00    1.32425   1.10614    0.024
 4389.00    1.40342   1.12166    0.024
 4390.00    1.27345   1.13743    0.024
 4391.00    1.12481   1.15325    0.024
 4392.00    1.00622   1.16532    0.024
 4393.00    0.88922   1.17267    0.024
 4394.00    1.07643   1.17867    0.024
 4395.00    1.26841   1.18575    0.024
 4396.00    1.36476   1.18940    0.025
 4397.00    1.44837   1.18265    0.025
 4398.00    1.25193   1.16590    0.025
 4399.00    1.07071   1.14774    0.024
 4400.00    1.07743   1.13560    0.024
 4401.00    1.08103   1.12587    0.024
 4402.00    1.05844   1.11263    0.025
 4403.00    1.05749   1.10299    0.025
 4404.00    1.19219   1.10819    0.025
 4405.00    1.28542   1.12573    0.025
 4406.00    1.17468   1.14515    0.025
 4407.00    1.10002   1.16372    0.025
 4408.00    1.16937   1.18240    0.025
 4409.00    1.23832   1.19788    0.025
 4410.00    1.30591   1.20702    0.025
 4411.00    1.31607   1.20997    0.025
 4412.00    1.16531   1.20778    0.025
 4413.00    1.05393   1.20340    0.025
 4414.00    1.03696   1.20289    0.024
 4415.00    1.01646   1.20890    0.024
 4416.00    0.98865   1.21706    0.025
 4417.00    1.05457   1.22517    0.025
 4418.00    1.28925   1.23303    0.025
 4419.00    1.32707   1.23685    0.025
 4420.00    1.05501   1.23483    0.025
 4421.00    0.93180   1.23095    0.025
 4422.00    1.01426   1.23021    0.024
 4423.00    1.12172   1.23083    0.025
 4424.00    1.25956   1.22809    0.025
 4425.00    1.22241   1.22440    0.025
 4426.00    0.99762   1.22297    0.025
 4427.00    0.92009   1.22081    0.024
 4428.00    0.98185   1.21346    0.024
 4429.00    1.06536   1.20313    0.025
 4430.00    1.16702   1.19771    0.025
 4431.00    1.30952   1.19776    0.025
 4432.00    1.48201   1.19858    0.025
 4433.00    1.58575   1.20094    0.025
 4434.00    1.64518   1.20816    0.026
 4435.00    1.63494   1.21998    0.026
 4436.00    1.58539   1.23114    0.026
 4437.00    1.33025   1.23728    0.025
 4438.00    0.97418   1.23929    0.025
 4439.00    1.03554   1.23923    0.025
 4440.00    1.27402   1.23813    0.025
 4441.00    1.42729   1.23826    0.025
 4442.00    1.54959   1.24416    0.026
 4443.00    1.36981   1.25614    0.026
 4444.00    1.09715   1.26803    0.025
 4445.00    1.15532   1.27499    0.026
 4446.00    1.29818   1.27738    0.026
 4447.00    1.26453   1.27589    0.025
 4448.00    1.19409   1.26648    0.025
 4449.00    1.26077   1.24860    0.025
 4450.00    1.34997   1.22913    0.025
 4451.00    1.43285   1.20975    0.024
 4452.00    1.51495   1.18739    0.024
 4453.00    1.52304   1.16432    0.024
 4454.00    1.52483   1.14723    0.024
 4455.00    1.41503   1.13782    0.024
 4456.00    1.29973   1.13284    0.024
 4457.00    1.24522   1.13253    0.024
 4458.00    1.19477   1.13775    0.024
 4459.00    1.33847   1.14659    0.024
 4460.00    1.46388   1.15711    0.025
 4461.00    1.21886   1.17089    0.000
 4462.00    0.99510   1.18729    0.000
 4463.00    1.02125   1.19980    0.000
 4464.00    1.05632   1.20822    0.000
 4465.00    1.16368   1.21729    0.000
 4466.00    1.24528   1.22817    0.000
 4467.00    1.17005   1.23975    0.000
 4468.00    1.10924   1.25279    0.000
 4469.00    1.11764   1.26912    0.000
 4470.00    1.10773   1.28793    0.000
 4471.00    1.02633   1.30705    0.000
 4472.00    1.01380   1.32318    0.000
 4473.00    1.22517   1.33186    0.000
 4474.00    1.38420   1.33154    0.000
 4475.00    1.39922   1.32563    0.000
 4476.00    1.41124   1.31701    0.000
 4477.00    1.41621   1.30586    0.000
 4478.00    1.40765   1.29350    0.000
 4479.00    1.37151   1.28452    0.000
 4480.00    1.35696   1.28322    0.000
 4481.00    1.38071   1.28932    0.000
 4482.00    1.33297   1.29837    0.024
 4483.00    1.17434   1.30486    0.024
 4484.00    1.12264   1.30710    0.024
 4485.00    1.21657   1.30626    0.024
 4486.00    1.26207   1.30185    0.024
 4487.00    1.24948   1.29303    0.024
 4488.00    1.24946   1.28222    0.024
 4489.00    1.26271   1.27463    0.024
 4490.00    1.31210   1.27231    0.024
 4491.00    1.39519   1.27270    0.024
 4492.00    1.36104   1.27368    0.024
 4493.00    1.23051   1.27678    0.023
 4494.00    1.18305   1.28511    0.023
 4495.00    1.19570   1.29731    0.023
 4496.00    1.18455   1.31220    0.024
 4497.00    1.15828   1.33052    0.024
 4498.00    1.15810   1.34971    0.024
 4499.00    1.17240   1.36625    0.024
 4500.00    1.19175   1.38035    0.024
 4501.00    1.21353   1.39542    0.024
 4502.00    1.35288   1.40971    0.024
 4503.00    1.54127   1.41792    0.024
 4504.00    1.46088   1.42015    0.024
 4505.00    1.28457   1.41902    0.024
 4506.00    1.26663   1.41478    0.024
 4507.00    1.29645   1.40758    0.024
 4508.00    1.40725   1.39877    0.024
 4509.00    1.53833   1.38920    0.024
 4510.00    1.46575   1.37859    0.023
 4511.00    1.35176   1.36699    0.023
 4512.00    1.35985   1.35611    0.023
 4513.00    1.38742   1.34842    0.024
 4514.00    1.38201   1.34530    0.024
 4515.00    1.37268   1.34491    0.024
 4516.00    1.24895   1.34286    0.024
 4517.00    1.11596   1.33880    0.024
 4518.00    1.04547   1.33527    0.024
 4519.00    0.97782   1.32924    0.024
 4520.00    1.05304   1.31602    0.024
 4521.00    1.12659   1.29519    0.024
 4522.00    1.02550   1.27206    0.024
 4523.00    0.94173   1.25019    0.024
 4524.00    1.18331   1.22827    0.023
 4525.00    1.38875   1.20812    0.023
 4526.00    1.18923   1.19409    0.023
 4527.00    1.02450   1.18705    0.023
 4528.00    1.13196   1.18497    0.023
 4529.00    1.22402   1.18725    0.023
 4530.00    1.22502   1.19519    0.024
 4531.00    1.20946   1.20952    0.024
 4532.00    1.11640   1.22569    0.024
 4533.00    1.07861   1.24078    0.023
 4534.00    1.25199   1.25702    0.024
 4535.00    1.34467   1.27601    0.024
 4536.00    1.17999   1.29458    0.023
 4537.00    1.07902   1.30651    0.023
 4538.00    1.15020   1.31067    0.023
 4539.00    1.20355   1.30998    0.024
 4540.00    1.21559   1.30820    0.024
 4541.00    1.25881   1.30691    0.024
 4542.00    1.36454   1.30268    0.023
 4543.00    1.42163   1.29295    0.023
 4544.00    1.39383   1.28269    0.024
 4545.00    1.33186   1.27753    0.024
 4546.00    1.21769   1.27418    0.024
 4547.00    1.19197   1.26797    0.023
 4548.00    1.28499   1.26157    0.024
 4549.00    1.31512   1.26105    0.023
 4550.00    1.27092   1.26591    0.000
 4551.00    1.23825   1.27206    0.000
 4552.00    1.21760   1.28042    0.000
 4553.00    1.19654   1.29217    0.000
 4554.00    1.17509   1.30676    0.000
 4555.00    1.26144   1.32342    0.000
 4556.00    1.43514   1.33952    0.000
 4557.00    1.28784   1.35021    0.000
 4558.00    0.91163   1.35380    0.000
 4559.00    1.05734   1.35294    0.000
 4560.00    1.52969   1.35090    0.000
 4561.00    1.56439   1.34826    0.000
 4562.00    1.35972   1.34423    0.000
 4563.00    1.19548   1.34132    0.000
 4564.00    1.05046   1.34276    0.000
 4565.00    0.99602   1.34726    0.000
 4566.00    0.97873   1.35139    0.000
 4567.00    1.01973   1.35491    0.000
 4568.00    1.08116   1.35888    0.000
 4569.00    1.25511   1.36042    0.000
 4570.00    1.46231   1.35837    0.000
 4571.00    1.42855   1.35858    0.000
 4572.00    1.33575   1.36133    0.000
 4573.00    1.30673   1.35815    0.000
 4574.00    1.29035   1.34791    0.000
 4575.00    1.40846   1.33679    0.000
 4576.00    1.54740   1.32642    0.000
 4577.00    1.42234   1.31422    0.000
 4578.00    1.26707   1.30052    0.000
 4579.00    1.15724   1.29004    0.000
 4580.00    1.05089   1.28602    0.000
 4581.00    1.25278   1.28730    0.000
 4582.00    1.46749   1.29156    0.000
 4583.00    1.45326   1.29860    0.000
 4584.00    1.43911   1.30763    0.000
 4585.00    1.51378   1.31581    0.000
 4586.00    1.57040   1.32210    0.000
 4587.00    1.31169   1.32593    0.000
 4588.00    1.09718   1.32631    0.000
 4589.00    1.35559   1.32210    0.000
 4590.00    1.55331   1.31464    0.000
 4591.00    1.29236   1.30769    0.000
 4592.00    1.11224   1.30334    0.000
 4593.00    1.39670   1.30041    0.000
 4594.00    1.59639   1.29791    0.000
 4595.00    1.40872   1.29666    0.000
 4596.00    1.28606   1.29789    0.000
 4597.00    1.40658   1.30140    0.000
 4598.00    1.47864   1.30525    0.000
 4599.00    1.39912   1.30793    0.000
 4600.00    1.36251   1.31266    0.000
 4601.00    1.43977   1.32174    0.000
 4602.00    1.48904   1.33302    0.000
 4603.00    1.47455   1.34536    0.000
 4604.00    1.49612   1.35823    0.000
 4605.00    1.58886   1.37116    0.000
 4606.00    1.70297   1.38303    0.000
 4607.00    1.85384   1.39260    0.000
 4608.00    1.80500   1.39793    0.000
 4609.00    1.45544   1.39916    0.000
 4610.00    1.29252   1.39830    0.000
 4611.00    1.37658   1.39684    0.000
 4612.00    1.39418   1.39592    0.000
 4613.00    1.33433   1.39588    0.000
 4614.00    1.28965   1.39560    0.000
 4615.00    1.26058   1.39582    0.000
 4616.00    1.27934   1.39839    0.000
 4617.00    1.34145   1.40000    0.000
 4618.00    1.44762   1.39983    0.000
 4619.00    1.58900   1.40160    0.000
 4620.00    1.52059   1.40354    0.000
 4621.00    1.30473   1.40239    0.000
 4622.00    1.20521   1.40119    0.000
 4623.00    1.17742   1.40023    0.000
 4624.00    1.12222   1.39629    0.000
 4625.00    1.05225   1.39272    0.000
 4626.00    1.08641   1.39244    0.000
 4627.00    1.16928   1.38972    0.000
 4628.00    1.20372   1.38227    0.000
 4629.00    1.21865   1.37659    0.000
 4630.00    1.26315   1.37329    0.000
 4631.00    1.31783   1.36549    0.000
 4632.00    1.32853   1.35345    0.000
 4633.00    1.32648   1.34382    0.000
 4634.00    1.25174   1.33698    0.000
 4635.00    1.15959   1.32975    0.000
 4636.00    1.24903   1.32341    0.000
 4637.00    1.37354   1.31931    0.000
 4638.00    1.39227   1.31521    0.000
 4639.00    1.39511   1.31030    0.000
 4640.00    1.38780   1.30554    0.000
 4641.00    1.37937   1.29800    0.000
 4642.00    1.35413   1.28763    0.000
 4643.00    1.32767   1.27938    0.000
 4644.00    1.37185   1.27492    0.000
 4645.00    1.41870   1.27259    0.000
 4646.00    1.34917   1.27433    0.000
 4647.00    1.28031   1.28212    0.000
 4648.00    1.25827   1.29318    0.000
 4649.00    1.24173   1.30290    0.000
 4650.00    1.31509   1.31092    0.000
 4651.00    1.38076   1.31925    0.000
 4652.00    1.36780   1.32782    0.000
 4653.00    1.34815   1.33569    0.000
 4654.00    1.27968   1.34414    0.000
 4655.00    1.24352   1.35329    0.000
 4656.00    1.38797   1.36090    0.000
 4657.00    1.46987   1.36494    0.000
 4658.00    1.27266   1.36289    0.000
 4659.00    1.13710   1.35415    0.000
 4660.00    1.22732   1.33881    0.000
 4661.00    1.31177   1.31648    0.000
 4662.00    1.37849   1.29094    0.000
 4663.00    1.35811   1.27033    0.000
 4664.00    1.11062   1.25665    0.000
 4665.00    0.99565   1.24652    0.000
 4666.00    1.17766   1.24284    0.000
 4667.00    1.31035   1.25024    0.000
 4668.00    1.34726   1.26505    0.000
 4669.00    1.33836   1.28089    0.000
 4670.00    1.25189   1.29647    0.000
 4671.00    1.24737   1.31098    0.000
 4672.00    1.36442   1.32086    0.000
 4673.00    1.35048   1.32516    0.000
 4674.00    1.16567   1.32672    0.000
 4675.00    1.17048   1.32639    0.000
 4676.00    1.39315   1.32198    0.000
 4677.00    1.48876   1.31575    0.000
 4678.00    1.45560   1.31282    0.000
 4679.00    1.38805   1.31272    0.000
 4680.00    1.28974   1.31308    0.000
 4681.00    1.28374   1.31543    0.000
 4682.00    1.35044   1.31967    0.000
 4683.00    1.42172   1.32284    0.000
 4684.00    1.49618   1.32469    0.000
 4685.00    1.42650   1.32584    0.000
 4686.00    1.26929   1.32529    0.000
 4687.00    1.28181   1.32496    0.000
 4688.00    1.38433   1.32648    0.000
 4689.00    1.36869   1.32772    0.000
 4690.00    1.29868   1.32866    0.000
 4691.00    1.25798   1.33120    0.000
 4692.00    1.22890   1.33217    0.000
 4693.00    1.25581   1.32794    0.000
 4694.00    1.30162   1.32153    0.000
 4695.00    1.24154   1.31548    0.000
 4696.00    1.15141   1.30599    0.000
 4697.00    1.17184   1.29215    0.000
 4698.00    1.21814   1.28039    0.000
 4699.00    1.25698   1.27525    0.000
 4700.00    1.29443   1.27221    0.000
 4701.00    1.35942   1.26787    0.000
 4702.00    1.42842   1.26543    0.000
 4703.00    1.29742   1.26816    0.000
 4704.00    1.14526   1.27235    0.000
 4705.00    1.13773   1.27539    0.000
 4706.00    1.14013   1.27988    0.000
 4707.00    1.24839   1.28657    0.000
 4708.00    1.36025   1.29329    0.000
 4709.00    1.51568   1.29997    0.000
 4710.00    1.66098   1.30939    0.000
 4711.00    1.47471   1.32106    0.000
 4712.00    1.29665   1.33184    0.000
 4713.00    1.24460   1.34179    0.000
 4714.00    1.20078   1.35525    0.000
 4715.00    1.23765   1.37179    0.000
 4716.00    1.26869   1.38493    0.000
 4717.00    1.25855   1.39309    0.000
 4718.00    1.27024   1.39964    0.000
 4719.00    1.40075   1.40421    0.000
 4720.00    1.49811   1.40311    0.000
 4721.00    1.45104   1.39515    0.000
 4722.00    1.41571   1.38199    0.000
 4723.00    1.42253   1.36707    0.000
 4724.00    1.41676   1.35184    0.000
 4725.00    1.37310   1.33514    0.000
 4726.00    1.34962   1.31838    0.000
 4727.00    1.37785   1.30753    0.000
 4728.00    1.37042   1.30410    0.000
 4729.00    1.28441   1.30497    0.000
 4730.00    1.23121   1.30962    0.000
 4731.00    1.24071   1.31638    0.000
 4732.00    1.29479   1.32350    0.000
 4733.00    1.42324   1.33311    0.000
 4734.00    1.44531   1.34345    0.000
 4735.00    1.31182   1.34839    0.000
 4736.00    1.25280   1.35185    0.000
 4737.00    1.28953   1.36035    0.000
 4738.00    1.37008   1.36870    0.000
 4739.00    1.50028   1.37172    0.000
 4740.00    1.49648   1.37419    0.000
 4741.00    1.35880   1.38088    0.000
 4742.00    1.19827   1.38796    0.000
 4743.00    1.01761   1.39050    0.000
 4744.00    1.05821   1.39126    0.000
 4745.00    1.27059   1.39415    0.000
 4746.00    1.34939   1.39502    0.000
 4747.00    1.33702   1.39036    0.000
 4748.00    1.36098   1.38426    0.000
 4749.00    1.40668   1.37866    0.000
 4750.00    1.48533   1.37149    0.000
 4751.00    1.58118   1.36319    0.000
 4752.00    1.59005   1.35676    0.000
 4753.00    1.55954   1.35184    0.000
 4754.00    1.49176   1.34804    0.000
 4755.00    1.40945   1.34514    0.000
 4756.00    1.39611   1.34080    0.000
 4757.00    1.40561   1.33354    0.000
 4758.00    1.36636   1.32588    0.000
 4759.00    1.31355   1.31819    0.000
 4760.00    1.29855   1.30748    0.000
 4761.00    1.29220   1.29670    0.021
 4762.00    1.30436   1.29216    0.021
 4763.00    1.31992   1.29258    0.022
 4764.00    1.33659   1.29551    0.022
 4765.00    1.35343   1.30297    0.021
 4766.00    1.41147   1.31434    0.021
 4767.00    1.47369   1.32630    0.022
 4768.00    1.42178   1.33959    0.022
 4769.00    1.36249   1.35416    0.022
 4770.00    1.42431   1.36516    0.022
 4771.00    1.48944   1.37305    0.021
 4772.00    1.37330   1.38278    0.022
 4773.00    1.26330   1.39247    0.022
 4774.00    1.33150   1.39560    0.021
 4775.00    1.39697   1.39394    0.021
 4776.00    1.42298   1.39341    0.021
 4777.00    1.44873   1.38998    0.021
 4778.00    1.47215   1.37968    0.021
 4779.00    1.49332   1.36960    0.021
 4780.00    1.49918   1.36284    0.021
 4781.00    1.48984   1.35289    0.021
 4782.00    1.39997   1.34205    0.021
 4783.00    1.31926   1.33828    0.021
 4784.00    1.27761   1.33756    0.020
 4785.00    1.25457   1.33550    0.020
 4786.00    1.29693   1.33910    0.020
 4787.00    1.34707   1.34859    0.021
 4788.00    1.42018   1.35808    0.021
 4789.00    1.47309   1.36951    0.021
 4790.00    1.47512   1.38276    0.021
 4791.00    1.45060   1.39281    0.021
 4792.00    1.36848   1.39975    0.021
 4793.00    1.29166   1.40439    0.021
 4794.00    1.22480   1.40436    0.021
 4795.00    1.20030   1.40027    0.021
 4796.00    1.24540   1.39601    0.021
 4797.00    1.28498   1.39246    0.021
 4798.00    1.31660   1.38880    0.021
 4799.00    1.37014   1.38520    0.021
 4800.00    1.45146   1.38252    0.021
 4801.00    1.51176   1.38108    0.021
 4802.00    1.54860   1.37830    0.021
 4803.00    1.59169   1.37288    0.021
 4804.00    1.64095   1.36837    0.022
 4805.00    1.57876   1.36769    0.022
 4806.00    1.41973   1.36745    0.022
 4807.00    1.29957   1.36757    0.022
 4808.00    1.20916   1.37154    0.021
 4809.00    1.26434   1.37815    0.021
 4810.00    1.41746   1.38457    0.021
 4811.00    1.53610   1.39155    0.021
 4812.00    1.63442   1.39926    0.021
 4813.00    1.61348   1.40636    0.021
 4814.00    1.53126   1.41183    0.021
 4815.00    1.46485   1.41465    0.021
 4816.00    1.40547   1.41456    0.022
 4817.00    1.40095   1.41170    0.022
 4818.00    1.41742   1.40501    0.022
 4819.00    1.33344   1.39502    0.022
 4820.00    1.21679   1.38643    0.022
 4821.00    1.20447   1.37952    0.022
 4822.00    1.22054   1.37093    0.022
 4823.00    1.31780   1.36403    0.021
 4824.00    1.43320   1.36213    0.021
 4825.00    1.42200   1.36192    0.021
 4826.00    1.38825   1.35984    0.022
 4827.00    1.32232   1.35624    0.022
 4828.00    1.25201   1.35488    0.022
 4829.00    1.24076   1.35670    0.022
 4830.00    1.23524   1.35634    0.021
 4831.00    1.29792   1.35339    0.022
 4832.00    1.36474   1.35353    0.022
 4833.00    1.40014   1.35496    0.022
 4834.00    1.43424   1.35179    0.022
 4835.00    1.38587   1.34584    0.022
 4836.00    1.34268   1.34289    0.022
 4837.00    1.43477   1.34072    0.022
 4838.00    1.51645   1.33574    0.022
 4839.00    1.45626   1.33227    0.022
 4840.00    1.39178   1.33389    0.022
 4841.00    1.28854   1.33619    0.022
 4842.00    1.19700   1.33582    0.022
 4843.00    1.18307   1.33529    0.022
 4844.00    1.20491   1.33544    0.022
 4845.00    1.41133   1.33447    0.022
 4846.00    1.57698   1.32974    0.022
 4847.00    1.57290   1.32016    0.023
 4848.00    1.56627   1.31021    0.000
 4849.00    1.55089   1.30007    0.000
 4850.00    1.52361   1.28245    0.000
 4851.00    1.46184   1.25948    0.000
 4852.00    1.39300   1.23703    0.000
 4853.00    1.30667   1.21042    0.000
 4854.00    1.32199   1.17841    0.000
 4855.00    1.55421   1.14824    0.000
 4856.00    1.70303   1.12097    0.000
 4857.00    1.69732   1.09740    0.000
 4858.00    1.69443   1.08348    0.000
 4859.00    1.69610   1.07785    0.000
 4860.00    1.64319   1.07970    0.000
 4861.00    1.51276   1.09596    0.000
 4862.00    1.36438   1.12090    0.000
 4863.00    1.19358   1.14188    0.000
 4864.00    1.10736   1.16226    0.000
 4865.00    1.11428   1.18331    0.000
 4866.00    1.17380   1.19599    0.000
 4867.00    1.28442   1.20155    0.000
 4868.00    1.32280   1.20990    0.000
 4869.00    1.29929   1.21833    0.000
 4870.00    1.25891   1.22247    0.000
 4871.00    1.20581   1.23201    0.000
 4872.00    1.23082   1.24936    0.000
 4873.00    1.30761   1.26439    0.000
 4874.00    1.33696   1.27737    0.000
 4875.00    1.33876   1.29321    0.022
 4876.00    1.42647   1.30483    0.022
 4877.00    1.55762   1.30833    0.022
 4878.00    1.45168   1.31143    0.022
 4879.00    1.24192   1.31155    0.022
 4880.00    1.24358   1.30249    0.022
 4881.00    1.32472   1.29166    0.022
 4882.00    1.33857   1.28377    0.022
 4883.00    1.33096   1.27399    0.022
 4884.00    1.35665   1.26431    0.022
 4885.00    1.39123   1.25960    0.022
 4886.00    1.34185   1.25898    0.022
 4887.00    1.27415   1.26369    0.022
 4888.00    1.17575   1.27663    0.022
 4889.00    1.07203   1.29383    0.022
 4890.00    1.11542   1.31283    0.022
 4891.00    1.17820   1.33727    0.022
 4892.00    1.22553   1.36183    0.022
 4893.00    1.27144   1.38083    0.022
 4894.00    1.42091   1.39440    0.022
 4895.00    1.57626   1.40050    0.022
 4896.00    1.49995   1.40147    0.022
 4897.00    1.42001   1.40101    0.022
 4898.00    1.52168   1.39594    0.022
 4899.00    1.62100   1.38784    0.021
 4900.00    1.66472   1.38434    0.021
 4901.00    1.68887   1.38255    0.022
 4902.00    1.46000   1.37683    0.021
 4903.00    1.24315   1.37102    0.021
 4904.00    1.13077   1.36776    0.021
 4905.00    1.05818   1.36245    0.021
 4906.00    1.24155   1.35401    0.021
 4907.00    1.40128   1.34806    0.021
 4908.00    1.44213   1.34478    0.021
 4909.00    1.46294   1.34061    0.021
 4910.00    1.40219   1.33760    0.021
 4911.00    1.38462   1.33579    0.022
 4912.00    1.51272   1.32964    0.022
 4913.00    1.59408   1.31779    0.022
 4914.00    1.54235   1.30340    0.021
 4915.00    1.47674   1.28637    0.021
 4916.00    1.37737   1.26754    0.021
 4917.00    1.28493   1.25279    0.021
 4918.00    1.20706   1.24597    0.021
 4919.00    1.17622   1.24514    0.021
 4920.00    1.23122   1.25207    0.021
 4921.00    1.27458   1.26989    0.021
 4922.00    1.29939   1.29140    0.021
 4923.00    1.35968   1.31095    0.021
 4924.00    1.46964   1.33251    0.021
 4925.00    1.53450   1.35360    0.021
 4926.00    1.54383   1.36640    0.021
 4927.00    1.50400   1.37359    0.021
 4928.00    1.41081   1.37651    0.021
 4929.00    1.34776   1.36995    0.021
 4930.00    1.31359   1.35947    0.021
 4931.00    1.32396   1.34965    0.020
 4932.00    1.37196   1.33575    0.020
 4933.00    1.39144   1.32200    0.020
 4934.00    1.38972   1.31503    0.021
 4935.00    1.40003   1.31275    0.021
 4936.00    1.41820   1.31475    0.021
 4937.00    1.37046   1.32121    0.021
 4938.00    1.28504   1.33171    0.021
 4939.00    1.33723   1.34841    0.021
 4940.00    1.45791   1.36642    0.000
 4941.00    1.50489   1.37917    0.000
 4942.00    1.52013   1.39122    0.000
 4943.00    1.58935   1.40438    0.000
 4944.00    1.67851   1.41183    0.000
 4945.00    1.54125   1.41448    0.000
 4946.00    1.33316   1.41771    0.000
 4947.00    1.38226   1.41870    0.000
 4948.00    1.49846   1.41317    0.000
 4949.00    1.39371   1.40260    0.000
 4950.00    1.24190   1.39075    0.000
 4951.00    1.40085   1.37735    0.000
 4952.00    1.61217   1.35985    0.000
 4953.00    1.52638   1.34133    0.000
 4954.00    1.40281   1.33111    0.000
 4955.00    1.35351   1.32826    0.000
 4956.00    1.31080   1.32418    0.000
 4957.00    1.34034   1.32524    0.000
 4958.00    1.37369   1.33562    0.000
 4959.00    1.39879   1.34463    0.000
 4960.00    1.42563   1.34701    0.000
 4961.00    1.60053   1.34709    0.000
 4962.00    1.75839   1.34777    0.000
 4963.00    1.54563   1.34588    0.000
 4964.00    1.34124   1.34117    0.000
 4965.00    1.23953   1.33953    0.000
 4966.00    1.16286   1.34191    0.000
 4967.00    1.29589   1.34566    0.000
 4968.00    1.41253   1.35124    0.000
 4969.00    1.42677   1.35760    0.000
 4970.00    1.42637   1.36307    0.000
 4971.00    1.35422   1.36565    0.000
 4972.00    1.31137   1.36384    0.000
 4973.00    1.38514   1.35783    0.000
 4974.00    1.44655   1.34544    0.000
 4975.00    1.46704   1.32863    0.000
 4976.00    1.43055   1.31106    0.000
 4977.00    1.23477   1.29059    0.000
 4978.00    1.14201   1.26959    0.000
 4979.00    1.29563   1.25531    0.000
 4980.00    1.36907   1.24717    0.000
 4981.00    1.27689   1.24199    0.000
 4982.00    1.21140   1.24426    0.000
 4983.00    1.19383   1.25507    0.000
 4984.00    1.22263   1.26742    0.000
 4985.00    1.32425   1.27973    0.000
 4986.00    1.41211   1.29282    0.000
 4987.00    1.48099   1.30357    0.000
 4988.00    1.44117   1.31190    0.000
 4989.00    1.26936   1.31674    0.000
 4990.00    1.26350   1.31854    0.000
 4991.00    1.43524   1.32119    0.000
 4992.00    1.40872   1.32028    0.000
 4993.00    1.19500   1.31491    0.000
 4994.00    1.14351   1.30973    0.000
 4995.00    1.22707   1.30115    0.000
 4996.00    1.23733   1.28925    0.000
 4997.00    1.19389   1.27765    0.000
 4998.00    1.21161   1.26442    0.000
 4999.00    1.26870   1.25187    0.000
 5000.00    1.34028   1.24292    0.000
 5001.00    1.42003   1.23471    0.000
 5002.00    1.47155   1.22834    0.000
 5003.00    1.50925   1.22739    0.000
 5004.00    1.50508   1.22812    0.000
 5005.00    1.48319   1.22672    0.000
 5006.00    1.44046   1.22651    0.000
 5007.00    1.39016   1.22694    0.000
 5008.00    1.36091   1.22283    0.000
 5009.00    1.33810   1.21590    0.000
 5010.00    1.35391   1.20908    0.000
 5011.00    1.37958   1.20302    0.000
 5012.00    1.43359   1.19917    0.000
 5013.00    1.49349   1.19628    0.000
 5014.00    1.33507   1.19643    0.000
 5015.00    1.14091   1.20200    0.000
 5016.00    1.06899   1.20843    0.000
 5017.00    1.01207   1.21396    0.000
 5018.00    1.12108   1.22195    0.000
 5019.00    1.24413   1.23230    0.000
 5020.00    1.28647   1.24090    0.000
 5021.00    1.32487   1.24816    0.000
 5022.00    1.35001   1.25763    0.000
 5023.00    1.37491   1.26604    0.000
 5024.00    1.39739   1.27380    0.000
 5025.00    1.41670   1.28462    0.000
 5026.00    1.37236   1.29333    0.000
 5027.00    1.32726   1.30034    0.000
 5028.00    1.27341   1.30869    0.000
 5029.00    1.22674   1.31351    0.020
 5030.00    1.23806   1.31242    0.020
 5031.00    1.25230   1.30571    0.020
 5032.00    1.28429   1.29495    0.020
 5033.00    1.30775   1.28170    0.020
 5034.00    1.29049   1.26352    0.020
 5035.00    1.29781   1.24530    0.021
 5036.00    1.40092   1.23288    0.021
 5037.00    1.48884   1.22341    0.021
 5038.00    1.52748   1.22185    0.021
 5039.00    1.53861   1.22942    0.021
 5040.00    1.47424   1.23869    0.021
 5041.00    1.39022   1.25306    0.021
 5042.00    1.25998   1.27129    0.021
 5043.00    1.21949   1.28305    0.021
 5044.00    1.36145   1.28876    0.021
 5045.00    1.38583   1.29335    0.021
 5046.00    1.20221   1.29514    0.020
 5047.00    1.14163   1.29288    0.021
 5048.00    1.27154   1.29208    0.021
 5049.00    1.35947   1.29668    0.022
 5050.00    1.39032   1.30384    0.021
 5051.00    1.41223   1.31256    0.021
 5052.00    1.42344   1.32400    0.021
 5053.00    1.46414   1.33663    0.022
 5054.00    1.53598   1.34804    0.022
 5055.00    1.54186   1.35620    0.022
 5056.00    1.48635   1.36126    0.021
 5057.00    1.51462   1.36297    0.021
 5058.00    1.61163   1.36013    0.022
 5059.00    1.55523   1.35363    0.021
 5060.00    1.38802   1.34254    0.021
 5061.00    1.27970   1.32927    0.021
 5062.00    1.20873   1.31907    0.021
 5063.00    1.19208   1.30793    0.021
 5064.00    1.20553   1.29584    0.022
 5065.00    1.19515   1.29045    0.022
 5066.00    1.17327   1.28958    0.022
 5067.00    1.23376   1.28604    0.022
 5068.00    1.32853   1.28242    0.022
 5069.00    1.41631   1.28385    0.022
 5070.00    1.50161   1.28389    0.022
 5071.00    1.32182   1.27735    0.021
 5072.00    1.06231   1.27086    0.021
 5073.00    1.19311   1.26637    0.021
 5074.00    1.42141   1.25729    0.021
 5075.00    1.26127   1.24387    0.021
 5076.00    1.02242   1.23462    0.021
 5077.00    1.06883   1.23042    0.021
 5078.00    1.16059   1.22590    0.021
 5079.00    1.23331   1.22454    0.021
 5080.00    1.30377   1.23157    0.021
 5081.00    1.43528   1.24284    0.021
 5082.00    1.57170   1.25388    0.021
 5083.00    1.49820   1.26642    0.020
 5084.00    1.41526   1.28104    0.020
 5085.00    1.29788   1.29450    0.020
 5086.00    1.18444   1.30476    0.020
 5087.00    1.28809   1.31281    0.020
 5088.00    1.38467   1.31945    0.020
 5089.00    1.34979   1.32249    0.020
 5090.00    1.32488   1.32058    0.019
 5091.00    1.41102   1.31513    0.020
 5092.00    1.48207   1.30696    0.020
 5093.00    1.43548   1.29665    0.020
 5094.00    1.39487   1.28484    0.020
 5095.00    1.38945   1.27347    0.020
 5096.00    1.37610   1.26660    0.020
 5097.00    1.32578   1.26304    0.020
 5098.00    1.27418   1.26047    0.020
 5099.00    1.21773   1.26073    0.019
 5100.00    1.18667   1.26222    0.019
 5101.00    1.23636   1.26290    0.019
 5102.00    1.29420   1.26230    0.019
 5103.00    1.37405   1.25915    0.019
 5104.00    1.39118   1.25759    0.020
 5105.00    1.26328   1.25797    0.020
 5106.00    1.19260   1.25654    0.020
 5107.00    1.23636   1.26023    0.020
 5108.00    1.28095   1.26893    0.020
 5109.00    1.32697   1.27607    0.020
 5110.00    1.31565   1.28658    0.020
 5111.00    1.21685   1.29897    0.020
 5112.00    1.19997   1.30759    0.020
 5113.00    1.29287   1.31494    0.020
 5114.00    1.38492   1.31923    0.021
 5115.00    1.47597   1.31769    0.021
 5116.00    1.48407   1.31156    0.021
 5117.00    1.40584   1.30135    0.021
 5118.00    1.38085   1.28811    0.021
 5119.00    1.40473   1.27168    0.021
 5120.00    1.31647   1.25484    0.021
 5121.00    1.13751   1.24160    0.020
 5122.00    1.07889   1.23004    0.020
 5123.00    1.10594   1.22111    0.020
 5124.00    1.14936   1.21821    0.020
 5125.00    1.20302   1.21864    0.021
 5126.00    1.24094   1.22113    0.021
 5127.00    1.27028   1.22761    0.021
 5128.00    1.26705   1.23563    0.021
 5129.00    1.24837   1.24162    0.021
 5130.00    1.24230   1.24761    0.021
 5131.00    1.24140   1.25390    0.021
 5132.00    1.26934   1.25391    0.021
 5133.00    1.30737   1.25139    0.021
 5134.00    1.24060   1.25020    0.021
 5135.00    1.14293   1.24214    0.021
 5136.00    1.22971   1.23498    0.021
 5137.00    1.36155   1.23297    0.021
 5138.00    1.31931   1.22409    0.021
 5139.00    1.24268   1.21795    0.021
 5140.00    1.22563   1.21971    0.021
 5141.00    1.21776   1.21586    0.020
 5142.00    1.14003   1.21221    0.020
 5143.00    1.05434   1.21395    0.021
 5144.00    1.10930   1.21295    0.021
 5145.00    1.17498   1.21229    0.021
 5146.00    1.20658   1.21349    0.020
 5147.00    1.23679   1.21348    0.020
 5148.00    1.22671   1.21617    0.021
 5149.00    1.21873   1.22064    0.021
 5150.00    1.31356   1.22532    0.021
 5151.00    1.39785   1.23354    0.021
 5152.00    1.29949   1.24308    0.021
 5153.00    1.21505   1.25270    0.020
 5154.00    1.27868   1.26199    0.020
 5155.00    1.32455   1.26675    0.020
 5156.00    1.23678   1.26835    0.020
 5157.00    1.17077   1.26458    0.020
 5158.00    1.22935   1.25006    0.020
 5159.00    1.31084   1.23003    0.020
 5160.00    1.49672   1.20473    0.020
 5161.00    1.57306   1.17077    0.020
 5162.00    1.24072   1.13514    0.020
 5163.00    0.96893   1.10124    0.020
 5164.00    0.88610   1.06843    0.020
 5165.00    0.86209   1.04146    0.020
 5166.00    0.99390   1.02479    0.020
 5167.00    1.07665   1.01643    0.020
 5168.00    1.04786   1.01421    0.020
 5169.00    1.05864   1.02293    0.020
 5170.00    1.14732   1.04269    0.020
 5171.00    1.20990   1.06456    0.020
 5172.00    1.22768   1.08696    0.020
 5173.00    1.21080   1.11193    0.020
 5174.00    1.14181   1.13266    0.020
 5175.00    1.14298   1.14297    0.019
 5176.00    1.23682   1.14431    0.019
 5177.00    1.28276   1.14075    0.019
 5178.00    1.27297   1.13212    0.020
 5179.00    1.18895   1.11788    0.020
 5180.00    1.02878   1.10833    0.020
 5181.00    0.97364   1.10808    0.019
 5182.00    1.01354   1.11140    0.020
 5183.00    1.06825   1.12214    0.020
 5184.00    1.13479   1.13854    0.020
 5185.00    1.20223   1.15412    0.020
 5186.00    1.27031   1.17173    0.020
 5187.00    1.26667   1.18417    0.020
 5188.00    1.21890   1.18872    0.020
 5189.00    1.20773   1.19669    0.020
 5190.00    1.21623   1.20305    0.000
 5191.00    1.17815   1.20320    0.000
 5192.00    1.11831   1.20955    0.000
 5193.00    1.19962   1.22001    0.000
 5194.00    1.33771   1.22574    0.000
 5195.00    1.27269   1.23244    0.000
 5196.00    1.13797   1.24046    0.000
 5197.00    1.11292   1.24162    0.000
 5198.00    1.11956   1.23666    0.000
 5199.00    1.16520   1.23058    0.000
 5200.00    1.22015   1.22001    0.000
 5201.00    1.32090   1.20301    0.000
 5202.00    1.43046   1.18946    0.000
 5203.00    1.29245   1.18073    0.000
 5204.00    1.11743   1.17105    0.000
 5205.00    1.10519   1.16925    0.000
 5206.00    1.11077   1.17747    0.000
 5207.00    1.19002   1.18662    0.000
 5208.00    1.27458   1.19949    0.000
 5209.00    1.30709   1.21720    0.000
 5210.00    1.33766   1.23278    0.000
 5211.00    1.34146   1.24601    0.021
 5212.00    1.34402   1.25858    0.021
 5213.00    1.30604   1.26859    0.021
 5214.00    1.26801   1.27591    0.021
 5215.00    1.22907   1.28159    0.021
 5216.00    1.20454   1.28410    0.021
 5217.00    1.32661   1.28317    0.020
 5218.00    1.43024   1.27928    0.020
 5219.00    1.39976   1.26993    0.020
 5220.00    1.37233   1.25640    0.020
 5221.00    1.36184   1.24399    0.020
 5222.00    1.36514   1.23065    0.020
 5223.00    1.42972   1.21744    0.020
 5224.00    1.44056   1.21376    0.020
 5225.00    1.25505   1.21452    0.020
 5226.00    1.09888   1.21550    0.020
 5227.00    1.03251   1.22564    0.020
 5228.00    1.00458   1.23771    0.020
 5229.00    1.07669   1.24589    0.019
 5230.00    1.14096   1.25858    0.019
 5231.00    1.18771   1.27122    0.020
 5232.00    1.17756   1.28070    0.020
 5233.00    1.05711   1.29274    0.019
 5234.00    1.02535   1.30484    0.019
 5235.00    1.14347   1.31458    0.019
 5236.00    1.25922   1.32335    0.019
 5237.00    1.37146   1.33076    0.019
 5238.00    1.42755   1.33516    0.019
 5239.00    1.41053   1.33504    0.019
 5240.00    1.40050   1.33229    0.019
 5241.00    1.39846   1.32831    0.019
 5242.00    1.36870   1.31985    0.019
 5243.00    1.31091   1.30811    0.019
 5244.00    1.29022   1.29915    0.019
 5245.00    1.30265   1.29035    0.020
 5246.00    1.30956   1.27973    0.020
 5247.00    1.31212   1.27465    0.019
 5248.00    1.31294   1.27392    0.019
 5249.00    1.31256   1.27383    0.020
 5250.00    1.30920   1.27791    0.020
 5251.00    1.30403   1.28431    0.020
 5252.00    1.31858   1.29103    0.020
 5253.00    1.34356   1.29741    0.021
 5254.00    1.34736   1.29956    0.020
 5255.00    1.34143   1.29736    0.020
 5256.00    1.26964   1.28969    0.020
 5257.00    1.17181   1.27451    0.021
 5258.00    1.16343   1.25331    0.021
 5259.00    1.18517   1.22721    0.021
 5260.00    1.18269   1.20011    0.021
 5261.00    1.17334   1.17413    0.021
 5262.00    1.28978   1.14821    0.021
 5263.00    1.43559   1.12948    0.021
 5264.00    1.26971   1.12026    0.021
 5265.00    1.04538   1.11254    0.021
 5266.00    1.04144   1.11224    0.021
 5267.00    1.06942   1.12476    0.021
 5268.00    1.16440   1.13782    0.022
 5269.00    1.26644   1.15270    0.022
 5270.00    1.17600   1.17759    0.022
 5271.00    1.07244   1.20102    0.022
 5272.00    1.11815   1.22035    0.022
 5273.00    1.16888   1.24332    0.022
 5274.00    1.15450   1.26208    0.021
 5275.00    1.14412   1.27449    0.020
 5276.00    1.26395   1.28621    0.020
 5277.00    1.37035   1.29380    0.020
 5278.00    1.27218   1.29881    0.020
 5279.00    1.18442   1.30474    0.020
 5280.00    1.19809   1.31023    0.020
 5281.00    1.23211   1.31874    0.020
 5282.00    1.40942   1.33039    0.020
 5283.00    1.54868   1.34182    0.020
 5284.00    1.48160   1.35454    0.020
 5285.00    1.43080   1.36689    0.020
 5286.00    1.45072   1.37512    0.019
 5287.00    1.44868   1.37946    0.019
 5288.00    1.36808   1.37947    0.019
 5289.00    1.30173   1.37406    0.020
 5290.00    1.27823   1.36414    0.020
 5291.00    1.28021   1.35086    0.020
 5292.00    1.34735   1.33608    0.019
 5293.00    1.37593   1.32142    0.019
 5294.00    1.31964   1.30825    0.019
 5295.00    1.27218   1.30025    0.019
 5296.00    1.24154   1.29761    0.019
 5297.00    1.22467   1.29876    0.019
 5298.00    1.23073   1.30645    0.020
 5299.00    1.23730   1.31893    0.020
 5300.00    1.24465   1.33191    0.019
 5301.00    1.26091   1.34639    0.019
 5302.00    1.28860   1.36131    0.019
 5303.00    1.28834   1.37315    0.019
 5304.00    1.25645   1.38265    0.019
 5305.00    1.25260   1.39045    0.019
 5306.00    1.27671   1.39443    0.019
 5307.00    1.29148   1.39557    0.020
 5308.00    1.29801   1.39544    0.020
 5309.00    1.34887   1.39200    0.020
 5310.00    1.43407   1.38659    0.020
 5311.00    1.48118   1.38141    0.020
 5312.00    1.50235   1.37411    0.020
 5313.00    1.46272   1.36620    0.020
 5314.00    1.38680   1.35976    0.019
 5315.00    1.34158   1.35172    0.019
 5316.00    1.31236   1.34276    0.019
 5317.00    1.23135   1.33354    0.020
 5318.00    1.12693   1.32171    0.020
 5319.00    1.17281   1.30810    0.020
 5320.00    1.27707   1.29229    0.020
 5321.00    1.31975   1.27465    0.020
 5322.00    1.34208   1.25890    0.020
 5323.00    1.21658   1.24434    0.020
 5324.00    1.05009   1.23197    0.020
 5325.00    1.19869   1.22774    0.020
 5326.00    1.41916   1.23003    0.020
 5327.00    1.24237   1.23587    0.020
 5328.00    0.99306   1.24875    0.020
 5329.00    0.95098   1.26552    0.020
 5330.00    0.93796   1.28106    0.020
 5331.00    1.04718   1.29577    0.019
 5332.00    1.16873   1.30762    0.019
 5333.00    1.25123   1.31431    0.019
 5334.00    1.33123   1.31750    0.019
 5335.00    1.33292   1.31780    0.019
 5336.00    1.33201   1.31451    0.019
 5337.00    1.22244   1.31151    0.019
 5338.00    1.12163   1.31047    0.019
 5339.00    1.27110   1.30799    0.019
 5340.00    1.41819   1.30784    0.018
 5341.00    1.53102   1.31084    0.019
 5342.00    1.61204   1.31201    0.019
 5343.00    1.39529   1.31518    0.019
 5344.00    1.22356   1.32061    0.019
 5345.00    1.35884   1.32506    0.019
 5346.00    1.48195   1.33258    0.019
 5347.00    1.54081   1.34284    0.018
 5348.00    1.57234   1.35350    0.018
 5349.00    1.48775   1.36604    0.019
 5350.00    1.42261   1.37993    0.019
 5351.00    1.42567   1.39280    0.019
 5352.00    1.43500   1.40311    0.019
 5353.00    1.46283   1.41144    0.019
 5354.00    1.51411   1.41666    0.019
 5355.00    1.62431   1.41650    0.019
 5356.00    1.68837   1.41302    0.019
 5357.00    1.65259   1.40648    0.019
 5358.00    1.60038   1.39541    0.018
 5359.00    1.51730   1.38296    0.018
 5360.00    1.44712   1.36941    0.019
 5361.00    1.39810   1.35348    0.019
 5362.00    1.34055   1.33896    0.019
 5363.00    1.27073   1.32524    0.019
 5364.00    1.21530   1.31123    0.019
 5365.00    1.17807   1.30105    0.019
 5366.00    1.20365   1.29420    0.019
 5367.00    1.29926   1.28987    0.019
 5368.00    1.25889   1.29144   -2.000
 5369.00    1.08483   1.29809   -2.000
 5370.00    1.08067   1.30669   -2.000
 5371.00    1.22387   1.31870   -2.000
 5372.00    1.23175   1.33261   -2.000
 5373.00    1.13628   1.34334   -2.000
 5374.00    1.12055   1.35254   -2.000
 5375.00    1.15836   1.36029   -2.000
 5376.00    1.18061   1.36297   -2.000
 5377.00    1.19371   1.36359   -2.000
 5378.00    1.15253   1.36397   -2.000
 5379.00    1.08351   1.36136   -2.000
 5380.00    1.10350   1.35824   -2.000
 5381.00    1.16304   1.35637   -2.000
 5382.00    1.21535   1.35219   -2.000
 5383.00    1.26490   1.34707    0.023
 5384.00    1.26552   1.34237    0.021
 5385.00    1.25027   1.33491    0.019
 5386.00    1.27577   1.32616    0.019
 5387.00    1.31234   1.31740    0.019
 5388.00    1.34561   1.30731    0.018
 5389.00    1.37815   1.29755    0.018
 5390.00    1.39588   1.28836    0.018
 5391.00    1.41097   1.28019    0.019
 5392.00    1.43777   1.27421    0.019
 5393.00    1.46615   1.26859    0.018
 5394.00    1.48347   1.26531    0.018
 5395.00    1.49972   1.26433    0.018
 5396.00    1.43275   1.26145    0.018
 5397.00    1.36077   1.25925    0.018
 5398.00    1.27587   1.25776    0.018
 5399.00    1.19128   1.25237    0.018
 5400.00    1.21425   1.24606    0.018
 5401.00    1.23672   1.24146    0.018
 5402.00    1.24642   1.23615    0.018
 5403.00    1.25688   1.23237    0.017
 5404.00    1.27766   1.23332    0.017
 5405.00    1.29514   1.23733    0.018
 5406.00    1.28298   1.24434    0.018
 5407.00    1.27696   1.25581    0.018
 5408.00    1.31162   1.26902    0.018
 5409.00    1.33590   1.28273    0.018
 5410.00    1.30678   1.29791    0.018
 5411.00    1.29431   1.31143    0.018
 5412.00    1.35091   1.32256    0.018
 5413.00    1.38726   1.33247    0.018
 5414.00    1.35404   1.33866    0.018
 5415.00    1.34118   1.34222    0.019
 5416.00    1.38721   1.34422    0.019
 5417.00    1.39977   1.34269    0.018
 5418.00    1.32964   1.34072    0.018
 5419.00    1.29254   1.33856    0.018
 5420.00    1.32577   1.33358    0.019
 5421.00    1.32808   1.33021    0.019
 5422.00    1.27323   1.32686    0.018
 5423.00    1.26484   1.31988    0.018
 5424.00    1.33150   1.31489    0.018
 5425.00    1.37613   1.30903    0.019
 5426.00    1.38952   1.30020    0.018
 5427.00    1.33898   1.29472    0.018
 5428.00    1.20872   1.28885    0.018
 5429.00    1.13002   1.28391    0.018
 5430.00    1.10800   1.28500    0.018
 5431.00    1.11027   1.28736    0.018
 5432.00    1.13611   1.29301    0.018
 5433.00    1.16659   1.30408    0.018
 5434.00    1.20104   1.31611    0.018
 5435.00    1.20655   1.32852    0.018
 5436.00    1.19028   1.34065    0.018
 5437.00    1.25002   1.34981    0.018
 5438.00    1.36004   1.35466    0.018
 5439.00    1.37739   1.35537    0.018
 5440.00    1.34104   1.35137    0.018
 5441.00    1.27101   1.34417    0.017
 5442.00    1.18397   1.33607    0.017
 5443.00    1.13253   1.32697    0.017
 5444.00    1.09664   1.32010    0.017
 5445.00    1.14097   1.31553    0.017
 5446.00    1.21538   1.31141    0.017
 5447.00    1.24681   1.31042    0.017
 5448.00    1.26456   1.30973    0.017
 5449.00    1.29344   1.30729    0.017
 5450.00    1.32527   1.30648    0.017
 5451.00    1.34268   1.30523    0.017
 5452.00    1.35695   1.30348    0.017
 5453.00    1.41693   1.30395    0.017
 5454.00    1.48480   1.30415    0.017
 5455.00    1.49417   1.30553    0.018
 5456.00    1.49588   1.30840    0.018
 5457.00    1.36547   1.30918    0.017
 5458.00    1.22287   1.31041    0.017
 5459.00    1.25221   1.31175    0.017
 5460.00    1.29122   1.31182    0.017
 5461.00    1.30409   1.31258    0.017
 5462.00    1.31686   1.31279    0.018
 5463.00    1.38050   1.31326    0.018
 5464.00    1.43796   1.31372    0.018
 5465.00    1.34995   1.31224    0.018
 5466.00    1.27078   1.30997    0.018
 5467.00    1.30499   1.30575    0.018
 5468.00    1.33494   1.29956    0.018
 5469.00    1.32803   1.29209    0.018
 5470.00    1.30729   1.28323    0.018
 5471.00    1.19791   1.27541    0.018
 5472.00    1.12279   1.26762    0.019
 5473.00    1.21937   1.26138    0.019
 5474.00    1.30581   1.25951    0.019
 5475.00    1.35106   1.25837    0.019
 5476.00    1.37345   1.25987    0.019
 5477.00    1.31889   1.26556    0.018
 5478.00    1.26703   1.27136   -2.000
 5479.00    1.22287   1.27797   -2.000
 5480.00    1.21627   1.28562   -2.000
 5481.00    1.30085   1.29260   -2.000
 5482.00    1.36575   1.29886   -2.000
 5483.00    1.38942   1.30344   -2.000
 5484.00    1.40175   1.30667   -2.000
 5485.00    1.39343   1.30995   -2.000
 5486.00    1.54284   1.31171   -2.000
 5487.00    1.94332   1.31243   -2.000
 5488.00    1.87557   1.31395   -2.000
 5489.00    1.15373   1.31438   -2.000
 5490.00    0.79775   1.31462   -2.000
 5491.00    0.89158   1.31548   -2.000
 5492.00    0.98227   1.31506   -2.000
 5493.00    1.06958   1.31444   -2.000
 5494.00    1.17861   1.31399   -2.000
 5495.00    1.30839   1.31251   -2.000
 5496.00    1.35061   1.30994   -2.000
 5497.00    1.31903   1.30690   -2.000
 5498.00    1.34484   1.30437   -2.000
 5499.00    1.41324   1.30086   -2.000
 5500.00    1.41582   1.29588   -2.000
 5501.00    1.37547   1.29309   -2.000
 5502.00    1.33772   1.29068    0.017
 5503.00    1.30145   1.28653    0.017
 5504.00    1.29322   1.28467    0.017
 5505.00    1.29892   1.28291    0.017
 5506.00    1.28212   1.28032    0.017
 5507.00    1.25563   1.28004    0.017
 5508.00    1.24699   1.27888    0.017
 5509.00    1.24492   1.27887    0.017
 5510.00    1.29745   1.28214    0.017
 5511.00    1.36701   1.28542    0.017
 5512.00    1.35576   1.29123    0.017
 5513.00    1.32348   1.29919    0.017
 5514.00    1.30517   1.30690    0.017
 5515.00    1.28983   1.31524    0.017
 5516.00    1.30840   1.32213    0.018
 5517.00    1.33265   1.32723    0.018
 5518.00    1.27691   1.32990    0.018
 5519.00    1.21104   1.32863    0.017
 5520.00    1.30700   1.32597    0.018
 5521.00    1.41724   1.32147    0.018
 5522.00    1.35329   1.31440    0.018
 5523.00    1.28024   1.30829    0.017
 5524.00    1.25248   1.30318    0.017
 5525.00    1.22672   1.29883    0.017
 5526.00    1.28843   1.29686    0.017
 5527.00    1.34890   1.29666    0.017
 5528.00    1.38265   1.29812    0.017
 5529.00    1.40191   1.30069    0.017
 5530.00    1.24449   1.30388    0.017
 5531.00    1.10917   1.30746    0.017
 5532.00    1.15810   1.31145    0.017
 5533.00    1.20346   1.31579    0.016
 5534.00    1.22656   1.31904    0.016
 5535.00    1.25127   1.32312    0.016
 5536.00    1.28388   1.32748    0.017
 5537.00    1.30767   1.32963    0.017
 5538.00    1.29643   1.33272    0.016
 5539.00    1.28835   1.33590    0.016
 5540.00    1.29071   1.33710    0.016
 5541.00    1.29580   1.33918    0.016
 5542.00    1.30850   1.34173    0.017
 5543.00    1.32464   1.34393    0.017
 5544.00    1.34899   1.34682    0.016
 5545.00    1.37089   1.34898    0.020
 5546.00    1.38775   1.35079    0.050
 5547.00    1.39447   1.35256   -1.000
 5548.00    1.38304   1.35200   -1.000
 5549.00    1.38728   1.35042   -1.000
 5550.00    1.41609   1.34885   -1.000
 5551.00    1.39798   1.34548   -1.000
 5552.00    1.31528   1.34169   -1.000
 5553.00    1.25677   1.33824    0.074
 5554.00    1.22758   1.33418    0.023
 5555.00    1.19982   1.33066    0.017
 5556.00    1.17357   1.32644    0.017
 5557.00    1.16876   1.32155    0.017
 5558.00    1.18415   1.31798    0.017
 5559.00    1.22608   1.31317    0.017
 5560.00    1.29008   1.30767    0.017
 5561.00    1.34256   1.30374    0.017
 5562.00    1.38662   1.30001    0.017
 5563.00    1.34492   1.29624    0.017
 5564.00    1.24816   1.29370    0.017
 5565.00    1.24773   1.29308    0.017
 5566.00    1.30144   1.29226    0.017
 5567.00    1.30310   1.29229    0.017
 5568.00    1.27931   1.29484    0.017
 5569.00    1.23328   1.29663    0.017
 5570.00    1.17785   1.29951    0.017
 5571.00    1.17910   1.30372    0.017
 5572.00    1.20085   1.30608    0.017
 5573.00    1.22165   1.30992    0.017
 5574.00    1.24216   1.31350    0.017
 5575.00    1.32273   1.31313    0.017
 5576.00    1.41859   1.31318    0.017
 5577.00    1.55646   1.31191    0.017
 5578.00    1.70302   1.30573    0.017
 5579.00    1.56161   1.29893    0.017
 5580.00    1.37324   1.28994    0.016
 5581.00    1.33192   1.27779    0.017
 5582.00    1.30857   1.26709    0.017
 5583.00    1.27502   1.25599    0.017
 5584.00    1.24062   1.24599    0.016
 5585.00    1.15779   1.23973    0.016
 5586.00    1.07261   1.23555    0.016
 5587.00    0.99715   1.23544    0.016
 5588.00    0.92568   1.23744    0.016
 5589.00    1.08205   1.24121    0.016
 5590.00    1.23306   1.24831    0.016
 5591.00    1.27765   1.25366    0.016
 5592.00    1.31791   1.25767    0.017
 5593.00    1.30799   1.26209    0.017
 5594.00    1.30016   1.26420    0.017
 5595.00    1.30914   1.26528    0.017
 5596.00    1.30832   1.26601    0.018
 5597.00    1.24828   1.26662    0.018
 5598.00    1.19541   1.27089    0.018
 5599.00    1.17666   1.27687    0.018
 5600.00    1.15359   1.28331    0.018
 5601.00    1.11372   1.29323    0.017
 5602.00    1.09538   1.30444    0.017
 5603.00    1.14671   1.31522    0.017
 5604.00    1.20708   1.32468    0.018
 5605.00    1.29220   1.33137    0.018
 5606.00    1.32716   1.33528    0.017
 5607.00    1.24442   1.33578    0.017
 5608.00    1.21842   1.33204    0.017
 5609.00    1.30752   1.32376    0.017
 5610.00    1.34929   1.31510    0.017
 5611.00    1.30747   1.30687    0.017
 5612.00    1.23985   1.29722    0.017
 5613.00    1.13237   1.28934    0.017
 5614.00    1.08495   1.28351    0.017
 5615.00    1.11903   1.28012    0.017
 5616.00    1.15704   1.27943    0.017
 5617.00    1.19972   1.27813    0.016
 5618.00    1.23562   1.27720    0.016
 5619.00    1.26436   1.27876    0.016
 5620.00    1.27607   1.28106    0.016
 5621.00    1.27196   1.28241    0.015
 5622.00    1.26508   1.28471    0.015
 5623.00    1.25593   1.28906    0.016
 5624.00    1.25580   1.29421    0.016
 5625.00    1.26217   1.30006    0.016
 5626.00    1.30811   1.30528    0.016
 5627.00    1.37909   1.30934    0.016
 5628.00    1.40496   1.31300    0.016
 5629.00    1.40587   1.31443    0.016
 5630.00    1.39026   1.31295    0.016
 5631.00    1.36670   1.30981    0.016
 5632.00    1.32502   1.30558    0.016
 5633.00    1.27581   1.30101    0.016
 5634.00    1.25670   1.29611    0.016
 5635.00    1.24827   1.29106    0.016
 5636.00    1.24067   1.28801    0.016
 5637.00    1.23331   1.28656    0.016
 5638.00    1.25492   1.28575    0.016
 5639.00    1.28375   1.28666    0.016
 5640.00    1.28707   1.28826    0.017
 5641.00    1.28525   1.29123    0.017
 5642.00    1.20451   1.29500    0.017
 5643.00    1.11127   1.29725    0.017
 5644.00    1.17721   1.29990    0.017
 5645.00    1.26190   1.30280    0.017
 5646.00    1.29099   1.30399    0.017
 5647.00    1.31564   1.30391    0.017
 5648.00    1.26241   1.30182    0.017
 5649.00    1.20572   1.29790    0.016
 5650.00    1.24945   1.29423    0.016
 5651.00    1.29297   1.28819    0.016
 5652.00    1.27106   1.27888    0.016
 5653.00    1.24916   1.27183    0.016
 5654.00    1.22745   1.26676    0.016
 5655.00    1.20929   1.26095    0.016
 5656.00    1.23054   1.25658    0.016
 5657.00    1.24466   1.25486    0.016
 5658.00    1.20348   1.25663    0.016
 5659.00    1.16921   1.26061    0.016
 5660.00    1.17551   1.26403    0.015
 5661.00    1.17706   1.26846    0.015
 5662.00    1.15650   1.27537    0.015
 5663.00    1.14722   1.28198    0.015
 5664.00    1.18080   1.28735    0.015
 5665.00    1.21439   1.29316    0.016
 5666.00    1.24799   1.29971    0.015
 5667.00    1.26559   1.30652    0.015
 5668.00    1.24014   1.31270    0.015
 5669.00    1.22746   1.31792    0.015
 5670.00    1.24426   1.32327    0.015
 5671.00    1.27584   1.32794    0.016
 5672.00    1.33694   1.33022    0.016
 5673.00    1.37091   1.33061    0.016
 5674.00    1.35771   1.32974    0.016
 5675.00    1.32500   1.32718    0.016
 5676.00    1.26257   1.32215    0.017
 5677.00    1.21409   1.31609    0.017
 5678.00    1.18427   1.31037    0.017
 5679.00    1.14848   1.30462    0.017
 5680.00    1.10563   1.29893    0.017
 5681.00    1.08717   1.29397    0.017
 5682.00    1.09404   1.29118    0.017
 5683.00    1.15993   1.29054    0.017
 5684.00    1.27989   1.29120    0.017
 5685.00    1.32287   1.29317    0.017
 5686.00    1.30367   1.29725    0.017
 5687.00    1.27352   1.30229    0.017
 5688.00    1.23559   1.30665    0.017
 5689.00    1.25426   1.31083    0.017
 5690.00    1.30821   1.31383    0.017
 5691.00    1.31204   1.31528    0.016
 5692.00    1.28857   1.31431    0.016
 5693.00    1.27847   1.31155    0.016
 5694.00    1.27471   1.30757    0.016
 5695.00    1.24815   1.30101    0.016
 5696.00    1.21229   1.29424    0.016
 5697.00    1.15979   1.28715    0.016
 5698.00    1.10150   1.27977    0.016
 5699.00    1.06552   1.27292    0.016
 5700.00    1.03610   1.26489    0.016
 5701.00    1.08292   1.25809    0.016
 5702.00    1.14831   1.25220    0.016
 5703.00    1.22174   1.24535    0.016
 5704.00    1.29675   1.24105    0.016
 5705.00    1.27131   1.23823    0.016
 5706.00    1.23044   1.23679    0.016
 5707.00    1.22113   1.24000    0.016
 5708.00    1.21540   1.24471    0.016
 5709.00    1.22346   1.25180    0.016
 5710.00    1.23257   1.26272    0.016
 5711.00    1.23952   1.27363    0.016
 5712.00    1.24639   1.28576    0.016
 5713.00    1.23079   1.29861    0.016
 5714.00    1.21561   1.30927    0.016
 5715.00    1.22520   1.31960    0.016
 5716.00    1.23352   1.32886    0.016
 5717.00    1.22014   1.33544    0.016
 5718.00    1.21162   1.34090    0.016
 5719.00    1.25452   1.34463    0.016
 5720.00    1.28794   1.34601    0.016
 5721.00    1.25024   1.34600    0.016
 5722.00    1.22083   1.34532    0.017
 5723.00    1.23877   1.34368    0.017
 5724.00    1.25525   1.34113    0.017
 5725.00    1.26517   1.33849    0.017
 5726.00    1.27219   1.33644    0.016
 5727.00    1.26841   1.33577    0.016
 5728.00    1.26916   1.33515    0.016
 5729.00    1.28404   1.33487    0.016
 5730.00    1.31184   1.33572    0.016
 5731.00    1.37377   1.33691    0.016
 5732.00    1.40387   1.33839    0.016
 5733.00    1.36175   1.33898    0.016
 5734.00    1.33381   1.33932    0.016
 5735.00    1.33373   1.33998    0.016
 5736.00    1.32818   1.33975    0.015
 5737.00    1.31327   1.33912    0.016
 5738.00    1.31728   1.33866    0.016
 5739.00    1.34965   1.33798    0.015
 5740.00    1.37483   1.33696    0.000
 5741.00    1.39052   1.33548    0.000
 5742.00    1.40756   1.33341    0.000
 5743.00    1.42618   1.33158    0.000
 5744.00    1.42454   1.32921    0.000
 5745.00    1.40217   1.32556    0.000
 5746.00    1.39349   1.32193    0.000
 5747.00    1.39716   1.31853    0.000
 5748.00    1.42401   1.31543    0.000
 5749.00    1.46931   1.31304    0.000
 5750.00    1.43337   1.31098    0.000
 5751.00    1.34054   1.30970    0.000
 5752.00    1.29331   1.31012    0.000
 5753.00    1.27410   1.31099    0.000
 5754.00    1.26692   1.31147    0.000
 5755.00    1.26618   1.31204    0.000
 5756.00    1.26977   1.31233    0.000
 5757.00    1.27537   1.31294    0.000
 5758.00    1.27301   1.31468    0.000
 5759.00    1.26747   1.31637    0.000
 5760.00    1.21650   1.31859    0.000
 5761.00    1.14998   1.32259    0.000
 5762.00    1.13359   1.32689    0.000
 5763.00    1.13164   1.33117    0.000
 5764.00    1.17013   1.33502    0.000
 5765.00    1.21824   1.33767    0.000
 5766.00    1.29221   1.33925    0.000
 5767.00    1.37114   1.33974    0.000
 5768.00    1.40080   1.33842    0.000
 5769.00    1.42313   1.33553    0.000
 5770.00    1.32274   1.33236    0.000
 5771.00    1.20898   1.32784    0.000
 5772.00    1.25919   1.32224    0.000
 5773.00    1.32116   1.31588    0.000
 5774.00    1.32576   1.30770    0.000
 5775.00    1.32824   1.29894    0.000
 5776.00    1.28560   1.29007    0.000
 5777.00    1.24312   1.28053    0.000
 5778.00    1.21275   1.27183    0.000
 5779.00    1.18335   1.26475    0.000
 5780.00    1.16950   1.26023    0.000
 5781.00    1.16021   1.25914    0.000
 5782.00    1.19719   1.25942    0.000
 5783.00    1.23671   1.26261    0.000
 5784.00    1.29458   1.26853    0.000
 5785.00    1.34915   1.27511    0.000
 5786.00    1.38537   1.28346    0.000
 5787.00    1.39770   1.29071    0.000
 5788.00    1.30405   1.29755    0.000
 5789.00    1.21960   1.30516    0.000
 5790.00    1.16867   1.31097    0.000
 5791.00    1.13104   1.31651   -2.000
 5792.00    1.13401   1.32150   -2.000
 5793.00    1.15618   1.32562   -2.000
 5794.00    1.22821   1.32968   -2.000
 5795.00    1.25585   1.33266   -2.000
 5796.00    1.18443   1.33559   -2.000
 5797.00    1.12522   1.33806   -2.000
 5798.00    1.08964   1.33919   -2.000
 5799.00    1.09645   1.33985   -2.000
 5800.00    1.17478   1.33940   -2.000
 5801.00    1.26598   1.33841   -2.000
 5802.00    1.37621   1.33769   -2.000
 5803.00    1.42448   1.33642   -2.000
 5804.00    1.39222   1.33568   -2.000
 5805.00    1.36813   1.33542   -2.000
 5806.00    1.35340   1.33491   -2.000
 5807.00    1.33711   1.33505   -2.000
 5808.00    1.31924   1.33515   -2.000
 5809.00    1.33654   1.33511   -2.000
 5810.00    1.38515   1.33543   -2.000
 5811.00    1.42372   1.33574    0.000
 5812.00    1.45442   1.33663    0.000
 5813.00    1.44088   1.33785    0.000
 5814.00    1.39681   1.33983    0.000
 5815.00    1.38208   1.34292    0.000
 5816.00    1.38508   1.34608    0.000
 5817.00    1.42578   1.34941    0.000
 5818.00    1.48639   1.35233    0.000
 5819.00    1.49039   1.35495    0.000
 5820.00    1.46845   1.35722    0.000
 5821.00    1.44066   1.35876    0.000
 5822.00    1.41055   1.35992    0.000
 5823.00    1.37511   1.36034    0.000
 5824.00    1.33788   1.36047    0.000
 5825.00    1.32271   1.36011    0.000
 5826.00    1.31378   1.35942    0.000
 5827.00    1.31701   1.35856    0.000
 5828.00    1.32307   1.35718    0.000
 5829.00    1.34371   1.35575    0.000
 5830.00    1.36708   1.35437    0.000
 5831.00    1.36993   1.35308    0.000
 5832.00    1.36983   1.35207    0.000
 5833.00    1.33611   1.35190    0.000
 5834.00    1.29887   1.35221    0.000
 5835.00    1.29644   1.35261    0.000
 5836.00    1.29636   1.35327    0.000
 5837.00    1.30124   1.35388    0.000
 5838.00    1.30629   1.35422    0.000
 5839.00    1.34754   1.35367    0.000
 5840.00    1.38766   1.35195    0.000
 5841.00    1.39137   1.34910    0.000
 5842.00    1.39329   1.34543    0.000
 5843.00    1.36824   1.34079    0.000
 5844.00    1.34415   1.33498    0.000
 5845.00    1.32930   1.32858    0.000
 5846.00    1.31619   1.32193    0.000
 5847.00    1.31527   1.31513    0.000
 5848.00    1.31140   1.30826    0.000
 5849.00    1.29158   1.30088    0.000
 5850.00    1.27155   1.29364    0.000
 5851.00    1.25065   1.28763    0.000
 5852.00    1.24761   1.28288    0.000
 5853.00    1.30834   1.27956    0.000
 5854.00    1.35079   1.27661    0.000
 5855.00    1.33850   1.27555    0.000
 5856.00    1.31036   1.27689    0.000
 5857.00    1.24177   1.27958    0.000
 5858.00    1.20930   1.28362    0.000
 5859.00    1.25609   1.28713    0.000
 5860.00    1.29810   1.29146    0.000
 5861.00    1.33100   1.29651    0.000
 5862.00    1.34152   1.30143    0.000
 5863.00    1.31484   1.30583    0.000
 5864.00    1.30592   1.30943    0.000
 5865.00    1.32288   1.31311    0.000
 5866.00    1.32746   1.31651    0.000
 5867.00    1.31618   1.31930    0.000
 5868.00    1.33337   1.32089    0.000
 5869.00    1.38271   1.32137    0.000
 5870.00    1.41370   1.32079    0.000
 5871.00    1.42643   1.31941    0.000
 5872.00    1.41013   1.31681    0.000
 5873.00    1.36834   1.31307    0.000
 5874.00    1.33555   1.30855    0.000
 5875.00    1.30972   1.30278    0.000
 5876.00    1.28936   1.29608    0.000
 5877.00    1.27274   1.28797    0.000
 5878.00    1.24879   1.27868    0.000
 5879.00    1.22049   1.26764    0.000
 5880.00    1.24615   1.25360    0.000
 5881.00    1.29986   1.23562    0.000
 5882.00    1.30809   1.21458    0.000
 5883.00    1.29582   1.19299    0.000
 5884.00    1.24623   1.17018    0.000
 5885.00    1.18218   1.14728    0.000
 5886.00    1.14545   1.12488    0.000
 5887.00    1.11772   1.10403    0.000
 5888.00    1.10131   1.09096    0.000
 5889.00    1.08803   1.08478    0.000
 5890.00    1.09206   1.08328    0.000
 5891.00    1.10004   1.08760    0.000
 5892.00    1.12658   1.09468    0.000
 5893.00    1.15649   1.10666    0.000
 5894.00    1.15901   1.12558    0.000
 5895.00    1.15770   1.14613    0.000
 5896.00    1.14093   1.16753    0.000
 5897.00    1.12261   1.18862    0.000
 5898.00    1.10838   1.20800    0.000
 5899.00    1.09442   1.22681    0.000
 5900.00    1.16447   1.24319    0.000
 5901.00    1.23660   1.25616    0.016
 5902.00    1.17573   1.26613    0.016
 5903.00    1.11702   1.27363    0.015
 5904.00    1.11931   1.27905    0.015
 5905.00    1.12397   1.28248    0.015
 5906.00    1.16229   1.28382    0.015
 5907.00    1.19734   1.28401    0.015
 5908.00    1.20187   1.28334    0.015
 5909.00    1.21030   1.28236    0.015
 5910.00    1.24516   1.28092    0.015
 5911.00    1.27411   1.27898    0.015
 5912.00    1.27196   1.27853    0.015
 5913.00    1.26970   1.27850    0.014
 5914.00    1.26699   1.27968    0.014
 5915.00    1.26407   1.28177    0.014
 5916.00    1.26046   1.28378    0.014
 5917.00    1.25329   1.28670    0.014
 5918.00    1.23567   1.28929    0.015
 5919.00    1.22232   1.29120    0.015
 5920.00    1.21967   1.29285    0.015
 5921.00    1.22503   1.29352    0.015
 5922.00    1.24768   1.29334    0.015
 5923.00    1.26128   1.29332    0.015
 5924.00    1.25793   1.29239    0.015
 5925.00    1.26162   1.29107    0.015
 5926.00    1.27682   1.28957    0.015
 5927.00    1.27127   1.28779    0.015
 5928.00    1.23593   1.28789    0.015
 5929.00    1.20037   1.28816    0.015
 5930.00    1.16453   1.28840    0.015
 5931.00    1.15451   1.28897    0.015
 5932.00    1.17321   1.28927    0.015
 5933.00    1.19986   1.29057    0.015
 5934.00    1.23432   1.29180    0.015
 5935.00    1.26623   1.29261    0.015
 5936.00    1.29593   1.29345    0.015
 5937.00    1.31963   1.29363    0.015
 5938.00    1.33874   1.29347    0.015
 5939.00    1.31310   1.29339    0.015
 5940.00    1.25747   1.29284    0.015
 5941.00    1.21134   1.29214    0.015
 5942.00    1.17080   1.29169    0.015
 5943.00    1.15786   1.29075    0.014
 5944.00    1.15906   1.28907    0.014
 5945.00    1.14473   1.28678    0.014
 5946.00    1.12350   1.28484    0.014
 5947.00    1.12900   1.28384    0.014
 5948.00    1.14468   1.28280    0.014
 5949.00    1.19703   1.28143    0.014
 5950.00    1.26125   1.28052    0.014
 5951.00    1.28506   1.28116    0.015
 5952.00    1.29792   1.28277    0.015
 5953.00    1.25974   1.28453    0.015
 5954.00    1.21022   1.28676    0.015
 5955.00    1.21966   1.28957    0.015
 5956.00    1.23954   1.29315    0.015
 5957.00    1.28470   1.29691    0.015
 5958.00    1.33328   1.30022    0.015
 5959.00    1.27770   1.30366    0.015
 5960.00    1.21211   1.30635    0.015
 5961.00    1.18774   1.30889    0.015
 5962.00    1.16582   1.31096    0.015
 5963.00    1.20453   1.31236    0.015
 5964.00    1.24462   1.31411    0.015
 5965.00    1.25798   1.31501    0.015
 5966.00    1.27175   1.31539    0.015
 5967.00    1.29582   1.31498    0.015
 5968.00    1.31862   1.31350    0.015
 5969.00    1.32423   1.31137    0.015
 5970.00    1.32643   1.30842    0.015
 5971.00    1.29811   1.30481    0.015
 5972.00    1.27018   1.30080    0.015
 5973.00    1.24485   1.29637    0.015
 5974.00    1.22153   1.29226    0.014
 5975.00    1.20852   1.28854    0.014
 5976.00    1.19801   1.28500    0.014
 5977.00    1.19782   1.28262    0.014
 5978.00    1.20315   1.28041    0.014
 5979.00    1.22741   1.27841    0.014
 5980.00    1.23902   1.27683    0.015
 5981.00    1.21411   1.27551    0.014
 5982.00    1.18681   1.27592    0.014
 5983.00    1.15360   1.27735    0.014
 5984.00    1.14975   1.27896    0.014
 5985.00    1.20826   1.28156    0.014
 5986.00    1.23899   1.28432    0.014
 5987.00    1.21843   1.28714    0.014
 5988.00    1.19788   1.28935    0.015
 5989.00    1.17736   1.29074    0.015
 5990.00    1.18639   1.29228    0.015
 5991.00    1.23722   1.29292    0.015
 5992.00    1.26257   1.29238    0.015
 5993.00    1.25620   1.29104    0.015
 5994.00    1.24674   1.28868    0.015
 5995.00    1.23391   1.28628    0.015
 5996.00    1.23437   1.28446    0.015
 5997.00    1.24768   1.28227    0.015
 5998.00    1.25563   1.27994    0.015
 5999.00    1.25900   1.27710    0.015
 6000.00    1.27725   1.27382    0.014
 6001.00    1.30668   1.27216    0.015
 6002.00    1.32973   1.27054    0.015
 6003.00    1.34857   1.26851    0.015
 6004.00    1.34979   1.26680    0.015
 6005.00    1.34081   1.26455    0.015
 6006.00    1.35085   1.26421    0.014
 6007.00    1.37048   1.26474    0.014
 6008.00    1.35411   1.26432    0.014
 6009.00    1.32206   1.26360    0.014
 6010.00    1.30243   1.26228    0.014
 6011.00    1.28744   1.26154    0.014
 6012.00    1.29692   1.26108    0.014
 6013.00    1.31415   1.25990    0.014
 6014.00    1.28793   1.25875    0.014
 6015.00    1.25018   1.25864    0.014
 6016.00    1.24897   1.25841    0.015
 6017.00    1.25567   1.25884    0.015
 6018.00    1.28683   1.26061    0.015
 6019.00    1.32220   1.26305    0.015
 6020.00    1.33220   1.26703    0.015
 6021.00    1.33888   1.27098    0.015
 6022.00    1.28575   1.27612    0.015
 6023.00    1.22712   1.28178    0.015
 6024.00    1.24814   1.28677    0.015
 6025.00    1.27359   1.29267    0.015
 6026.00    1.28126   1.29795    0.015
 6027.00    1.28848   1.30274    0.015
 6028.00    1.29087   1.30682    0.015
 6029.00    1.29463   1.31025    0.015
 6030.00    1.33006   1.31328    0.015
 6031.00    1.36590   1.31518    0.015
 6032.00    1.40689   1.31637    0.015
 6033.00    1.43982   1.31723    0.015
 6034.00    1.40322   1.31747    0.015
 6035.00    1.35888   1.31771    0.014
 6036.00    1.26511   1.31765    0.014
 6037.00    1.18631   1.31747    0.014
 6038.00    1.18233   1.31801    0.014
 6039.00    1.18828   1.31833    0.014
 6040.00    1.23439   1.31950    0.014
 6041.00    1.28108   1.32074    0.014
 6042.00    1.32974   1.32163    0.015
 6043.00    1.37792   1.32239    0.015
 6044.00    1.42470   1.32260    0.015
 6045.00    1.45158   1.32229    0.014
 6046.00    1.43027   1.32102    0.015
 6047.00    1.40747   1.31950    0.015
 6048.00    1.38154   1.31716    0.015
 6049.00    1.35138   1.31436    0.015
 6050.00    1.31355   1.31115    0.015
 6051.00    1.27966   1.30817    0.015
 6052.00    1.25204   1.30569    0.015
 6053.00    1.23130   1.30299    0.015
 6054.00    1.22016   1.30113    0.015
 6055.00    1.21307   1.29940    0.015
 6056.00    1.21095   1.29828    0.015
 6057.00    1.21152   1.29718    0.015
 6058.00    1.21501   1.29622    0.015
 6059.00    1.22422   1.29591    0.015
 6060.00    1.23890   1.29564    0.015
 6061.00    1.24454   1.29669    0.015
 6062.00    1.24256   1.29786    0.015
 6063.00    1.25393   1.30077    0.014
 6064.00    1.27518   1.30560    0.014
 6065.00    1.29411   1.30997    0.014
 6066.00    1.31153   1.31423    0.014
 6067.00    1.33593   1.31769    0.014
 6068.00    1.36432   1.32024    0.014
 6069.00    1.35536   1.32172    0.014
 6070.00    1.32789   1.32147    0.014
 6071.00    1.30299   1.31958    0.014
 6072.00    1.27919   1.31628    0.014
 6073.00    1.28719   1.31148    0.014
 6074.00    1.30688   1.30611    0.014
 6075.00    1.30412   1.30004    0.014
 6076.00    1.29437   1.29430    0.015
 6077.00    1.27926   1.28982    0.015
 6078.00    1.26276   1.28549    0.015
 6079.00    1.22995   1.28150    0.015
 6080.00    1.19370   1.27876    0.014
 6081.00    1.19357   1.27711    0.014
 6082.00    1.19948   1.27554    0.015
 6083.00    1.25334   1.27465    0.015
 6084.00    1.31325   1.27437    0.015
 6085.00    1.26314   1.27460    0.015
 6086.00    1.20339   1.27470    0.014
 6087.00    1.18981   1.27456    0.014
 6088.00    1.17862   1.27539    0.014
 6089.00    1.25109   1.27660    0.014
 6090.00    1.32393   1.27769    0.014
 6091.00    1.31141   1.27875    0.014
 6092.00    1.29917   1.27941    0.014
 6093.00    1.29266   1.27888    0.014
 6094.00    1.28323   1.27753    0.014
 6095.00    1.23837   1.27561    0.014
 6096.00    1.19742   1.27360    0.014
 6097.00    1.18887   1.27087    0.014
 6098.00    1.18664   1.26790    0.014
 6099.00    1.22361   1.26483    0.014
 6100.00    1.25741   1.26275    0.014
 6101.00    1.27581   1.26436    0.014
 6102.00    1.28998   1.26667    0.014
 6103.00    1.28742   1.26947    0.014
 6104.00    1.29159   1.27280    0.014
 6105.00    1.31789   1.27613    0.014
 6106.00    1.34473   1.28018    0.015
 6107.00    1.37308   1.28381    0.015
 6108.00    1.38832   1.28619    0.015
 6109.00    1.37237   1.28762    0.015
 6110.00    1.35115   1.28816    0.015
 6111.00    1.31912   1.28722    0.015
 6112.00    1.30100   1.28483    0.015
 6113.00    1.30782   1.28115    0.015
 6114.00    1.31953   1.27710    0.015
 6115.00    1.33889   1.27295    0.014
 6116.00    1.34966   1.26812    0.014
 6117.00    1.34863   1.26326    0.014
 6118.00    1.33691   1.25957    0.014
 6119.00    1.31223   1.25631    0.014
 6120.00    1.31900   1.25549    0.014
 6121.00    1.35932   1.25665    0.014
 6122.00    1.35963   1.25746    0.014
 6123.00    1.32229   1.25884    0.014
 6124.00    1.30027   1.26001    0.014
 6125.00    1.29095   1.26079    0.014
 6126.00    1.30750   1.26067    0.014
 6127.00    1.34294   1.25916    0.014
 6128.00    1.32992   1.25686    0.014
 6129.00    1.28582   1.25276    0.014
 6130.00    1.24822   1.24767    0.014
 6131.00    1.21425   1.24165    0.014
 6132.00    1.23415   1.23541    0.014
 6133.00    1.28034   1.23074    0.014
 6134.00    1.27705   1.22747    0.015
 6135.00    1.25290   1.22805    0.015
 6136.00    1.23409   1.23153    0.015
 6137.00    1.21721   1.23596    0.015
 6138.00    1.24118   1.24089    0.015
 6139.00    1.27763   1.24617    0.015
 6140.00    1.31089   1.25285    0.015
 6141.00    1.34336   1.25895    0.015
 6142.00    1.32986   1.26345    0.015
 6143.00    1.30687   1.26666    0.015
 6144.00    1.29292   1.26802    0.015
 6145.00    1.28043   1.26781    0.015
 6146.00    1.27898   1.26692    0.014
 6147.00    1.27886   1.26520    0.014
 6148.00    1.28896   1.26316    0.014
 6149.00    1.29991   1.25990    0.014
 6150.00    1.30740   1.25575    0.014
 6151.00    1.31471   1.24988    0.014
 6152.00    1.31676   1.24252    0.014
 6153.00    1.31776   1.23488    0.014
 6154.00    1.26302   1.22605    0.014
 6155.00    1.20913   1.21639    0.014
 6156.00    1.17197   1.20620    0.014
 6157.00    1.14102   1.19632    0.014
 6158.00    1.18158   1.18682    0.014
 6159.00    1.21710   1.17901    0.014
 6160.00    1.21221   1.17471    0.014
 6161.00    1.20632   1.17303    0.014
 6162.00    1.19438   1.17353    0.014
 6163.00    1.18017   1.17487    0.014
 6164.00    1.15516   1.17776    0.014
 6165.00    1.13625   1.18171    0.014
 6166.00    1.14097   1.18570    0.015
 6167.00    1.14793   1.19089    0.015
 6168.00    1.16209   1.19752    0.015
 6169.00    1.16817   1.20435    0.015
 6170.00    1.15213   1.21004    0.014
 6171.00    1.14470   1.21592    0.014
 6172.00    1.15746   1.22175    0.014
 6173.00    1.17724   1.22706    0.014
 6174.00    1.21123   1.23181    0.014
 6175.00    1.21982   1.23630    0.014
 6176.00    1.18362   1.23998    0.014
 6177.00    1.15452   1.24174    0.014
 6178.00    1.13638   1.24275    0.014
 6179.00    1.12560   1.24255    0.014
 6180.00    1.12480   1.24083    0.014
 6181.00    1.14292   1.23739    0.014
 6182.00    1.18361   1.23330    0.014
 6183.00    1.22654   1.22839    0.014
 6184.00    1.27184   1.22311    0.014
 6185.00    1.30572   1.21860    0.014
 6186.00    1.32900   1.21460    0.014
 6187.00    1.31825   1.21221    0.014
 6188.00    1.27967   1.21071    0.015
 6189.00    1.23686   1.21113    0.015
 6190.00    1.19099   1.21410    0.014
 6191.00    1.20120   1.21741    0.014
 6192.00    1.24683   1.22130    0.015
 6193.00    1.25646   1.22527    0.015
 6194.00    1.24621   1.22900    0.015
 6195.00    1.24754   1.23235    0.015
 6196.00    1.25443   1.23515   -2.000
 6197.00    1.42155   1.23814   -2.000
 6198.00    1.65510   1.24119   -2.000
 6199.00    1.68639   1.24382   -2.000
 6200.00    1.64599   1.24583   -2.000
 6201.00    1.32954   1.24702   -2.000
 6202.00    0.93048   1.24728   -2.000
 6203.00    0.68718   1.24637   -2.000
 6204.00    0.48257   1.24409   -2.000
 6205.00    0.56465   1.24044   -2.000
 6206.00    0.70446   1.23534   -2.000
 6207.00    0.89712   1.22899   -2.000
 6208.00    1.09812   1.22141    0.015
 6209.00    1.16612   1.21372    0.014
 6210.00    1.21854   1.20595    0.014
 6211.00    1.22548   1.19897    0.014
 6212.00    1.22882   1.19366    0.014
 6213.00    1.19150   1.18968    0.014
 6214.00    1.15240   1.18720    0.014
 6215.00    1.14504   1.18605    0.014
 6216.00    1.13767   1.18566    0.014
 6217.00    1.11283   1.18622    0.014
 6218.00    1.08872   1.18754    0.014
 6219.00    1.07794   1.18892    0.014
 6220.00    1.07284   1.19017    0.014
 6221.00    1.13028   1.19040    0.014
 6222.00    1.18311   1.19025    0.014
 6223.00    1.20039   1.18937    0.015
 6224.00    1.21286   1.18774    0.015
 6225.00    1.19717   1.18601    0.015
 6226.00    1.18337   1.18420    0.015
 6227.00    1.17839   1.18297    0.014
 6228.00    1.16896   1.18220    0.014
 6229.00    1.14267   1.18342    0.015
 6230.00    1.11640   1.18469    0.014
 6231.00    1.09016   1.18621    0.014
 6232.00    1.07795   1.18746    0.014
 6233.00    1.10343   1.18739    0.014
 6234.00    1.12195   1.18658    0.014
 6235.00    1.12444   1.18448    0.013
 6236.00    1.12864   1.18253    0.013
 6237.00    1.13628   1.17971    0.013
 6238.00    1.14356   1.17689    0.013
 6239.00    1.15022   1.17485    0.014
 6240.00    1.15547   1.17243    0.014
 6241.00    1.15860   1.17123    0.013
 6242.00    1.15926   1.17095    0.014
 6243.00    1.15664   1.17104    0.014
 6244.00    1.15576   1.17123    0.014
 6245.00    1.15691   1.17122    0.014
 6246.00    1.16335   1.17029    0.014
 6247.00    1.17529   1.16773    0.014
 6248.00    1.17645   1.16485    0.014
 6249.00    1.16777   1.16092    0.014
 6250.00    1.16094   1.15735    0.014
 6251.00    1.15560   1.15412    0.014
 6252.00    1.15128   1.15202    0.014
 6253.00    1.14767   1.15091    0.014
 6254.00    1.13972   1.15131    0.014
 6255.00    1.12906   1.15418    0.014
 6256.00    1.13125   1.15800    0.014
 6257.00    1.14042   1.16410    0.014
 6258.00    1.17846   1.17049    0.014
 6259.00    1.23013   1.17719    0.014
 6260.00    1.32633   1.18352    0.015
 6261.00    1.44067   1.18919    0.016
 6262.00    1.43853   1.19412    0.017
 6263.00    1.39584   1.19831    0.017
 6264.00    1.24707   1.20224    0.017
 6265.00    1.06717   1.20506    0.016
 6266.00    1.04050   1.20728    0.015
 6267.00    1.05105   1.20929    0.015
 6268.00    1.13321   1.21089    0.014
 6269.00    1.22943   1.21200    0.014
 6270.00    1.27379   1.21294    0.014
 6271.00    1.31022   1.21348    0.014
 6272.00    1.30960   1.21357    0.014
 6273.00    1.30479   1.21325    0.015
 6274.00    1.32431   1.21290    0.015
 6275.00    1.34566   1.21234    0.015
 6276.00    1.32254   1.21237    0.014
 6277.00    1.29763   1.21282    0.014
 6278.00    1.24485   1.21389    0.014
 6279.00    1.19308   1.21609    0.014
 6280.00    1.19011   1.21829    0.000
 6281.00    1.18879   1.22123    0.000
 6282.00    1.21557   1.22382    0.000
 6283.00    1.24322   1.22622    0.000
 6284.00    1.28003   1.22802    0.000
 6285.00    1.30848   1.22863    0.000
 6286.00    1.27452   1.22836    0.000
 6287.00    1.24024   1.22684    0.000
 6288.00    1.20413   1.22424    0.000
 6289.00    1.17225   1.22098    0.000
 6290.00    1.15949   1.21704    0.000
 6291.00    1.14683   1.21270    0.000
 6292.00    1.13454   1.20834    0.000
 6293.00    1.12880   1.20401    0.000
 6294.00    1.14337   1.20043    0.000
 6295.00    1.15864   1.19766    0.000
 6296.00    1.17578   1.19587    0.000
 6297.00    1.19380   1.19514    0.000
 6298.00    1.21382   1.19558    0.000
 6299.00    1.22463   1.19725    0.000
 6300.00    1.21742   1.19970    0.000
 6301.00    1.22533   1.20275    0.000
 6302.00    1.25910   1.20607    0.000
 6303.00    1.27365   1.20888    0.000
 6304.00    1.25942   1.21116    0.000
 6305.00    1.23885   1.21203    0.000
 6306.00    1.20993   1.21163    0.000
 6307.00    1.20727   1.21005    0.000
 6308.00    1.23506   1.20760    0.000
 6309.00    1.24798   1.20421    0.000
 6310.00    1.24570   1.20013    0.000
 6311.00    1.24351   1.19660    0.000
 6312.00    1.24142   1.19333    0.000
 6313.00    1.25953   1.19075    0.000
 6314.00    1.29369   1.18990    0.000
 6315.00    1.28832   1.19027    0.000
 6316.00    1.25533   1.19229    0.000
 6317.00    1.20258   1.19567    0.000
 6318.00    1.13770   1.19982    0.000
 6319.00    1.11778   1.20482    0.000
 6320.00    1.12191   1.20976    0.000
 6321.00    1.12189   1.21499    0.014
 6322.00    1.11992   1.21904    0.014
 6323.00    1.13998   1.22249    0.014
 6324.00    1.16887   1.22517    0.014
 6325.00    1.16748   1.22614    0.014
 6326.00    1.15575   1.22644    0.014
 6327.00    1.14259   1.22529    0.014
 6328.00    1.12902   1.22355    0.014
 6329.00    1.14902   1.22086    0.014
 6330.00    1.17699   1.21726    0.014
 6331.00    1.22037   1.21369    0.014
 6332.00    1.26669   1.21030    0.014
 6333.00    1.26009   1.20787    0.014
 6334.00    1.24564   1.20575    0.014
 6335.00    1.21069   1.20479    0.014
 6336.00    1.17350   1.20435    0.014
 6337.00    1.17359   1.20434    0.013
 6338.00    1.17633   1.20485    0.013
 6339.00    1.21546   1.20530    0.013
 6340.00    1.25592   1.20671    0.013
 6341.00    1.25466   1.20834    0.013
 6342.00    1.25320   1.21031    0.013
 6343.00    1.25037   1.21235    0.013
 6344.00    1.24831   1.21416    0.014
 6345.00    1.25857   1.21552    0.013
 6346.00    1.26478   1.21615    0.013
 6347.00    1.23021   1.21580    0.014
 6348.00    1.19991   1.21420    0.014
 6349.00    1.20033   1.21134    0.014
 6350.00    1.20447   1.20716    0.014
 6351.00    1.22918   1.20227    0.014
 6352.00    1.24326   1.19659    0.014
 6353.00    1.21031   1.19036    0.014
 6354.00    1.18296   1.18424    0.014
 6355.00    1.17598   1.17889    0.014
 6356.00    1.17333   1.17452    0.014
 6357.00    1.18387   1.17158    0.014
 6358.00    1.20039   1.17053    0.014
 6359.00    1.23241   1.17146    0.014
 6360.00    1.24946   1.17437    0.013
 6361.00    1.23319   1.17900    0.014
 6362.00    1.21418   1.18480    0.014
 6363.00    1.18988   1.19175    0.014
 6364.00    1.18898   1.19887    0.014
 6365.00    1.22747   1.20602    0.014
 6366.00    1.25676   1.21271    0.014
 6367.00    1.27250   1.21896    0.014
 6368.00    1.26753   1.22434    0.014
 6369.00    1.23569   1.22850    0.014
 6370.00    1.21507   1.23157    0.014
 6371.00    1.20725   1.23348    0.013
 6372.00    1.20500   1.23453    0.014
 6373.00    1.20836   1.23449    0.014
 6374.00    1.21012   1.23391    0.014
 6375.00    1.21046   1.23314    0.014
 6376.00    1.20904   1.23212    0.014
 6377.00    1.20627   1.23149    0.014
 6378.00    1.19419   1.23090    0.014
 6379.00    1.17571   1.23034    0.014
 6380.00    1.16747   1.23008    0.014
 6381.00    1.16540   1.22995    0.014
 6382.00    1.18329   1.22976    0.014
 6383.00    1.21170   1.22909    0.014
 6384.00    1.22524   1.22810    0.014
 6385.00    1.23198   1.22652    0.013
 6386.00    1.23189   1.22434    0.013
 6387.00    1.22910   1.22174    0.013
 6388.00    1.22229   1.21839    0.013
 6389.00    1.21414   1.21561    0.013
 6390.00    1.18362   1.21356    0.013
 6391.00    1.14680   1.21178    0.013
 6392.00    1.14849   1.21067    0.013
 6393.00    1.15912   1.20974    0.014
 6394.00    1.19842   1.20931    0.014
 6395.00    1.24305   1.20865    0.015
 6396.00    1.25665   1.20984    0.014
 6397.00    1.26579   1.21143    0.014
 6398.00    1.20979   1.21295    0.014
 6399.00    1.14701   1.21468    0.014
 6400.00    1.13223   1.21581    0.014
 6401.00    1.12067   1.21666    0.014
 6402.00    1.14674   1.21673    0.014
 6403.00    1.17404   1.21619    0.014
 6404.00    1.13556   1.21580    0.014
 6405.00    1.09851   1.21523    0.014
 6406.00    1.10594   1.21390    0.014
 6407.00    1.11545   1.21284    0.014
 6408.00    1.15613   1.21221    0.014
 6409.00    1.19049   1.21156    0.014
 6410.00    1.16378   1.21101    0.013
 6411.00    1.13475   1.21090    0.013
 6412.00    1.08946   1.21070    0.013
 6413.00    1.05013   1.21073    0.013
 6414.00    1.04295   1.21088    0.013
 6415.00    1.04320   1.21100    0.013
 6416.00    1.07559   1.21179    0.013
 6417.00    1.09977   1.21337    0.013
 6418.00    1.09475   1.21588    0.014
 6419.00    1.07490   1.21807    0.014
 6420.00    1.01071   1.22033    0.013
 6421.00    0.97295   1.22239    0.013
 6422.00    1.00247   1.22412    0.014
 6423.00    1.04918   1.22510    0.014
 6424.00    1.13355   1.22505    0.014
 6425.00    1.20342   1.22415    0.014
 6426.00    1.24573   1.22261    0.014
 6427.00    1.27316   1.22177    0.014
 6428.00    1.27590   1.22083    0.014
 6429.00    1.27733   1.22017    0.014
 6430.00    1.27684   1.21987    0.015
 6431.00    1.26588   1.21993    0.014
 6432.00    1.24152   1.22057    0.014
 6433.00    1.22646   1.22126    0.014
 6434.00    1.22185   1.22234    0.013
 6435.00    1.22490   1.22457    0.013
 6436.00    1.23554   1.22722    0.013
 6437.00    1.24950   1.22947    0.013
 6438.00    1.26635   1.23143    0.013
 6439.00    1.25631   1.23262    0.013
 6440.00    1.22550   1.23290    0.013
 6441.00    1.19966   1.23203    0.013
 6442.00    1.17719   1.22982    0.013
 6443.00    1.15594   1.22634    0.013
 6444.00    1.13543   1.22183    0.014
 6445.00    1.13929   1.21699    0.014
 6446.00    1.15580   1.21368    0.014
 6447.00    1.20019   1.21093    0.014
 6448.00    1.25711   1.20921    0.014
 6449.00    1.29111   1.20843    0.014
 6450.00    1.31625   1.20855    0.015
 6451.00    1.31876   1.20951    0.015
 6452.00    1.31381   1.21144    0.014
 6453.00    1.27176   1.21359    0.014
 6454.00    1.21946   1.21542    0.014
 6455.00    1.17839   1.21671    0.014
 6456.00    1.13987   1.21741    0.014
 6457.00    1.14147   1.21743    0.013
 6458.00    1.15034   1.21727    0.013
 6459.00    1.15155   1.21801    0.013
 6460.00    1.15170   1.21837    0.013
 6461.00    1.12887   1.21925    0.013
 6462.00    1.10373   1.21998    0.013
 6463.00    1.09371   1.22124    0.013
 6464.00    1.08465   1.22208    0.013
 6465.00    1.11066   1.22306    0.013
 6466.00    1.13765   1.22379    0.013
 6467.00    1.15761   1.22415    0.013
 6468.00    1.17735   1.22476    0.014
 6469.00    1.19113   1.22460    0.014
 6470.00    1.20642   1.22444    0.014
 6471.00    1.24315   1.22376    0.014
 6472.00    1.27760   1.22316    0.014
 6473.00    1.29101   1.22191    0.015
 6474.00    1.29429   1.22037    0.015
 6475.00    1.22904   1.21854    0.014
 6476.00    1.17226   1.21634    0.014
 6477.00    1.15995   1.21404    0.014
 6478.00    1.15809   1.21190    0.014
 6479.00    1.20036   1.21006    0.014
 6480.00    1.23073   1.20800    0.014
 6481.00    1.21955   1.20565    0.014
 6482.00    1.21069   1.20266    0.013
 6483.00    1.20863   1.19878    0.013
 6484.00    1.21134   1.19353    0.013
 6485.00    1.22597   1.18667    0.013
 6486.00    1.23035   1.17837    0.013
 6487.00    1.21260   1.16857    0.013
 6488.00    1.19081   1.15812    0.013
 6489.00    1.16142   1.14737    0.013
 6490.00    1.12884   1.13782    0.013
 6491.00    1.09103   1.13059    0.013
 6492.00    1.06522   1.12549    0.013
 6493.00    1.05659   1.12409    0.013
 6494.00    1.05100   1.12524    0.014
 6495.00    1.04923   1.12987    0.014
 6496.00    1.05768   1.13692    0.014
 6497.00    1.07751   1.14578    0.014
 6498.00    1.09911   1.15583    0.014
 6499.00    1.12247   1.16594    0.014
 6500.00    1.14256   1.17585    0.014
 6501.00    1.15983   1.18454    0.014
 6502.00    1.16832   1.19226    0.014
 6503.00    1.17012   1.19820    0.014
 6504.00    1.17322   1.20287    0.014
 6505.00    1.17718   1.20600    0.013
 6506.00    1.19637   1.20795    0.013
 6507.00    1.22447   1.20867    0.013
 6508.00    1.26640   1.20847    0.013
 6509.00    1.31539   1.20753    0.013
 6510.00    1.34506   1.20614    0.013
 6511.00    1.36619   1.20450    0.013
 6512.00    1.35737   1.20299    0.013
 6513.00    1.33718   1.20194    0.013
 6514.00    1.33451   1.20116    0.013
 6515.00    1.33751   1.20126    0.013
 6516.00    1.32768   1.20162    0.014
 6517.00    1.31439   1.20251    0.013
 6518.00    1.29569   1.20349    0.014
 6519.00    1.27578   1.20450    0.014
 6520.00    1.27988   1.20533    0.014
 6521.00    1.28821   1.20588    0.014
 6522.00    1.30348   1.20611    0.014
 6523.00    1.31969   1.20617    0.014
 6524.00    1.30564   1.20598    0.014
 6525.00    1.28870   1.20558    0.014
 6526.00    1.26735   1.20520    0.014
 6527.00    1.24574   1.20492    0.014
 6528.00    1.25490   1.20496    0.000
 6529.00    1.26487   1.20524    0.000
 6530.00    1.27837   1.20573    0.000
 6531.00    1.28962   1.20633    0.000
 6532.00    1.24392   1.20687    0.000
 6533.00    1.19874   1.20724    0.000
 6534.00    1.16052   1.20717    0.000
 6535.00    1.12822   1.20649    0.000
 6536.00    1.14867   1.20496    0.000
 6537.00    1.16780   1.20262    0.000
 6538.00    1.17826   1.19948    0.000
 6539.00    1.18662   1.19545    0.000
 6540.00    1.18434   1.19121    0.000
 6541.00    1.19692   1.18652    0.000
 6542.00    1.27085   1.18184    0.000
 6543.00    1.34702   1.17704    0.000
 6544.00    1.43084   1.17205    0.000
 6545.00    1.48511   1.16696    0.000
 6546.00    1.45428   1.16135    0.000
 6547.00    1.41716   1.15512    0.000
 6548.00    1.36461   1.14784    0.000
 6549.00    1.30495   1.13941    0.000
 6550.00    1.23020   1.12963    0.000
 6551.00    1.17875   1.11821    0.000
 6552.00    1.17021   1.10530    0.000
 6553.00    1.17836   1.09085    0.000
 6554.00    1.21336   1.07550    0.000
 6555.00    1.31966   1.05923    0.000
 6556.00    1.52665   1.04390    0.000
 6557.00    1.79760   1.03178    0.000
 6558.00    2.14802   1.02284    0.000
 6559.00    2.36745   1.01849    0.000
 6560.00    2.44340   1.01852    0.000
 6561.00    2.37793   1.02302    0.000
 6562.00    2.17584   1.03131    0.000
 6563.00    1.94187   1.04277    0.000
 6564.00    1.68073   1.05617    0.000
 6565.00    1.50240   1.07018    0.000
 6566.00    1.38620   1.08388    0.000
 6567.00    1.31412   1.09664    0.000
 6568.00    1.27113   1.10791    0.000
 6569.00    1.23756   1.11814    0.000
 6570.00    1.20943   1.12698    0.000
 6571.00    1.18401   1.13492    0.000
 6572.00    1.15995   1.14170    0.000
 6573.00    1.15599   1.14785    0.000
 6574.00    1.16076   1.15319    0.000
 6575.00    1.20827   1.15820    0.000
 6576.00    1.27173   1.16267    0.000
 6577.00    1.38764   1.16652    0.000
 6578.00    1.52017   1.16978    0.000
 6579.00    1.64777   1.17220    0.000
 6580.00    1.77407   1.17413    0.000
 6581.00    1.79172   1.17538    0.000
 6582.00    1.78587   1.17580    0.000
 6583.00    1.63073   1.17552    0.000
 6584.00    1.44997   1.17429    0.000
 6585.00    1.32047   1.17230    0.000
 6586.00    1.19763   1.16946    0.000
 6587.00    1.16558   1.16692    0.000
 6588.00    1.14182   1.16460    0.000
 6589.00    1.14316   1.16262    0.000
 6590.00    1.14589   1.16129    0.000
 6591.00    1.17263   1.16073    0.000
 6592.00    1.19952   1.16128    0.000
 6593.00    1.19139   1.16276    0.000
 6594.00    1.18342   1.16496    0.000
 6595.00    1.17928   1.16732    0.000
 6596.00    1.17630   1.16968    0.000
 6597.00    1.18795   1.17161    0.000
 6598.00    1.19869   1.17288    0.000
 6599.00    1.20158   1.17354    0.000
 6600.00    1.20547   1.17341    0.000
 6601.00    1.21573   1.17286    0.000
 6602.00    1.21853   1.17185    0.000
 6603.00    1.18415   1.17120    0.000
 6604.00    1.14927   1.17094    0.000
 6605.00    1.11233   1.17116    0.000
 6606.00    1.08826   1.17210    0.000
 6607.00    1.10731   1.17366    0.000
 6608.00    1.13102   1.17617    0.000
 6609.00    1.16790   1.17890    0.014
 6610.00    1.20491   1.18195    0.014
 6611.00    1.24223   1.18482    0.014
 6612.00    1.27183   1.18752    0.014
 6613.00    1.28533   1.18965    0.014
 6614.00    1.29475   1.19107    0.014
 6615.00    1.29680   1.19169    0.014
 6616.00    1.29528   1.19137    0.014
 6617.00    1.28811   1.19038    0.014
 6618.00    1.28737   1.18855    0.014
 6619.00    1.29558   1.18651    0.013
 6620.00    1.29612   1.18382    0.013
 6621.00    1.28725   1.18100    0.013
 6622.00    1.26159   1.17793    0.013
 6623.00    1.21779   1.17487    0.013
 6624.00    1.20120   1.17182    0.013
 6625.00    1.21051   1.16881    0.013
 6626.00    1.20948   1.16609    0.013
 6627.00    1.19975   1.16359    0.013
 6628.00    1.17804   1.16178    0.013
 6629.00    1.14746   1.16033    0.014
 6630.00    1.12685   1.15957    0.014
 6631.00    1.11271   1.15923    0.014
 6632.00    1.13592   1.15951    0.014
 6633.00    1.18035   1.16012    0.014
 6634.00    1.19408   1.16101    0.014
 6635.00    1.19262   1.16200    0.014
 6636.00    1.17383   1.16284    0.014
 6637.00    1.14762   1.16364    0.014
 6638.00    1.14033   1.16434    0.014
 6639.00    1.13996   1.16491    0.014
 6640.00    1.14396   1.16543    0.014
 6641.00    1.14931   1.16593    0.014
 6642.00    1.15175   1.16656    0.013
 6643.00    1.15344   1.16721    0.013
 6644.00    1.14544   1.16797    0.013
 6645.00    1.13539   1.16865    0.013
 6646.00    1.11288   1.16937    0.013
 6647.00    1.08829   1.16984    0.013
 6648.00    1.08315   1.17015    0.013
 6649.00    1.08045   1.17011    0.014
 6650.00    1.03536   1.16969    0.014
 6651.00    0.98659   1.16888    0.014
 6652.00    1.02527   1.16752    0.014
 6653.00    1.06844   1.16580    0.014
 6654.00    1.15045   1.16343    0.014
 6655.00    1.23148   1.16095    0.014
 6656.00    1.19543   1.15812    0.014
 6657.00    1.15917   1.15543    0.014
 6658.00    1.11877   1.15288    0.014
 6659.00    1.08410   1.15079    0.014
 6660.00    1.11844   1.14938    0.014
 6661.00    1.14900   1.14867    0.013
 6662.00    1.14835   1.14886    0.013
 6663.00    1.14739   1.14962    0.013
 6664.00    1.14458   1.15104    0.013
 6665.00    1.14532   1.15263    0.013
 6666.00    1.16334   1.15431    0.013
 6667.00    1.18012   1.15557    0.013
 6668.00    1.19197   1.15624    0.013
 6669.00    1.19792   1.15609    0.013
 6670.00    1.18449   1.15545    0.013
 6671.00    1.17311   1.15426    0.013
 6672.00    1.16744   1.15269    0.013
 6673.00    1.18211   1.15114    0.014
 6674.00    1.24512   1.14978    0.014
 6675.00    1.27892   1.14908    0.014
 6676.00    1.25270   1.14893    0.014
 6677.00    1.21059   1.14967    0.014
 6678.00    1.14007   1.15095    0.014
 6679.00    1.09233   1.15281    0.014
 6680.00    1.08017   1.15495    0.014
 6681.00    1.08808   1.15710    0.014
 6682.00    1.12352   1.15912    0.014
 6683.00    1.16509   1.16065    0.014
 6684.00    1.21404   1.16178    0.014
 6685.00    1.24027   1.16222    0.013
 6686.00    1.24230   1.16213    0.013
 6687.00    1.23410   1.16133    0.013
 6688.00    1.21629   1.16018    0.013
 6689.00    1.19056   1.15867    0.013
 6690.00    1.15828   1.15695    0.013
 6691.00    1.14635   1.15527    0.013
 6692.00    1.14925   1.15357    0.013
 6693.00    1.14479   1.15219    0.013
 6694.00    1.13561   1.15097    0.014
 6695.00    1.13007   1.15015    0.014
 6696.00    1.12657   1.14957    0.000
 6697.00    1.11833   1.14926    0.000
 6698.00    1.10780   1.14907    0.000
 6699.00    1.11076   1.14884    0.000
 6700.00    1.11940   1.14863    0.000
 6701.00    1.14353   1.14810    0.000
 6702.00    1.17323   1.14745    0.000
 6703.00    1.20626   1.14639    0.000
 6704.00    1.24031   1.14496    0.000
 6705.00    1.24936   1.14309    0.000
 6706.00    1.25207   1.14075    0.000
 6707.00    1.25507   1.13806    0.000
 6708.00    1.25813   1.13507    0.000
 6709.00    1.27916   1.13203    0.000
 6710.00    1.30311   1.12916    0.000
 6711.00    1.35724   1.12659    0.000
 6712.00    1.41503   1.12469    0.000
 6713.00    1.48111   1.12344    0.000
 6714.00    1.54788   1.12321    0.000
 6715.00    1.51437   1.12371    0.000
 6716.00    1.47610   1.12513    0.000
 6717.00    1.37127   1.12704    0.000
 6718.00    1.26673   1.12950    0.000
 6719.00    1.23127   1.13211    0.000
 6720.00    1.19584   1.13476    0.000
 6721.00    1.16081   1.13728    0.000
 6722.00    1.12872   1.13951    0.000
 6723.00    1.13032   1.14148    0.000
 6724.00    1.13725   1.14303    0.000
 6725.00    1.18670   1.14431    0.000
 6726.00    1.23945   1.14510    0.000
 6727.00    1.31203   1.14556    0.000
 6728.00    1.36714   1.14554    0.000
 6729.00    1.33945   1.14518    0.000
 6730.00    1.30791   1.14442    0.000
 6731.00    1.26145   1.14328    0.000
 6732.00    1.21930   1.14186    0.000
 6733.00    1.19103   1.14020    0.000
 6734.00    1.16567   1.13846    0.000
 6735.00    1.14827   1.13658    0.000
 6736.00    1.12609   1.13480    0.000
 6737.00    1.09277   1.13299    0.000
 6738.00    1.06933   1.13139    0.000
 6739.00    1.06583   1.12979    0.000
 6740.00    1.07820   1.12847    0.000
 6741.00    1.11848   1.12718    0.000
 6742.00    1.15238   1.12612    0.000
 6743.00    1.17645   1.12527    0.000
 6744.00    1.20870   1.12469    0.000
 6745.00    1.25200   1.12452    0.000
 6746.00    1.26804   1.12472    0.000
 6747.00    1.25163   1.12555    0.000
 6748.00    1.20978   1.12681    0.000
 6749.00    1.14124   1.12873    0.000
 6750.00    1.09136   1.13104    0.000
 6751.00    1.05878   1.13376    0.000
 6752.00    1.09231   1.13666    0.000
 6753.00    1.17980   1.13952    0.014
 6754.00    1.23027   1.14221    0.015
 6755.00    1.25416   1.14436    0.015
 6756.00    1.20709   1.14599    0.015
 6757.00    1.11529   1.14682    0.015
 6758.00    1.07246   1.14701    0.015
 6759.00    1.05662   1.14641    0.015
 6760.00    1.13059   1.14530    0.015
 6761.00    1.24761   1.14379    0.016
 6762.00    1.32257   1.14214    0.017
 6763.00    1.38015   1.14062    0.017
 6764.00    1.35682   1.13941    0.017
 6765.00    1.30488   1.13878    0.017
 6766.00    1.30981   1.13873    0.016
 6767.00    1.33172   1.13943    0.016
 6768.00    1.31351   1.14067    0.016
 6769.00    1.28535   1.14239    0.016
 6770.00    1.25144   1.14429    0.015
 6771.00    1.21638   1.14614    0.015
 6772.00    1.22439   1.14767    0.015
 6773.00    1.23918   1.14860    0.014
 6774.00    1.22912   1.14885    0.014
 6775.00    1.21617   1.14825    0.014
 6776.00    1.16703   1.14693    0.014
 6777.00    1.11504   1.14494    0.014
 6778.00    1.15874   1.14258    0.014
 6779.00    1.20660   1.14006    0.014
 6780.00    1.14290   1.13765    0.015
 6781.00    1.07956   1.13559    0.015
 6782.00    1.08735   1.13401    0.015
 6783.00    1.09562   1.13298    0.015
 6784.00    1.11267   1.13247    0.015
 6785.00    1.12998   1.13237    0.015
 6786.00    1.15010   1.13259    0.015
 6787.00    1.17806   1.13295    0.015
 6788.00    1.26631   1.13343    0.015
 6789.00    1.34886   1.13386    0.015
 6790.00    1.39825   1.13435    0.015
 6791.00    1.42568   1.13478    0.015
 6792.00    1.35157   1.13532    0.015
 6793.00    1.28602   1.13584    0.015
 6794.00    1.25281   1.13646    0.015
 6795.00    1.22487   1.13708    0.014
 6796.00    1.21361   1.13770    0.014
 6797.00    1.21874   1.13824    0.014
 6798.00    1.26774   1.13865    0.014
 6799.00    1.29914   1.13892    0.014
 6800.00    1.29010   1.13897    0.014
 6801.00    1.27549   1.13887    0.015
 6802.00    1.24981   1.13860    0.015
 6803.00    1.23275   1.13824    0.015
 6804.00    1.23061   1.13781    0.015
 6805.00    1.19827   1.13739    0.015
 6806.00    1.12009   1.13703    0.015
 6807.00    1.06290   1.13679    0.014
 6808.00    1.03367   1.13669    0.014
 6809.00    1.02510   1.13677    0.014
 6810.00    1.04079   1.13704    0.014
 6811.00    1.06719   1.13751    0.014
 6812.00    1.10468   1.13815    0.015
 6813.00    1.14429   1.13896    0.015
 6814.00    1.18584   1.13987    0.015
 6815.00    1.20079   1.14084    0.015
 6816.00    1.19432   1.14180    0.015
 6817.00    1.17929   1.14269    0.014
 6818.00    1.15820   1.14342    0.014
 6819.00    1.16148   1.14397    0.014
 6820.00    1.17990   1.14426    0.014
 6821.00    1.16439   1.14434    0.014
 6822.00    1.13048   1.14418    0.014
 6823.00    1.12103   1.14384    0.014
 6824.00    1.12312   1.14334    0.014
 6825.00    1.14146   1.14273    0.014
 6826.00    1.16641   1.14197    0.014
 6827.00    1.19809   1.14108    0.015
 6828.00    1.23211   1.13992    0.015
 6829.00    1.25894   1.13850    0.015
 6830.00    1.28367   1.13665    0.015
 6831.00    1.29860   1.13445    0.015
 6832.00    1.31115   1.13181    0.015
 6833.00    1.27568   1.12897    0.014
 6834.00    1.23082   1.12599    0.014
 6835.00    1.23205   1.12322    0.014
 6836.00    1.24031   1.12081    0.014
 6837.00    1.28783   1.11907    0.014
 6838.00    1.33975   1.11811    0.015
 6839.00    1.26655   1.11801    0.015
 6840.00    1.18399   1.11870    0.015
 6841.00    1.11418   1.12002    0.015
 6842.00    1.04488   1.12170    0.014
 6843.00    1.04867   1.12346    0.014
 6844.00    1.05482   1.12502    0.014
 6845.00    1.13519   1.12612    0.014
 6846.00    1.20902   1.12660    0.014
 6847.00    1.17222   1.12639    0.014
 6848.00    1.14000   1.12551    0.015
 6849.00    1.15566   1.12409    0.015
 6850.00    1.17052   1.12229    0.015
 6851.00    1.17934   1.12031    0.014
 6852.00    1.18206   1.11837    0.014
 6853.00    1.15020   1.11665    0.014
 6854.00    1.13040   1.11527    0.014
 6855.00    1.16505   1.11433    0.014
 6856.00    1.17986   1.11381    0.014
 6857.00    1.12121   1.11368    0.014
 6858.00    1.07602   1.11386    0.014
 6859.00    1.07251   1.11420    0.014
 6860.00    1.08222   1.11461    0.014
 6861.00    1.12669   1.11496    0.014
 6862.00    1.14315   1.11525    0.014
 6863.00    1.09628   1.11538    0.014
 6864.00    1.09193   1.11546    0.014
 6865.00    1.17082   1.11548    0.015
 6866.00    1.20457   1.11555    0.015
 6867.00    1.16129   1.11572    0.015
 6868.00    1.12032   1.11604    0.016
 6869.00    1.08281   1.11655    0.015
 6870.00    1.08145   1.11720    0.015
 6871.00    1.12759   1.11799    0.015
 6872.00    1.14724   1.11878    0.015
 6873.00    1.13625   1.11960    0.014
 6874.00    1.14595   1.12033    0.014
 6875.00    1.17676   1.12103    0.014
 6876.00    1.18428   1.12168    0.014
 6877.00    1.17082   1.12236    0.014
 6878.00    1.15269   1.12318    0.014
 6879.00    1.13087   1.12419    0.013
 6880.00    1.11191   1.12552    0.013
 6881.00    1.09495   1.12712    0.014
 6882.00    1.09601   1.12906    0.014
 6883.00    1.10808   1.13116    0.014
 6884.00    1.14806   1.13339    0.014
 6885.00    1.20294   1.13555    0.014
 6886.00    1.21465   1.13755    0.014
 6887.00    1.20633   1.13925    0.015
 6888.00    1.19562   1.14061    0.015
 6889.00    1.18395   1.14160    0.015
 6890.00    1.17291   1.14225    0.014
 6891.00    1.16208   1.14263    0.014
 6892.00    1.13958   1.14284    0.014
 6893.00    1.11373   1.14296    0.014
 6894.00    1.10126   1.14311    0.014
 6895.00    1.09197   1.14329    0.014
 6896.00    1.08450   1.14360    0.014
 6897.00    1.07739   1.14398    0.014
 6898.00    1.10829   1.14447    0.014
 6899.00    1.14481   1.14493    0.014
 6900.00    1.11341   1.14537    0.014
 6901.00    1.07469   1.14564    0.014
 6902.00    1.05721   1.14572    0.014
 6903.00    1.04123   1.14547    0.014
 6904.00    1.05249   1.14491    0.014
 6905.00    1.06473   1.14398    0.014
 6906.00    1.09077   1.14274    0.014
 6907.00    1.11730   1.14127    0.015
 6908.00    1.15933   1.13966    0.015
 6909.00    1.19749   1.13808    0.015
 6910.00    1.17455   1.13661    0.015
 6911.00    1.14904   1.13542    0.014
 6912.00    1.09769   1.13451    0.014
 6913.00    1.05567   1.13392    0.014
 6914.00    1.08065   1.13356    0.014
 6915.00    1.10208   1.13337    0.014
 6916.00    1.10384   1.13323    0.014
 6917.00    1.10580   1.13304    0.014
 6918.00    1.10858   1.13276    0.014
 6919.00    1.11234   1.13235    0.014
 6920.00    1.11966   1.13188    0.014
 6921.00    1.12188   1.13137    0.014
 6922.00    1.10859   1.13093    0.014
 6923.00    1.09587   1.13062    0.014
 6924.00    1.08457   1.13048    0.014
 6925.00    1.07177   1.13057    0.014
 6926.00    1.05562   1.13083    0.014
 6927.00    1.06878   1.13129    0.014
 6928.00    1.13840   1.13185    0.014
 6929.00    1.16508   1.13252    0.015
 6930.00    1.11958   1.13320    0.015
 6931.00    1.10273   1.13386    0.015
 6932.00    1.12806   1.13441    0.014
 6933.00    1.16935   1.13479    0.014
 6934.00    1.23131   1.13494    0.015
 6935.00    1.25480   1.13479    0.015
 6936.00    1.23442   1.13434    0.015
 6937.00    1.19101   1.13359    0.015
 6938.00    1.12444   1.13260    0.015
 6939.00    1.09480   1.13146    0.015
 6940.00    1.09793   1.13024    0.014
 6941.00    1.11757   1.12908    0.014
 6942.00    1.15012   1.12804    0.014
 6943.00    1.16909   1.12721    0.014
 6944.00    1.17872   1.12659    0.014
 6945.00    1.16793   1.12624    0.014
 6946.00    1.14483   1.12613    0.015
 6947.00    1.16731   1.12630    0.015
 6948.00    1.21376   1.12673    0.015
 6949.00    1.23890   1.12743    0.015
 6950.00    1.25430   1.12843    0.015
 6951.00    1.24245   1.12968    0.015
 6952.00    1.21989   1.13120    0.015
 6953.00    1.21189   1.13288    0.015
 6954.00    1.20878   1.13470    0.015
 6955.00    1.15875   1.13655    0.015
 6956.00    1.09555   1.13836    0.014
 6957.00    1.07072   1.14003    0.014
 6958.00    1.05478   1.14152    0.014
 6959.00    1.12401   1.14275    0.014
 6960.00    1.20904   1.14370    0.014
 6961.00    1.21547   1.14431    0.014
 6962.00    1.21064   1.14455    0.014
 6963.00    1.18461   1.14434    0.014
 6964.00    1.15638   1.14363    0.014
 6965.00    1.12933   1.14237    0.014
 6966.00    1.10235   1.14049    0.015
 6967.00    1.08288   1.13800    0.015
 6968.00    1.06367   1.13494    0.015
 6969.00    1.08222   1.13146    0.015
 6970.00    1.10114   1.12775    0.015
 6971.00    1.13135   1.12408    0.015
 6972.00    1.15811   1.12077    0.015
 6973.00    1.13377   1.11815    0.015
 6974.00    1.10796   1.11648    0.015
 6975.00    1.06809   1.11595    0.015
 6976.00    1.03387   1.11660    0.015
 6977.00    1.03887   1.11835    0.015
 6978.00    1.05424   1.12099    0.014
 6979.00    1.12521   1.12424    0.014
 6980.00    1.18319   1.12776    0.015
 6981.00    1.18524   1.13125    0.014
 6982.00    1.17976   1.13443    0.014
 6983.00    1.14757   1.13715    0.014
 6984.00    1.13111   1.13929    0.014
 6985.00    1.16155   1.14083    0.014
 6986.00    1.18978   1.14181    0.015
 6987.00    1.21239   1.14226    0.015
 6988.00    1.22299   1.14225    0.015
 6989.00    1.20736   1.14180    0.015
 6990.00    1.18493   1.14096    0.015
 6991.00    1.14960   1.13975    0.015
 6992.00    1.12714   1.13823    0.015
 6993.00    1.12600   1.13644    0.015
 6994.00    1.15514   1.13447    0.015
 6995.00    1.22825   1.13240    0.015
 6996.00    1.24734   1.13036    0.015
 6997.00    1.19746   1.12845    0.015
 6998.00    1.16711   1.12675    0.015
 6999.00    1.15870   1.12532    0.015
 7000.00    1.15793   1.12421    0.014
 7001.00    1.16473   1.12338    0.014
 7002.00    1.17650   1.12279    0.015
 7003.00    1.19263   1.12236    0.015
 7004.00    1.19032   1.12199    0.015
 7005.00    1.17382   1.12156    0.015
 7006.00    1.11872   1.12103    0.015
 7007.00    1.03747   1.12033    0.015
 7008.00    1.02624   1.11949    0.015
 7009.00    1.05657   1.11857    0.016
 7010.00    1.06811   1.11766    0.016
 7011.00    1.06993   1.11687    0.016
 7012.00    1.05137   1.11631    0.016
 7013.00    1.02367   1.11604    0.016
 7014.00    1.03278   1.11609    0.016
 7015.00    1.05610   1.11642    0.015
 7016.00    1.08740   1.11697    0.015
 7017.00    1.12133   1.11769    0.015
 7018.00    1.12535   1.11852    0.015
 7019.00    1.12116   1.11941    0.015
 7020.00    1.14854   1.12035    0.015
 7021.00    1.18306   1.12136    0.015
 7022.00    1.13392   1.12245    0.015
 7023.00    1.06965   1.12363    0.015
 7024.00    1.04898   1.12489    0.015
 7025.00    1.03435   1.12620    0.015
 7026.00    1.12722   1.12753    0.016
 7027.00    1.23077   1.12885    0.016
 7028.00    1.14636   1.13016    0.016
 7029.00    1.05018   1.13146    0.016
 7030.00    1.09826   1.13284    0.016
 7031.00    1.15018   1.13437    0.016
 7032.00    1.13707   1.13614    0.016
 7033.00    1.12450   1.13822    0.016
 7034.00    1.12708   1.14066    0.016
 7035.00    1.12756   1.14343    0.016
 7036.00    1.09844   1.14647    0.016
 7037.00    1.07698   1.14960    0.015
 7038.00    1.12610   1.15265    0.016
 7039.00    1.16240   1.15536    0.016
 7040.00    1.11231   1.15753    0.016
 7041.00    1.08037   1.15891    0.016
 7042.00    1.14328   1.15935    0.016
 7043.00    1.19341   1.15871    0.016
 7044.00    1.18972   1.15692    0.016
 7045.00    1.19019   1.15402    0.016
 7046.00    1.20511   1.15011    0.016
 7047.00    1.21132   1.14535    0.016
 7048.00    1.19200   1.13998    0.017
 7049.00    1.18270   1.13425    0.017
 7050.00    1.19840   1.12845   -2.000
 7051.00    1.19855   1.12280   -2.000
 7052.00    1.16524   1.11749   -2.000
 7053.00    1.15220   1.11268   -2.000
 7054.00    1.17704   1.10843   -2.000
 7055.00    1.20141   1.10477   -2.000
 7056.00    1.22500   1.10163   -2.000
 7057.00    1.21623   1.09904   -2.000
 7058.00    1.16115   1.09687   -2.000
 7059.00    1.11400   1.09516   -2.000
 7060.00    1.07681   1.09383   -2.000
 7061.00    1.07086   1.09295   -2.000
 7062.00    1.09954   1.09252   -2.000
 7063.00    1.16720   1.09260   -2.000
 7064.00    1.27298   1.09321   -2.000
 7065.00    1.29618   1.09434   -2.000
 7066.00    1.24817   1.09595   -2.000
 7067.00    1.21531   1.09792   -2.000
 7068.00    1.19396   1.10012   -2.000
 7069.00    1.20496   1.10231   -2.000
 7070.00    1.23757   1.10430   -2.000
 7071.00    1.29961   1.10583   -2.000
 7072.00    1.37889   1.10670   -2.000
 7073.00    1.34271   1.10671   -2.000
 7074.00    1.24767   1.10572   -2.000
 7075.00    1.24269   1.10367   -2.000
 7076.00    1.27747   1.10055   -2.000
 7077.00    1.26639   1.09645   -2.000
 7078.00    1.23792   1.09151   -2.000
 7079.00    1.22194   1.08594   -2.000
 7080.00    1.20998   1.08003   -2.000
 7081.00    1.21313   1.07401   -2.000
 7082.00    1.22035   1.06821   -2.000
 7083.00    1.20604   1.06282   -2.000
 7084.00    1.18697   1.05807   -2.000
 7085.00    1.15489   1.05411   -2.000
 7086.00    1.12052   1.05100   -2.000
 7087.00    1.09071   1.04882   -2.000
 7088.00    1.06150   1.04746   -2.000
 7089.00    1.12905   1.04704   -2.000
 7090.00    1.20580   1.04724   -2.000
 7091.00    1.19946   1.04824   -2.000
 7092.00    1.18825   1.04959   -2.000
 7093.00    1.19065   1.05148   -2.000
 7094.00    1.19326   1.05346   -2.000
 7095.00    1.17921   1.05562   -2.000
 7096.00    1.16317   1.05764   -2.000
 7097.00    1.09761   1.05949   -2.000
 7098.00    1.04252   1.06107   -2.000
 7099.00    1.12640   1.06222   -2.000
 7100.00    1.18877   1.06306   -2.000
 7101.00    1.06056   1.06341   -2.000
 7102.00    0.95625   1.06351   -2.000
 7103.00    1.00810   1.06325   -2.000
 7104.00    1.05125   1.06290   -2.000
 7105.00    1.05005   1.06241   -2.000
 7106.00    1.05040   1.06201   -2.000
 7107.00    1.05712   1.06167   -2.000
 7108.00    1.05490   1.06153   -2.000
 7109.00    1.02221   1.06154   -2.000
 7110.00    1.02618   1.06168   -2.000
 7111.00    1.13549   1.06190   -2.000
 7112.00    1.17484   1.06206   -2.000
 7113.00    1.04251   1.06215   -2.000
 7114.00    0.99365   1.06197   -2.000
 7115.00    1.12142   1.06156   -2.000
 7116.00    1.19122   1.06077   -2.000
 7117.00    1.15441   1.05966   -2.000
 7118.00    1.11640   1.05822   -2.000
 7119.00    1.07642   1.05648   -2.000
 7120.00    1.05381   1.05456   -2.000
 7121.00    1.05566   1.05250   -2.000
 7122.00    1.05581   1.05052   -2.000
 7123.00    1.05384   1.04866   -2.000
 7124.00    1.07114   1.04715   -2.000
 7125.00    1.10951   1.04605   -2.000
 7126.00    1.17227   1.04551   -2.000
 7127.00    1.25855   1.04557   -2.000
 7128.00    1.29723   1.04622   -2.000
 7129.00    1.29544   1.04744   -2.000
 7130.00    1.26189   1.04906   -2.000
 7131.00    1.20455   1.05099   -2.000
 7132.00    1.09511   1.05299   -2.000
 7133.00    0.95139   1.05495   -2.000
 7134.00    0.88630   1.05666   -2.000
 7135.00    0.86649   1.05804   -2.000
 7136.00    0.90550   1.05902   -2.000
 7137.00    0.97401   1.05955   -2.000
 7138.00    1.02732   1.05970   -2.000
 7139.00    1.07402   1.05951   -2.000
 7140.00    1.09690   1.05912   -2.000
 7141.00    1.11089   1.05866   -2.000
 7142.00    1.08134   1.05828   -2.000
 7143.00    1.03804   1.05814   -2.000
 7144.00    1.04045   1.05835   -2.000
 7145.00    1.05492   1.05898   -2.000
 7146.00    1.08773   1.06005   -2.000
 7147.00    1.12449   1.06150   -2.000
 7148.00    1.12279   1.06321   -2.000
 7149.00    1.11451   1.06501   -2.000
 7150.00    1.10430   1.06673   -2.000
 7151.00    1.09384   1.06814   -2.000
 7152.00    1.16043   1.06916   -2.000
 7153.00    1.23401   1.06954   -2.000
 7154.00    1.25504   1.06942   -2.000
 7155.00    1.27320   1.06861   -2.000
 7156.00    1.17194   1.06750   -2.000
 7157.00    1.07074   1.06596   -2.000
 7158.00    1.20295   1.06449   -2.000
 7159.00    1.32885   1.06306   -2.000
 7160.00    1.31161   1.06210   -2.000
 7161.00    1.29598   1.06160   -2.000
 7162.00    1.30047   1.06173   -2.000
 7163.00    1.31206   1.06247   -2.000
 7164.00    1.38415   1.06365   -2.000
 7165.00    1.40167   1.06523   -2.000
 7166.00    1.07331   1.06682   -2.000
 7167.00    0.84301   1.06839   -2.000
 7168.00    1.09962   1.06955   -2.000
 7169.00    1.28321   1.07028   -2.000
 7170.00    1.17288   1.07038   -2.000
 7171.00    1.06726   1.06990   -2.000
 7172.00    0.97739   1.06884   -2.000
 7173.00    0.92039   1.06731   -2.000
 7174.00    0.95606   1.06541   -2.000
 7175.00    0.99884   1.06328   -2.000
 7176.00    1.05876   1.06104   -2.000
 7177.00    1.11406   1.05876   -2.000
 7178.00    1.15975   1.05655   -2.000
 7179.00    1.19304   1.05443   -2.000
 7180.00    1.20390   1.05245   -2.000
 7181.00    1.19017   1.05065   -2.000
 7182.00    1.13754   1.04906   -2.000
 7183.00    1.08792   1.04778   -2.000
 7184.00    1.04249   1.04679   -2.000
 7185.00    0.99336   1.04624   -2.000
 7186.00    0.93970   1.04606   -2.000
 7187.00    0.97643   1.04637   -2.000
 7188.00    1.11061   1.04705   -2.000
 7189.00    1.12591   1.04811   -2.000
 7190.00    1.02818   1.04944   -2.000
 7191.00    1.03001   1.05092   -2.000
 7192.00    1.11531   1.05246   -2.000
 7193.00    1.16438   1.05389   -2.000
 7194.00    1.18670   1.05517   -2.000
 7195.00    1.16307   1.05614   -2.000
 7196.00    1.10964   1.05682   -2.000
 7197.00    1.03225   1.05709   -2.000
 7198.00    0.94125   1.05706   -2.000
 7199.00    1.05323   1.05669   -2.000
 7200.00    1.26544   1.05616   -2.000
 7201.00    1.30473   1.05552   -2.000
 7202.00    1.27017   1.05493   -2.000
 7203.00    1.13462   1.05456   -2.000
 7204.00    0.96213   1.05443   -2.000
 7205.00    0.85103   1.05476   -2.000
 7206.00    0.75894   1.05539   -2.000
 7207.00    0.81799   1.05650   -2.000
 7208.00    0.91606   1.05786   -2.000
 7209.00    0.96604   1.05951   -2.000
 7210.00    1.00591   1.06129   -2.000
 7211.00    1.02585   1.06312   -2.000
 7212.00    1.04247   1.06497   -2.000
 7213.00    1.12791   1.06673   -2.000
 7214.00    1.22195   1.06845   -2.000
 7215.00    1.09538   1.07009   -2.000
 7216.00    0.94971   1.07170   -2.000
 7217.00    0.94501   1.07337   -2.000
 7218.00    0.94747   1.07503   -2.000
