###################################################################
## OUTPUT of StarlightChains_v04.for    [Cid@UFSC - 01/Apr/2007] ##
###################################################################

## Some input info
KUG0210-078._31_41.txt                   [arq_obs]
Base.CB07.vall.4m                        [arq_base]
Masks.EmLines.NEW.gm                     [arq_masks]
StCv04.C11.config                        [arq_config]
   66                                    [N_base]
    0                                    [N_YAV_components = # of components with extra extinction!]
    0                                    [i_FitPowerLaw (1/0 = Yes/No)]
-9.99                                    [alpha_PowerLaw]
CCM                                      [red_law_option]
 1.458241                                [q_norm = A(l_norm)/A(V)]

## (Re)Sampling Parameters
 3741.00                                 [l_ini (A)]
 7218.00                                 [l_fin (A)]
    1.00                                 [dl    (A)]     (OBS: dl_cushion =    50.00 A)

## Normalization info
 4020.00                                 [l_norm (A) - for base]
 4010.00                                 [llow_norm (A) - window for f_obs]
 4060.00                                 [lupp_norm (A) - window for f_obs]
1.149296E-17                             [fobs_norm (in input units)]

## S/N
 3691.00                                 [llow_SN (A) - window for S/N]
 7268.00                                 [lupp_SN (A) - window for S/N]
   5.528                                 [S/N in S/N window]
   5.315                                 [S/N in norm. window]
   0.014                                 [S/N_err in S/N window]
   0.013                                 [S/N_err in norm. window]
  1.0000                                 [fscale_chi2]

## etc...
    -2007466                             [idum_orig]
  2432                                   [NOl_eff]
  2407                                   [Nl_eff]
    25    NSIGMA                         [Ntot_cliped & clip_method]
  1619520                                [Nglobal_steps]
   7                                     [N_chains]
  36                                     [NEX0s_base = N_base in EX0s-fits]
 0   0   1       25   2.0   2.399E+03    [Clip-Bug, RC-Crash & Burn-In warning-flags, n_censored_weights, wei_nsig_threshold & wei_limit]
    32     31.603     30.973      0.630  [idt_all, wdt_TotTime, wdt_UsrTime & wdt_SysTime (sec)]

## Synthesis Results - Best model ##

 7.67387E-06                             [chi2/Nl_eff]
    11.89427                             [adev (%)]

   106.64896                             [sum-of-x (%)]
 1.36567E-17                             [Flux_tot (units of input spectrum!)]
 1.35061E-13                             [Mini_tot (???)]
 7.57284E-14                             [Mcor_tot (???)]

-273.14                                  [v0_min  (km/s)]
  25.35                                  [vd_min  (km/s)]
 0.0805                                  [AV_min  (mag)]
 0.0000                                  [YAV_min (mag)]

# j     x_j(%)      Mini_j(%)     Mcor_j(%)     age_j(yr)     Z_j      (L/M)_j    YAV?  Mstars   component_j        a/Fe...       SSP_chi2r SSP_adev(%)   SSP_AV   SSP_x(%)
  1      0.0000     0.0000E+00    0.0000E+00    1.000000E+06  0.00400  1.094E-02    0   1.0000   age020_m42            0.0000     1.2240E-05    16.8749   3.0989    87.5324
  2      0.0000     0.0000E+00    0.0000E+00    3.160000E+06  0.00400  4.007E-02    0   0.9999   age045_m42            0.0000     1.0309E-05    14.9744   2.3939    94.5999
  3      0.2574     9.6108E-04    1.6263E-03    5.010000E+06  0.00400  2.539E-02    0   0.9488   age055_m42            0.0000     1.1221E-05    15.8097   2.7050    91.6965
  4      0.0000     0.0000E+00    0.0000E+00    6.610000E+06  0.00400  2.620E-02    0   0.9220   age061_m42            0.0000     1.0296E-05    14.7723   2.3259    94.7382
  5      0.0000     0.0000E+00    0.0000E+00    1.000000E+07  0.00400  1.322E-02    0   0.8862   age070_m42            0.0000     1.0311E-05    13.5593   2.1235    95.4681
  6      0.0000     0.0000E+00    0.0000E+00    1.445000E+07  0.00400  7.883E-03    0   0.8571   age078_m42            0.0000     1.0812E-05    14.2093   2.4309    92.9335
  7      0.0000     0.0000E+00    0.0000E+00    2.512000E+07  0.00400  5.251E-03    0   0.8174   age090_m42            0.0000     1.0204E-05    13.2690   2.0111    95.9187
  8      2.9827     7.7498E-02    1.0851E-01    4.000000E+07  0.00400  3.649E-03    0   0.7851   age104_m42            0.0000     9.8186E-06    13.0183   1.7827    97.0694
  9      0.0000     0.0000E+00    0.0000E+00    5.500000E+07  0.00400  3.098E-03    0   0.7629   age110_m42            0.0000     9.7043E-06    13.3206   1.8951    97.8915
 10      0.0000     0.0000E+00    0.0000E+00    1.015200E+08  0.00400  2.228E-03    0   0.7207   age116_m42            0.0000     9.6875E-06    13.4949   1.8928    98.5704
 11      0.0000     0.0000E+00    0.0000E+00    2.861200E+08  0.00400  1.093E-03    0   0.6648   age125_m42            0.0000     9.3551E-06    12.7013   1.3525   101.2476
 12      0.0000     0.0000E+00    0.0000E+00    5.088000E+08  0.00400  6.597E-04    0   0.6365   age130_m42            0.0000     9.1626E-06    12.6202   1.3200   102.8850
 13      7.9885     3.5525E+00    3.6735E+00    1.434000E+09  0.00400  2.132E-04    0   0.5798   age139_m42            0.0000     8.0424E-06    11.7146   0.3763   105.4117
 14      9.8708     1.5875E+01    1.5224E+01    4.250000E+09  0.00400  5.895E-05    0   0.5377   age158_m42            0.0000     7.7851E-06    12.3317  -0.0927   101.6416
 15      6.6674     1.8010E+01    1.6741E+01    7.500000E+09  0.00400  3.510E-05    0   0.5212   age171_m42            0.0000     7.8066E-06    12.5455  -0.2906   101.2571
 16      0.0000     0.0000E+00    0.0000E+00    1.300000E+10  0.00400  2.005E-05    0   0.5034   age193_m42            0.0000     7.9429E-06    12.8821  -0.4674   100.8697
 17      0.0000     0.0000E+00    0.0000E+00    1.800000E+10  0.00400  1.525E-05    0   0.4967   age213_m42            0.0000     7.9550E-06    12.9289  -0.4932   100.3281
 18      0.0000     0.0000E+00    0.0000E+00    1.000000E+06  0.00800  1.238E-02    0   1.0000   age020_m52            0.0000     1.2224E-05    16.8941   3.0930    87.7805
 19      0.0000     0.0000E+00    0.0000E+00    3.160000E+06  0.00800  3.074E-02    0   0.9966   age045_m52            0.0000     1.2101E-05    16.7899   3.0155    88.6118
 20      0.0000     0.0000E+00    0.0000E+00    5.010000E+06  0.00800  2.668E-02    0   0.9443   age055_m52            0.0000     1.1339E-05    15.8860   2.7900    90.7740
 21      0.0000     0.0000E+00    0.0000E+00    6.610000E+06  0.00800  2.136E-02    0   0.9177   age061_m52            0.0000     9.6140E-06    12.9605   1.6548    96.6140
 22      0.0000     0.0000E+00    0.0000E+00    1.000000E+07  0.00800  1.215E-02    0   0.8827   age070_m52            0.0000     1.0572E-05    13.5661   2.3186    94.8589
 23      0.0000     0.0000E+00    0.0000E+00    1.445000E+07  0.00800  8.717E-03    0   0.8552   age078_m52            0.0000     1.0598E-05    13.9565   2.4021    94.2959
 24      0.0000     0.0000E+00    0.0000E+00    2.512000E+07  0.00800  5.592E-03    0   0.8162   age090_m52            0.0000     1.0103E-05    13.1508   2.0783    97.1022
 25      0.0000     0.0000E+00    0.0000E+00    4.000000E+07  0.00800  3.896E-03    0   0.7841   age104_m52            0.0000     9.7324E-06    12.9316   1.9823    98.3335
 26      0.0000     0.0000E+00    0.0000E+00    1.015200E+08  0.00800  2.148E-03    0   0.7226   age116_m52            0.0000     9.4156E-06    12.8818   1.8942    98.9827
 27      0.0000     0.0000E+00    0.0000E+00    2.861200E+08  0.00800  9.925E-04    0   0.6683   age125_m52            0.0000     8.9689E-06    12.2396   1.4059   103.9801
 28      0.0000     0.0000E+00    0.0000E+00    9.047900E+08  0.00800  3.141E-04    0   0.6138   age135_m52            0.0000     7.8962E-06    11.4138   0.6101   109.4308
 29     36.7933     2.0293E+01    2.1184E+01    1.434000E+09  0.00800  1.719E-04    0   0.5853   age139_m52            0.0000     7.6863E-06    11.7465   0.0260   106.8416
 30      0.0000     0.0000E+00    0.0000E+00    2.500000E+09  0.00800  7.872E-05    0   0.5600   age150_m52            0.0000     7.7256E-06    12.3798  -0.2734   104.7594
 31      0.0000     0.0000E+00    0.0000E+00    4.250000E+09  0.00800  4.336E-05    0   0.5426   age158_m52            0.0000     7.7351E-06    12.4467  -0.2875   103.7009
 32      0.0000     0.0000E+00    0.0000E+00    6.250000E+09  0.00800  3.159E-05    0   0.5319   age166_m52            0.0000     7.8978E-06    12.7673  -0.5070   104.2998
 33      0.0000     0.0000E+00    0.0000E+00    1.300000E+10  0.00800  1.361E-05    0   0.5073   age193_m52            0.0000     8.3444E-06    13.1563  -0.9818   104.1874
 34      0.0000     0.0000E+00    0.0000E+00    1.800000E+10  0.00800  9.886E-06    0   0.4990   age213_m52            0.0000     8.9444E-06    12.9403  -1.0000    99.8565
 35      0.0000     0.0000E+00    0.0000E+00    1.000000E+06  0.02000  1.544E-02    0   1.0000   age020_m62            0.0000     1.2270E-05    16.8999   3.0912    87.8902
 36      0.0000     0.0000E+00    0.0000E+00    3.160000E+06  0.02000  3.762E-02    0   0.9858   age045_m62            0.0000     1.2252E-05    16.8707   3.0280    88.6956
 37      0.0000     0.0000E+00    0.0000E+00    5.010000E+06  0.02000  3.296E-02    0   0.9342   age055_m62            0.0000     1.0834E-05    15.6207   2.6556    93.3571
 38      0.0000     0.0000E+00    0.0000E+00    8.710000E+06  0.02000  1.154E-02    0   0.8861   age067_m62            0.0000     1.2180E-05    15.3888   1.9047    95.1601
 39      0.0000     0.0000E+00    0.0000E+00    1.445000E+07  0.02000  7.663E-03    0   0.8472   age078_m62            0.0000     1.0516E-05    13.4373   2.0221    96.3830
 40      0.0000     0.0000E+00    0.0000E+00    2.512000E+07  0.02000  4.532E-03    0   0.8099   age090_m62            0.0000     1.0638E-05    13.5732   2.0171    96.0261
 41      0.0000     0.0000E+00    0.0000E+00    5.500000E+07  0.02000  2.733E-03    0   0.7595   age110_m62            0.0000     9.8717E-06    12.9899   1.9659    97.4598
 42      0.0000     0.0000E+00    0.0000E+00    1.609000E+08  0.02000  1.369E-03    0   0.6985   age120_m62            0.0000     9.4956E-06    12.7877   1.7672   101.5557
 43      0.0000     0.0000E+00    0.0000E+00    2.861200E+08  0.02000  9.013E-04    0   0.6714   age125_m62            0.0000     9.2586E-06    12.3520   1.5123   105.3604
 44      3.2104     6.0537E-01    6.9628E-01    5.088000E+08  0.02000  5.028E-04    0   0.6449   age130_m62            0.0000     8.6303E-06    11.9769   1.1182   109.4305
 45      1.7632     6.8850E-01    7.5874E-01    9.047900E+08  0.02000  2.428E-04    0   0.6179   age135_m62            0.0000     7.7975E-06    11.7373   0.5440   109.0213
 46     13.4547     1.0100E+01    1.0642E+01    1.434000E+09  0.02000  1.263E-04    0   0.5908   age139_m62            0.0000     7.7220E-06    12.1970   0.0844   107.4329
 47      0.0000     0.0000E+00    0.0000E+00    2.500000E+09  0.02000  5.985E-05    0   0.5673   age150_m62            0.0000     7.9155E-06    12.7840  -0.3007   106.5701
 48      0.0000     0.0000E+00    0.0000E+00    4.250000E+09  0.02000  3.271E-05    0   0.5468   age158_m62            0.0000     8.3930E-06    13.4085  -0.6331   106.4805
 49      0.0000     0.0000E+00    0.0000E+00    1.000000E+10  0.02000  1.360E-05    0   0.5167   age181_m62            0.0000     9.3015E-06    14.0911  -1.0000   106.7841
 50      0.1399     1.8624E+00    1.6651E+00    1.800000E+10  0.02000  7.124E-06    0   0.5013   age213_m62            0.0000     1.1019E-05    13.5731  -1.0000    97.0629
 51      0.0000     0.0000E+00    0.0000E+00    1.000000E+06  0.05000  2.592E-02    0   0.9998   age020_m72            0.0000     1.2435E-05    16.9563   3.0864    87.7809
 52      0.3373     6.5998E-04    1.1273E-03    3.160000E+06  0.05000  4.845E-02    0   0.9577   age045_m72            0.0000     1.1776E-05    16.6023   2.9032    90.2825
 53      0.4949     1.5275E-03    2.4920E-03    5.010000E+06  0.05000  3.072E-02    0   0.9147   age055_m72            0.0000     1.1011E-05    14.0635   2.5419    93.0097
 54      0.0000     0.0000E+00    0.0000E+00    6.610000E+06  0.05000  1.455E-02    0   0.8877   age061_m72            0.0000     1.3568E-05    17.8104   2.0029    95.5631
 55      0.0000     0.0000E+00    0.0000E+00    1.000000E+07  0.05000  9.074E-03    0   0.8524   age070_m72            0.0000     1.1193E-05    14.8348   2.7206    92.8232
 56      0.0000     0.0000E+00    0.0000E+00    2.512000E+07  0.05000  4.250E-03    0   0.7902   age090_m72            0.0000     1.0594E-05    13.8978   2.4213    95.0090
 57      0.0000     0.0000E+00    0.0000E+00    4.000000E+07  0.05000  3.087E-03    0   0.7618   age104_m72            0.0000     1.0425E-05    13.6730   2.2048    96.6717
 58      0.0000     0.0000E+00    0.0000E+00    1.015200E+08  0.05000  1.700E-03    0   0.7096   age116_m72            0.0000     9.7501E-06    12.9124   1.9171   100.6990
 59      6.2633     8.0422E-01    9.5138E-01    2.861200E+08  0.05000  7.384E-04    0   0.6633   age125_m72            0.0000     8.9948E-06    12.1905   1.3680   107.4937
 60      0.0000     0.0000E+00    0.0000E+00    5.088000E+08  0.05000  3.819E-04    0   0.6372   age130_m72            0.0000     8.2341E-06    12.0382   0.8697   110.1343
 61      5.1739     2.9269E+00    3.1895E+00    9.047900E+08  0.05000  1.676E-04    0   0.6110   age135_m72            0.0000     7.9395E-06    12.4806   0.1789   108.8812
 62      0.0000     0.0000E+00    0.0000E+00    1.434000E+09  0.05000  8.837E-05    0   0.5874   age139_m72            0.0000     8.0870E-06    12.6286  -0.2726   108.2537
 63     11.2514     2.5201E+01    2.5160E+01    2.500000E+09  0.05000  4.233E-05    0   0.5598   age150_m72            0.0000     8.5478E-06    13.5230  -0.6343   107.8500
 64      0.0000     0.0000E+00    0.0000E+00    6.250000E+09  0.05000  1.435E-05    0   0.5249   age166_m72            0.0000     9.7243E-06    13.7068  -1.0000   102.6402
 65      0.0000     0.0000E+00    0.0000E+00    1.300000E+10  0.05000  6.513E-06    0   0.5036   age193_m72            0.0000     1.2968E-05    13.5191  -1.0000    92.4006
 66      0.0000     0.0000E+00    0.0000E+00    1.800000E+10  0.05000  4.527E-06    0   0.4945   age213_m72            0.0000     1.5688E-05    13.9199  -1.0000    86.2336


## Synthesis Results - Average & Chains ##

# j      x_j: min, <> & last-chain-values for 1 ...  7 chains
  1      0.0000      1.1430      0.0000      0.0000      0.0000      0.0000      0.6476      0.8279      0.0000
  2      0.0000      1.2375      0.0000      0.0000      0.0000      0.0000      0.0539      0.8101      0.0000
  3      0.2574      0.9877      0.0000      0.0000      0.0000      0.0000      0.3599      0.5567      0.0000
  4      0.0000      1.0812      0.0000      0.0000      0.0001      0.0000      0.3655      0.0000      0.0000
  5      0.0000      1.1460      0.0000      0.0000      0.0000      0.0000      0.4559      0.4589      0.0000
  6      0.0000      1.4004      0.0001      0.0000      0.0000      0.0000      0.4426      0.1153      0.0000
  7      0.0000      0.9782      0.0000      0.0000      0.0000      0.0000      0.0000      0.0108      0.0000
  8      2.9827      1.1050      0.0000      0.0000      0.0000      0.0000      0.4171      0.4936      0.0000
  9      0.0000      1.2407      0.0000      0.0000      0.0000      0.0000      0.0000      0.3527      0.0000
 10      0.0000      0.9882      0.0000      0.0000      0.0000      0.0000      0.1076      0.0000      0.0000
 11      0.0000      1.3067      0.0000      0.0000      0.0000      0.0000      0.1219      0.5280      0.0000
 12      0.0000      1.4465      0.0000      0.0000      0.0000      0.0000      0.2936      0.3435      0.0000
 13      7.9885      1.1184      0.0000      0.0000      0.0000      0.0000      1.4454      0.3721      0.0000
 14      9.8708      1.4638      0.0000      0.0000      0.0000      0.0000      0.4905      0.0317      0.0000
 15      6.6674      1.0849      0.0000      0.0000      0.0000      0.0000      0.2755      0.3088      0.0000
 16      0.0000      0.8615      0.0000      0.0000      0.0000      0.0000      0.0000      0.0000      0.0000
 17      0.0000      1.1850      0.0000      0.0000      0.0000      0.0000      0.0629      0.0692      0.0000
 18      0.0000      1.1380      0.0000      0.0000      0.0000      0.0000      0.0000      0.0000      0.0000
 19      0.0000      0.9862      0.0000      0.0000      0.0000      0.0000      0.0000      0.0000      0.0000
 20      0.0000      1.2420      0.0000      0.0000      0.0000      0.0000      0.8327      0.0000      0.0000
 21      0.0000      1.1918      0.0000      0.0000      0.0000      0.0000      0.1455      0.0000      0.0000
 22      0.0000      1.0124      0.0000      0.0000      0.0000      0.0000      0.2238      0.0438      0.0000
 23      0.0000      0.8679      0.0000      0.0000      0.0000      0.0000      0.1848      0.0000      0.0000
 24      0.0000      0.8587      0.0000      0.0000      0.0000      0.0000      0.0000      0.1898      0.0000
 25      0.0000      1.0396      0.0000      0.0000      0.0000      0.0000      0.2285      0.1185      0.0000
 26      0.0000      1.4701      0.0000      0.0000      0.0000      0.0000      0.0201      0.5634      0.0000
 27      0.0000      1.3901      0.0000      0.0000      0.0000      0.0000      1.0306      0.1222      0.0000
 28      0.0000      0.9343      0.0004      0.0000      0.0000      0.0000      0.0000      0.0624      0.0000
 29     36.7933      1.1736      0.0000      0.0000      0.0000      0.0000      0.4182      1.0111      0.0000
 30      0.0000      1.1730      0.0000      0.0000      0.0000      0.0000      0.3352      0.5948      0.0000
 31      0.0000      1.6845      0.0000      0.0000      0.0000      0.0000      0.0000      0.3864      0.0000
 32      0.0000      0.8073      0.0000      0.0000      0.0000      0.0000      0.0000      0.0000      0.0000
 33      0.0000      1.4679      0.0000      0.0002      0.0000      0.0000      0.8122      0.4559      0.0032
 34      0.0000      1.0559      0.0000      0.1150      0.2954      0.5205      0.2128      0.0000      0.5654
 35      0.0000      0.9642      0.0000      0.0000      0.0000      0.0000      0.1683      0.0000      0.0000
 36      0.0000      1.2224      0.0000      0.0000      0.0000      0.0000      0.6237      0.0000      0.0000
 37      0.0000      1.1676      0.0000      0.0000      0.0000      0.0000      0.6086      0.5914      0.0000
 38      0.0000      1.0462      0.0000      0.0000      0.0000      0.0000      0.2995      0.0214      0.0000
 39      0.0000      0.7974      0.0000      0.0000      0.0000      0.0000      0.0272      0.7745      0.0000
 40      0.0000      1.1828      0.0000      0.0000      0.0000      0.0000      0.0000      0.8149      0.0000
 41      0.0000      1.2344      0.0000      0.0000      0.0000      0.0000      0.1509      0.0000      0.0000
 42      0.0000      1.0753      0.0000      0.0000      0.0000      0.0000      0.0000      0.1323      0.0000
 43      0.0000      1.1212      0.0000      0.0000      0.0000      0.0000      0.0882      0.0000      0.0000
 44      3.2104      0.8712      0.0000      0.0000      0.0000      0.0000      0.2213      0.5851      0.0000
 45      1.7632      0.9131      0.0000      0.0000      0.0000      0.0000      0.5706      0.9202      0.0000
 46     13.4547      0.8296      0.0000      0.0000      0.0000      0.0000      0.8846      0.4148      0.0000
 47      0.0000      0.6616      0.0000      0.0000      0.0000      0.0000      0.0368      0.0000      0.0000
 48      0.0000      0.8153      0.0000      0.0002      0.0000      0.0000      0.1130      0.0792      0.0000
 49      0.0000      6.7830     38.7550     24.6385     25.0034     25.8812     25.5112     25.4073     24.3959
 50      0.1399     11.1334     44.9869     42.4333     43.1978     44.7869     31.8587     31.8290     42.2286
 51      0.0000      1.2432      0.0000      0.0000      0.0000      0.0000      0.0303      1.2943      0.0000
 52      0.3373      1.2728      0.0000      0.0000      0.0000      0.0000      0.6340      0.3664      0.0000
 53      0.4949      1.0623      0.0000      0.0001      0.0000      0.0000      0.3301      0.0000      0.0000
 54      0.0000      1.0240      0.0000      0.0000      0.0000      0.0000      0.0000      0.1595      0.0000
 55      0.0000      1.2135      0.0000      0.0000      0.0000      0.0000      0.1763      0.0000      0.0000
 56      0.0000      1.2017      0.0000      0.0000      0.0000      0.0000      0.6565      0.6753      0.0000
 57      0.0000      1.0681      0.0000      0.0000      0.0000      0.0000      0.3826      0.2018      0.0000
 58      0.0000      1.3384      0.0000      0.0000      0.0000      0.0000      0.0000      0.1546      0.0000
 59      6.2633      1.2773      0.0000      0.0000      0.0000      0.0000      0.4086      0.3586      0.0000
 60      0.0000      1.2445      0.0006      0.0000      0.0000      0.0000      0.5744      0.0000      0.0000
 61      5.1739      2.2823      0.0023      7.1483      6.8894      6.6981      5.0254      3.8550      7.0672
 62      0.0000      1.8460      1.1998      6.0266      6.8133      3.1810      4.2813      3.3750      5.8036
 63     11.2514      3.8388     10.8679     10.6431      8.4347      9.5026      9.7668      9.7773     10.2868
 64      0.0000      1.3699      0.0012      2.0896      1.9894      1.5748      0.4307      0.0000      2.0075
 65      0.0000      1.2543      0.0000      1.5700      1.8214      2.3317      1.6099      4.1997      2.0331
 66      0.0000      0.8252      0.3314      0.8846      0.0591      0.9505      0.1974      0.0877      0.1724

# j      m_j: min, <> & last-chain-values for 1 ...  7 chains
  1  0.0000E+00  6.3742E-03  0.0000E+00  0.0000E+00  0.0000E+00  0.0000E+00  1.6354E-03  2.0172E-03  0.0000E+00
  2  0.0000E+00  1.8839E-03  0.0000E+00  0.0000E+00  0.0000E+00  0.0000E+00  3.7143E-05  5.3888E-04  0.0000E+00
  3  1.6263E-03  2.2519E-03  0.0000E+00  0.0000E+00  0.0000E+00  0.0000E+00  3.7157E-04  5.5454E-04  0.0000E+00
  4  0.0000E+00  2.3214E-03  0.0000E+00  0.0000E+00  6.5260E-08  0.0000E+00  3.5535E-04  0.0000E+00  0.0000E+00
  5  0.0000E+00  4.6868E-03  0.0000E+00  0.0000E+00  0.0000E+00  0.0000E+00  8.4443E-04  8.2003E-04  0.0000E+00
  6  0.0000E+00  9.2895E-03  2.1187E-07  0.0000E+00  0.0000E+00  0.0000E+00  1.3294E-03  3.3419E-04  0.0000E+00
  7  0.0000E+00  9.2902E-03  0.0000E+00  0.0000E+00  0.0000E+00  0.0000E+00  0.0000E+00  4.4899E-05  0.0000E+00
  8  1.0851E-01  1.4505E-02  0.0000E+00  0.0000E+00  0.0000E+00  0.0000E+00  2.4795E-03  2.8306E-03  0.0000E+00
  9  0.0000E+00  1.8640E-02  0.0000E+00  0.0000E+00  0.0000E+00  0.0000E+00  0.0000E+00  2.3150E-03  0.0000E+00
 10  0.0000E+00  1.9503E-02  0.0000E+00  0.0000E+00  0.0000E+00  0.0000E+00  9.6147E-04  0.0000E+00  0.0000E+00
 11  0.0000E+00  4.8491E-02  0.0000E+00  0.0000E+00  0.0000E+00  0.0000E+00  2.0487E-03  8.5602E-03  0.0000E+00
 12  0.0000E+00  8.5145E-02  0.0000E+00  0.0000E+00  0.0000E+00  0.0000E+00  7.8260E-03  8.8346E-03  0.0000E+00
 13  3.6735E+00  1.8556E-01  0.0000E+00  0.0000E+00  0.0000E+00  0.0000E+00  1.0860E-01  2.6976E-02  0.0000E+00
 14  1.5224E+01  8.1459E-01  0.0000E+00  0.0000E+00  0.0000E+00  0.0000E+00  1.2361E-01  7.7134E-03  0.0000E+00
 15  1.6741E+01  9.8283E-01  0.0000E+00  0.0000E+00  0.0000E+00  0.0000E+00  1.1302E-01  1.2224E-01  0.0000E+00
 16  0.0000E+00  1.3197E+00  0.0000E+00  0.0000E+00  0.0000E+00  0.0000E+00  0.0000E+00  0.0000E+00  0.0000E+00
 17  0.0000E+00  2.3547E+00  0.0000E+00  0.0000E+00  0.0000E+00  0.0000E+00  5.6573E-02  6.0053E-02  0.0000E+00
 18  0.0000E+00  5.6079E-03  0.0000E+00  0.0000E+00  0.0000E+00  0.0000E+00  0.0000E+00  0.0000E+00  0.0000E+00
 19  0.0000E+00  1.9506E-03  0.0000E+00  0.0000E+00  0.0000E+00  0.0000E+00  0.0000E+00  0.0000E+00  0.0000E+00
 20  0.0000E+00  2.6819E-03  0.0000E+00  0.0000E+00  0.0000E+00  0.0000E+00  8.1428E-04  0.0000E+00  0.0000E+00
 21  0.0000E+00  3.1239E-03  0.0000E+00  0.0000E+00  0.0000E+00  0.0000E+00  1.7272E-04  0.0000E+00  0.0000E+00
 22  0.0000E+00  4.4874E-03  0.0000E+00  0.0000E+00  0.0000E+00  0.0000E+00  4.4929E-04  8.4874E-05  0.0000E+00
 23  0.0000E+00  5.1948E-03  0.0000E+00  0.0000E+00  0.0000E+00  0.0000E+00  5.0090E-04  0.0000E+00  0.0000E+00
 24  0.0000E+00  7.6469E-03  0.0000E+00  0.0000E+00  0.0000E+00  0.0000E+00  0.0000E+00  7.3846E-04  0.0000E+00
 25  0.0000E+00  1.2765E-02  0.0000E+00  0.0000E+00  0.0000E+00  0.0000E+00  1.2706E-03  6.3547E-04  0.0000E+00
 26  0.0000E+00  3.0172E-02  0.0000E+00  0.0000E+00  0.0000E+00  0.0000E+00  1.8693E-04  5.0518E-03  0.0000E+00
 27  0.0000E+00  5.7107E-02  0.0000E+00  0.0000E+00  0.0000E+00  0.0000E+00  1.9172E-02  2.1938E-03  0.0000E+00
 28  0.0000E+00  1.1138E-01  1.6234E-05  0.0000E+00  0.0000E+00  0.0000E+00  0.0000E+00  3.2494E-03  0.0000E+00
 29  2.1184E+01  2.4380E-01  0.0000E+00  0.0000E+00  0.0000E+00  0.0000E+00  3.9338E-02  9.1769E-02  0.0000E+00
 30  0.0000E+00  5.0908E-01  0.0000E+00  0.0000E+00  0.0000E+00  0.0000E+00  6.5878E-02  1.1279E-01  0.0000E+00
 31  0.0000E+00  1.2861E+00  0.0000E+00  0.0000E+00  0.0000E+00  0.0000E+00  0.0000E+00  1.2889E-01  0.0000E+00
 32  0.0000E+00  8.2928E-01  0.0000E+00  0.0000E+00  0.0000E+00  0.0000E+00  0.0000E+00  0.0000E+00  0.0000E+00
 33  0.0000E+00  3.3380E+00  0.0000E+00  2.0915E-04  0.0000E+00  0.0000E+00  8.3640E-01  4.5301E-01  2.7632E-03
 34  0.0000E+00  3.2517E+00  0.0000E+00  1.3106E-01  3.3838E-01  5.6207E-01  2.9680E-01  0.0000E+00  6.5198E-01
 35  0.0000E+00  3.8099E-03  0.0000E+00  0.0000E+00  0.0000E+00  0.0000E+00  3.0111E-04  0.0000E+00  0.0000E+00
 36  0.0000E+00  1.9542E-03  0.0000E+00  0.0000E+00  0.0000E+00  0.0000E+00  4.5157E-04  0.0000E+00  0.0000E+00
 37  0.0000E+00  2.0191E-03  0.0000E+00  0.0000E+00  0.0000E+00  0.0000E+00  4.7655E-04  4.4684E-04  0.0000E+00
 38  0.0000E+00  4.9011E-03  0.0000E+00  0.0000E+00  0.0000E+00  0.0000E+00  6.3543E-04  4.3887E-05  0.0000E+00
 39  0.0000E+00  5.3784E-03  0.0000E+00  0.0000E+00  0.0000E+00  0.0000E+00  8.3186E-05  2.2825E-03  0.0000E+00
 40  0.0000E+00  1.2896E-02  0.0000E+00  0.0000E+00  0.0000E+00  0.0000E+00  0.0000E+00  3.8817E-03  0.0000E+00
 41  0.0000E+00  2.0929E-02  0.0000E+00  0.0000E+00  0.0000E+00  0.0000E+00  1.1587E-03  0.0000E+00  0.0000E+00
 42  0.0000E+00  3.3471E-02  0.0000E+00  0.0000E+00  0.0000E+00  0.0000E+00  0.0000E+00  1.7990E-03  0.0000E+00
 43  0.0000E+00  5.0955E-02  0.0000E+00  0.0000E+00  0.0000E+00  0.0000E+00  1.8142E-03  0.0000E+00  0.0000E+00
 44  6.9628E-01  6.8177E-02  0.0000E+00  0.0000E+00  0.0000E+00  0.0000E+00  7.8431E-03  2.0003E-02  0.0000E+00
 45  7.5874E-01  1.4176E-01  0.0000E+00  0.0000E+00  0.0000E+00  0.0000E+00  4.0123E-02  6.2420E-02  0.0000E+00
 46  1.0642E+01  2.3677E-01  0.0000E+00  0.0000E+00  0.0000E+00  0.0000E+00  1.1432E-01  5.1719E-02  0.0000E+00
 47  0.0000E+00  3.8258E-01  0.0000E+00  0.0000E+00  0.0000E+00  0.0000E+00  9.6322E-03  0.0000E+00  0.0000E+00
 48  0.0000E+00  8.3147E-01  0.0000E+00  7.8769E-05  0.0000E+00  0.0000E+00  5.2201E-02  3.5286E-02  0.0000E+00
 49  0.0000E+00  1.5722E+01  3.0510E+01  2.1134E+01  2.1557E+01  2.1037E+01  2.6778E+01  2.5731E+01  2.1176E+01
 50  1.6651E+00  4.7797E+01  6.5595E+01  6.7415E+01  6.8981E+01  6.7426E+01  6.1937E+01  5.9702E+01  6.7891E+01
 51  0.0000E+00  2.9256E-03  0.0000E+00  0.0000E+00  0.0000E+00  0.0000E+00  3.2290E-05  1.3307E-03  0.0000E+00
 52  1.1273E-03  1.5350E-03  0.0000E+00  0.0000E+00  0.0000E+00  0.0000E+00  3.4625E-04  1.9307E-04  0.0000E+00
 53  2.4920E-03  1.9297E-03  0.0000E+00  9.6557E-08  0.0000E+00  0.0000E+00  2.7159E-04  0.0000E+00  0.0000E+00
 54  0.0000E+00  3.8114E-03  0.0000E+00  0.0000E+00  0.0000E+00  0.0000E+00  0.0000E+00  2.5942E-04  0.0000E+00
 55  0.0000E+00  6.9550E-03  0.0000E+00  0.0000E+00  0.0000E+00  0.0000E+00  4.5751E-04  0.0000E+00  0.0000E+00
 56  0.0000E+00  1.3631E-02  0.0000E+00  0.0000E+00  0.0000E+00  0.0000E+00  3.3722E-03  3.3468E-03  0.0000E+00
 57  0.0000E+00  1.6081E-02  0.0000E+00  0.0000E+00  0.0000E+00  0.0000E+00  2.6087E-03  1.3271E-03  0.0000E+00
 58  0.0000E+00  3.4083E-02  0.0000E+00  0.0000E+00  0.0000E+00  0.0000E+00  0.0000E+00  1.7197E-03  0.0000E+00
 59  9.5138E-01  6.9999E-02  0.0000E+00  0.0000E+00  0.0000E+00  0.0000E+00  1.0140E-02  8.5864E-03  0.0000E+00
 60  0.0000E+00  1.2668E-01  2.0914E-05  0.0000E+00  0.0000E+00  0.0000E+00  2.6480E-02  0.0000E+00  0.0000E+00
 61  3.1895E+00  5.0761E-01  1.7391E-04  5.8836E-01  5.6996E-01  5.2242E-01  5.0616E-01  3.7461E-01  5.8864E-01
 62  0.0000E+00  7.4859E-01  1.6525E-01  9.0444E-01  1.0277E+00  4.5237E-01  7.8624E-01  5.9799E-01  8.8138E-01
 63  2.5160E+01  3.0972E+00  2.9781E+00  3.1778E+00  2.5313E+00  2.6886E+00  3.5685E+00  3.4467E+00  3.1081E+00
 64  0.0000E+00  3.0570E+00  9.2476E-04  1.7257E+00  1.6514E+00  1.2324E+00  4.3529E-01  0.0000E+00  1.6777E+00
 65  0.0000E+00  5.9171E+00  0.0000E+00  2.7409E+00  3.1960E+00  3.8573E+00  3.4392E+00  8.6559E+00  3.5917E+00
 66  0.0000E+00  5.4992E+00  7.5008E-01  2.1816E+00  1.4661E-01  2.2213E+00  5.9587E-01  2.5536E-01  4.3026E-01

# AV, chi2 & Mass for <> & i_chain = 1 ...  7 solutions
AV       0.0805     -0.7412     -0.8242     -0.7141     -0.6930     -0.7490     -0.4655     -0.4729     -0.6923
chi2 7.6739E-06  1.8475E-04  1.0512E-05  1.0414E-05  1.0616E-05  1.0528E-05  9.4666E-06  9.6503E-06  1.0598E-05
Mass 7.5728E-14  6.9613E-14  1.8333E-13  1.9507E-13  1.9966E-13  1.9643E-13  2.2263E-13  2.2844E-13  1.9851E-13
-273.14                                  [v0_min (km/s) before EX0s...]
  25.35                                  [vd_min (km/s) before EX0s...]


## Synthetic spectrum (Best Model) ##l_obs f_obs f_syn wei
 3478    [Nl_obs]
 3741.00    0.70653   0.54562    0.000
 3742.00    0.76516   0.51062    0.000
 3743.00    0.67833   0.47843    0.000
 3744.00    0.52981   0.43640    0.000
 3745.00    0.34536   0.37561    0.026
 3746.00    0.50885   0.34685    0.026
 3747.00    0.84903   0.39076    0.026
 3748.00    0.92852   0.47731    0.026
 3749.00    0.89337   0.55600    0.026
 3750.00    0.88184   0.62000    0.025
 3751.00    0.87923   0.67789    0.025
 3752.00    0.84824   0.70304    0.025
 3753.00    0.80816   0.66527    0.024
 3754.00    0.81196   0.59002    0.024
 3755.00    0.82751   0.54792    0.024
 3756.00    0.86964   0.56466    0.024
 3757.00    0.91759   0.60141    0.024
 3758.00    0.86480   0.62823    0.024
 3759.00    0.79443   0.63758    0.025
 3760.00    0.83082   0.63346    0.033
 3761.00    0.88139   0.63167    0.050
 3762.00    1.10699   0.61797    0.035
 3763.00    1.34904   0.57739    0.025
 3764.00    1.05507   0.54348    0.024
 3765.00    0.73017   0.52625    0.023
 3766.00    0.42565   0.49785    0.023
 3767.00    0.12453   0.48050    0.023
 3768.00    0.17767   0.51731    0.023
 3769.00    0.23681   0.58272    0.023
 3770.00    0.44138   0.62474    0.023
 3771.00    0.62413   0.63926    0.023
 3772.00    0.52106   0.65434    0.023
 3773.00    0.44113   0.68317    0.022
 3774.00    0.56444   0.71361    0.022
 3775.00    0.70356   0.74218    0.023
 3776.00    0.94525   0.77589    0.023
 3777.00    1.16212   0.80017    0.025
 3778.00    1.25335   0.80248    0.057
 3779.00    1.27847   0.80104   -1.000
 3780.00    1.03296   0.81088   -1.000
 3781.00    0.79109   0.80393   -1.000
 3782.00    0.56157   0.75152   -1.000
 3783.00    0.34704   0.69052   -1.000
 3784.00    0.17538   0.66173   -1.000
 3785.00    0.10718   0.65008   -1.000
 3786.00    0.29179   0.64441   -1.000
 3787.00    0.42814   0.65317   -1.000
 3788.00    0.46279   0.66012   -1.000
 3789.00    0.50289   0.63695    0.128
 3790.00    0.55298   0.58849    0.033
 3791.00    0.59742   0.54123    0.023
 3792.00    0.63280   0.50271    0.023
 3793.00    0.59708   0.45632    0.023
 3794.00    0.46150   0.40919    0.022
 3795.00    0.37488   0.40853    0.022
 3796.00    0.34879   0.47182    0.022
 3797.00    0.32489   0.55620    0.022
 3798.00    0.30339   0.62484    0.022
 3799.00    0.23538   0.68211    0.022
 3800.00    0.12267   0.72583    0.022
 3801.00    0.15517   0.73856    0.022
 3802.00    0.31073   0.72157    0.023
 3803.00    0.42327   0.70055    0.023
 3804.00    0.50372   0.71147    0.023
 3805.00    0.62598   0.75884    0.023
 3806.00    0.77566   0.80642    0.023
 3807.00    0.77363   0.82483    0.023
 3808.00    0.68455   0.80532    0.023
 3809.00    0.63610   0.75322    0.023
 3810.00    0.60796   0.69979    0.023
 3811.00    0.59147   0.67169    0.023
 3812.00    0.58002   0.67244    0.023
 3813.00    0.55472   0.70508    0.023
 3814.00    0.52428   0.74331    0.022
 3815.00    0.46651   0.73432    0.022
 3816.00    0.40015   0.67941    0.022
 3817.00    0.31061   0.64697    0.023
 3818.00    0.21499   0.67374    0.025
 3819.00    0.27453   0.70294    0.023
 3820.00    0.36730   0.67435    0.022
 3821.00    0.31188   0.61646    0.021
 3822.00    0.23131   0.58395    0.022
 3823.00    0.31532   0.57800    0.021
 3824.00    0.42044   0.57401    0.021
 3825.00    0.33144   0.56738    0.021
 3826.00    0.22503   0.56410    0.021
 3827.00    0.21125   0.54798    0.021
 3828.00    0.20245   0.49857    0.022
 3829.00    0.22648   0.43603    0.021
 3830.00    0.24997   0.39028    0.021
 3831.00    0.17249   0.36925    0.022
 3832.00    0.10612   0.37959    0.022
 3833.00    0.28672   0.41032    0.022
 3834.00    0.47142   0.43564    0.023
 3835.00    0.70703   0.45602    0.023
 3836.00    0.89783   0.48359    0.022
 3837.00    0.70988   0.52560    0.022
 3838.00    0.55048   0.58856    0.022
 3839.00    0.57071   0.65211    0.022
 3840.00    0.55955   0.69097    0.022
 3841.00    0.39351   0.70686    0.022
 3842.00    0.27634   0.71511    0.022
 3843.00    0.35484   0.73535    0.023
 3844.00    0.42378   0.75923    0.023
 3845.00    0.46092   0.75360    0.023
 3846.00    0.51159   0.72976    0.023
 3847.00    0.60020   0.73712    0.000
 3848.00    0.67728   0.77448    0.000
 3849.00    0.72665   0.79633    0.000
 3850.00    0.63500   0.79101    0.000
 3851.00    0.25086   0.77199    0.000
 3852.00    0.08769   0.75077    0.000
 3853.00    0.32306   0.74467    0.000
 3854.00    0.47843   0.73960    0.000
 3855.00    0.50764   0.71056    0.000
 3856.00    0.54301   0.69205    0.000
 3857.00    0.58690   0.72384    0.000
 3858.00    0.61540   0.78160    0.000
 3859.00    0.62516   0.82090    0.000
 3860.00    0.62000   0.82918    0.000
 3861.00    0.59881   0.81709    0.000
 3862.00    0.58188   0.80321    0.000
 3863.00    0.56897   0.80212    0.000
 3864.00    0.57165   0.81069    0.000
 3865.00    0.58736   0.81454    0.000
 3866.00    0.73608   0.79882    0.000
 3867.00    0.98264   0.75988    0.000
 3868.00    1.01170   0.71040    0.000
 3869.00    0.90027   0.68702    0.000
 3870.00    0.86270   0.71710    0.000
 3871.00    0.86688   0.76987    0.000
 3872.00    0.83148   0.79095    0.000
 3873.00    0.77660   0.75647    0.000
 3874.00    0.65836   0.69082    0.000
 3875.00    0.51317   0.66118    0.000
 3876.00    0.44665   0.68803    0.000
 3877.00    0.40877   0.70340    0.000
 3878.00    0.61119   0.67645    0.000
 3879.00    0.88768   0.65411    0.000
 3880.00    0.91665   0.65222    0.000
 3881.00    0.88207   0.62458    0.021
 3882.00    0.80040   0.55608    0.021
 3883.00    0.70888   0.49069    0.021
 3884.00    0.78173   0.44924    0.021
 3885.00    0.88168   0.42803    0.021
 3886.00    0.67534   0.45089    0.022
 3887.00    0.43107   0.52179    0.022
 3888.00    0.61934   0.59849    0.022
 3889.00    0.84463   0.64572    0.022
 3890.00    0.76639   0.66213    0.022
 3891.00    0.67303   0.66542    0.021
 3892.00    0.61941   0.68012    0.022
 3893.00    0.56602   0.71148    0.022
 3894.00    0.48578   0.72942    0.022
 3895.00    0.41549   0.72273    0.021
 3896.00    0.54900   0.72422    0.021
 3897.00    0.66886   0.75700    0.021
 3898.00    0.62747   0.78715    0.021
 3899.00    0.60349   0.78393    0.020
 3900.00    0.72130   0.77189    0.020
 3901.00    0.82952   0.75711    0.020
 3902.00    0.87913   0.73840    0.019
 3903.00    0.93217   0.75435    0.019
 3904.00    1.00176   0.80855    0.018
 3905.00    1.02839   0.85854    0.018
 3906.00    0.88681   0.88316    0.018
 3907.00    0.79316   0.89582    0.018
 3908.00    0.85569   0.90256    0.019
 3909.00    0.91624   0.88900    0.019
 3910.00    0.97131   0.86656    0.019
 3911.00    0.99047   0.85975    0.019
 3912.00    0.92486   0.85498    0.020
 3913.00    0.80437   0.84143    0.020
 3914.00    0.57187   0.82837    0.021
 3915.00    0.47403   0.81213    0.021
 3916.00    0.61532   0.79027    0.021
 3917.00    0.75665   0.77635    0.022
 3918.00    0.89803   0.78051    0.022
 3919.00    0.92547   0.79561    0.022
 3920.00    0.79747   0.80998    0.022
 3921.00    0.69803   0.80552    0.022
 3922.00    0.63292   0.77564    0.021
 3923.00    0.61106   0.73153    0.021
 3924.00    0.63500   0.67776    0.021
 3925.00    0.59773   0.61847    0.022
 3926.00    0.50328   0.55579    0.022
 3927.00    0.46567   0.48522    0.022
 3928.00    0.47487   0.40343    0.022
 3929.00    0.42827   0.32174    0.022
 3930.00    0.34121   0.28039    0.022
 3931.00    0.30528   0.31433    0.022
 3932.00    0.30190   0.40722    0.022
 3933.00    0.39249   0.51031    0.022
 3934.00    0.53539   0.59519    0.022
 3935.00    0.55993   0.66607    0.022
 3936.00    0.52716   0.72171    0.022
 3937.00    0.66897   0.74809    0.022
 3938.00    0.88376   0.75078    0.022
 3939.00    0.78810   0.74047    0.022
 3940.00    0.58140   0.72926    0.022
 3941.00    0.56500   0.75146    0.022
 3942.00    0.60612   0.80636    0.022
 3943.00    0.56875   0.83488    0.022
 3944.00    0.51166   0.81854    0.022
 3945.00    0.56676   0.80608    0.022
 3946.00    0.64474   0.82419    0.022
 3947.00    0.74863   0.84420    0.022
 3948.00    0.85666   0.83692    0.023
 3949.00    0.71872   0.82840    0.022
 3950.00    0.55141   0.84998    0.022
 3951.00    0.56388   0.86064    0.022
 3952.00    0.59098   0.82376    0.022
 3953.00    0.73068   0.78397    0.022
 3954.00    0.87556   0.78654    0.022
 3955.00    0.69917   0.80754    0.022
 3956.00    0.52554   0.79235    0.022
 3957.00    0.70941   0.72448    0.022
 3958.00    0.88418   0.64869    0.022
 3959.00    0.88646   0.60631    0.022
 3960.00    0.87068   0.58025    0.000
 3961.00    0.65150   0.53493    0.000
 3962.00    0.47364   0.45853    0.000
 3963.00    0.62062   0.36327    0.000
 3964.00    0.73821   0.27723    0.000
 3965.00    0.68142   0.23299    0.000
 3966.00    0.64833   0.24788    0.000
 3967.00    0.72646   0.31134    0.000
 3968.00    0.77803   0.39401    0.000
 3969.00    0.72784   0.47009    0.000
 3970.00    0.69259   0.53783    0.000
 3971.00    0.70513   0.60435    0.000
 3972.00    0.70918   0.65980    0.000
 3973.00    0.69024   0.70157    0.000
 3974.00    0.76932   0.74665    0.000
 3975.00    1.07601   0.79889    0.000
 3976.00    1.19337   0.84122    0.000
 3977.00    0.93045   0.85199    0.000
 3978.00    0.79016   0.83738    0.000
 3979.00    0.86435   0.83035    0.000
 3980.00    0.99947   0.84602    0.000
 3981.00    1.22787   0.87193    0.023
 3982.00    1.33023   0.88913    0.023
 3983.00    1.26310   0.90214    0.023
 3984.00    1.28728   0.92560    0.023
 3985.00    1.41962   0.93818    0.023
 3986.00    1.32193   0.93074    0.023
 3987.00    0.98403   0.93471    0.022
 3988.00    0.74683   0.95897    0.022
 3989.00    0.60239   0.98023    0.022
 3990.00    0.66866   0.97804    0.022
 3991.00    0.90601   0.95766    0.022
 3992.00    0.99684   0.93066    0.022
 3993.00    0.98299   0.90247    0.022
 3994.00    0.90992   0.89470    0.022
 3995.00    0.79971   0.93015    0.022
 3996.00    0.85080   0.98033    0.022
 3997.00    0.99027   1.00358    0.022
 3998.00    1.02207   1.01141    0.022
 3999.00    1.00259   1.01815    0.022
 4000.00    0.90547   0.99059    0.022
 4001.00    0.77644   0.92074    0.021
 4002.00    0.97635   0.87911    0.022
 4003.00    1.29178   0.91195    0.022
 4004.00    1.07895   0.97093    0.022
 4005.00    0.70960   1.00206    0.022
 4006.00    0.63661   1.00953    0.022
 4007.00    0.63642   1.01271    0.022
 4008.00    0.66154   1.01069    0.022
 4009.00    0.69169   1.00776    0.022
 4010.00    0.76021   1.01078    0.022
 4011.00    0.83470   1.02215    0.022
 4012.00    0.95303   1.03111    0.022
 4013.00    1.07640   1.02144    0.022
 4014.00    1.07555   1.01631    0.022
 4015.00    1.06509   1.03980    0.022
 4016.00    1.17482   1.06085    0.022
 4017.00    1.28962   1.05295    0.022
 4018.00    1.26541   1.03488    0.022
 4019.00    1.23766   1.02108    0.022
 4020.00    1.11065   1.00130    0.022
 4021.00    0.99503   0.99149    0.022
 4022.00    1.08012   1.01829    0.022
 4023.00    1.14558   1.05826    0.022
 4024.00    1.00000   1.07455    0.022
 4025.00    0.85449   1.05114    0.022
 4026.00    0.70956   0.98582    0.022
 4027.00    0.61630   0.91874    0.022
 4028.00    0.82114   0.89146    0.022
 4029.00    1.01287   0.89379    0.022
 4030.00    1.14453   0.91241    0.022
 4031.00    1.24689   0.94874    0.022
 4032.00    1.23933   1.00284    0.022
 4033.00    1.21377   1.06125    0.021
 4034.00    1.13178   1.09712    0.021
 4035.00    1.03212   1.09546    0.021
 4036.00    0.88544   1.06380    0.021
 4037.00    0.77123   1.03689    0.021
 4038.00    0.73114   1.04186    0.021
 4039.00    0.79909   1.04342    0.021
 4040.00    1.08065   0.98670    0.022
 4041.00    1.16236   0.88922    0.022
 4042.00    0.89977   0.84531    0.022
 4043.00    0.72966   0.90607    0.022
 4044.00    0.69903   0.99481    0.022
 4045.00    0.74841   1.03758    0.022
 4046.00    0.90385   1.05310    0.022
 4047.00    1.02664   1.06021    0.022
 4048.00    1.11132   1.04791    0.022
 4049.00    1.04633   1.02147    0.022
 4050.00    0.82723   0.99480    0.022
 4051.00    0.70443   0.97984    0.022
 4052.00    0.66909   0.97962    0.022
 4053.00    0.78421   0.97194    0.022
 4054.00    1.01976   0.95775    0.022
 4055.00    1.06847   0.97323    0.022
 4056.00    0.98564   1.01568    0.022
 4057.00    0.98705   1.03517    0.022
 4058.00    1.04050   0.99281    0.022
 4059.00    0.98596   0.91131    0.022
 4060.00    0.87316   0.87518    0.022
 4061.00    0.80292   0.91816    0.022
 4062.00    0.75264   0.96169    0.022
 4063.00    0.80365   0.96439    0.022
 4064.00    0.89557   0.97942    0.022
 4065.00    0.73238   1.02335    0.022
 4066.00    0.48123   1.02997    0.021
 4067.00    0.41954   0.97127    0.021
 4068.00    0.41288   0.92555    0.022
 4069.00    0.59510   0.95266    0.022
 4070.00    0.82269   0.99836    0.022
 4071.00    0.87054   0.99281    0.022
 4072.00    0.88357   0.93036    0.021
 4073.00    0.90001   0.85537    0.021
 4074.00    0.91697   0.83331    0.021
 4075.00    0.95758   0.88267    0.022
 4076.00    1.00081   0.96003    0.022
 4077.00    1.12285   1.01954    0.022
 4078.00    1.25067   1.03249    0.022
 4079.00    1.18981   1.00216    0.022
 4080.00    1.12172   0.96435    0.022
 4081.00    1.04083   0.94661    0.022
 4082.00    0.96611   0.95654    0.022
 4083.00    1.12680   0.99102    0.022
 4084.00    1.26190   1.02915    0.021
 4085.00    0.97512   1.04282    0.021
 4086.00    0.71354   1.02754    0.021
 4087.00    0.71116   1.00006    0.021
 4088.00    0.74785   0.97338    0.021
 4089.00    1.07114   0.96121    0.021
 4090.00    1.28517   0.95409    0.021
 4091.00    0.88628   0.91733    0.021
 4092.00    0.59440   0.86038    0.000
 4093.00    0.78142   0.81953    0.000
 4094.00    0.89866   0.79472    0.000
 4095.00    0.75962   0.75923    0.000
 4096.00    0.71603   0.68926    0.000
 4097.00    0.96601   0.59733    0.000
 4098.00    1.15561   0.55534    0.000
 4099.00    1.18739   0.60272    0.000
 4100.00    1.17297   0.69044    0.000
 4101.00    1.05477   0.76998    0.000
 4102.00    0.98018   0.83067    0.000
 4103.00    0.99045   0.86577    0.000
 4104.00    1.02354   0.87897    0.000
 4105.00    1.09536   0.87961    0.000
 4106.00    1.13358   0.87825    0.000
 4107.00    1.12187   0.88747    0.000
 4108.00    1.09434   0.90954    0.000
 4109.00    1.04614   0.94006    0.000
 4110.00    1.06119   0.96943    0.000
 4111.00    1.14903   0.99139    0.000
 4112.00    1.19643   1.00889    0.000
 4113.00    1.20279   1.00811    0.021
 4114.00    1.25543   0.97511    0.021
 4115.00    1.34952   0.94390    0.021
 4116.00    1.34578   0.95111    0.021
 4117.00    1.26488   0.97048    0.021
 4118.00    1.13239   0.97036    0.021
 4119.00    0.96411   0.96804    0.021
 4120.00    0.86888   0.98763    0.021
 4121.00    0.81811   1.01380    0.021
 4122.00    0.81712   1.01502    0.021
 4123.00    0.84259   0.99082    0.021
 4124.00    1.13251   0.96551    0.021
 4125.00    1.54436   0.95995    0.022
 4126.00    1.41485   0.96379    0.022
 4127.00    1.07037   0.94839    0.021
 4128.00    0.90734   0.91370    0.021
 4129.00    0.80573   0.89913    0.021
 4130.00    1.04939   0.92002    0.021
 4131.00    1.39128   0.96613    0.021
 4132.00    1.31738   1.01356    0.021
 4133.00    1.14587   1.03420    0.021
 4134.00    1.07871   1.04624    0.021
 4135.00    1.03125   1.06531    0.021
 4136.00    1.09085   1.07441    0.021
 4137.00    1.16608   1.05591    0.021
 4138.00    1.14919   0.99382    0.021
 4139.00    1.12250   0.91041    0.021
 4140.00    1.02719   0.88156    0.021
 4141.00    0.92713   0.93264    0.021
 4142.00    0.97031   0.99736    0.021
 4143.00    1.01843   1.02646    0.022
 4144.00    0.96285   1.02362    0.021
 4145.00    0.91034   1.00293    0.021
 4146.00    0.96603   0.98745    0.021
 4147.00    1.01988   0.99204    0.021
 4148.00    1.04521   0.99835    0.021
 4149.00    1.05397   0.98893    0.021
 4150.00    0.89930   0.96687    0.022
 4151.00    0.77789   0.95459    0.022
 4152.00    0.89263   0.95651    0.021
 4153.00    0.96857   0.96695    0.021
 4154.00    0.83270   0.99252    0.021
 4155.00    0.74389   1.02210    0.021
 4156.00    0.86078   1.03490    0.021
 4157.00    0.90925   1.03260    0.021
 4158.00    0.71162   1.04217    0.021
 4159.00    0.53793   1.05900    0.020
 4160.00    0.43646   1.05968    0.020
 4161.00    0.46710   1.05257    0.020
 4162.00    0.83704   1.03914    0.020
 4163.00    1.16945   1.01487    0.021
 4164.00    1.41899   1.00813    0.021
 4165.00    1.55198   1.02930    0.021
 4166.00    1.46169   1.03562    0.021
 4167.00    1.33186   0.99373    0.021
 4168.00    1.13595   0.92362    0.021
 4169.00    0.97473   0.88243    0.021
 4170.00    0.86435   0.89865    0.021
 4171.00    0.87133   0.94026    0.021
 4172.00    1.02950   0.96228    0.021
 4173.00    1.05660   0.95206    0.021
 4174.00    0.93497   0.93833    0.021
 4175.00    0.89441   0.95683    0.021
 4176.00    0.93500   0.99354    0.021
 4177.00    1.10953   1.00092    0.021
 4178.00    1.40230   0.98135    0.021
 4179.00    1.45603   0.97697    0.021
 4180.00    1.32385   0.99660    0.021
 4181.00    1.07876   1.02134    0.021
 4182.00    0.75644   1.01425    0.020
 4183.00    0.76783   0.96859    0.021
 4184.00    0.97925   0.95079    0.021
 4185.00    1.10911   0.98688    0.021
 4186.00    1.19632   1.01881    0.021
 4187.00    1.34402   1.01625    0.021
 4188.00    1.51916   1.02483    0.021
 4189.00    1.53925   1.06267    0.021
 4190.00    1.49884   1.07409    0.021
 4191.00    1.26641   1.03357    0.021
 4192.00    0.97022   0.98595    0.021
 4193.00    0.99388   0.95585    0.021
 4194.00    1.10669   0.92588    0.020
 4195.00    0.96414   0.91600    0.020
 4196.00    0.76300   0.94007    0.020
 4197.00    0.68615   0.95064    0.020
 4198.00    0.63215   0.93999    0.020
 4199.00    0.79562   0.94983    0.020
 4200.00    0.98984   0.97256    0.020
 4201.00    0.87178   0.98827    0.020
 4202.00    0.72188   1.01025    0.020
 4203.00    0.71435   1.03707    0.020
 4204.00    0.71609   1.05261    0.020
 4205.00    0.89164   1.04605    0.020
 4206.00    1.07223   1.03066    0.020
 4207.00    1.05746   1.03570    0.020
 4208.00    1.04406   1.05778    0.020
 4209.00    1.07127   1.06309    0.020
 4210.00    1.09438   1.03025    0.020
 4211.00    1.05801   0.96884    0.020
 4212.00    1.03788   0.94024    0.020
 4213.00    1.17129   0.98366    0.020
 4214.00    1.30508   1.04231    0.020
 4215.00    1.44144   1.06781    0.020
 4216.00    1.53303   1.07789    0.020
 4217.00    1.38667   1.08261    0.020
 4218.00    1.20173   1.06146    0.020
 4219.00    0.85202   1.01517    0.020
 4220.00    0.61146   0.95568    0.020
 4221.00    0.75547   0.87609    0.020
 4222.00    0.88713   0.78693    0.020
 4223.00    0.98220   0.75935    0.020
 4224.00    1.02649   0.84458    0.020
 4225.00    0.94261   0.96627    0.020
 4226.00    0.93855   1.04103    0.020
 4227.00    1.10792   1.06574    0.020
 4228.00    1.23188   1.04152    0.020
 4229.00    1.27021   0.99193    0.020
 4230.00    1.24478   0.97374    0.019
 4231.00    1.11438   0.97469    0.019
 4232.00    0.97145   0.96317    0.019
 4233.00    0.81041   0.96648    0.019
 4234.00    0.84315   0.98097    0.019
 4235.00    1.12191   0.98524    0.019
 4236.00    1.35496   0.99933    0.019
 4237.00    1.53687   1.03194    0.019
 4238.00    1.55865   1.05018    0.019
 4239.00    1.42242   1.05629    0.019
 4240.00    1.27100   1.07882    0.019
 4241.00    1.10636   1.08775    0.019
 4242.00    0.99140   1.05180    0.019
 4243.00    0.91454   1.00250    0.019
 4244.00    0.98666   0.98253    0.019
 4245.00    1.15918   0.97584    0.020
 4246.00    1.24621   0.95373    0.020
 4247.00    1.28278   0.95504    0.020
 4248.00    1.39795   0.99705    0.021
 4249.00    1.55358   1.01451    0.021
 4250.00    1.51766   0.98507    0.021
 4251.00    1.39626   0.97192    0.021
 4252.00    1.26956   1.01094    0.021
 4253.00    1.14081   1.05265    0.021
 4254.00    0.95803   1.03897    0.020
 4255.00    0.75764   0.98378    0.020
 4256.00    0.93111   0.93216    0.020
 4257.00    1.20663   0.92768    0.020
 4258.00    1.08266   0.98431    0.020
 4259.00    0.86915   1.05376    0.020
 4260.00    0.88417   1.09144    0.020
 4261.00    0.94007   1.10625    0.021
 4262.00    1.00090   1.10768    0.021
 4263.00    1.06239   1.08288    0.021
 4264.00    0.97027   1.04660    0.021
 4265.00    0.86314   1.01597    0.021
 4266.00    0.96409   0.96719    0.021
 4267.00    1.07777   0.89344    0.021
 4268.00    0.90537   0.85763    0.020
 4269.00    0.72547   0.88319    0.020
 4270.00    0.58816   0.90654    0.020
 4271.00    0.46211   0.92240    0.020
 4272.00    0.63355   0.97312    0.020
 4273.00    0.78042   1.03696    0.020
 4274.00    0.58949   1.07121    0.020
 4275.00    0.44375   1.06184    0.020
 4276.00    0.70858   1.02520    0.020
 4277.00    0.95675   1.00146    0.021
 4278.00    1.09392   0.99712    0.021
 4279.00    1.20067   1.00277    0.021
 4280.00    1.14991   1.01061    0.021
 4281.00    1.10274   1.00010    0.021
 4282.00    1.07059   0.98411   -2.000
 4283.00    0.99483   0.97785   -2.000
 4284.00    0.76858   0.95265   -2.000
 4285.00    0.62857   0.89041   -2.000
 4286.00    0.73922   0.84654   -2.000
 4287.00    0.95053   0.87954   -2.000
 4288.00    1.41151   0.95597   -2.000
 4289.00    1.68444   0.99814   -2.000
 4290.00    1.55534   0.98448   -2.000
 4291.00    1.38399   0.96603   -2.000
 4292.00    1.13422   0.96113   -2.000
 4293.00    0.88581   0.94229   -2.000
 4294.00    0.63964   0.89388   -2.000
 4295.00    0.56067   0.82194   -2.000
 4296.00    0.71958   0.77906   -2.000
 4297.00    0.78792   0.78989   -2.000
 4298.00    0.74288   0.80613    0.020
 4299.00    0.76226   0.81854    0.020
 4300.00    0.85270   0.84617    0.021
 4301.00    0.85924   0.86226    0.021
 4302.00    0.78414   0.84991    0.020
 4303.00    0.75988   0.81398    0.020
 4304.00    0.77924   0.77440    0.020
 4305.00    0.76805   0.77522    0.020
 4306.00    0.73378   0.82137    0.020
 4307.00    0.65297   0.87499    0.020
 4308.00    0.54125   0.90636    0.020
 4309.00    0.75709   0.91377    0.020
 4310.00    1.16341   0.91787    0.020
 4311.00    1.24351   0.96127    0.019
 4312.00    1.15830   1.05003    0.019
 4313.00    1.12468   1.11533    0.019
 4314.00    1.11369   1.12272    0.019
 4315.00    1.08002   1.10237    0.019
 4316.00    1.03779   1.07507    0.019
 4317.00    1.12626   1.04872    0.019
 4318.00    1.25651   1.03181    0.020
 4319.00    1.17177   0.99068    0.019
 4320.00    1.02957   0.90915    0.019
 4321.00    0.99113   0.82733    0.019
 4322.00    0.97540   0.81420    0.020
 4323.00    0.89596   0.89487    0.020
 4324.00    0.80544   0.99702    0.019
 4325.00    0.83864   1.04011    0.019
 4326.00    0.88821   1.02243    0.020
 4327.00    1.05143   1.00024    0.020
 4328.00    1.22528   1.00132    0.019
 4329.00    1.11718   1.00388    0.019
 4330.00    0.99295   1.00157    0.000
 4331.00    0.99245   0.99418    0.000
 4332.00    0.99523   0.94631    0.000
 4333.00    1.04383   0.84246    0.000
 4334.00    1.08742   0.73582    0.000
 4335.00    1.01067   0.65450    0.000
 4336.00    0.93420   0.59558    0.000
 4337.00    0.86133   0.61130    0.000
 4338.00    0.80933   0.70765    0.000
 4339.00    0.93959   0.79557    0.000
 4340.00    1.04523   0.84506    0.000
 4341.00    0.99189   0.89435    0.000
 4342.00    0.94472   0.93618    0.000
 4343.00    0.92874   0.95963    0.000
 4344.00    0.92293   0.99214    0.000
 4345.00    0.95863   1.02675    0.000
 4346.00    0.95378   1.00532    0.000
 4347.00    0.81179   0.92004    0.000
 4348.00    0.76137   0.86470    0.000
 4349.00    0.97225   0.89999    0.000
 4350.00    1.14884   0.96540    0.000
 4351.00    1.24181   1.00602    0.020
 4352.00    1.29750   1.03926    0.020
 4353.00    1.27477   1.06165    0.020
 4354.00    1.16957   1.04623    0.020
 4355.00    0.91357   1.01698    0.021
 4356.00    0.75321   1.02730    0.021
 4357.00    0.74565   1.07081    0.021
 4358.00    0.88786   1.09922    0.021
 4359.00    1.24006   1.10664    0.020
 4360.00    1.38859   1.12320    0.020
 4361.00    1.28584   1.14189    0.020
 4362.00    1.13264   1.12399    0.020
 4363.00    0.92458   1.07307    0.019
 4364.00    0.88910   1.03922    0.019
 4365.00    1.01918   1.04129    0.020
 4366.00    1.12252   1.05272    0.020
 4367.00    1.20327   1.06485    0.020
 4368.00    1.13154   1.07200    0.020
 4369.00    0.94624   1.04539    0.020
 4370.00    0.93684   0.98425    0.020
 4371.00    1.04254   0.94959    0.020
 4372.00    0.99861   0.98670    0.020
 4373.00    0.86897   1.06098    0.019
 4374.00    0.90912   1.10769    0.019
 4375.00    1.03396   1.10790    0.020
 4376.00    1.15620   1.09006    0.020
 4377.00    1.27732   1.06524    0.020
 4378.00    1.08827   0.99234    0.020
 4379.00    0.78445   0.87178    0.020
 4380.00    0.74942   0.80311    0.021
 4381.00    0.79868   0.84997    0.023
 4382.00    0.89739   0.95169    0.023
 4383.00    1.00905   1.01618    0.023
 4384.00    1.05705   1.02966    0.023
 4385.00    1.09147   1.02483    0.023
 4386.00    1.13967   1.01691    0.023
 4387.00    1.19020   1.02359    0.023
 4388.00    1.17598   1.05097    0.021
 4389.00    1.15349   1.06066    0.019
 4390.00    1.06777   1.03034    0.019
 4391.00    0.97640   1.00908    0.020
 4392.00    1.00235   1.04856    0.020
 4393.00    1.03455   1.10780    0.020
 4394.00    1.03300   1.11658    0.020
 4395.00    1.03168   1.07264    0.020
 4396.00    1.10341   1.01965    0.020
 4397.00    1.17106   1.01685    0.020
 4398.00    1.14895   1.06069    0.020
 4399.00    1.13438   1.05911    0.020
 4400.00    1.21301   0.98734    0.020
 4401.00    1.26253   0.94762    0.020
 4402.00    1.06720   0.98422    0.020
 4403.00    0.89300   1.01578    0.020
 4404.00    0.85122   1.01173    0.020
 4405.00    0.85194   1.03181    0.020
 4406.00    1.06173   1.08670    0.020
 4407.00    1.21734   1.13079    0.020
 4408.00    1.15664   1.15131    0.020
 4409.00    1.10837   1.13945    0.020
 4410.00    1.10129   1.07184    0.020
 4411.00    1.06512   0.99435    0.020
 4412.00    0.94738   0.98085    0.020
 4413.00    0.88911   1.01718    0.020
 4414.00    0.97334   1.06817    0.020
 4415.00    1.08558   1.12380    0.020
 4416.00    1.25581   1.15012    0.020
 4417.00    1.35283   1.12541    0.020
 4418.00    1.31805   1.08035    0.020
 4419.00    1.28726   1.06527    0.020
 4420.00    1.26273   1.08266    0.020
 4421.00    1.23430   1.09208    0.020
 4422.00    1.20049   1.08403    0.020
 4423.00    1.13831   1.08141    0.020
 4424.00    1.04162   1.09512    0.020
 4425.00    0.98480   1.09723    0.020
 4426.00    0.97073   1.07518    0.020
 4427.00    1.02488   1.07417    0.020
 4428.00    1.14355   1.09373    0.020
 4429.00    1.11447   1.07906    0.020
 4430.00    0.96218   1.02631    0.020
 4431.00    1.00062   0.98813    0.020
 4432.00    1.17909   1.01312    0.020
 4433.00    1.25323   1.08577    0.020
 4434.00    1.26012   1.14903    0.020
 4435.00    1.18742   1.17365    0.020
 4436.00    1.06982   1.15188    0.020
 4437.00    1.16241   1.09284    0.020
 4438.00    1.35819   1.02795    0.020
 4439.00    1.29300   0.99734    0.021
 4440.00    1.11708   1.02935    0.021
 4441.00    1.04077   1.10083    0.021
 4442.00    1.00066   1.14385    0.021
 4443.00    1.03219   1.14065    0.021
 4444.00    1.08575   1.13631    0.021
 4445.00    0.89608   1.13430    0.021
 4446.00    0.64413   1.11594    0.020
 4447.00    0.72921   1.11033    0.020
 4448.00    0.88453   1.11888    0.020
 4449.00    0.98939   1.09750    0.020
 4450.00    1.08596   1.03627    0.020
 4451.00    1.16507   0.98605    0.020
 4452.00    1.24203   0.99263    0.020
 4453.00    1.23475   1.02250    0.020
 4454.00    1.22030   1.02876    0.020
 4455.00    1.08339   1.02040    0.020
 4456.00    0.94043   1.01407    0.020
 4457.00    1.14534   1.00094    0.020
 4458.00    1.34909   1.00633    0.020
 4459.00    1.13187   1.05320    0.020
 4460.00    0.92562   1.09153    0.020
 4461.00    0.94176   1.09434    0.000
 4462.00    0.96253   1.08746    0.000
 4463.00    1.03783   1.07885    0.000
 4464.00    1.11362   1.05954    0.000
 4465.00    1.19337   1.04042    0.000
 4466.00    1.24613   1.04983    0.000
 4467.00    1.13460   1.08329    0.000
 4468.00    1.06216   1.12089    0.000
 4469.00    1.17720   1.15540    0.000
 4470.00    1.26238   1.17297    0.000
 4471.00    1.23095   1.16705    0.000
 4472.00    1.18710   1.16731    0.000
 4473.00    1.10289   1.18882    0.000
 4474.00    1.06836   1.19304    0.000
 4475.00    1.17051   1.14792    0.000
 4476.00    1.24724   1.07171    0.000
 4477.00    1.26410   1.01433    0.000
 4478.00    1.26047   1.01892    0.000
 4479.00    1.21511   1.08062    0.000
 4480.00    1.20307   1.14704    0.000
 4481.00    1.25007   1.18507    0.000
 4482.00    1.26778   1.19654    0.019
 4483.00    1.24004   1.17641    0.019
 4484.00    1.17759   1.12551    0.019
 4485.00    1.06785   1.07681    0.019
 4486.00    1.05602   1.06931    0.019
 4487.00    1.16158   1.10351    0.019
 4488.00    1.22011   1.14079    0.019
 4489.00    1.22891   1.13927    0.020
 4490.00    1.22370   1.10059    0.020
 4491.00    1.20541   1.07487    0.020
 4492.00    1.14813   1.08452    0.019
 4493.00    1.05879   1.11779    0.019
 4494.00    1.08025   1.15683    0.019
 4495.00    1.18189   1.17524    0.019
 4496.00    1.22226   1.15809    0.019
 4497.00    1.22372   1.13032    0.019
 4498.00    1.24881   1.14699    0.019
 4499.00    1.28702   1.20510    0.019
 4500.00    1.22308   1.24351    0.019
 4501.00    1.10978   1.24294    0.019
 4502.00    1.13451   1.22122    0.019
 4503.00    1.21682   1.19400    0.019
 4504.00    1.28539   1.17955    0.019
 4505.00    1.34905   1.18997    0.019
 4506.00    1.24012   1.21104    0.019
 4507.00    1.07915   1.21358    0.019
 4508.00    1.21438   1.19131    0.019
 4509.00    1.42380   1.16385    0.019
 4510.00    1.48618   1.14296    0.019
 4511.00    1.51868   1.13798    0.019
 4512.00    1.38812   1.14784    0.019
 4513.00    1.23154   1.14768    0.019
 4514.00    1.23137   1.13994    0.019
 4515.00    1.24978   1.14960    0.019
 4516.00    1.20562   1.16965    0.019
 4517.00    1.15639   1.17434    0.019
 4518.00    1.19899   1.14748    0.019
 4519.00    1.24576   1.12031    0.019
 4520.00    1.18570   1.11678    0.019
 4521.00    1.12598   1.10482    0.019
 4522.00    1.15036   1.07397    0.019
 4523.00    1.17548   1.04006    0.019
 4524.00    1.21456   1.01530    0.019
 4525.00    1.24408   1.01319    0.019
 4526.00    1.16656   1.03449    0.019
 4527.00    1.09196   1.06285    0.019
 4528.00    1.04024   1.07919    0.018
 4529.00    1.00340   1.05691    0.018
 4530.00    1.05458   1.01642    0.019
 4531.00    1.09321   1.01512    0.019
 4532.00    1.07312   1.07441    0.019
 4533.00    1.10105   1.15640    0.019
 4534.00    1.31247   1.19363    0.019
 4535.00    1.42031   1.17519    0.019
 4536.00    1.19785   1.13994    0.019
 4537.00    1.03893   1.12433    0.019
 4538.00    1.05167   1.14103    0.019
 4539.00    1.08190   1.15769    0.019
 4540.00    1.15265   1.14232    0.019
 4541.00    1.20332   1.12141    0.019
 4542.00    1.21376   1.12381    0.019
 4543.00    1.19218   1.12563    0.019
 4544.00    1.11471   1.09593    0.019
 4545.00    1.12169   1.05410    0.019
 4546.00    1.25772   1.06027    0.019
 4547.00    1.32046   1.10429    0.019
 4548.00    1.28483   1.11707    0.019
 4549.00    1.17923   1.09130    0.019
 4550.00    0.99092   1.06020    0.000
 4551.00    0.94578   1.05502    0.000
 4552.00    1.04988   1.09138    0.000
 4553.00    1.11726   1.14479    0.000
 4554.00    1.15089   1.17446    0.000
 4555.00    1.20161   1.18208    0.000
 4556.00    1.26617   1.18765    0.000
 4557.00    1.18172   1.19351    0.000
 4558.00    0.99101   1.18160    0.000
 4559.00    0.96493   1.14081    0.000
 4560.00    1.04188   1.10236    0.000
 4561.00    1.06246   1.10061    0.000
 4562.00    1.05221   1.13589    0.000
 4563.00    1.14362   1.18293    0.000
 4564.00    1.28337   1.20753    0.000
 4565.00    1.24536   1.20268    0.000
 4566.00    1.13445   1.16983    0.000
 4567.00    1.10304   1.12090    0.000
 4568.00    1.09949   1.11491    0.000
 4569.00    1.17072   1.16231    0.000
 4570.00    1.26404   1.19284    0.000
 4571.00    1.24689   1.18757    0.000
 4572.00    1.20267   1.18045    0.000
 4573.00    1.08692   1.17814    0.000
 4574.00    0.95700   1.16282    0.000
 4575.00    0.99399   1.12799    0.000
 4576.00    1.05681   1.09525    0.000
 4577.00    1.08527   1.08864    0.000
 4578.00    1.10979   1.09803    0.000
 4579.00    1.12158   1.09924    0.000
 4580.00    1.13240   1.09711    0.000
 4581.00    1.15759   1.10223    0.000
 4582.00    1.18339   1.11339    0.000
 4583.00    1.08956   1.13697    0.000
 4584.00    0.99773   1.16348    0.000
 4585.00    1.03611   1.17553    0.000
 4586.00    1.07959   1.16496    0.000
 4587.00    1.21221   1.13751    0.000
 4588.00    1.32530   1.11616    0.000
 4589.00    1.22943   1.11690    0.000
 4590.00    1.12549   1.12379    0.000
 4591.00    0.96054   1.12384    0.000
 4592.00    0.83745   1.12705    0.000
 4593.00    0.95491   1.13536    0.000
 4594.00    1.03382   1.14427    0.000
 4595.00    0.93654   1.14487    0.000
 4596.00    0.86997   1.12918    0.000
 4597.00    0.91829   1.12180    0.000
 4598.00    0.95514   1.13225    0.000
 4599.00    0.95613   1.14071    0.000
 4600.00    0.95642   1.14046    0.000
 4601.00    0.95485   1.13686    0.000
 4602.00    1.01340   1.14518    0.000
 4603.00    1.20894   1.17181    0.000
 4604.00    1.28027   1.20742    0.000
 4605.00    1.10653   1.22794    0.000
 4606.00    0.99328   1.21731    0.000
 4607.00    0.98405   1.19301    0.000
 4608.00    0.99380   1.17609    0.000
 4609.00    1.03213   1.17083    0.000
 4610.00    1.11670   1.18072    0.000
 4611.00    1.26247   1.19012    0.000
 4612.00    1.25847   1.18616    0.000
 4613.00    1.07995   1.18448    0.000
 4614.00    0.99381   1.17561    0.000
 4615.00    1.00261   1.16047    0.000
 4616.00    1.02291   1.17072    0.000
 4617.00    1.05363   1.19636    0.000
 4618.00    1.10709   1.20537    0.000
 4619.00    1.17873   1.20372    0.000
 4620.00    1.23952   1.19842    0.000
 4621.00    1.29268   1.18573    0.000
 4622.00    1.29434   1.17993    0.000
 4623.00    1.26425   1.18305    0.000
 4624.00    1.20053   1.17301    0.000
 4625.00    1.11870   1.15668    0.000
 4626.00    1.14676   1.16866    0.000
 4627.00    1.22620   1.19553    0.000
 4628.00    1.34716   1.19118    0.000
 4629.00    1.48486   1.16234    0.000
 4630.00    1.44826   1.14782    0.000
 4631.00    1.35170   1.15122    0.000
 4632.00    1.33406   1.15066    0.000
 4633.00    1.33927   1.13771    0.000
 4634.00    1.16979   1.12557    0.000
 4635.00    0.95847   1.12322    0.000
 4636.00    1.05656   1.13352    0.000
 4637.00    1.21441   1.15875    0.000
 4638.00    1.14934   1.17531    0.000
 4639.00    1.05082   1.16814    0.000
 4640.00    1.06239   1.14936    0.000
 4641.00    1.08607   1.11857    0.000
 4642.00    1.13604   1.07884    0.000
 4643.00    1.18792   1.06118    0.000
 4644.00    1.17319   1.07810    0.000
 4645.00    1.15594   1.11322    0.000
 4646.00    1.01826   1.14484    0.000
 4647.00    0.88620   1.16081    0.000
 4648.00    0.98522   1.16743    0.000
 4649.00    1.07367   1.16102    0.000
 4650.00    0.98944   1.13286    0.000
 4651.00    0.91976   1.10791    0.000
 4652.00    0.99912   1.10826    0.000
 4653.00    1.06744   1.13776    0.000
 4654.00    1.05511   1.18863    0.000
 4655.00    1.04138   1.22810    0.000
 4656.00    1.01985   1.23249    0.000
 4657.00    1.03940   1.20649    0.000
 4658.00    1.24229   1.17120    0.000
 4659.00    1.34801   1.14802    0.000
 4660.00    1.09777   1.14194    0.000
 4661.00    0.91772   1.12377    0.000
 4662.00    0.95299   1.06798    0.000
 4663.00    0.97912   1.01329    0.000
 4664.00    0.98142   1.01462    0.000
 4665.00    0.98077   1.06183    0.000
 4666.00    0.97353   1.11295    0.000
 4667.00    1.01222   1.14545    0.000
 4668.00    1.14008   1.15101    0.000
 4669.00    1.19583   1.14278    0.000
 4670.00    1.12944   1.14399    0.000
 4671.00    1.13075   1.16262    0.000
 4672.00    1.23251   1.18313    0.000
 4673.00    1.28142   1.17778    0.000
 4674.00    1.26139   1.14770    0.000
 4675.00    1.22072   1.12105    0.000
 4676.00    1.15636   1.10872    0.000
 4677.00    1.04990   1.10677    0.000
 4678.00    0.90079   1.11998    0.000
 4679.00    0.95038   1.14528    0.000
 4680.00    1.17756   1.16136    0.000
 4681.00    1.22164   1.16201    0.000
 4682.00    1.12152   1.15711    0.000
 4683.00    1.06533   1.15020    0.000
 4684.00    1.03958   1.14789    0.000
 4685.00    1.14937   1.14947    0.000
 4686.00    1.34149   1.14279    0.000
 4687.00    1.28742   1.13409    0.000
 4688.00    1.10280   1.14020    0.000
 4689.00    1.02815   1.15531    0.000
 4690.00    1.00411   1.17091    0.000
 4691.00    1.00906   1.18723    0.000
 4692.00    1.02551   1.19092    0.000
 4693.00    1.12132   1.16560    0.000
 4694.00    1.24394   1.12587    0.000
 4695.00    1.29996   1.10881    0.000
 4696.00    1.33709   1.11529    0.000
 4697.00    1.25491   1.11064    0.000
 4698.00    1.14480   1.08845    0.000
 4699.00    1.06136   1.08143    0.000
 4700.00    0.98294   1.10763    0.000
 4701.00    0.99877   1.13394    0.000
 4702.00    1.02831   1.12779    0.000
 4703.00    1.06357   1.10182    0.000
 4704.00    1.09943   1.08534    0.000
 4705.00    1.12441   1.09215    0.000
 4706.00    1.14865   1.12296    0.000
 4707.00    1.07249   1.15802    0.000
 4708.00    0.99292   1.16518    0.000
 4709.00    1.08103   1.14105    0.000
 4710.00    1.16243   1.11464    0.000
 4711.00    1.01719   1.12115    0.000
 4712.00    0.89472   1.15611    0.000
 4713.00    1.12170   1.18300    0.000
 4714.00    1.31107   1.19453    0.000
 4715.00    1.13160   1.20492    0.000
 4716.00    0.97291   1.20949    0.000
 4717.00    0.96125   1.19927    0.000
 4718.00    0.98554   1.18618    0.000
 4719.00    1.20535   1.19049    0.000
 4720.00    1.34248   1.20909    0.000
 4721.00    1.11924   1.21398    0.000
 4722.00    0.97548   1.18282    0.000
 4723.00    1.11686   1.12900    0.000
 4724.00    1.25324   1.09523    0.000
 4725.00    1.37456   1.09387    0.000
 4726.00    1.39745   1.10167    0.000
 4727.00    1.16811   1.11176    0.000
 4728.00    1.07053   1.13081    0.000
 4729.00    1.26340   1.14961    0.000
 4730.00    1.37216   1.16076    0.000
 4731.00    1.32009   1.15756    0.000
 4732.00    1.23973   1.13780    0.000
 4733.00    1.11217   1.13657    0.000
 4734.00    1.02641   1.16441    0.000
 4735.00    1.00175   1.17797    0.000
 4736.00    1.07718   1.16557    0.000
 4737.00    1.28128   1.15728    0.000
 4738.00    1.36310   1.16728    0.000
 4739.00    1.30641   1.17977    0.000
 4740.00    1.19894   1.17863    0.000
 4741.00    1.04074   1.17612    0.000
 4742.00    0.98886   1.18616    0.000
 4743.00    1.03067   1.19353    0.000
 4744.00    1.04203   1.19073    0.000
 4745.00    1.02976   1.19137    0.000
 4746.00    1.08693   1.19480    0.000
 4747.00    1.19150   1.18667    0.000
 4748.00    1.12581   1.16810    0.000
 4749.00    0.95826   1.15177    0.000
 4750.00    0.96916   1.14255    0.000
 4751.00    1.07321   1.13979    0.000
 4752.00    1.13026   1.14104    0.000
 4753.00    1.16603   1.14815    0.000
 4754.00    1.21641   1.16021    0.000
 4755.00    1.27248   1.17159    0.000
 4756.00    1.20979   1.16790    0.000
 4757.00    1.10775   1.13754    0.000
 4758.00    1.10025   1.10181    0.000
 4759.00    1.11903   1.08641    0.000
 4760.00    1.17886   1.08148    0.000
 4761.00    1.24809   1.07482    0.017
 4762.00    1.30183   1.07951    0.017
 4763.00    1.35273   1.10272    0.017
 4764.00    1.17349   1.13260    0.017
 4765.00    0.96183   1.15522    0.017
 4766.00    1.04917   1.15476    0.017
 4767.00    1.16683   1.13400    0.017
 4768.00    1.12620   1.12661    0.017
 4769.00    1.07533   1.14891    0.017
 4770.00    1.18557   1.17614    0.017
 4771.00    1.30045   1.18236    0.017
 4772.00    1.29933   1.17952    0.017
 4773.00    1.29304   1.18319    0.017
 4774.00    1.13722   1.17908    0.017
 4775.00    1.00196   1.16420    0.017
 4776.00    1.16383   1.15738    0.017
 4777.00    1.30463   1.15566    0.017
 4778.00    1.24720   1.14071    0.017
 4779.00    1.18560   1.12635    0.017
 4780.00    1.09546   1.13164    0.017
 4781.00    1.03227   1.13196    0.016
 4782.00    1.11190   1.11720    0.016
 4783.00    1.14575   1.11612    0.016
 4784.00    0.98461   1.12258    0.016
 4785.00    0.87149   1.12203    0.016
 4786.00    0.92706   1.12922    0.016
 4787.00    1.01252   1.14416    0.016
 4788.00    1.18625   1.16224    0.016
 4789.00    1.31042   1.18911    0.017
 4790.00    1.30975   1.21370    0.017
 4791.00    1.31180   1.21830    0.017
 4792.00    1.31971   1.20280    0.016
 4793.00    1.31444   1.17686    0.016
 4794.00    1.28437   1.14879    0.016
 4795.00    1.21046   1.13264    0.016
 4796.00    1.06452   1.14146    0.016
 4797.00    0.97466   1.16934    0.016
 4798.00    0.96560   1.19217    0.016
 4799.00    1.03095   1.18861    0.016
 4800.00    1.19063   1.16209    0.017
 4801.00    1.19250   1.14011    0.017
 4802.00    1.01814   1.13577    0.017
 4803.00    0.90289   1.13371    0.016
 4804.00    0.84586   1.13435    0.016
 4805.00    0.93735   1.14440    0.016
 4806.00    1.15785   1.15327    0.017
 4807.00    1.23047   1.15508    0.017
 4808.00    1.18991   1.15566    0.017
 4809.00    1.13566   1.15956    0.017
 4810.00    1.07218   1.16622    0.016
 4811.00    1.08914   1.17407    0.016
 4812.00    1.15349   1.18273    0.017
 4813.00    1.23974   1.19043    0.017
 4814.00    1.33723   1.19673    0.017
 4815.00    1.26099   1.19962    0.017
 4816.00    1.10742   1.19445    0.017
 4817.00    1.07592   1.17782    0.017
 4818.00    1.09112   1.14043    0.017
 4819.00    1.12916   1.09891    0.017
 4820.00    1.17462   1.09865    0.017
 4821.00    1.19895   1.13524    0.017
 4822.00    1.21751   1.16026    0.017
 4823.00    1.17012   1.15595    0.017
 4824.00    1.10800   1.14114    0.017
 4825.00    1.11629   1.13648    0.017
 4826.00    1.13713   1.13508    0.017
 4827.00    1.10219   1.12186    0.017
 4828.00    1.05965   1.11485    0.017
 4829.00    1.26943   1.13098    0.017
 4830.00    1.50373   1.14869    0.017
 4831.00    1.10535   1.14974    0.017
 4832.00    0.66860   1.14558    0.017
 4833.00    0.85441   1.14192    0.017
 4834.00    1.05654   1.12566    0.017
 4835.00    1.22561   1.10280    0.017
 4836.00    1.38548   1.09678    0.018
 4837.00    1.30550   1.10531    0.018
 4838.00    1.23814   1.10459    0.017
 4839.00    1.34308   1.09956    0.017
 4840.00    1.42203   1.11275    0.017
 4841.00    1.26593   1.13231    0.017
 4842.00    1.13730   1.12978    0.017
 4843.00    1.19099   1.10085    0.017
 4844.00    1.21477   1.07264    0.017
 4845.00    1.08426   1.07382    0.017
 4846.00    0.97156   1.08969    0.017
 4847.00    0.93301   1.09055    0.017
 4848.00    0.91021   1.07891    0.000
 4849.00    0.94163   1.05368    0.000
 4850.00    0.96497   1.00460    0.000
 4851.00    0.96486   0.96219    0.000
 4852.00    0.96482   0.96020    0.000
 4853.00    0.96492   0.96681    0.000
 4854.00    0.97207   0.92857    0.000
 4855.00    0.99423   0.83423    0.000
 4856.00    1.03758   0.72277    0.000
 4857.00    1.12022   0.67884    0.000
 4858.00    1.15020   0.74332    0.000
 4859.00    1.09495   0.84235    0.000
 4860.00    1.07614   0.90904    0.000
 4861.00    1.10910   0.95483    0.000
 4862.00    1.16469   0.99144    0.000
 4863.00    1.24854   1.01454    0.000
 4864.00    1.31617   1.02907    0.000
 4865.00    1.36595   1.02641    0.000
 4866.00    1.35365   0.98924    0.000
 4867.00    1.28105   0.95260    0.000
 4868.00    1.18855   0.96967    0.000
 4869.00    1.07900   1.01981    0.000
 4870.00    1.03793   1.05070    0.000
 4871.00    1.04851   1.05982    0.000
 4872.00    1.04282   1.06849    0.000
 4873.00    1.02633   1.08066    0.000
 4874.00    1.01159   1.10322    0.000
 4875.00    0.99786   1.13073    0.017
 4876.00    1.07733   1.12834    0.017
 4877.00    1.20393   1.10318    0.017
 4878.00    1.18221   1.09536    0.017
 4879.00    1.09553   1.09793    0.017
 4880.00    1.13042   1.08422    0.017
 4881.00    1.21100   1.06337    0.017
 4882.00    1.31122   1.05957    0.017
 4883.00    1.41770   1.07293    0.017
 4884.00    1.34189   1.08015    0.017
 4885.00    1.21748   1.06013    0.017
 4886.00    1.14343   1.02049    0.017
 4887.00    1.08037   1.01567    0.017
 4888.00    1.06873   1.07436    0.017
 4889.00    1.06601   1.14665    0.017
 4890.00    1.02494   1.19182    0.017
 4891.00    0.97883   1.21119    0.017
 4892.00    1.08573   1.21355    0.017
 4893.00    1.20686   1.20671    0.017
 4894.00    1.22959   1.18555    0.017
 4895.00    1.24673   1.15326    0.017
 4896.00    1.23235   1.14087    0.017
 4897.00    1.21781   1.14937    0.017
 4898.00    1.26490   1.14348    0.017
 4899.00    1.30918   1.12993    0.017
 4900.00    1.28665   1.14457    0.017
 4901.00    1.26968   1.18067    0.017
 4902.00    1.32464   1.19843    0.017
 4903.00    1.36961   1.18259    0.017
 4904.00    1.32773   1.14717    0.017
 4905.00    1.29632   1.10798    0.017
 4906.00    1.33231   1.08811    0.017
 4907.00    1.35432   1.10382    0.017
 4908.00    1.30604   1.13518    0.017
 4909.00    1.26791   1.15877    0.017
 4910.00    1.27112   1.17873    0.016
 4911.00    1.28516   1.19366    0.016
 4912.00    1.33578   1.18061    0.016
 4913.00    1.35243   1.12640    0.016
 4914.00    1.27231   1.04974    0.016
 4915.00    1.20660   0.99010    0.016
 4916.00    1.17591   0.98126    0.016
 4917.00    1.13177   1.02410    0.016
 4918.00    1.05941   1.07085    0.016
 4919.00    1.00130   1.07989    0.016
 4920.00    0.96919   1.07927    0.016
 4921.00    0.99343   1.11009    0.016
 4922.00    1.10755   1.15326    0.016
 4923.00    1.16727   1.17893    0.016
 4924.00    1.15085   1.19562    0.016
 4925.00    1.15961   1.20748    0.016
 4926.00    1.19939   1.20673    0.016
 4927.00    1.21813   1.19020    0.016
 4928.00    1.21401   1.14690    0.016
 4929.00    1.23381   1.09933    0.016
 4930.00    1.27651   1.09976    0.016
 4931.00    1.27106   1.13233    0.016
 4932.00    1.22495   1.13256    0.016
 4933.00    1.25010   1.08995    0.016
 4934.00    1.32822   1.05257    0.016
 4935.00    1.35868   1.06721    0.016
 4936.00    1.35801   1.12372    0.016
 4937.00    1.29862   1.16866    0.016
 4938.00    1.20567   1.18717    0.016
 4939.00    1.17347   1.19795    0.016
 4940.00    1.17151   1.19441    0.000
 4941.00    1.13436   1.17593    0.000
 4942.00    1.08207   1.17181    0.000
 4943.00    1.06335   1.18872    0.000
 4944.00    1.05703   1.20286    0.000
 4945.00    1.19682   1.20713    0.000
 4946.00    1.38230   1.21070    0.000
 4947.00    1.45285   1.20840    0.000
 4948.00    1.49340   1.19383    0.000
 4949.00    1.25520   1.17910    0.000
 4950.00    0.95763   1.16840    0.000
 4951.00    1.04961   1.13440    0.000
 4952.00    1.20722   1.05607    0.000
 4953.00    1.25193   0.99657    0.000
 4954.00    1.28228   1.03380    0.000
 4955.00    1.36007   1.12051    0.000
 4956.00    1.44207   1.16817    0.000
 4957.00    1.44281   1.17175    0.000
 4958.00    1.43926   1.16839    0.000
 4959.00    1.25094   1.16427    0.000
 4960.00    1.06275   1.14201    0.000
 4961.00    1.16248   1.11250    0.000
 4962.00    1.25779   1.10091    0.000
 4963.00    1.25700   1.10372    0.000
 4964.00    1.24784   1.10948    0.000
 4965.00    1.13587   1.11693    0.000
 4966.00    1.04321   1.12804    0.000
 4967.00    1.11217   1.14489    0.000
 4968.00    1.17270   1.16079    0.000
 4969.00    1.18058   1.17215    0.000
 4970.00    1.17166   1.17852    0.000
 4971.00    1.08044   1.17528    0.000
 4972.00    1.01739   1.16268    0.000
 4973.00    1.06652   1.14092    0.000
 4974.00    1.12891   1.11809    0.000
 4975.00    1.23517   1.10512    0.000
 4976.00    1.34810   1.08554    0.000
 4977.00    1.47971   1.04016    0.000
 4978.00    1.51242   0.99487    0.000
 4979.00    1.30861   0.98891    0.000
 4980.00    1.18838   1.01800    0.000
 4981.00    1.24081   1.05904    0.000
 4982.00    1.30038   1.10400    0.000
 4983.00    1.37277   1.13584    0.000
 4984.00    1.38546   1.13804    0.000
 4985.00    1.30434   1.12068    0.000
 4986.00    1.21704   1.10423    0.000
 4987.00    1.12122   1.10611    0.000
 4988.00    1.07744   1.11620    0.000
 4989.00    1.09684   1.11548    0.000
 4990.00    1.13797   1.12043    0.000
 4991.00    1.20236   1.13657    0.000
 4992.00    1.22744   1.14368    0.000
 4993.00    1.21542   1.13565    0.000
 4994.00    1.26267   1.11019    0.000
 4995.00    1.35925   1.07539    0.000
 4996.00    1.33175   1.05401    0.000
 4997.00    1.21330   1.05312    0.000
 4998.00    1.11294   1.06494    0.000
 4999.00    1.02424   1.07252    0.000
 5000.00    1.05545   1.05277    0.000
 5001.00    1.15418   1.01469    0.000
 5002.00    1.20813   1.00733    0.000
 5003.00    1.24016   1.05003    0.000
 5004.00    1.25380   1.09881    0.000
 5005.00    1.25965   1.11373    0.000
 5006.00    1.22620   1.09695    0.000
 5007.00    1.17849   1.05979    0.000
 5008.00    1.23483   1.01872    0.000
 5009.00    1.32309   0.99473    0.000
 5010.00    1.26608   1.00164    0.000
 5011.00    1.17198   1.02941    0.000
 5012.00    1.14316   1.03952    0.000
 5013.00    1.12791   1.02237    0.000
 5014.00    1.14552   1.01853    0.000
 5015.00    1.16852   1.04424    0.000
 5016.00    1.20565   1.06477    0.000
 5017.00    1.24451   1.05921    0.000
 5018.00    1.10767   1.05605    0.000
 5019.00    0.95597   1.07693    0.000
 5020.00    0.96714   1.09974    0.000
 5021.00    0.98626   1.10260    0.000
 5022.00    1.11163   1.08358    0.000
 5023.00    1.23605   1.06716    0.000
 5024.00    1.20157   1.08134    0.000
 5025.00    1.16554   1.10685    0.000
 5026.00    1.09843   1.12107    0.000
 5027.00    1.04341   1.13675    0.000
 5028.00    1.12963   1.15820    0.000
 5029.00    1.21623   1.16085    0.016
 5030.00    1.30599   1.12438    0.016
 5031.00    1.36757   1.07602    0.016
 5032.00    1.25833   1.06393    0.016
 5033.00    1.15770   1.07401    0.016
 5034.00    1.09820   1.05692    0.016
 5035.00    1.05122   1.00532    0.016
 5036.00    1.05305   0.95329    0.016
 5037.00    1.05612   0.95647    0.016
 5038.00    1.06325   1.02395    0.016
 5039.00    1.05543   1.09616    0.016
 5040.00    1.00655   1.14096    0.016
 5041.00    0.98969   1.16718    0.016
 5042.00    1.04813   1.16610    0.016
 5043.00    1.09898   1.12832    0.016
 5044.00    1.13438   1.07981    0.016
 5045.00    1.17100   1.05430    0.016
 5046.00    1.20976   1.05118    0.016
 5047.00    1.21209   1.05745    0.016
 5048.00    1.15805   1.07869    0.016
 5049.00    1.13021   1.11123    0.016
 5050.00    1.13800   1.13499    0.016
 5051.00    1.10829   1.14140    0.016
 5052.00    1.03368   1.14160    0.016
 5053.00    1.03794   1.14710    0.016
 5054.00    1.12542   1.15285    0.016
 5055.00    1.20067   1.15678    0.016
 5056.00    1.26454   1.16617    0.016
 5057.00    1.28647   1.17425    0.016
 5058.00    1.27397   1.16164    0.016
 5059.00    1.29318   1.11702    0.016
 5060.00    1.33531   1.06844    0.016
 5061.00    1.28713   1.06079    0.016
 5062.00    1.18170   1.07938    0.016
 5063.00    1.14885   1.08342    0.016
 5064.00    1.15625   1.08315    0.016
 5065.00    1.16993   1.09976    0.016
 5066.00    1.18664   1.10803    0.016
 5067.00    1.10396   1.08926    0.017
 5068.00    0.97990   1.07846    0.017
 5069.00    1.12171   1.09142    0.016
 5070.00    1.35819   1.09820    0.016
 5071.00    1.36255   1.09466    0.016
 5072.00    1.29709   1.09965    0.016
 5073.00    1.08768   1.09369    0.016
 5074.00    0.84231   1.04620    0.016
 5075.00    1.00725   0.99360    0.016
 5076.00    1.25532   0.99128    0.016
 5077.00    1.22931   1.02284    0.016
 5078.00    1.15973   1.04239    0.016
 5079.00    1.12026   1.05309    0.016
 5080.00    1.08434   1.07661    0.016
 5081.00    1.02840   1.10007    0.015
 5082.00    0.97084   1.10495    0.015
 5083.00    0.92661   1.10226    0.015
 5084.00    0.88297   1.10784    0.015
 5085.00    0.96639   1.11446    0.015
 5086.00    1.05004   1.11661    0.015
 5087.00    1.07104   1.12628    0.015
 5088.00    1.09126   1.14419    0.015
 5089.00    1.09713   1.15220    0.015
 5090.00    1.10670   1.13976    0.015
 5091.00    1.15737   1.11348    0.015
 5092.00    1.19304   1.08230    0.016
 5093.00    1.11174   1.04713    0.016
 5094.00    1.03666   1.01801    0.016
 5095.00    0.99820   1.02370    0.016
 5096.00    0.97965   1.06438    0.015
 5097.00    1.05404   1.10100    0.015
 5098.00    1.09803   1.10976    0.015
 5099.00    1.02617   1.10087    0.015
 5100.00    0.98601   1.09101    0.015
 5101.00    1.04669   1.08064    0.015
 5102.00    1.09611   1.06144    0.015
 5103.00    1.11519   1.04664    0.015
 5104.00    1.11699   1.04671    0.015
 5105.00    1.07885   1.04809    0.015
 5106.00    1.09439   1.05768    0.015
 5107.00    1.21732   1.08231    0.015
 5108.00    1.27939   1.10167    0.015
 5109.00    1.23542   1.11064    0.015
 5110.00    1.17862   1.11646    0.015
 5111.00    1.10227   1.12309    0.015
 5112.00    1.07416   1.13652    0.015
 5113.00    1.11067   1.14836    0.016
 5114.00    1.10575   1.14464    0.016
 5115.00    1.05192   1.12687    0.016
 5116.00    1.06628   1.10487    0.016
 5117.00    1.15160   1.08194    0.016
 5118.00    1.18035   1.05090    0.016
 5119.00    1.15720   1.02183    0.016
 5120.00    1.05681   1.01716    0.016
 5121.00    0.89393   1.03041    0.016
 5122.00    0.95689   1.03942    0.016
 5123.00    1.18062   1.03806    0.016
 5124.00    1.20968   1.03270    0.016
 5125.00    1.11715   1.03575    0.016
 5126.00    1.05079   1.05380    0.016
 5127.00    0.99873   1.07250    0.016
 5128.00    1.00851   1.07818    0.016
 5129.00    1.04764   1.08317    0.016
 5130.00    1.05609   1.10044    0.016
 5131.00    1.05197   1.10576    0.016
 5132.00    1.07081   1.08244    0.016
 5133.00    1.09768   1.05066    0.016
 5134.00    1.10387   1.02619    0.016
 5135.00    1.10396   1.03020    0.016
 5136.00    1.05232   1.05281    0.016
 5137.00    0.98805   1.04569    0.016
 5138.00    1.07154   1.02778    0.016
 5139.00    1.18421   1.04281    0.016
 5140.00    1.22005   1.06066    0.017
 5141.00    1.24405   1.05068    0.017
 5142.00    1.14234   1.03400    0.017
 5143.00    1.02632   1.03445    0.017
 5144.00    1.01005   1.05137    0.016
 5145.00    1.00140   1.06021    0.016
 5146.00    1.09122   1.04767    0.016
 5147.00    1.18509   1.03199    0.016
 5148.00    1.01904   1.02425    0.016
 5149.00    0.85560   1.02300    0.015
 5150.00    0.89182   1.03713    0.016
 5151.00    0.93635   1.06781    0.016
 5152.00    1.12498   1.10079    0.016
 5153.00    1.28272   1.12061    0.016
 5154.00    1.11195   1.12333    0.016
 5155.00    0.96715   1.12242    0.016
 5156.00    1.01784   1.11841    0.016
 5157.00    1.07217   1.09990    0.015
 5158.00    1.14730   1.08236    0.015
 5159.00    1.21439   1.07093    0.016
 5160.00    1.24489   1.03256    0.015
 5161.00    1.23358   0.95062    0.015
 5162.00    1.06630   0.85527    0.015
 5163.00    0.94408   0.80687    0.015
 5164.00    0.96243   0.83854    0.015
 5165.00    0.97814   0.90551    0.015
 5166.00    0.98688   0.91484    0.015
 5167.00    0.99102   0.84675    0.015
 5168.00    0.98470   0.80616    0.015
 5169.00    0.97594   0.87079    0.015
 5170.00    0.96239   0.97784    0.015
 5171.00    0.95317   1.04076    0.015
 5172.00    0.95139   1.06028    0.015
 5173.00    0.97814   1.06873    0.015
 5174.00    1.04778   1.06974    0.015
 5175.00    1.09095   1.05728    0.015
 5176.00    1.09917   1.02658    0.015
 5177.00    1.09886   0.95812    0.015
 5178.00    1.08864   0.85515    0.015
 5179.00    1.12690   0.80156    0.015
 5180.00    1.21493   0.86318    0.015
 5181.00    1.19845   0.97458    0.015
 5182.00    1.08741   1.04351    0.015
 5183.00    1.00112   1.05642    0.015
 5184.00    0.93457   1.05913    0.015
 5185.00    0.90146   1.07156    0.015
 5186.00    0.89180   1.04909    0.015
 5187.00    0.96208   0.99401    0.015
 5188.00    1.08154   0.97743    0.015
 5189.00    1.14471   1.00478    0.015
 5190.00    1.17762   1.02128    0.000
 5191.00    1.03607   1.02608    0.000
 5192.00    0.81308   1.04185    0.000
 5193.00    0.93580   1.06224    0.000
 5194.00    1.19759   1.08232    0.000
 5195.00    1.26179   1.09707    0.000
 5196.00    1.25817   1.09694    0.000
 5197.00    1.18765   1.08493    0.000
 5198.00    1.09780   1.06794    0.000
 5199.00    1.12478   1.03330    0.000
 5200.00    1.17967   0.98153    0.000
 5201.00    1.17124   0.95155    0.000
 5202.00    1.15062   0.95317    0.000
 5203.00    1.03725   0.95009    0.000
 5204.00    0.91002   0.94919    0.000
 5205.00    0.96497   0.97857    0.000
 5206.00    1.03986   1.02705    0.000
 5207.00    0.95039   1.07663    0.000
 5208.00    0.84904   1.11273    0.000
 5209.00    0.96382   1.11695    0.000
 5210.00    1.08667   1.08646    0.000
 5211.00    1.08536   1.05241    0.016
 5212.00    1.08352   1.04870    0.015
 5213.00    1.08366   1.07597    0.015
 5214.00    1.08251   1.10941    0.016
 5215.00    1.06041   1.13067    0.016
 5216.00    1.04821   1.14049    0.016
 5217.00    1.13684   1.13918    0.016
 5218.00    1.20767   1.11998    0.016
 5219.00    1.14888   1.08184    0.015
 5220.00    1.10970   1.02788    0.015
 5221.00    1.17976   0.96463    0.015
 5222.00    1.21968   0.92970    0.015
 5223.00    1.12555   0.96899    0.015
 5224.00    1.04111   1.04646    0.015
 5225.00    0.99209   1.09679    0.015
 5226.00    0.96236   1.11301    0.015
 5227.00    0.99166   1.09600    0.015
 5228.00    1.02745   1.05649    0.015
 5229.00    1.08012   1.03560    0.015
 5230.00    1.11139   1.04959    0.015
 5231.00    1.09480   1.08523    0.015
 5232.00    1.10268   1.11994    0.015
 5233.00    1.15800   1.13684    0.015
 5234.00    1.15655   1.13774    0.015
 5235.00    1.05915   1.13462    0.015
 5236.00    1.02789   1.13505    0.015
 5237.00    1.09460   1.13236    0.015
 5238.00    1.13180   1.12877    0.015
 5239.00    1.13057   1.13935    0.015
 5240.00    1.10974   1.14985    0.015
 5241.00    1.06643   1.12600    0.015
 5242.00    1.01899   1.08215    0.015
 5243.00    0.96738   1.06680    0.015
 5244.00    0.97737   1.07263    0.015
 5245.00    1.04231   1.06316    0.015
 5246.00    1.08858   1.05594    0.015
 5247.00    1.12017   1.07367    0.015
 5248.00    1.15898   1.09336    0.015
 5249.00    1.20277   1.08954    0.015
 5250.00    1.16596   1.07483    0.015
 5251.00    1.08028   1.08823    0.015
 5252.00    1.06981   1.12978    0.015
 5253.00    1.09914   1.16249    0.015
 5254.00    1.14404   1.16825    0.015
 5255.00    1.19609   1.14873    0.015
 5256.00    1.10868   1.10722    0.015
 5257.00    0.96614   1.05231    0.015
 5258.00    0.92625   1.00093    0.016
 5259.00    0.92093   0.96204    0.016
 5260.00    0.96423   0.93493    0.016
 5261.00    1.02129   0.93228    0.016
 5262.00    1.06351   0.96755    0.016
 5263.00    1.10227   0.98759    0.016
 5264.00    1.13089   0.93712    0.016
 5265.00    1.15762   0.88883    0.016
 5266.00    1.03951   0.93174    0.016
 5267.00    0.90042   1.01423    0.016
 5268.00    0.91124   1.05450    0.016
 5269.00    0.93783   1.05419    0.016
 5270.00    0.93069   1.04004    0.016
 5271.00    0.92125   1.04446    0.016
 5272.00    1.06817   1.09047    0.016
 5273.00    1.22033   1.14073    0.016
 5274.00    1.11418   1.15230    0.016
 5275.00    1.00775   1.12983    0.016
 5276.00    0.90153   1.09855    0.016
 5277.00    0.80658   1.07168    0.016
 5278.00    0.88303   1.04984    0.015
 5279.00    0.95741   1.04785    0.015
 5280.00    1.01153   1.08893    0.015
 5281.00    1.06350   1.14754    0.015
 5282.00    1.10028   1.17663    0.015
 5283.00    1.12349   1.17290    0.015
 5284.00    1.07311   1.16660    0.015
 5285.00    1.02701   1.17358    0.015
 5286.00    0.99959   1.18051    0.015
 5287.00    1.00390   1.17394    0.015
 5288.00    1.12176   1.16085    0.015
 5289.00    1.23786   1.15444    0.015
 5290.00    1.34867   1.14492    0.015
 5291.00    1.40391   1.11007    0.015
 5292.00    1.31707   1.05508    0.015
 5293.00    1.21854   1.02319    0.015
 5294.00    1.09430   1.04433    0.015
 5295.00    1.01281   1.08367    0.015
 5296.00    1.01289   1.09593    0.015
 5297.00    1.03812   1.09556    0.015
 5298.00    1.10525   1.11513    0.015
 5299.00    1.13378   1.15088    0.015
 5300.00    1.10600   1.17389    0.015
 5301.00    1.05625   1.16958    0.015
 5302.00    0.97833   1.15187    0.015
 5303.00    0.99777   1.14733    0.015
 5304.00    1.12733   1.16167    0.015
 5305.00    1.17737   1.17562    0.015
 5306.00    1.14813   1.17630    0.014
 5307.00    1.09922   1.16811    0.014
 5308.00    1.03301   1.15746    0.015
 5309.00    1.02046   1.15020    0.015
 5310.00    1.04949   1.14025    0.015
 5311.00    1.05887   1.11845    0.015
 5312.00    1.05486   1.10505    0.015
 5313.00    0.99458   1.11748    0.015
 5314.00    0.90069   1.13463    0.015
 5315.00    0.91440   1.13980    0.015
 5316.00    0.98415   1.13823    0.015
 5317.00    1.00246   1.13041    0.015
 5318.00    0.99754   1.10682    0.015
 5319.00    1.07974   1.07583    0.015
 5320.00    1.19577   1.06814    0.015
 5321.00    1.25048   1.06817    0.015
 5322.00    1.28492   1.01985    0.015
 5323.00    1.22264   0.94090    0.015
 5324.00    1.13355   0.93149    0.015
 5325.00    1.04161   1.00821    0.015
 5326.00    0.94902   1.08475    0.015
 5327.00    0.96748   1.11015    0.015
 5328.00    1.00621   1.11077    0.015
 5329.00    1.00087   1.12379    0.015
 5330.00    0.98936   1.14130    0.015
 5331.00    0.99720   1.14083    0.014
 5332.00    1.00700   1.12930    0.014
 5333.00    1.05603   1.12041    0.014
 5334.00    1.10758   1.09874    0.015
 5335.00    0.98537   1.05936    0.014
 5336.00    0.85854   1.04525    0.014
 5337.00    0.95210   1.07754    0.014
 5338.00    1.04290   1.11667    0.014
 5339.00    1.05454   1.13106    0.014
 5340.00    1.06519   1.12156    0.014
 5341.00    1.06165   1.10863    0.014
 5342.00    1.06613   1.10675    0.014
 5343.00    1.14581   1.09878    0.014
 5344.00    1.21830   1.08414    0.014
 5345.00    1.24169   1.09222    0.014
 5346.00    1.26085   1.12498    0.014
 5347.00    1.25765   1.15025    0.014
 5348.00    1.24089   1.15676    0.014
 5349.00    1.16655   1.16567    0.014
 5350.00    1.10502   1.18347    0.014
 5351.00    1.08841   1.19443    0.014
 5352.00    1.08608   1.19623    0.014
 5353.00    1.12582   1.19609    0.014
 5354.00    1.15940   1.19474    0.014
 5355.00    1.17751   1.18591    0.014
 5356.00    1.17750   1.16454    0.014
 5357.00    1.13829   1.13879    0.014
 5358.00    1.09590   1.12341    0.014
 5359.00    1.04752   1.11460    0.014
 5360.00    1.01665   1.10551    0.014
 5361.00    1.01450   1.10448    0.014
 5362.00    1.07494   1.10815    0.014
 5363.00    1.22541   1.10491    0.014
 5364.00    1.26103   1.08190    0.015
 5365.00    1.15133   1.03634    0.015
 5366.00    1.08373   1.00229    0.015
 5367.00    1.06305   1.02238    0.015
 5368.00    1.05692   1.08510   -2.000
 5369.00    1.06512   1.13932   -2.000
 5370.00    1.09600   1.16418   -2.000
 5371.00    1.14656   1.16535   -2.000
 5372.00    1.17049   1.15754   -2.000
 5373.00    1.17408   1.15627   -2.000
 5374.00    1.12995   1.15543   -2.000
 5375.00    1.05377   1.14452   -2.000
 5376.00    1.01837   1.13120   -2.000
 5377.00    1.00696   1.12188   -2.000
 5378.00    1.02070   1.11484   -2.000
 5379.00    1.04734   1.12137   -2.000
 5380.00    1.09410   1.14111   -2.000
 5381.00    1.14980   1.15349   -2.000
 5382.00    1.15302   1.15240   -2.000
 5383.00    1.13621   1.14245    0.014
 5384.00    1.11360   1.12412    0.014
 5385.00    1.08911   1.10528    0.014
 5386.00    1.13473   1.09537    0.014
 5387.00    1.19938   1.09126    0.014
 5388.00    1.18979   1.08855    0.014
 5389.00    1.16366   1.08900    0.014
 5390.00    1.08700   1.08513    0.014
 5391.00    1.00136   1.05813    0.013
 5392.00    1.00129   1.02750    0.013
 5393.00    1.01282   1.04068    0.013
 5394.00    1.01046   1.08160    0.013
 5395.00    1.00676   1.10296    0.013
 5396.00    0.99584   1.10869    0.013
 5397.00    0.98449   1.11274    0.014
 5398.00    1.05570   1.09295    0.013
 5399.00    1.12869   1.04209    0.013
 5400.00    1.13967   0.99604    0.013
 5401.00    1.15009   0.99214    0.013
 5402.00    1.14588   1.02891    0.013
 5403.00    1.13830   1.06059    0.013
 5404.00    1.08491   1.05428    0.013
 5405.00    1.04246   1.03878    0.013
 5406.00    1.09842   1.05764    0.013
 5407.00    1.15461   1.09891    0.014
 5408.00    1.21229   1.12283    0.014
 5409.00    1.24816   1.11949    0.014
 5410.00    1.17189   1.11421    0.014
 5411.00    1.10633   1.12895    0.013
 5412.00    1.08519   1.14945    0.014
 5413.00    1.07822   1.15254    0.014
 5414.00    1.11987   1.13951    0.014
 5415.00    1.13323   1.12517    0.014
 5416.00    1.06475   1.12319    0.014
 5417.00    1.04746   1.12948    0.014
 5418.00    1.15663   1.11741    0.014
 5419.00    1.22998   1.09217    0.014
 5420.00    1.22706   1.09540    0.014
 5421.00    1.21951   1.13017    0.014
 5422.00    1.20340   1.15526    0.014
 5423.00    1.20329   1.13133    0.014
 5424.00    1.22904   1.07115    0.014
 5425.00    1.21353   1.04469    0.014
 5426.00    1.13956   1.07164    0.014
 5427.00    1.10285   1.08976    0.014
 5428.00    1.11262   1.07279    0.014
 5429.00    1.11283   1.04885    0.014
 5430.00    1.10254   1.04404    0.014
 5431.00    1.09962   1.06419    0.014
 5432.00    1.10386   1.09901    0.014
 5433.00    1.13420   1.13594    0.014
 5434.00    1.18688   1.16262    0.014
 5435.00    1.18306   1.17492    0.014
 5436.00    1.13670   1.17781    0.014
 5437.00    1.12964   1.17781    0.013
 5438.00    1.14858   1.17303    0.013
 5439.00    1.15267   1.14969    0.013
 5440.00    1.14816   1.10095    0.013
 5441.00    1.11063   1.04328    0.013
 5442.00    1.05645   1.02111    0.013
 5443.00    1.10237   1.05563    0.013
 5444.00    1.19204   1.10502    0.013
 5445.00    1.18927   1.13021    0.013
 5446.00    1.15184   1.13311    0.013
 5447.00    1.06966   1.12620    0.013
 5448.00    0.97325   1.10924    0.013
 5449.00    0.94291   1.07182    0.013
 5450.00    0.93013   1.02744    0.013
 5451.00    0.99650   1.02400    0.013
 5452.00    1.08007   1.07108    0.013
 5453.00    1.13658   1.11944    0.013
 5454.00    1.18841   1.13593    0.013
 5455.00    1.08639   1.12651    0.013
 5456.00    0.96420   1.10643    0.013
 5457.00    0.94510   1.08019    0.013
 5458.00    0.93553   1.06102    0.013
 5459.00    1.03843   1.07179    0.013
 5460.00    1.14766   1.09679    0.013
 5461.00    1.21112   1.10737    0.013
 5462.00    1.27294   1.11147    0.013
 5463.00    1.27170   1.11934    0.013
 5464.00    1.26479   1.11833    0.013
 5465.00    1.12487   1.10722    0.013
 5466.00    0.99443   1.10125    0.013
 5467.00    0.98577   1.09776    0.013
 5468.00    0.98573   1.08547    0.013
 5469.00    1.06026   1.07465    0.014
 5470.00    1.13132   1.05846    0.014
 5471.00    1.18019   1.02168    0.014
 5472.00    1.20539   1.00487    0.014
 5473.00    1.11193   1.04089    0.013
 5474.00    1.06046   1.08462    0.013
 5475.00    1.17945   1.08703    0.014
 5476.00    1.25550   1.06368    0.014
 5477.00    1.18705   1.05883    0.013
 5478.00    1.11029   1.08061   -2.000
 5479.00    1.00994   1.11054   -2.000
 5480.00    0.97383   1.13000   -2.000
 5481.00    1.09364   1.12231   -2.000
 5482.00    1.20119   1.09554   -2.000
 5483.00    1.28307   1.08278   -2.000
 5484.00    1.31204   1.09207   -2.000
 5485.00    1.24468   1.10273   -2.000
 5486.00    1.34265   1.11095   -2.000
 5487.00    1.70381   1.11532   -2.000
 5488.00    1.64527   1.10890   -2.000
 5489.00    1.00041   1.10548   -2.000
 5490.00    0.66818   1.11078   -2.000
 5491.00    0.72027   1.10436   -2.000
 5492.00    0.78006   1.08636   -2.000
 5493.00    0.84819   1.08965   -2.000
 5494.00    0.92232   1.11217   -2.000
 5495.00    1.00218   1.11345   -2.000
 5496.00    1.08146   1.08864   -2.000
 5497.00    1.16023   1.07235   -2.000
 5498.00    1.19153   1.07854   -2.000
 5499.00    1.18759   1.08914   -2.000
 5500.00    1.19687   1.08251   -2.000
 5501.00    1.21478   1.06276   -2.000
 5502.00    1.20241   1.06231    0.013
 5503.00    1.17276   1.08505    0.012
 5504.00    1.19158   1.09933    0.013
 5505.00    1.23450   1.09488    0.013
 5506.00    1.20133   1.07753    0.013
 5507.00    1.13547   1.05470    0.013
 5508.00    1.11210   1.04432    0.013
 5509.00    1.10440   1.05282    0.013
 5510.00    1.10946   1.07015    0.013
 5511.00    1.11851   1.08759    0.013
 5512.00    1.13511   1.10516    0.013
 5513.00    1.15368   1.12464    0.013
 5514.00    1.13695   1.13630    0.013
 5515.00    1.11273   1.13453    0.013
 5516.00    1.14343   1.12879    0.013
 5517.00    1.18335   1.12646    0.013
 5518.00    1.12819   1.12669    0.013
 5519.00    1.06098   1.12311    0.013
 5520.00    1.08754   1.10949    0.013
 5521.00    1.12237   1.08545    0.013
 5522.00    1.07837   1.05430    0.025
 5523.00    1.03025   1.03484    1.405
 5524.00    0.98883   1.05200   -1.000
 5525.00    0.94891   1.09084   -1.000
 5526.00    1.01288   1.11407   -1.000
 5527.00    1.07314   1.11418   -1.000
 5528.00    1.05336   1.10468   -1.000
 5529.00    1.03267   1.09106   -1.000
 5530.00    1.00086   1.08234   -1.000
 5531.00    0.97619   1.09053   -1.000
 5532.00    1.01113   1.10341   -1.000
 5533.00    1.04949   1.10916    0.173
 5534.00    1.10912   1.11760    0.021
 5535.00    1.15754   1.13095    0.012
 5536.00    1.15120   1.13662    0.012
 5537.00    1.13684   1.12614    0.012
 5538.00    1.09071   1.10892    0.012
 5539.00    1.05795   1.10215    0.012
 5540.00    1.06934   1.10391    0.012
 5541.00    1.07908   1.10630    0.012
 5542.00    1.08425   1.11604    0.012
 5543.00    1.08796   1.13296    0.012
 5544.00    1.08822   1.14369    0.012
 5545.00    1.07794   1.14515    0.014
 5546.00    1.04591   1.14187    0.037
 5547.00    1.02664   1.13284   -1.000
 5548.00    1.03022   1.11766   -1.000
 5549.00    1.04745   1.10529   -1.000
 5550.00    1.08609   1.10549   -1.000
 5551.00    1.10992   1.11236   -1.000
 5552.00    1.11336   1.11417   -1.000
 5553.00    1.11656   1.11348    0.056
 5554.00    1.11947   1.11607    0.017
 5555.00    1.10604   1.11649    0.013
 5556.00    1.07514   1.11011    0.013
 5557.00    1.05985   1.09819    0.013
 5558.00    1.05928   1.08914    0.013
 5559.00    1.08070   1.08832    0.013
 5560.00    1.12040   1.08536    0.013
 5561.00    1.15359   1.07998    0.013
 5562.00    1.18201   1.08073    0.013
 5563.00    1.17426   1.08140    0.013
 5564.00    1.14328   1.07717    0.013
 5565.00    1.11942   1.08164    0.013
 5566.00    1.09957   1.08938    0.013
 5567.00    1.11292   1.07859    0.013
 5568.00    1.14251   1.07034    0.013
 5569.00    1.15412   1.08609    0.013
 5570.00    1.15812   1.09929    0.012
 5571.00    1.12172   1.09959    0.012
 5572.00    1.07071   1.10435    0.012
 5573.00    1.07645   1.10987    0.012
 5574.00    1.09956   1.11234    0.012
 5575.00    1.18280   1.11378    0.012
 5576.00    1.28134   1.10725    0.012
 5577.00    1.36078   1.09918    0.012
 5578.00    1.43626   1.10024    0.013
 5579.00    1.30422   1.09862    0.012
 5580.00    1.13833   1.07955    0.012
 5581.00    1.13153   1.04406    0.012
 5582.00    1.14418   1.00947    0.012
 5583.00    1.14732   0.99449    0.012
 5584.00    1.14967   1.00339    0.012
 5585.00    1.15810   1.02940    0.012
 5586.00    1.16682   1.05534    0.012
 5587.00    1.14286   1.06513    0.012
 5588.00    1.11949   1.05950    0.012
 5589.00    1.16020   1.05488    0.012
 5590.00    1.19738   1.07237    0.012
 5591.00    1.16451   1.09787    0.012
 5592.00    1.13602   1.09245    0.012
 5593.00    1.15834   1.06318    0.013
 5594.00    1.17029   1.04761    0.013
 5595.00    1.09888   1.04491    0.013
 5596.00    1.03728   1.03477    0.013
 5597.00    1.03497   1.02445    0.013
 5598.00    1.03761   1.03557    0.013
 5599.00    1.06384   1.07205    0.013
 5600.00    1.09545   1.10975    0.013
 5601.00    1.14792   1.12986    0.013
 5602.00    1.16239   1.13463    0.013
 5603.00    1.05389   1.13232    0.013
 5604.00    0.98298   1.12926    0.012
 5605.00    1.01503   1.12907    0.013
 5606.00    1.04631   1.13350    0.013
 5607.00    1.07582   1.13694    0.013
 5608.00    1.09948   1.12244    0.013
 5609.00    1.11129   1.07558    0.013
 5610.00    1.11496   1.02356    0.013
 5611.00    1.10428   1.01890    0.013
 5612.00    1.10675   1.05440    0.012
 5613.00    1.12955   1.07930    0.012
 5614.00    1.15636   1.08230    0.012
 5615.00    1.18863   1.08537    0.012
 5616.00    1.19850   1.09713    0.012
 5617.00    1.18161   1.10211    0.012
 5618.00    1.13940   1.08226    0.012
 5619.00    1.07052   1.04947    0.012
 5620.00    1.03580   1.03997    0.012
 5621.00    1.03282   1.05980    0.012
 5622.00    1.04643   1.08165    0.012
 5623.00    1.07363   1.09517    0.012
 5624.00    1.08687   1.10824    0.012
 5625.00    1.09004   1.11857    0.012
 5626.00    1.08275   1.12130    0.012
 5627.00    1.06882   1.11718    0.012
 5628.00    1.09202   1.10911    0.012
 5629.00    1.13576   1.10028    0.012
 5630.00    1.14431   1.09088    0.012
 5631.00    1.13594   1.07869    0.012
 5632.00    1.09704   1.06880    0.012
 5633.00    1.04545   1.07029    0.011
 5634.00    1.03195   1.07804    0.012
 5635.00    1.03197   1.07597    0.012
 5636.00    1.04504   1.06699    0.012
 5637.00    1.06202   1.06836    0.012
 5638.00    1.03216   1.07743    0.012
 5639.00    0.99063   1.08356    0.012
 5640.00    0.94018   1.08845    0.012
 5641.00    0.88792   1.09425    0.012
 5642.00    0.89833   1.09928    0.012
 5643.00    0.91866   1.09891    0.012
 5644.00    0.88870   1.09370    0.012
 5645.00    0.85283   1.09306    0.012
 5646.00    0.90497   1.10242    0.012
 5647.00    0.96413   1.11193    0.012
 5648.00    1.06362   1.10801    0.012
 5649.00    1.16491   1.09145    0.012
 5650.00    1.14583   1.08081    0.012
 5651.00    1.12554   1.07724    0.012
 5652.00    1.11294   1.05244    0.012
 5653.00    1.09732   1.01576    0.012
 5654.00    1.02601   1.01728    0.012
 5655.00    0.96345   1.05044    0.012
 5656.00    0.99768   1.06229    0.012
 5657.00    1.03069   1.05054    0.012
 5658.00    1.05426   1.05286    0.012
 5659.00    1.07254   1.07520    0.012
 5660.00    1.05978   1.09277    0.011
 5661.00    1.04666   1.09069    0.011
 5662.00    1.03191   1.07729    0.011
 5663.00    1.02278   1.06965    0.011
 5664.00    1.03500   1.07267    0.011
 5665.00    1.03721   1.08028    0.011
 5666.00    1.00762   1.09081    0.011
 5667.00    0.99293   1.10656    0.011
 5668.00    1.01836   1.11970    0.011
 5669.00    1.04915   1.11932    0.012
 5670.00    1.09231   1.11288    0.012
 5671.00    1.11279   1.11517    0.012
 5672.00    1.08800   1.12017    0.012
 5673.00    1.08080   1.11550    0.012
 5674.00    1.10421   1.10798    0.012
 5675.00    1.11059   1.10368    0.012
 5676.00    1.09102   1.09254    0.012
 5677.00    1.06728   1.07292    0.012
 5678.00    1.03796   1.06487    0.012
 5679.00    1.01555   1.07430    0.012
 5680.00    1.00126   1.08276    0.012
 5681.00    1.00353   1.07570    0.012
 5682.00    1.02299   1.06098    0.012
 5683.00    1.03367   1.05720    0.012
 5684.00    1.03632   1.07046    0.012
 5685.00    1.03212   1.09019    0.012
 5686.00    1.02240   1.10595    0.012
 5687.00    1.01203   1.11631    0.012
 5688.00    1.00119   1.11800    0.012
 5689.00    1.02000   1.11277    0.012
 5690.00    1.05728   1.11045    0.012
 5691.00    1.06136   1.11063    0.012
 5692.00    1.04734   1.10308    0.012
 5693.00    1.06271   1.08885    0.012
 5694.00    1.09200   1.07979    0.012
 5695.00    1.07561   1.07135    0.012
 5696.00    1.04055   1.05956    0.012
 5697.00    1.01168   1.05853    0.012
 5698.00    0.98498   1.07188    0.012
 5699.00    1.02927   1.08270    0.012
 5700.00    1.09443   1.07590    0.011
 5701.00    1.10019   1.05777    0.011
 5702.00    1.09147   1.04057    0.011
 5703.00    1.06360   1.02422    0.012
 5704.00    1.03196   1.01506    0.012
 5705.00    0.99778   1.01937    0.011
 5706.00    0.96321   1.02716    0.011
 5707.00    0.94240   1.04227    0.011
 5708.00    0.92314   1.06975    0.011
 5709.00    0.98978   1.09096    0.011
 5710.00    1.06292   1.09955    0.012
 5711.00    1.02579   1.10379    0.012
 5712.00    0.98416   1.10423    0.012
 5713.00    1.04611   1.10512    0.012
 5714.00    1.10693   1.11170    0.012
 5715.00    1.08842   1.11903    0.012
 5716.00    1.07363   1.12571    0.012
 5717.00    1.12269   1.13209    0.012
 5718.00    1.16790   1.13420    0.012
 5719.00    1.17238   1.13110    0.012
 5720.00    1.18016   1.12212    0.012
 5721.00    1.21269   1.10589    0.012
 5722.00    1.23795   1.09396    0.012
 5723.00    1.22176   1.10041    0.012
 5724.00    1.19571   1.11233    0.012
 5725.00    1.12490   1.10867    0.012
 5726.00    1.06278   1.09544    0.012
 5727.00    1.03303   1.09564    0.012
 5728.00    1.02721   1.11045    0.012
 5729.00    1.09589   1.12301    0.012
 5730.00    1.14857   1.12520    0.012
 5731.00    1.15895   1.11974    0.012
 5732.00    1.16061   1.11420    0.012
 5733.00    1.14250   1.11258    0.012
 5734.00    1.13300   1.11281    0.011
 5735.00    1.14043   1.11330    0.011
 5736.00    1.13523   1.11172    0.011
 5737.00    1.10841   1.10737    0.011
 5738.00    1.10559   1.10663    0.011
 5739.00    1.13878   1.11560    0.011
 5740.00    1.15904   1.12638    0.000
 5741.00    1.16224   1.12385    0.000
 5742.00    1.14727   1.10593    0.000
 5743.00    1.11119   1.09384    0.000
 5744.00    1.09827   1.10334    0.000
 5745.00    1.10907   1.11836    0.000
 5746.00    1.13858   1.11438    0.000
 5747.00    1.18501   1.08955    0.000
 5748.00    1.20701   1.06450    0.000
 5749.00    1.20957   1.06219    0.000
 5750.00    1.18264   1.08550    0.000
 5751.00    1.13507   1.11305    0.000
 5752.00    1.10499   1.12755    0.000
 5753.00    1.08565   1.12745    0.000
 5754.00    1.10960   1.11474    0.000
 5755.00    1.15675   1.09451    0.000
 5756.00    1.18827   1.07306    0.000
 5757.00    1.21251   1.05938    0.000
 5758.00    1.21717   1.06721    0.000
 5759.00    1.21397   1.09433    0.000
 5760.00    1.16380   1.11697    0.000
 5761.00    1.09755   1.12518    0.000
 5762.00    1.11697   1.12618    0.000
 5763.00    1.16109   1.12410    0.000
 5764.00    1.15629   1.12012    0.000
 5765.00    1.13984   1.11563    0.000
 5766.00    1.11762   1.10946    0.000
 5767.00    1.09429   1.10387    0.000
 5768.00    1.05938   1.10137    0.000
 5769.00    1.02275   1.09915    0.000
 5770.00    1.04544   1.10050    0.000
 5771.00    1.07459   1.10763    0.000
 5772.00    1.09211   1.11285    0.000
 5773.00    1.10879   1.10892    0.000
 5774.00    1.08791   1.09141    0.000
 5775.00    1.06563   1.06187    0.000
 5776.00    1.08817   1.03823    0.000
 5777.00    1.11128   1.03626    0.000
 5778.00    1.14851   1.04371    0.000
 5779.00    1.18473   1.04197    0.000
 5780.00    1.20469   1.03978    0.000
 5781.00    1.22244   1.05498    0.000
 5782.00    1.21769   1.07866    0.000
 5783.00    1.20856   1.09366    0.000
 5784.00    1.16774   1.09559    0.000
 5785.00    1.12834   1.08605    0.000
 5786.00    1.09680   1.07984    0.000
 5787.00    1.08053   1.08815    0.000
 5788.00    1.13206   1.10236    0.000
 5789.00    1.17081   1.11489    0.000
 5790.00    1.16302   1.12053    0.000
 5791.00    1.16488   1.11128   -2.000
 5792.00    1.19622   1.09414   -2.000
 5793.00    1.22250   1.09210   -2.000
 5794.00    1.23567   1.11103   -2.000
 5795.00    1.24131   1.13140   -2.000
 5796.00    1.23013   1.14092   -2.000
 5797.00    1.21372   1.13963   -2.000
 5798.00    1.18717   1.12590   -2.000
 5799.00    1.17779   1.10763   -2.000
 5800.00    1.19737   1.09900   -2.000
 5801.00    1.20315   1.10153   -2.000
 5802.00    1.18851   1.10804   -2.000
 5803.00    1.18418   1.11241   -2.000
 5804.00    1.19322   1.11553   -2.000
 5805.00    1.19415   1.11950   -2.000
 5806.00    1.18578   1.12194   -2.000
 5807.00    1.17832   1.12071   -2.000
 5808.00    1.17177   1.11573   -2.000
 5809.00    1.16501   1.10505   -2.000
 5810.00    1.15805   1.09042   -2.000
 5811.00    1.13992   1.08462    0.000
 5812.00    1.11304   1.09664    0.000
 5813.00    1.10329   1.11579    0.000
 5814.00    1.10538   1.12672    0.000
 5815.00    1.10400   1.12873    0.000
 5816.00    1.10053   1.12651    0.000
 5817.00    1.12861   1.12186    0.000
 5818.00    1.17335   1.11850    0.000
 5819.00    1.20823   1.12037    0.000
 5820.00    1.23859   1.12438    0.000
 5821.00    1.20495   1.12507    0.000
 5822.00    1.14607   1.12407    0.000
 5823.00    1.14540   1.12497    0.000
 5824.00    1.16430   1.12771    0.000
 5825.00    1.17776   1.12839    0.000
 5826.00    1.18969   1.12655    0.000
 5827.00    1.17012   1.12490    0.000
 5828.00    1.14322   1.12102    0.000
 5829.00    1.13655   1.11491    0.000
 5830.00    1.13365   1.11413    0.000
 5831.00    1.13270   1.11860    0.000
 5832.00    1.13203   1.11763    0.000
 5833.00    1.14691   1.11246    0.000
 5834.00    1.16342   1.11487    0.000
 5835.00    1.16993   1.12461    0.000
 5836.00    1.17575   1.13278    0.000
 5837.00    1.13907   1.13540    0.000
 5838.00    1.10097   1.13321    0.000
 5839.00    1.09152   1.12698    0.000
 5840.00    1.08263   1.11762    0.000
 5841.00    1.09074   1.10648    0.000
 5842.00    1.09928   1.09807    0.000
 5843.00    1.11443   1.09737    0.000
 5844.00    1.13070   1.10116    0.000
 5845.00    1.15780   1.10123    0.000
 5846.00    1.18005   1.09121    0.000
 5847.00    1.16836   1.07269    0.000
 5848.00    1.15186   1.05995    0.000
 5849.00    1.10941   1.06404    0.000
 5850.00    1.06317   1.06909    0.000
 5851.00    1.00050   1.05436    0.000
 5852.00    0.95284   1.03270    0.000
 5853.00    0.95873   1.03221    0.000
 5854.00    0.96076   1.05234    0.000
 5855.00    0.95119   1.07203    0.000
 5856.00    0.96109   1.07866    0.000
 5857.00    1.02067   1.07531    0.000
 5858.00    1.07010   1.07699    0.000
 5859.00    1.09728   1.08451    0.000
 5860.00    1.10387   1.08375    0.000
 5861.00    1.07126   1.07479    0.000
 5862.00    1.04128   1.07433    0.000
 5863.00    1.01567   1.08675    0.000
 5864.00    1.02048   1.09969    0.000
 5865.00    1.06961   1.10522    0.000
 5866.00    1.11880   1.10267    0.000
 5867.00    1.16808   1.09571    0.000
 5868.00    1.20203   1.09241    0.000
 5869.00    1.21868   1.09474    0.000
 5870.00    1.17749   1.09469    0.000
 5871.00    1.07871   1.08921    0.000
 5872.00    1.02897   1.08259    0.000
 5873.00    1.02229   1.07510    0.000
 5874.00    1.05072   1.06551    0.000
 5875.00    1.10631   1.05999    0.000
 5876.00    1.12703   1.06364    0.000
 5877.00    1.12404   1.06697    0.000
 5878.00    1.08346   1.06202    0.000
 5879.00    1.02047   1.05744    0.000
 5880.00    1.03097   1.05879    0.000
 5881.00    1.07968   1.05321    0.000
 5882.00    1.11806   1.01645    0.000
 5883.00    1.15179   0.93033    0.000
 5884.00    1.08824   0.82858    0.000
 5885.00    0.98698   0.79795    0.000
 5886.00    0.91000   0.85968    0.000
 5887.00    0.84103   0.93471    0.000
 5888.00    0.84459   0.96127    0.000
 5889.00    0.86821   0.92770    0.000
 5890.00    0.90265   0.86316    0.000
 5891.00    0.93955   0.84771    0.000
 5892.00    0.94554   0.90766    0.000
 5893.00    0.94589   0.97481    0.000
 5894.00    0.93974   1.01009    0.000
 5895.00    0.93268   1.03163    0.000
 5896.00    0.93135   1.04828    0.000
 5897.00    0.93059   1.05691    0.000
 5898.00    0.93433   1.06050    0.000
 5899.00    0.93835   1.05967    0.000
 5900.00    0.96822   1.05553    0.000
 5901.00    0.99890   1.05599    0.011
 5902.00    1.05225   1.06300    0.011
 5903.00    1.10170   1.06848    0.011
 5904.00    1.04136   1.06930    0.011
 5905.00    0.98476   1.07170    0.011
 5906.00    0.98148   1.07516    0.011
 5907.00    0.98299   1.06841    0.011
 5908.00    1.02910   1.04902    0.011
 5909.00    1.07119   1.03312    0.011
 5910.00    1.08586   1.03271    0.011
 5911.00    1.10193   1.04278    0.011
 5912.00    1.12539   1.05522    0.010
 5913.00    1.14595   1.06404    0.010
 5914.00    1.15424   1.06985    0.010
 5915.00    1.15082   1.07211    0.011
 5916.00    1.10647   1.06755    0.010
 5917.00    1.05725   1.06305    0.010
 5918.00    0.99370   1.06579    0.010
 5919.00    0.94354   1.07208    0.010
 5920.00    0.92693   1.07740    0.011
 5921.00    0.93297   1.07866    0.011
 5922.00    0.98793   1.07272    0.011
 5923.00    1.03588   1.06044    0.011
 5924.00    1.07069   1.04807    0.011
 5925.00    1.10773   1.04827    0.011
 5926.00    1.14845   1.06365    0.011
 5927.00    1.16211   1.07521    0.011
 5928.00    1.13693   1.06906    0.011
 5929.00    1.11091   1.05718    0.011
 5930.00    1.08381   1.05833    0.011
 5931.00    1.05946   1.07015    0.011
 5932.00    1.03814   1.07949    0.011
 5933.00    1.01133   1.08344    0.011
 5934.00    0.97912   1.08005    0.011
 5935.00    0.97617   1.06698    0.011
 5936.00    0.99855   1.05582    0.011
 5937.00    1.02767   1.05766    0.011
 5938.00    1.06194   1.06707    0.011
 5939.00    1.07090   1.07668    0.011
 5940.00    1.06289   1.08390    0.011
 5941.00    1.05853   1.08303    0.011
 5942.00    1.05631   1.06950    0.010
 5943.00    1.05147   1.05233    0.010
 5944.00    1.04529   1.04954    0.010
 5945.00    1.02355   1.06063    0.010
 5946.00    0.99492   1.06384    0.010
 5947.00    1.02554   1.05419    0.010
 5948.00    1.07873   1.05205    0.010
 5949.00    1.10815   1.06185    0.010
 5950.00    1.12988   1.06411    0.010
 5951.00    1.10604   1.05457    0.010
 5952.00    1.06986   1.04954    0.010
 5953.00    1.03919   1.05641    0.010
 5954.00    1.00974   1.06897    0.010
 5955.00    1.01205   1.08037    0.010
 5956.00    1.01999   1.08703    0.011
 5957.00    1.05296   1.08839    0.011
 5958.00    1.08932   1.08591    0.011
 5959.00    1.11217   1.07990    0.011
 5960.00    1.13372   1.07230    0.011
 5961.00    1.12710   1.07159    0.011
 5962.00    1.11880   1.07863    0.011
 5963.00    1.10323   1.08531    0.011
 5964.00    1.08755   1.08995    0.011
 5965.00    1.08495   1.09391    0.011
 5966.00    1.08224   1.09533    0.011
 5967.00    1.07666   1.09359    0.011
 5968.00    1.07428   1.08901    0.011
 5969.00    1.11506   1.07877    0.011
 5970.00    1.15364   1.06367    0.011
 5971.00    1.17255   1.05133    0.011
 5972.00    1.17662   1.04812    0.011
 5973.00    1.08301   1.05467    0.010
 5974.00    0.99493   1.06777    0.010
 5975.00    0.93518   1.07902    0.010
 5976.00    0.89503   1.07956    0.010
 5977.00    0.93604   1.06607    0.010
 5978.00    0.97729   1.04424    0.010
 5979.00    1.01938   1.03274    0.010
 5980.00    1.05626   1.04162    0.010
 5981.00    1.07809   1.05603    0.010
 5982.00    1.09062   1.06382    0.010
 5983.00    1.08020   1.06969    0.010
 5984.00    1.06171   1.07420    0.010
 5985.00    1.02608   1.07114    0.010
 5986.00    1.00602   1.06640    0.010
 5987.00    1.01469   1.07282    0.011
 5988.00    1.03607   1.08656    0.011
 5989.00    1.07792   1.09274    0.011
 5990.00    1.11279   1.08641    0.011
 5991.00    1.13777   1.07263    0.011
 5992.00    1.13954   1.06075    0.010
 5993.00    1.11240   1.05898    0.010
 5994.00    1.09047   1.06564    0.010
 5995.00    1.07425   1.07164    0.010
 5996.00    1.07540   1.06818    0.011
 5997.00    1.09336   1.05844    0.011
 5998.00    1.08615   1.05722    0.011
 5999.00    1.05747   1.06431    0.011
 6000.00    1.04882   1.06410    0.011
 6001.00    1.05524   1.05089    0.011
 6002.00    1.09486   1.03353    0.010
 6003.00    1.15639   1.03093    0.010
 6004.00    1.18310   1.05070    0.010
 6005.00    1.18967   1.07115    0.010
 6006.00    1.16484   1.07109    0.010
 6007.00    1.12420   1.05644    0.010
 6008.00    1.09934   1.04828    0.010
 6009.00    1.08135   1.05320    0.010
 6010.00    1.07057   1.05635    0.010
 6011.00    1.06248   1.05286    0.010
 6012.00    1.06481   1.05362    0.010
 6013.00    1.07045   1.05518    0.010
 6014.00    1.04885   1.04737    0.010
 6015.00    1.02005   1.03854    0.010
 6016.00    1.02813   1.03988    0.011
 6017.00    1.04421   1.04668    0.011
 6018.00    1.07037   1.05101    0.011
 6019.00    1.09826   1.05709    0.011
 6020.00    1.12669   1.06595    0.011
 6021.00    1.15518   1.06960    0.011
 6022.00    1.16486   1.07246    0.011
 6023.00    1.17281   1.08039    0.011
 6024.00    1.17462   1.08596    0.011
 6025.00    1.17608   1.08591    0.011
 6026.00    1.18661   1.08705    0.011
 6027.00    1.19732   1.09188    0.011
 6028.00    1.20787   1.09487    0.011
 6029.00    1.21618   1.09402    0.011
 6030.00    1.17250   1.09230    0.011
 6031.00    1.12943   1.09196    0.011
 6032.00    1.09415   1.09213    0.010
 6033.00    1.06262   1.08957    0.010
 6034.00    1.06342   1.08443    0.010
 6035.00    1.06063   1.08059    0.010
 6036.00    1.03493   1.07953    0.010
 6037.00    1.01525   1.08335    0.010
 6038.00    1.02565   1.09142    0.010
 6039.00    1.04346   1.09692    0.010
 6040.00    1.09121   1.09832    0.010
 6041.00    1.12063   1.09929    0.010
 6042.00    1.08849   1.09979    0.010
 6043.00    1.06579   1.09840    0.010
 6044.00    1.06987   1.09853    0.010
 6045.00    1.09067   1.10048    0.010
 6046.00    1.15198   1.09797    0.010
 6047.00    1.19534   1.08987    0.010
 6048.00    1.20117   1.08232    0.011
 6049.00    1.20034   1.07719    0.011
 6050.00    1.18741   1.07153    0.011
 6051.00    1.17837   1.06852    0.011
 6052.00    1.17550   1.07279    0.011
 6053.00    1.16386   1.08228    0.011
 6054.00    1.13999   1.09105    0.011
 6055.00    1.11984   1.09409    0.011
 6056.00    1.10426   1.08990    0.011
 6057.00    1.09160   1.08003    0.011
 6058.00    1.08210   1.06478    0.011
 6059.00    1.07104   1.04546    0.011
 6060.00    1.05851   1.03895    0.010
 6061.00    1.05758   1.05862    0.010
 6062.00    1.06640   1.08604    0.010
 6063.00    1.05739   1.10069    0.010
 6064.00    1.03517   1.10410    0.010
 6065.00    1.02081   1.10446    0.010
 6066.00    1.01156   1.10546    0.010
 6067.00    1.04118   1.10662    0.010
 6068.00    1.09295   1.10676    0.010
 6069.00    1.12631   1.10547    0.010
 6070.00    1.15055   1.10132    0.010
 6071.00    1.18243   1.09208    0.010
 6072.00    1.21757   1.07714    0.010
 6073.00    1.23250   1.06483    0.010
 6074.00    1.23999   1.06435    0.010
 6075.00    1.21733   1.06658    0.010
 6076.00    1.18528   1.06144    0.010
 6077.00    1.15757   1.05769    0.010
 6078.00    1.13098   1.06117    0.010
 6079.00    1.14638   1.06320    0.010
 6080.00    1.17068   1.06291    0.010
 6081.00    1.17410   1.06756    0.010
 6082.00    1.17403   1.07481    0.011
 6083.00    1.15939   1.07408    0.011
 6084.00    1.14292   1.06299    0.010
 6085.00    1.12571   1.05427    0.010
 6086.00    1.10843   1.05538    0.010
 6087.00    1.12459   1.05998    0.010
 6088.00    1.14248   1.06739    0.010
 6089.00    1.14395   1.07973    0.010
 6090.00    1.14486   1.08682    0.010
 6091.00    1.12743   1.08332    0.010
 6092.00    1.10954   1.07991    0.010
 6093.00    1.08186   1.08426    0.010
 6094.00    1.05701   1.08924    0.010
 6095.00    1.06646   1.07730    0.010
 6096.00    1.07784   1.03783    0.010
 6097.00    1.10534   1.00014    0.010
 6098.00    1.12947   1.00717    0.010
 6099.00    1.13275   1.04580    0.010
 6100.00    1.13332   1.07247    0.010
 6101.00    1.12074   1.07530    0.010
 6102.00    1.10951   1.06991    0.010
 6103.00    1.10362   1.07261    0.010
 6104.00    1.09928   1.08013    0.010
 6105.00    1.10003   1.07865    0.010
 6106.00    1.10207   1.07321    0.010
 6107.00    1.10769   1.07736    0.010
 6108.00    1.11725   1.08746    0.010
 6109.00    1.13617   1.09033    0.010
 6110.00    1.14386   1.08196    0.010
 6111.00    1.12842   1.07465    0.010
 6112.00    1.12036   1.07704    0.010
 6113.00    1.12549   1.07625    0.011
 6114.00    1.12937   1.06119    0.011
 6115.00    1.13128   1.03476    0.010
 6116.00    1.11864   1.00763    0.010
 6117.00    1.08600   1.00567    0.010
 6118.00    1.04746   1.03467    0.010
 6119.00    1.00179   1.06067    0.010
 6120.00    0.98705   1.06517    0.010
 6121.00    1.00530   1.05992    0.010
 6122.00    1.02771   1.05537    0.010
 6123.00    1.05401   1.05655    0.010
 6124.00    1.06111   1.06644    0.010
 6125.00    1.05226   1.07819    0.010
 6126.00    1.06259   1.08365    0.010
 6127.00    1.08693   1.08375    0.010
 6128.00    1.09862   1.07656    0.010
 6129.00    1.10221   1.05257    0.010
 6130.00    1.11698   1.00823    0.010
 6131.00    1.13800   0.96422    0.010
 6132.00    1.13951   0.96220    0.010
 6133.00    1.13150   1.00818    0.010
 6134.00    1.12559   1.05127    0.010
 6135.00    1.12056   1.05276    0.011
 6136.00    1.11844   1.03583    0.011
 6137.00    1.11737   1.04159    0.011
 6138.00    1.08530   1.06751    0.011
 6139.00    1.04377   1.08543    0.011
 6140.00    1.02310   1.08739    0.011
 6141.00    1.00773   1.08032    0.011
 6142.00    1.03223   1.06681    0.010
 6143.00    1.06498   1.05133    0.010
 6144.00    1.08880   1.04264    0.010
 6145.00    1.11117   1.04573    0.010
 6146.00    1.10519   1.05698    0.010
 6147.00    1.09577   1.06621    0.010
 6148.00    1.08130   1.06317    0.010
 6149.00    1.06640   1.05226    0.010
 6150.00    1.06654   1.04795    0.010
 6151.00    1.06739   1.04934    0.010
 6152.00    1.06731   1.04758    0.010
 6153.00    1.06756   1.04104    0.010
 6154.00    1.08753   1.02084    0.010
 6155.00    1.10697   0.97581    0.010
 6156.00    1.11584   0.92704    0.010
 6157.00    1.12409   0.91304    0.010
 6158.00    1.12517   0.93891    0.010
 6159.00    1.12735   0.97477    0.010
 6160.00    1.13841   0.99759    0.010
 6161.00    1.14559   1.00882    0.010
 6162.00    1.12943   1.00613    0.010
 6163.00    1.10828   0.98112    0.010
 6164.00    1.06336   0.95834    0.010
 6165.00    1.02637   0.97117    0.010
 6166.00    1.02007   1.00382    0.010
 6167.00    1.01286   1.02036    0.010
 6168.00    1.00270   1.02083    0.010
 6169.00    0.99128   1.02039    0.010
 6170.00    0.97640   1.01954    0.010
 6171.00    0.96388   1.01897    0.010
 6172.00    0.95685   1.02554    0.010
 6173.00    0.96052   1.03415    0.010
 6174.00    0.98582   1.03540    0.010
 6175.00    1.00513   1.03663    0.010
 6176.00    1.01388   1.04330    0.010
 6177.00    1.01295   1.04740    0.010
 6178.00    0.99710   1.04613    0.010
 6179.00    0.98582   1.04153    0.010
 6180.00    0.98075   1.03058    0.010
 6181.00    0.96455   1.01659    0.009
 6182.00    0.93508   1.00870    0.010
 6183.00    0.92252   1.00621    0.010
 6184.00    0.92773   0.99578    0.010
 6185.00    0.95273   0.97096    0.010
 6186.00    0.99609   0.95804    0.010
 6187.00    1.01716   0.97918    0.010
 6188.00    1.02000   1.01055    0.010
 6189.00    1.01725   1.02704    0.010
 6190.00    1.01048   1.03385    0.010
 6191.00    1.02059   1.03859    0.010
 6192.00    1.04138   1.03539    0.010
 6193.00    1.05593   1.01891    0.010
 6194.00    1.06704   1.00223    0.010
 6195.00    1.09332   1.00406    0.011
 6196.00    1.12688   1.02146   -2.000
 6197.00    1.28792   1.03637   -2.000
 6198.00    1.50182   1.04042   -2.000
 6199.00    1.53718   1.03946   -2.000
 6200.00    1.50926   1.04051   -2.000
 6201.00    1.27199   1.04304   -2.000
 6202.00    0.97208   1.04402   -2.000
 6203.00    0.82806   1.04275   -2.000
 6204.00    0.72276   1.03827   -2.000
 6205.00    0.76130   1.03103   -2.000
 6206.00    0.82880   1.02075   -2.000
 6207.00    0.91498   1.00145   -2.000
 6208.00    1.00411   0.97824    0.010
 6209.00    1.03004   0.96539    0.010
 6210.00    1.04856   0.96801    0.010
 6211.00    1.04816   0.98253    0.010
 6212.00    1.04626   0.99416    0.010
 6213.00    1.06564   0.98904    0.010
 6214.00    1.08596   0.97816    0.010
 6215.00    1.11258   0.97928    0.010
 6216.00    1.13865   0.99086    0.010
 6217.00    1.13476   0.99957    0.010
 6218.00    1.13065   0.99966    0.010
 6219.00    1.12232   0.99913    0.010
 6220.00    1.11591   1.00297    0.010
 6221.00    1.13058   1.00652    0.010
 6222.00    1.14269   1.00486    0.010
 6223.00    1.13506   0.99034    0.010
 6224.00    1.12069   0.96136    0.010
 6225.00    1.06698   0.93949    0.010
 6226.00    1.02470   0.94399    0.010
 6227.00    1.03541   0.96589    0.010
 6228.00    1.04652   0.99262    0.010
 6229.00    1.05909   1.01543    0.010
 6230.00    1.06756   1.02291    0.010
 6231.00    1.06301   1.01447    0.010
 6232.00    1.05412   0.99923    0.010
 6233.00    1.03356   0.98449    0.010
 6234.00    1.01732   0.97529    0.010
 6235.00    1.01099   0.97647    0.009
 6236.00    1.01001   0.97846    0.009
 6237.00    1.01966   0.96938    0.009
 6238.00    1.02145   0.96110    0.009
 6239.00    1.00958   0.96141    0.010
 6240.00    0.99114   0.96296    0.010
 6241.00    0.96270   0.97037    0.010
 6242.00    0.95315   0.98857    0.010
 6243.00    0.96879   1.00594    0.010
 6244.00    0.99378   1.01136    0.010
 6245.00    1.02978   1.00111    0.010
 6246.00    1.05997   0.97749    0.010
 6247.00    1.08413   0.95731    0.010
 6248.00    1.09774   0.95355    0.010
 6249.00    1.10170   0.95882    0.010
 6250.00    1.08799   0.95860    0.010
 6251.00    1.06004   0.94911    0.010
 6252.00    1.04092   0.93911    0.010
 6253.00    1.02807   0.94276    0.010
 6254.00    1.01713   0.96237    0.010
 6255.00    1.00740   0.98222    0.010
 6256.00    0.99495   0.99809    0.010
 6257.00    0.98103   1.01314    0.010
 6258.00    1.03887   1.01556    0.010
 6259.00    1.13063   1.00318    0.010
 6260.00    1.29875   0.99672    0.011
 6261.00    1.49798   1.00434    0.012
 6262.00    1.55566   1.01024    0.012
 6263.00    1.56408   1.00648    0.012
 6264.00    1.39939   1.00186    0.012
 6265.00    1.18392   1.00384    0.012
 6266.00    1.06677   1.01117    0.011
 6267.00    0.97350   1.01776    0.010
 6268.00    0.99475   1.01854    0.010
 6269.00    1.03848   1.01674    0.010
 6270.00    1.07073   1.01701    0.010
 6271.00    1.10123   1.01732    0.010
 6272.00    1.09023   1.01471    0.010
 6273.00    1.07456   1.00627    0.010
 6274.00    1.05997   0.99274    0.010
 6275.00    1.04545   0.98629    0.010
 6276.00    1.03913   0.99375    0.010
 6277.00    1.03314   1.00718    0.010
 6278.00    1.02176   1.01702    0.010
 6279.00    1.01088   1.01929    0.010
 6280.00    1.02213   1.02097    0.000
 6281.00    1.03375   1.02877    0.000
 6282.00    1.05176   1.03813    0.000
 6283.00    1.06933   1.04170    0.000
 6284.00    1.08236   1.03552    0.000
 6285.00    1.09219   1.02400    0.000
 6286.00    1.07813   1.01583    0.000
 6287.00    1.06603   1.01437    0.000
 6288.00    1.06505   1.01832    0.000
 6289.00    1.06645   1.01899    0.000
 6290.00    1.07868   1.00782    0.000
 6291.00    1.09474   0.99307    0.000
 6292.00    1.12506   0.99012    0.000
 6293.00    1.15659   0.99806    0.000
 6294.00    1.19185   1.00053    0.000
 6295.00    1.21570   0.98972    0.000
 6296.00    1.20945   0.97985    0.000
 6297.00    1.20000   0.98642    0.000
 6298.00    1.18329   1.00262    0.000
 6299.00    1.15921   1.01235    0.000
 6300.00    1.12067   1.01749    0.000
 6301.00    1.09265   1.02812    0.000
 6302.00    1.08260   1.03897    0.000
 6303.00    1.06718   1.03959    0.000
 6304.00    1.04370   1.03019    0.000
 6305.00    1.02923   1.01946    0.000
 6306.00    1.02661   1.01542    0.000
 6307.00    1.03439   1.01667    0.000
 6308.00    1.05421   1.01106    0.000
 6309.00    1.06474   0.99885    0.000
 6310.00    1.06576   0.99444    0.000
 6311.00    1.07386   0.99308    0.000
 6312.00    1.08833   0.98329    0.000
 6313.00    1.08044   0.98048    0.000
 6314.00    1.05480   0.99501    0.000
 6315.00    1.02568   1.00965    0.000
 6316.00    0.99415   1.01357    0.000
 6317.00    1.00033   1.01665    0.000
 6318.00    1.02964   1.02577    0.000
 6319.00    1.06258   1.03402    0.000
 6320.00    1.09745   1.03583    0.000
 6321.00    1.13309   1.03325    0.009
 6322.00    1.16908   1.03289    0.009
 6323.00    1.18164   1.03445    0.010
 6324.00    1.18481   1.03148    0.010
 6325.00    1.16331   1.02966    0.010
 6326.00    1.13336   1.03600    0.010
 6327.00    1.09641   1.04277    0.010
 6328.00    1.05744   1.03410    0.010
 6329.00    1.02859   1.00733    0.010
 6330.00    1.00213   0.98491    0.010
 6331.00    1.00702   0.98613    0.010
 6332.00    1.01790   1.00134    0.010
 6333.00    1.01021   1.01407    0.010
 6334.00    0.99977   1.02531    0.009
 6335.00    1.00608   1.03450    0.009
 6336.00    1.01420   1.03241    0.009
 6337.00    1.05446   1.01811    0.009
 6338.00    1.09701   1.00361    0.009
 6339.00    1.10408   1.00185    0.009
 6340.00    1.10986   1.00871    0.009
 6341.00    1.08466   1.01481    0.009
 6342.00    1.05942   1.02261    0.009
 6343.00    1.03684   1.03272    0.009
 6344.00    1.01622   1.03871    0.009
 6345.00    1.02674   1.04015    0.009
 6346.00    1.03939   1.03908    0.009
 6347.00    1.07338   1.03238    0.009
 6348.00    1.10534   1.01849    0.009
 6349.00    1.12268   1.00682    0.010
 6350.00    1.13163   1.00670    0.010
 6351.00    1.09417   1.00759    0.010
 6352.00    1.06029   0.99601    0.010
 6353.00    1.04228   0.98200    0.010
 6354.00    1.02656   0.97819    0.010
 6355.00    1.01912   0.97696    0.010
 6356.00    1.01479   0.97154    0.010
 6357.00    1.01990   0.97070    0.010
 6358.00    1.03269   0.97991    0.010
 6359.00    1.06538   0.99324    0.010
 6360.00    1.08933   1.00492    0.010
 6361.00    1.09381   1.01600    0.010
 6362.00    1.08191   1.02595    0.010
 6363.00    1.03839   1.02828    0.009
 6364.00    1.01173   1.02275    0.009
 6365.00    1.01346   1.02029    0.010
 6366.00    1.01294   1.02853    0.009
 6367.00    1.00912   1.04002    0.009
 6368.00    0.99775   1.04467    0.009
 6369.00    0.97660   1.04360    0.009
 6370.00    0.98047   1.04251    0.009
 6371.00    1.01293   1.03973    0.009
 6372.00    1.04011   1.03099    0.010
 6373.00    1.06196   1.02087    0.010
 6374.00    1.06773   1.01603    0.010
 6375.00    1.05921   1.01690    0.010
 6376.00    1.05093   1.02233    0.010
 6377.00    1.04284   1.02682    0.010
 6378.00    1.03986   1.02501    0.010
 6379.00    1.04041   1.02322    0.010
 6380.00    1.03560   1.02763    0.010
 6381.00    1.02754   1.03337    0.010
 6382.00    1.02498   1.03482    0.010
 6383.00    1.02531   1.03460    0.010
 6384.00    1.04558   1.03487    0.010
 6385.00    1.07496   1.03052    0.010
 6386.00    1.09413   1.01310    0.009
 6387.00    1.10928   0.98898    0.009
 6388.00    1.10117   0.98324    0.009
 6389.00    1.08526   1.00407    0.009
 6390.00    1.06098   1.03002    0.009
 6391.00    1.03436   1.04282    0.009
 6392.00    1.01215   1.03603    0.009
 6393.00    0.99097   1.00774    0.009
 6394.00    0.98722   0.97973    0.009
 6395.00    0.98671   0.98637    0.010
 6396.00    1.00023   1.01936    0.010
 6397.00    1.01576   1.04425    0.010
 6398.00    1.02766   1.05204    0.010
 6399.00    1.03918   1.04932    0.010
 6400.00    1.06200   1.03893    0.010
 6401.00    1.08558   1.02260    0.010
 6402.00    1.08413   1.01212    0.010
 6403.00    1.08187   1.01870    0.010
 6404.00    1.05037   1.02657    0.010
 6405.00    1.01931   1.01857    0.010
 6406.00    1.00189   1.00996    0.010
 6407.00    0.98534   1.01447    0.009
 6408.00    0.98190   1.02248    0.009
 6409.00    0.98080   1.02715    0.009
 6410.00    1.00240   1.03098    0.009
 6411.00    1.02304   1.03245    0.009
 6412.00    1.03700   1.02880    0.009
 6413.00    1.05120   1.01671    0.009
 6414.00    1.06669   0.99788    0.009
 6415.00    1.07959   0.98811    0.009
 6416.00    1.08133   1.00220    0.009
 6417.00    1.08000   1.02905    0.009
 6418.00    1.06774   1.04444    0.009
 6419.00    1.05657   1.04576    0.009
 6420.00    1.04864   1.04661    0.009
 6421.00    1.03819   1.05128    0.009
 6422.00    1.02133   1.05199    0.009
 6423.00    1.01428   1.03906    0.009
 6424.00    1.02873   1.01314    0.009
 6425.00    1.04251   0.99361    0.010
 6426.00    1.05501   0.99786    0.010
 6427.00    1.05416   1.01676    0.010
 6428.00    1.03117   1.03381    0.010
 6429.00    1.02340   1.04410    0.010
 6430.00    1.03774   1.04683    0.010
 6431.00    1.05193   1.03629    0.010
 6432.00    1.06595   1.00978    0.010
 6433.00    1.07604   0.98916    0.010
 6434.00    1.08171   1.00045    0.009
 6435.00    1.07340   1.03104    0.009
 6436.00    1.05120   1.05220    0.009
 6437.00    1.04594   1.05900    0.009
 6438.00    1.05551   1.06029    0.009
 6439.00    1.07413   1.06211    0.009
 6440.00    1.09973   1.06403    0.009
 6441.00    1.10748   1.05863    0.009
 6442.00    1.10312   1.03487    0.009
 6443.00    1.10033   0.99361    0.009
 6444.00    1.09847   0.96524    0.009
 6445.00    1.10991   0.97667    0.009
 6446.00    1.12825   1.01014    0.009
 6447.00    1.13690   1.03479    0.010
 6448.00    1.14119   1.03741    0.010
 6449.00    1.13088   1.02128    0.010
 6450.00    1.11492   1.00712    0.010
 6451.00    1.07490   1.01471    0.010
 6452.00    1.02697   1.03738    0.010
 6453.00    0.99927   1.05542    0.010
 6454.00    0.97716   1.05668    0.010
 6455.00    0.98319   1.03402    0.009
 6456.00    0.99559   0.99514    0.009
 6457.00    1.00267   0.97593    0.009
 6458.00    1.00879   0.99408    0.009
 6459.00    1.01065   1.02369    0.009
 6460.00    1.01192   1.04262    0.009
 6461.00    1.01915   1.05091    0.009
 6462.00    1.02698   1.05093    0.009
 6463.00    1.05260   1.04351    0.009
 6464.00    1.07935   1.03300    0.009
 6465.00    1.09786   1.02354    0.009
 6466.00    1.11599   1.02233    0.009
 6467.00    1.09235   1.03014    0.009
 6468.00    1.06948   1.03248    0.009
 6469.00    1.06831   1.02659    0.009
 6470.00    1.07031   1.02667    0.009
 6471.00    1.11734   1.03525    0.010
 6472.00    1.15913   1.04086    0.010
 6473.00    1.15249   1.04002    0.010
 6474.00    1.14489   1.03268    0.010
 6475.00    1.13084   1.01489    0.010
 6476.00    1.11687   0.99479    0.010
 6477.00    1.10342   0.99024    0.010
 6478.00    1.08516   1.00244    0.010
 6479.00    1.04661   1.01689    0.009
 6480.00    1.02035   1.02532    0.009
 6481.00    1.03692   1.02949    0.009
 6482.00    1.05273   1.03082    0.009
 6483.00    1.06632   1.02677    0.009
 6484.00    1.07662   1.01724    0.009
 6485.00    1.07865   1.00651    0.009
 6486.00    1.08329   0.99141    0.009
 6487.00    1.09355   0.96034    0.009
 6488.00    1.10996   0.91738    0.009
 6489.00    1.13787   0.88947    0.009
 6490.00    1.15147   0.89033    0.009
 6491.00    1.14169   0.91018    0.009
 6492.00    1.10602   0.93423    0.009
 6493.00    1.03325   0.95219    0.009
 6494.00    0.98339   0.96947    0.009
 6495.00    0.96241   0.98925    0.009
 6496.00    0.95890   1.00491    0.009
 6497.00    0.97481   1.01446    0.010
 6498.00    0.99353   1.02056    0.010
 6499.00    1.01501   1.02571    0.010
 6500.00    1.03125   1.02908    0.010
 6501.00    1.04299   1.02677    0.010
 6502.00    1.04610   1.01992    0.010
 6503.00    1.04267   1.01708    0.009
 6504.00    1.04594   1.02160    0.009
 6505.00    1.05369   1.02686    0.009
 6506.00    1.04676   1.02780    0.009
 6507.00    1.03122   1.02586    0.009
 6508.00    1.02666   1.02025    0.009
 6509.00    1.02771   1.00957    0.009
 6510.00    1.04398   0.99905    0.009
 6511.00    1.06698   0.99346    0.009
 6512.00    1.05184   0.99148    0.009
 6513.00    1.02221   0.99601    0.009
 6514.00    1.02211   1.00932    0.009
 6515.00    1.03153   1.02203    0.009
 6516.00    1.03979   1.02667    0.009
 6517.00    1.04774   1.02688    0.009
 6518.00    1.04976   1.02771    0.009
 6519.00    1.05047   1.02607    0.009
 6520.00    1.06753   1.01748    0.009
 6521.00    1.08748   1.00899    0.009
 6522.00    1.07877   1.01080    0.009
 6523.00    1.06620   1.01928    0.009
 6524.00    1.05267   1.02345    0.009
 6525.00    1.03904   1.01859    0.009
 6526.00    1.04028   1.00922    0.009
 6527.00    1.04241   1.00417    0.009
 6528.00    1.06486   1.00866    0.000
 6529.00    1.08776   1.01814    0.000
 6530.00    1.10019   1.02308    0.000
 6531.00    1.11249   1.02116    0.000
 6532.00    1.12151   1.02045    0.000
 6533.00    1.12903   1.02552    0.000
 6534.00    1.11648   1.02995    0.000
 6535.00    1.10388   1.02652    0.000
 6536.00    1.09083   1.01677    0.000
 6537.00    1.08037   1.00637    0.000
 6538.00    1.08684   0.99622    0.000
 6539.00    1.09008   0.98127    0.000
 6540.00    1.07673   0.96608    0.000
 6541.00    1.06682   0.96554    0.000
 6542.00    1.07111   0.97797    0.000
 6543.00    1.08032   0.98685    0.000
 6544.00    1.10631   0.98443    0.000
 6545.00    1.12883   0.97590    0.000
 6546.00    1.14136   0.96790    0.000
 6547.00    1.14313   0.95901    0.000
 6548.00    1.11842   0.94527    0.000
 6549.00    1.10489   0.93095    0.000
 6550.00    1.11507   0.92460    0.000
 6551.00    1.12003   0.92602    0.000
 6552.00    1.11536   0.92495    0.000
 6553.00    1.10294   0.91216    0.000
 6554.00    1.07805   0.87684    0.000
 6555.00    1.06481   0.79808    0.000
 6556.00    1.06803   0.68987    0.000
 6557.00    1.08693   0.64164    0.000
 6558.00    1.12532   0.70748    0.000
 6559.00    1.16966   0.81679    0.000
 6560.00    1.22053   0.89058    0.000
 6561.00    1.25014   0.92388    0.000
 6562.00    1.25921   0.93348    0.000
 6563.00    1.22797   0.93295    0.000
 6564.00    1.16238   0.93640    0.000
 6565.00    1.10713   0.94286    0.000
 6566.00    1.05964   0.94121    0.000
 6567.00    1.04473   0.93315    0.000
 6568.00    1.05129   0.92976    0.000
 6569.00    1.03006   0.93865    0.000
 6570.00    0.99278   0.95918    0.000
 6571.00    0.98483   0.98023    0.000
 6572.00    0.99162   0.99135    0.000
 6573.00    1.03216   0.99060    0.000
 6574.00    1.08738   0.98208    0.000
 6575.00    1.11146   0.97592    0.000
 6576.00    1.12391   0.98032    0.000
 6577.00    1.15495   0.98954    0.000
 6578.00    1.19189   0.99369    0.000
 6579.00    1.23730   0.99124    0.000
 6580.00    1.28496   0.98796    0.000
 6581.00    1.27945   0.99184    0.000
 6582.00    1.26244   1.00154    0.000
 6583.00    1.22795   1.00855    0.000
 6584.00    1.19046   1.00781    0.000
 6585.00    1.15351   0.99282    0.000
 6586.00    1.11663   0.96251    0.000
 6587.00    1.09418   0.93726    0.000
 6588.00    1.07305   0.94139    0.000
 6589.00    1.05216   0.96679    0.000
 6590.00    1.03129   0.98558    0.000
 6591.00    1.03979   0.98793    0.000
 6592.00    1.04886   0.98321    0.000
 6593.00    1.05251   0.98518    0.000
 6594.00    1.05451   0.99707    0.000
 6595.00    1.01859   1.00862    0.000
 6596.00    0.98618   1.01153    0.000
 6597.00    0.99821   1.00655    0.000
 6598.00    1.01357   0.99756    0.000
 6599.00    1.05749   0.98954    0.000
 6600.00    1.09547   0.98535    0.000
 6601.00    1.09566   0.98052    0.000
 6602.00    1.09893   0.97166    0.000
 6603.00    1.11753   0.96686    0.000
 6604.00    1.13307   0.97738    0.000
 6605.00    1.13627   0.99553    0.000
 6606.00    1.13637   1.00364    0.000
 6607.00    1.12607   1.00010    0.000
 6608.00    1.11044   0.99847    0.000
 6609.00    1.07975   1.00469    0.009
 6610.00    1.05762   1.00957    0.009
 6611.00    1.05621   1.00829    0.009
 6612.00    1.05222   1.00629    0.009
 6613.00    1.04286   1.00773    0.009
 6614.00    1.03685   1.01069    0.009
 6615.00    1.03694   1.01147    0.010
 6616.00    1.03158   1.00700    0.010
 6617.00    1.01758   0.99610    0.009
 6618.00    1.01123   0.98281    0.009
 6619.00    1.01550   0.97710    0.009
 6620.00    1.02539   0.98253    0.009
 6621.00    1.04213   0.98963    0.009
 6622.00    1.06443   0.99218    0.009
 6623.00    1.09274   0.99166    0.009
 6624.00    1.09628   0.98915    0.009
 6625.00    1.07623   0.98412    0.009
 6626.00    1.04959   0.97456    0.009
 6627.00    1.01741   0.96231    0.009
 6628.00    1.01325   0.95777    0.009
 6629.00    1.02979   0.96731    0.009
 6630.00    1.04182   0.98205    0.009
 6631.00    1.05091   0.99135    0.009
 6632.00    1.03245   0.99262    0.009
 6633.00    0.99833   0.98925    0.009
 6634.00    1.00354   0.98873    0.009
 6635.00    1.02822   0.99174    0.009
 6636.00    1.06233   0.98693    0.009
 6637.00    1.10048   0.97280    0.009
 6638.00    1.11281   0.96765    0.009
 6639.00    1.11568   0.97709    0.009
 6640.00    1.11988   0.98640    0.009
 6641.00    1.12449   0.98788    0.009
 6642.00    1.10109   0.98774    0.009
 6643.00    1.07043   0.98921    0.009
 6644.00    1.06358   0.98822    0.009
 6645.00    1.06175   0.98360    0.009
 6646.00    1.06042   0.97971    0.009
 6647.00    1.05918   0.97896    0.009
 6648.00    1.05390   0.98026    0.009
 6649.00    1.04812   0.98158    0.009
 6650.00    1.04215   0.98116    0.009
 6651.00    1.03616   0.98101    0.009
 6652.00    1.04039   0.98217    0.009
 6653.00    1.04515   0.98152    0.009
 6654.00    1.06131   0.97793    0.009
 6655.00    1.07744   0.97139    0.009
 6656.00    1.07764   0.96011    0.009
 6657.00    1.07772   0.94881    0.009
 6658.00    1.07500   0.94936    0.009
 6659.00    1.07210   0.95906    0.009
 6660.00    1.06699   0.96500    0.009
 6661.00    1.06130   0.96627    0.009
 6662.00    1.05090   0.96971    0.009
 6663.00    1.04122   0.97777    0.009
 6664.00    1.03598   0.98609    0.009
 6665.00    1.03364   0.98967    0.009
 6666.00    1.04539   0.98918    0.009
 6667.00    1.05715   0.98842    0.009
 6668.00    1.06898   0.98874    0.009
 6669.00    1.07692   0.98640    0.009
 6670.00    1.07207   0.97297    0.009
 6671.00    1.06374   0.94764    0.009
 6672.00    1.04575   0.93085    0.009
 6673.00    1.03484   0.93889    0.009
 6674.00    1.04077   0.95616    0.009
 6675.00    1.04199   0.96404    0.009
 6676.00    1.03352   0.96649    0.009
 6677.00    1.02293   0.97048    0.009
 6678.00    1.00856   0.97472    0.009
 6679.00    1.00387   0.97618    0.009
 6680.00    1.01430   0.97511    0.009
 6681.00    1.01834   0.97307    0.009
 6682.00    1.01364   0.97207    0.009
 6683.00    1.00304   0.97385    0.009
 6684.00    0.98533   0.97635    0.009
 6685.00    0.98231   0.97706    0.009
 6686.00    0.99492   0.97629    0.009
 6687.00    0.99751   0.97500    0.009
 6688.00    0.99069   0.97096    0.009
 6689.00    0.97942   0.96173    0.009
 6690.00    0.96445   0.95239    0.009
 6691.00    0.96863   0.95107    0.009
 6692.00    0.98678   0.95722    0.009
 6693.00    0.99837   0.96619    0.009
 6694.00    1.00577   0.97447    0.009
 6695.00    1.01380   0.97745    0.009
 6696.00    1.02217   0.97309    0.000
 6697.00    1.03675   0.96440    0.000
 6698.00    1.05436   0.95860    0.000
 6699.00    1.05093   0.96048    0.000
 6700.00    1.03865   0.96673    0.000
 6701.00    1.01236   0.97119    0.000
 6702.00    0.98102   0.97209    0.000
 6703.00    0.98388   0.97008    0.000
 6704.00    0.99714   0.96644    0.000
 6705.00    1.01271   0.96479    0.000
 6706.00    1.02887   0.96337    0.000
 6707.00    1.01682   0.95787    0.000
 6708.00    0.99896   0.94937    0.000
 6709.00    1.01212   0.93883    0.000
 6710.00    1.03029   0.92553    0.000
 6711.00    1.09850   0.91483    0.000
 6712.00    1.17278   0.91846    0.000
 6713.00    1.20640   0.93498    0.000
 6714.00    1.23666   0.94765    0.000
 6715.00    1.20195   0.95025    0.000
 6716.00    1.16417   0.95132    0.000
 6717.00    1.13211   0.95577    0.000
 6718.00    1.10045   0.95816    0.000
 6719.00    1.08706   0.95435    0.000
 6720.00    1.07477   0.94971    0.000
 6721.00    1.08386   0.95113    0.000
 6722.00    1.09465   0.95665    0.000
 6723.00    1.12496   0.96123    0.000
 6724.00    1.15442   0.96374    0.000
 6725.00    1.17703   0.96363    0.000
 6726.00    1.19238   0.96100    0.000
 6727.00    1.16411   0.95848    0.000
 6728.00    1.13979   0.95874    0.000
 6729.00    1.13420   0.96116    0.000
 6730.00    1.12778   0.96201    0.000
 6731.00    1.11813   0.95757    0.000
 6732.00    1.11154   0.95001    0.000
 6733.00    1.11480   0.94637    0.000
 6734.00    1.11505   0.94898    0.000
 6735.00    1.10713   0.95127    0.000
 6736.00    1.09095   0.94769    0.000
 6737.00    1.05545   0.94422    0.000
 6738.00    1.03167   0.94713    0.000
 6739.00    1.03158   0.95123    0.000
 6740.00    1.03404   0.95053    0.000
 6741.00    1.04100   0.94591    0.000
 6742.00    1.04373   0.93968    0.000
 6743.00    1.03997   0.93390    0.000
 6744.00    1.03171   0.93257    0.000
 6745.00    1.01737   0.93591    0.000
 6746.00    1.00469   0.93760    0.000
 6747.00    0.99399   0.93834    0.000
 6748.00    0.99561   0.94368    0.000
 6749.00    1.01015   0.95003    0.000
 6750.00    1.02190   0.95446    0.000
 6751.00    1.03107   0.95912    0.000
 6752.00    1.04469   0.96403    0.000
 6753.00    1.06195   0.96760    0.010
 6754.00    1.06500   0.96881    0.010
 6755.00    1.05785   0.96738    0.010
 6756.00    1.04167   0.96538    0.010
 6757.00    1.01981   0.96551    0.010
 6758.00    1.00532   0.96535    0.010
 6759.00    0.99490   0.96101    0.010
 6760.00    1.05607   0.95149    0.010
 6761.00    1.15156   0.94245    0.011
 6762.00    1.19744   0.94193    0.011
 6763.00    1.22281   0.94689    0.011
 6764.00    1.22118   0.94774    0.011
 6765.00    1.21000   0.94578    0.011
 6766.00    1.24107   0.94921    0.011
 6767.00    1.28476   0.95836    0.011
 6768.00    1.32009   0.96776    0.011
 6769.00    1.35336   0.97323    0.011
 6770.00    1.33450   0.97456    0.010
 6771.00    1.30517   0.97401    0.010
 6772.00    1.26516   0.97476    0.010
 6773.00    1.22347   0.97622    0.009
 6774.00    1.16709   0.97372    0.009
 6775.00    1.10900   0.96483    0.010
 6776.00    1.09170   0.95106    0.010
 6777.00    1.07763   0.93749    0.010
 6778.00    1.11408   0.93016    0.010
 6779.00    1.15273   0.93066    0.010
 6780.00    1.09669   0.93621    0.010
 6781.00    1.03943   0.94436    0.010
 6782.00    0.97157   0.95142    0.010
 6783.00    0.90791   0.95356    0.010
 6784.00    0.92032   0.95335    0.010
 6785.00    0.93137   0.95377    0.010
 6786.00    0.92759   0.95180    0.010
 6787.00    0.92553   0.94693    0.010
 6788.00    0.93670   0.94439    0.010
 6789.00    0.95606   0.94568    0.010
 6790.00    1.02310   0.94783    0.010
 6791.00    1.08376   0.95001    0.010
 6792.00    1.11488   0.95182    0.010
 6793.00    1.14101   0.95401    0.010
 6794.00    1.14822   0.95733    0.010
 6795.00    1.14210   0.96022    0.010
 6796.00    1.09385   0.96042    0.010
 6797.00    1.05302   0.95743    0.009
 6798.00    1.03206   0.95478    0.010
 6799.00    1.01890   0.95435    0.010
 6800.00    1.02364   0.95302    0.010
 6801.00    1.03648   0.95199    0.010
 6802.00    1.06545   0.95322    0.010
 6803.00    1.07360   0.95240    0.010
 6804.00    1.04569   0.95057    0.010
 6805.00    1.02644   0.95264    0.010
 6806.00    1.02032   0.95563    0.010
 6807.00    1.01914   0.95385    0.010
 6808.00    1.02456   0.94769    0.010
 6809.00    1.02669   0.94505    0.010
 6810.00    1.02496   0.95068    0.010
 6811.00    1.04375   0.95758    0.010
 6812.00    1.08377   0.95767    0.010
 6813.00    1.10924   0.95237    0.010
 6814.00    1.12141   0.94921    0.010
 6815.00    1.11369   0.95305    0.010
 6816.00    1.08997   0.96026    0.010
 6817.00    1.06733   0.96482    0.010
 6818.00    1.04546   0.96626    0.009
 6819.00    1.06380   0.96607    0.009
 6820.00    1.10713   0.96257    0.009
 6821.00    1.12459   0.95381    0.009
 6822.00    1.12801   0.94613    0.010
 6823.00    1.12911   0.94785    0.010
 6824.00    1.12911   0.95593    0.010
 6825.00    1.09152   0.96132    0.010
 6826.00    1.03865   0.96084    0.010
 6827.00    1.01902   0.95993    0.010
 6828.00    1.01094   0.96237    0.010
 6829.00    1.05460   0.96456    0.010
 6830.00    1.11340   0.96245    0.010
 6831.00    1.13105   0.95633    0.010
 6832.00    1.13872   0.94774    0.010
 6833.00    1.09740   0.93758    0.010
 6834.00    1.04649   0.92702    0.010
 6835.00    1.04146   0.91918    0.010
 6836.00    1.04343   0.91975    0.010
 6837.00    1.11814   0.92985    0.010
 6838.00    1.20102   0.94372    0.010
 6839.00    1.18485   0.95377    0.010
 6840.00    1.16128   0.95707    0.010
 6841.00    1.08996   0.95722    0.010
 6842.00    1.01675   0.95715    0.010
 6843.00    1.01599   0.95605    0.010
 6844.00    1.01761   0.95450    0.010
 6845.00    1.09399   0.95448    0.010
 6846.00    1.16331   0.95468    0.010
 6847.00    1.11336   0.95023    0.010
 6848.00    1.06666   0.93890    0.010
 6849.00    1.05409   0.92917    0.010
 6850.00    1.04533   0.92929    0.010
 6851.00    1.06479   0.93459    0.010
 6852.00    1.07690   0.93878    0.010
 6853.00    1.04735   0.93968    0.009
 6854.00    1.02004   0.93454    0.009
 6855.00    1.00285   0.92818    0.009
 6856.00    0.98855   0.93201    0.009
 6857.00    0.98489   0.94585    0.009
 6858.00    0.97705   0.95664    0.009
 6859.00    0.95627   0.95583    0.009
 6860.00    0.94278   0.94650    0.009
 6861.00    0.94851   0.93651    0.009
 6862.00    0.97123   0.93334    0.009
 6863.00    1.03235   0.93838    0.009
 6864.00    1.08193   0.94285    0.010
 6865.00    1.10890   0.94065    0.010
 6866.00    1.11523   0.93730    0.010
 6867.00    1.08631   0.93906    0.010
 6868.00    1.06941   0.94257    0.010
 6869.00    1.07047   0.94466    0.010
 6870.00    1.05174   0.94878    0.010
 6871.00    1.00699   0.95546    0.010
 6872.00    0.98653   0.96027    0.010
 6873.00    0.99418   0.95988    0.009
 6874.00    1.02147   0.95384    0.009
 6875.00    1.06883   0.94339    0.009
 6876.00    1.10434   0.93519    0.009
 6877.00    1.12920   0.93619    0.009
 6878.00    1.12689   0.94316    0.009
 6879.00    1.10304   0.94728    0.009
 6880.00    1.07764   0.94933    0.009
 6881.00    1.05118   0.95466    0.009
 6882.00    1.04102   0.96095    0.009
 6883.00    1.04085   0.96498    0.009
 6884.00    1.03357   0.96771    0.009
 6885.00    1.02248   0.96863    0.009
 6886.00    1.03920   0.96710    0.010
 6887.00    1.06881   0.96497    0.010
 6888.00    1.06881   0.96223    0.010
 6889.00    1.05697   0.95899    0.010
 6890.00    1.03583   0.95861    0.010
 6891.00    1.01151   0.96147    0.010
 6892.00    1.00881   0.96300    0.010
 6893.00    1.01232   0.96039    0.010
 6894.00    1.02866   0.95775    0.010
 6895.00    1.04803   0.95990    0.010
 6896.00    1.06611   0.96430    0.009
 6897.00    1.08393   0.96607    0.009
 6898.00    1.10481   0.96509    0.009
 6899.00    1.12615   0.96548    0.009
 6900.00    1.08496   0.96916    0.009
 6901.00    1.03702   0.97368    0.010
 6902.00    1.01258   0.97599    0.009
 6903.00    0.98980   0.97568    0.009
 6904.00    0.99625   0.97254    0.009
 6905.00    1.00375   0.96744    0.010
 6906.00    1.00037   0.96139    0.009
 6907.00    0.99644   0.95349    0.009
 6908.00    0.97486   0.94802    0.009
 6909.00    0.95712   0.94902    0.009
 6910.00    1.00002   0.95180    0.010
 6911.00    1.03695   0.95389    0.010
 6912.00    1.01393   0.95741    0.010
 6913.00    0.99223   0.96196    0.010
 6914.00    0.98003   0.96692    0.010
 6915.00    0.97821   0.97051    0.009
 6916.00    1.03357   0.96888    0.009
 6917.00    1.07389   0.95993    0.009
 6918.00    1.04792   0.94840    0.009
 6919.00    1.02656   0.94337    0.009
 6920.00    1.02188   0.94862    0.009
 6921.00    1.01584   0.95896    0.009
 6922.00    1.00567   0.96641    0.009
 6923.00    0.99361   0.96880    0.009
 6924.00    0.97665   0.96814    0.009
 6925.00    0.97953   0.96467    0.009
 6926.00    1.02651   0.95858    0.010
 6927.00    1.07091   0.95546    0.010
 6928.00    1.11034   0.95997    0.010
 6929.00    1.13345   0.96621    0.010
 6930.00    1.12913   0.96763    0.010
 6931.00    1.10013   0.96640    0.010
 6932.00    1.03477   0.96698    0.010
 6933.00    1.00579   0.97063    0.010
 6934.00    1.02393   0.97499    0.010
 6935.00    1.03369   0.97578    0.010
 6936.00    1.03392   0.97071    0.010
 6937.00    1.02453   0.96088    0.010
 6938.00    1.00547   0.94970    0.010
 6939.00    1.00850   0.94604    0.009
 6940.00    1.03112   0.95504    0.009
 6941.00    1.02815   0.96811    0.009
 6942.00    1.00516   0.97583    0.009
 6943.00    0.99800   0.97627    0.009
 6944.00    1.00171   0.97003    0.009
 6945.00    1.00935   0.96180    0.010
 6946.00    1.01937   0.95755    0.010
 6947.00    1.04475   0.95664    0.010
 6948.00    1.07822   0.95812    0.010
 6949.00    1.06738   0.96340    0.010
 6950.00    1.03633   0.97022    0.010
 6951.00    1.04012   0.97388    0.010
 6952.00    1.05759   0.97380    0.010
 6953.00    1.06989   0.97313    0.010
 6954.00    1.08046   0.97404    0.010
 6955.00    1.09389   0.97630    0.010
 6956.00    1.10812   0.97815    0.010
 6957.00    1.09363   0.97891    0.010
 6958.00    1.07250   0.97752    0.010
 6959.00    1.07476   0.97412    0.010
 6960.00    1.08137   0.97388    0.009
 6961.00    1.08123   0.97952    0.009
 6962.00    1.08012   0.98501    0.010
 6963.00    1.04994   0.98402    0.010
 6964.00    1.01674   0.97867    0.010
 6965.00    1.01531   0.97585    0.010
 6966.00    1.01599   0.97876    0.010
 6967.00    1.00813   0.98096    0.010
 6968.00    0.99998   0.97567    0.010
 6969.00    0.97908   0.96496    0.010
 6970.00    0.96013   0.95100    0.010
 6971.00    1.00097   0.93249    0.010
 6972.00    1.03908   0.91760    0.010
 6973.00    1.03665   0.92194    0.010
 6974.00    1.03010   0.94362    0.010
 6975.00    0.98402   0.96535    0.010
 6976.00    0.94195   0.97862    0.010
 6977.00    0.92772   0.98492    0.010
 6978.00    0.92137   0.98667    0.010
 6979.00    0.95731   0.98626    0.010
 6980.00    0.99620   0.98464    0.010
 6981.00    1.04785   0.98022    0.010
 6982.00    1.08728   0.97274    0.010
 6983.00    1.08334   0.96749    0.010
 6984.00    1.07975   0.96984    0.010
 6985.00    1.07718   0.97709    0.010
 6986.00    1.08276   0.98210    0.010
 6987.00    1.10905   0.98109    0.010
 6988.00    1.11970   0.97779    0.010
 6989.00    1.09614   0.97781    0.010
 6990.00    1.07723   0.98028    0.010
 6991.00    1.06713   0.97933    0.010
 6992.00    1.05852   0.97107    0.010
 6993.00    1.05235   0.96053    0.010
 6994.00    1.05065   0.95837    0.010
 6995.00    1.05542   0.96608    0.010
 6996.00    1.03889   0.97218    0.010
 6997.00    0.99516   0.96814    0.010
 6998.00    0.97196   0.95937    0.010
 6999.00    0.97186   0.95540    0.010
 7000.00    0.97628   0.95824    0.010
 7001.00    0.98520   0.96485    0.010
 7002.00    0.99733   0.97207    0.010
 7003.00    1.01226   0.97620    0.010
 7004.00    1.02777   0.97493    0.010
 7005.00    1.04371   0.97252    0.010
 7006.00    1.03202   0.97427    0.010
 7007.00    1.00161   0.97541    0.010
 7008.00    0.96729   0.96526    0.010
 7009.00    0.93064   0.94403    0.010
 7010.00    0.94199   0.93066    0.010
 7011.00    0.97819   0.94107    0.011
 7012.00    0.99017   0.96460    0.011
 7013.00    0.99128   0.98169    0.011
 7014.00    1.01366   0.98758    0.010
 7015.00    1.04426   0.98377    0.010
 7016.00    1.01450   0.97091    0.010
 7017.00    0.96493   0.95624    0.010
 7018.00    0.94526   0.95114    0.010
 7019.00    0.93380   0.95772    0.010
 7020.00    1.00173   0.96695    0.010
 7021.00    1.08762   0.97210    0.010
 7022.00    1.10091   0.97531    0.010
 7023.00    1.10109   0.97936    0.010
 7024.00    1.10547   0.98283    0.010
 7025.00    1.11044   0.98320    0.010
 7026.00    1.10190   0.98078    0.010
 7027.00    1.09201   0.97847    0.010
 7028.00    1.07211   0.97886    0.011
 7029.00    1.05158   0.98213    0.011
 7030.00    1.06090   0.98080    0.011
 7031.00    1.07118   0.96852    0.011
 7032.00    1.11141   0.95864    0.011
 7033.00    1.14747   0.96899    0.011
 7034.00    1.06922   0.99262    0.011
 7035.00    0.99955   1.01077    0.010
 7036.00    1.05037   1.01665    0.011
 7037.00    1.09668   1.01212    0.011
 7038.00    1.10138   1.00265    0.010
 7039.00    1.10220   0.99774    0.010
 7040.00    1.07687   1.00225    0.010
 7041.00    1.05443   1.01091    0.010
 7042.00    1.04711   1.01592    0.010
 7043.00    1.05121   1.01439    0.010
 7044.00    1.10341   1.00682    0.010
 7045.00    1.14601   0.99181    0.011
 7046.00    1.15525   0.97001    0.011
 7047.00    1.16189   0.94889    0.011
 7048.00    1.16091   0.93620    0.011
 7049.00    1.13136   0.93550    0.011
 7050.00    1.03047   0.94345   -2.000
 7051.00    0.97269   0.94937   -2.000
 7052.00    1.00764   0.94509   -2.000
 7053.00    1.02713   0.93333   -2.000
 7054.00    1.01776   0.92535   -2.000
 7055.00    1.04319   0.92703   -2.000
 7056.00    1.12539   0.93384   -2.000
 7057.00    1.16610   0.94139   -2.000
 7058.00    1.14747   0.94632   -2.000
 7059.00    1.14295   0.94298   -2.000
 7060.00    1.15619   0.93154   -2.000
 7061.00    1.15348   0.91916   -2.000
 7062.00    1.13310   0.91494   -2.000
 7063.00    1.10396   0.92419   -2.000
 7064.00    1.06623   0.93974   -2.000
 7065.00    1.07575   0.95022   -2.000
 7066.00    1.12601   0.95406   -2.000
 7067.00    1.14350   0.95529   -2.000
 7068.00    1.13609   0.95493   -2.000
 7069.00    1.09711   0.95305   -2.000
 7070.00    1.03705   0.95193   -2.000
 7071.00    1.06998   0.95320   -2.000
 7072.00    1.15728   0.95589   -2.000
 7073.00    1.18845   0.95879   -2.000
 7074.00    1.19100   0.96091   -2.000
 7075.00    1.19031   0.95808   -2.000
 7076.00    1.18819   0.94555   -2.000
 7077.00    1.13981   0.92547   -2.000
 7078.00    1.07389   0.90923   -2.000
 7079.00    1.04949   0.90570   -2.000
 7080.00    1.03845   0.90685   -2.000
 7081.00    1.06629   0.90135   -2.000
 7082.00    1.10460   0.89224   -2.000
 7083.00    1.10637   0.88619   -2.000
 7084.00    1.10008   0.88504   -2.000
 7085.00    1.07739   0.88833   -2.000
 7086.00    1.05183   0.89125   -2.000
 7087.00    1.06296   0.89144   -2.000
 7088.00    1.07902   0.89112   -2.000
 7089.00    1.13488   0.89099   -2.000
 7090.00    1.19451   0.89210   -2.000
 7091.00    1.15654   0.89654   -2.000
 7092.00    1.11283   0.90539   -2.000
 7093.00    1.09399   0.91356   -2.000
 7094.00    1.07616   0.91500   -2.000
 7095.00    1.11330   0.91096   -2.000
 7096.00    1.14744   0.90719   -2.000
 7097.00    1.10688   0.90920   -2.000
 7098.00    1.06765   0.91574   -2.000
 7099.00    1.04608   0.91918   -2.000
 7100.00    1.02015   0.91653   -2.000
 7101.00    0.95557   0.91373   -2.000
 7102.00    0.91142   0.91388   -2.000
 7103.00    1.00080   0.91146   -2.000
 7104.00    1.07142   0.90398   -2.000
 7105.00    1.04652   0.89890   -2.000
 7106.00    1.03259   0.90241   -2.000
 7107.00    1.06379   0.91002   -2.000
 7108.00    1.07448   0.91506   -2.000
 7109.00    1.01522   0.91796   -2.000
 7110.00    0.98662   0.92072   -2.000
 7111.00    1.04606   0.92220   -2.000
 7112.00    1.08439   0.92190   -2.000
 7113.00    1.07091   0.92046   -2.000
 7114.00    1.04306   0.91729   -2.000
 7115.00    0.98481   0.91263   -2.000
 7116.00    0.96458   0.91181   -2.000
 7117.00    1.01427   0.91551   -2.000
 7118.00    1.03183   0.91286   -2.000
 7119.00    0.99777   0.90074   -2.000
 7120.00    0.98728   0.89071   -2.000
 7121.00    1.01002   0.88939   -2.000
 7122.00    0.98613   0.88903   -2.000
 7123.00    0.90440   0.88122   -2.000
 7124.00    0.92008   0.87118   -2.000
 7125.00    1.04226   0.87074   -2.000
 7126.00    1.07125   0.88055   -2.000
 7127.00    1.01038   0.89223   -2.000
 7128.00    0.99272   0.90013   -2.000
 7129.00    1.01181   0.90358   -2.000
 7130.00    1.05311   0.90561   -2.000
 7131.00    1.11102   0.90540   -2.000
 7132.00    1.09920   0.90066   -2.000
 7133.00    1.04149   0.89751   -2.000
 7134.00    0.96161   0.90115   -2.000
 7135.00    0.86896   0.90608   -2.000
 7136.00    0.92967   0.90739   -2.000
 7137.00    1.06732   0.90711   -2.000
 7138.00    1.06240   0.90670   -2.000
 7139.00    0.99557   0.90474   -2.000
 7140.00    1.04267   0.89636   -2.000
 7141.00    1.13223   0.88150   -2.000
 7142.00    1.09349   0.87431   -2.000
 7143.00    1.01422   0.88290   -2.000
 7144.00    0.94958   0.89668   -2.000
 7145.00    0.88880   0.90804   -2.000
 7146.00    0.90536   0.91748   -2.000
 7147.00    0.93858   0.92167   -2.000
 7148.00    1.00264   0.91914   -2.000
 7149.00    1.07196   0.91805   -2.000
 7150.00    1.00697   0.92369   -2.000
 7151.00    0.92459   0.92747   -2.000
 7152.00    1.04984   0.92212   -2.000
 7153.00    1.19395   0.91349   -2.000
 7154.00    1.16833   0.91072   -2.000
 7155.00    1.13341   0.91362   -2.000
 7156.00    1.03870   0.91081   -2.000
 7157.00    0.94313   0.89508   -2.000
 7158.00    0.88301   0.87808   -2.000
 7159.00    0.83447   0.87805   -2.000
 7160.00    1.04895   0.89517   -2.000
 7161.00    1.25201   0.91303   -2.000
 7162.00    1.31124   0.92010   -2.000
 7163.00    1.34925   0.91965   -2.000
 7164.00    1.20627   0.92071   -2.000
 7165.00    1.07116   0.92595   -2.000
 7166.00    0.98598   0.93109   -2.000
 7167.00    0.93133   0.93119   -2.000
 7168.00    1.02827   0.92467   -2.000
 7169.00    1.12510   0.91550   -2.000
 7170.00    1.22147   0.91281   -2.000
 7171.00    1.27826   0.91880   -2.000
 7172.00    1.20285   0.92102   -2.000
 7173.00    1.11431   0.91022   -2.000
 7174.00    0.98875   0.89574   -2.000
 7175.00    0.92133   0.89367   -2.000
 7176.00    0.99413   0.90706   -2.000
 7177.00    1.04864   0.92268   -2.000
 7178.00    1.06508   0.92742   -2.000
 7179.00    1.06999   0.91886   -2.000
 7180.00    1.05401   0.90153   -2.000
 7181.00    1.02926   0.88663   -2.000
 7182.00    0.99063   0.88398   -2.000
 7183.00    0.95306   0.89245   -2.000
 7184.00    0.91695   0.90457   -2.000
 7185.00    0.87686   0.91107   -2.000
 7186.00    0.83190   0.91008   -2.000
 7187.00    0.90154   0.91008   -2.000
 7188.00    1.09471   0.91503   -2.000
 7189.00    1.16337   0.91715   -2.000
 7190.00    1.11364   0.91192   -2.000
 7191.00    1.09246   0.90849   -2.000
 7192.00    1.09521   0.91289   -2.000
 7193.00    1.04928   0.91723   -2.000
 7194.00    0.96743   0.91375   -2.000
 7195.00    0.93459   0.90612   -2.000
 7196.00    0.93353   0.90580   -2.000
 7197.00    0.89686   0.91614   -2.000
 7198.00    0.83998   0.92419   -2.000
 7199.00    0.89534   0.91542   -2.000
 7200.00    1.00614   0.89304   -2.000
 7201.00    1.17200   0.87751   -2.000
 7202.00    1.36138   0.88129   -2.000
 7203.00    1.26732   0.89814   -2.000
 7204.00    1.06956   0.91655   -2.000
 7205.00    0.91671   0.92576   -2.000
 7206.00    0.77778   0.92274   -2.000
 7207.00    0.85076   0.91525   -2.000
 7208.00    0.97845   0.91088   -2.000
 7209.00    0.95920   0.91210   -2.000
 7210.00    0.90905   0.91911   -2.000
 7211.00    0.91921   0.92813   -2.000
 7212.00    0.93938   0.93216   -2.000
 7213.00    0.95916   0.92982   -2.000
 7214.00    0.97888   0.92576   -2.000
 7215.00    0.98042   0.92229   -2.000
 7216.00    0.98038   0.91940   -2.000
 7217.00    0.96335   0.92018   -2.000
 7218.00    0.94545   0.92727   -2.000
