###################################################################
## OUTPUT of StarlightChains_v04.for    [Cid@UFSC - 01/Apr/2007] ##
###################################################################

## Some input info
KUG0210-078._44_28.txt                   [arq_obs]
Base.CB07.vall.4m                        [arq_base]
Masks.EmLines.NEW.gm                     [arq_masks]
StCv04.C11.config                        [arq_config]
   66                                    [N_base]
    0                                    [N_YAV_components = # of components with extra extinction!]
    0                                    [i_FitPowerLaw (1/0 = Yes/No)]
-9.99                                    [alpha_PowerLaw]
CCM                                      [red_law_option]
 1.458241                                [q_norm = A(l_norm)/A(V)]

## (Re)Sampling Parameters
 3741.00                                 [l_ini (A)]
 7218.00                                 [l_fin (A)]
    1.00                                 [dl    (A)]     (OBS: dl_cushion =    50.00 A)

## Normalization info
 4020.00                                 [l_norm (A) - for base]
 4010.00                                 [llow_norm (A) - window for f_obs]
 4060.00                                 [lupp_norm (A) - window for f_obs]
9.539759E-18                             [fobs_norm (in input units)]

## S/N
 3691.00                                 [llow_SN (A) - window for S/N]
 7268.00                                 [lupp_SN (A) - window for S/N]
   3.004                                 [S/N in S/N window]
   3.848                                 [S/N in norm. window]
   0.009                                 [S/N_err in S/N window]
   0.012                                 [S/N_err in norm. window]
  1.0000                                 [fscale_chi2]

## etc...
    -2007829                             [idum_orig]
  2319                                   [NOl_eff]
  2119                                   [Nl_eff]
   200    NSIGMA                         [Ntot_cliped & clip_method]
  6469680                                [Nglobal_steps]
   7                                     [N_chains]
  42                                     [NEX0s_base = N_base in EX0s-fits]
 0   0   1      200   2.0   6.083E+03    [Clip-Bug, RC-Crash & Burn-In warning-flags, n_censored_weights, wei_nsig_threshold & wei_limit]
    61     60.753     60.032      0.721  [idt_all, wdt_TotTime, wdt_UsrTime & wdt_SysTime (sec)]

## Synthesis Results - Best model ##

 1.21387E-05                             [chi2/Nl_eff]
    26.11594                             [adev (%)]

    98.60098                             [sum-of-x (%)]
 2.69816E-18                             [Flux_tot (units of input spectrum!)]
 1.38076E-13                             [Mini_tot (???)]
 7.07060E-14                             [Mcor_tot (???)]

 293.97                                  [v0_min  (km/s)]
 110.82                                  [vd_min  (km/s)]
-0.9298                                  [AV_min  (mag)]
 0.0000                                  [YAV_min (mag)]

# j     x_j(%)      Mini_j(%)     Mcor_j(%)     age_j(yr)     Z_j      (L/M)_j    YAV?  Mstars   component_j        a/Fe...       SSP_chi2r SSP_adev(%)   SSP_AV   SSP_x(%)
  1      0.0000     0.0000E+00    0.0000E+00    1.000000E+06  0.00400  1.094E-02    0   1.0000   age020_m42            0.0000     1.2803E-05    25.8322   2.5625    87.6733
  2      0.0000     0.0000E+00    0.0000E+00    3.160000E+06  0.00400  4.007E-02    0   0.9999   age045_m42            0.0000     1.2807E-05    26.6353   1.8892    91.5357
  3      0.0000     0.0000E+00    0.0000E+00    5.010000E+06  0.00400  2.539E-02    0   0.9488   age055_m42            0.0000     1.2919E-05    26.3755   2.1907    90.0466
  4      0.1252     9.4725E-05    1.7055E-04    6.610000E+06  0.00400  2.620E-02    0   0.9220   age061_m42            0.0000     1.2896E-05    26.8460   1.8189    91.5815
  5      0.0746     1.1188E-04    1.9362E-04    1.000000E+07  0.00400  1.322E-02    0   0.8862   age070_m42            0.0000     1.3379E-05    28.2289   1.5402    93.4990
  6      0.0099     2.4804E-05    4.1516E-05    1.445000E+07  0.00400  7.883E-03    0   0.8571   age078_m42            0.0000     1.3348E-05    27.8292   1.8536    91.6391
  7      0.0000     0.0000E+00    0.0000E+00    2.512000E+07  0.00400  5.251E-03    0   0.8174   age090_m42            0.0000     1.3499E-05    28.5900   1.4160    93.7838
  8      0.2561     1.3908E-03    2.1324E-03    4.000000E+07  0.00400  3.649E-03    0   0.7851   age104_m42            0.0000     1.3423E-05    28.5869   1.1972    94.2414
  9      0.0000     0.0000E+00    0.0000E+00    5.500000E+07  0.00400  3.098E-03    0   0.7629   age110_m42            0.0000     1.3166E-05    28.0606   1.3533    94.0734
 10      0.0000     0.0000E+00    0.0000E+00    1.015200E+08  0.00400  2.228E-03    0   0.7207   age116_m42            0.0000     1.2988E-05    27.7433   1.3762    94.0993
 11      3.0350     5.5032E-02    7.1444E-02    2.861200E+08  0.00400  1.093E-03    0   0.6648   age125_m42            0.0000     1.3274E-05    28.7175   0.8212    96.1018
 12      0.2037     6.1194E-03    7.6062E-03    5.088000E+08  0.00400  6.597E-04    0   0.6365   age130_m42            0.0000     1.3054E-05    28.1896   0.8231    96.4560
 13      0.0000     0.0000E+00    0.0000E+00    1.434000E+09  0.00400  2.132E-04    0   0.5798   age139_m42            0.0000     1.2907E-05    28.0938  -0.1084    96.9263
 14      0.0055     1.8324E-03    1.9241E-03    4.250000E+09  0.00400  5.895E-05    0   0.5377   age158_m42            0.0000     1.2733E-05    26.8491  -0.5415    92.9082
 15      0.0000     0.0000E+00    0.0000E+00    7.500000E+09  0.00400  3.510E-05    0   0.5212   age171_m42            0.0000     1.2735E-05    26.5653  -0.7228    91.9750
 16      0.0000     0.0000E+00    0.0000E+00    1.300000E+10  0.00400  2.005E-05    0   0.5034   age193_m42            0.0000     1.2751E-05    26.3505  -0.8878    91.4170
 17      0.0000     0.0000E+00    0.0000E+00    1.800000E+10  0.00400  1.525E-05    0   0.4967   age213_m42            0.0000     1.2726E-05    26.3447  -0.9137    91.1272
 18      0.0000     0.0000E+00    0.0000E+00    1.000000E+06  0.00800  1.238E-02    0   1.0000   age020_m52            0.0000     1.2807E-05    25.8018   2.5551    87.9530
 19      0.0000     0.0000E+00    0.0000E+00    3.160000E+06  0.00800  3.074E-02    0   0.9966   age045_m52            0.0000     1.2864E-05    25.8126   2.4848    88.5008
 20      0.0000     0.0000E+00    0.0000E+00    5.010000E+06  0.00800  2.668E-02    0   0.9443   age055_m52            0.0000     1.2968E-05    26.2988   2.2646    89.5570
 21      0.0000     0.0000E+00    0.0000E+00    6.610000E+06  0.00800  2.136E-02    0   0.9177   age061_m52            0.0000     1.3352E-05    27.9291   1.0451    94.4612
 22      0.0000     0.0000E+00    0.0000E+00    1.000000E+07  0.00800  1.215E-02    0   0.8827   age070_m52            0.0000     1.3562E-05    28.5672   1.7102    93.6110
 23      0.0151     3.4336E-05    5.7344E-05    1.445000E+07  0.00800  8.717E-03    0   0.8552   age078_m52            0.0000     1.3374E-05    27.9905   1.8225    92.7858
 24      0.6936     2.4580E-03    3.9178E-03    2.512000E+07  0.00800  5.592E-03    0   0.8162   age090_m52            0.0000     1.3508E-05    28.8167   1.4795    94.8857
 25      0.1480     7.5274E-04    1.1526E-03    4.000000E+07  0.00800  3.896E-03    0   0.7841   age104_m52            0.0000     1.3409E-05    28.7124   1.4013    95.1292
 26      0.0000     0.0000E+00    0.0000E+00    1.015200E+08  0.00800  2.148E-03    0   0.7226   age116_m52            0.0000     1.3189E-05    28.1844   1.3525    94.4272
 27      0.5949     1.1880E-02    1.5504E-02    2.861200E+08  0.00800  9.925E-04    0   0.6683   age125_m52            0.0000     1.2959E-05    28.2115   0.8810    97.6243
 28      0.0000     0.0000E+00    0.0000E+00    9.047900E+08  0.00800  3.141E-04    0   0.6138   age135_m52            0.0000     1.2673E-05    27.8355   0.1197    99.9958
 29      0.0000     4.1731E-06    4.7698E-06    1.434000E+09  0.00800  1.719E-04    0   0.5853   age139_m52            0.0000     1.2707E-05    27.5968  -0.4540    97.7377
 30      0.0000     0.0000E+00    0.0000E+00    2.500000E+09  0.00800  7.872E-05    0   0.5600   age150_m52            0.0000     1.2507E-05    26.5312  -0.7144    94.8868
 31      0.0000     0.0000E+00    0.0000E+00    4.250000E+09  0.00800  4.336E-05    0   0.5426   age158_m52            0.0000     1.2538E-05    26.4441  -0.7259    93.8427
 32      0.0000     0.0000E+00    0.0000E+00    6.250000E+09  0.00800  3.159E-05    0   0.5319   age166_m52            0.0000     1.2529E-05    26.1459  -0.9182    93.4211
 33      0.0000     0.0000E+00    0.0000E+00    1.300000E+10  0.00800  1.361E-05    0   0.5073   age193_m52            0.0000     1.3225E-05    30.7444  -1.0000    83.9102
 34      0.1848     3.7046E-01    3.6099E-01    1.800000E+10  0.00800  9.886E-06    0   0.4990   age213_m52            0.0000     1.3617E-05    31.9828  -1.0000    80.9257
 35      0.0000     0.0000E+00    0.0000E+00    1.000000E+06  0.02000  1.544E-02    0   1.0000   age020_m62            0.0000     1.2825E-05    25.7808   2.5492    88.2450
 36      0.0000     0.0000E+00    0.0000E+00    3.160000E+06  0.02000  3.762E-02    0   0.9858   age045_m62            0.0000     1.2947E-05    25.7494   2.4871    89.0372
 37      0.0000     0.0000E+00    0.0000E+00    5.010000E+06  0.02000  3.296E-02    0   0.9342   age055_m62            0.0000     1.2848E-05    26.3339   2.1509    91.1297
 38      0.0000     0.0000E+00    0.0000E+00    8.710000E+06  0.02000  1.154E-02    0   0.8861   age067_m62            0.0000     1.4735E-05    31.5486   1.1388    97.3238
 39      0.0000     0.0000E+00    0.0000E+00    1.445000E+07  0.02000  7.663E-03    0   0.8472   age078_m62            0.0000     1.3968E-05    29.6404   1.3542    95.7645
 40      0.0000     0.0000E+00    0.0000E+00    2.512000E+07  0.02000  4.532E-03    0   0.8099   age090_m62            0.0000     1.4085E-05    29.9852   1.3525    95.1895
 41      0.0000     0.0000E+00    0.0000E+00    5.500000E+07  0.02000  2.733E-03    0   0.7595   age110_m62            0.0000     1.3408E-05    28.6364   1.3830    94.5595
 42      0.0000     0.0000E+00    0.0000E+00    1.609000E+08  0.02000  1.369E-03    0   0.6985   age120_m62            0.0000     1.3025E-05    28.2069   1.2314    96.6746
 43      0.0000     0.0000E+00    0.0000E+00    2.861200E+08  0.02000  9.013E-04    0   0.6714   age125_m62            0.0000     1.2874E-05    28.1280   0.9911    99.0439
 44      0.0000     0.0000E+00    0.0000E+00    5.088000E+08  0.02000  5.028E-04    0   0.6449   age130_m62            0.0000     1.2637E-05    27.5332   0.6343   100.7056
 45     11.9422     9.7477E-01    1.1762E+00    9.047900E+08  0.02000  2.428E-04    0   0.6179   age135_m62            0.0000     1.2400E-05    27.0843   0.0693    99.1068
 46      0.1872     2.9380E-02    3.3897E-02    1.434000E+09  0.02000  1.263E-04    0   0.5908   age139_m62            0.0000     1.2415E-05    26.7557  -0.3645    97.2477
 47      0.0000     0.0000E+00    0.0000E+00    2.500000E+09  0.02000  5.985E-05    0   0.5673   age150_m62            0.0000     1.2284E-05    26.0150  -0.7321    95.9868
 48      4.9537     3.0013E+00    3.2048E+00    4.250000E+09  0.02000  3.271E-05    0   0.5468   age158_m62            0.0000     1.2227E-05    25.7724  -1.0000    94.1974
 49     21.2859     3.1019E+01    3.1298E+01    1.000000E+10  0.02000  1.360E-05    0   0.5167   age181_m62            0.0000     1.2867E-05    29.8613  -1.0000    85.6021
 50      0.0000     0.0000E+00    0.0000E+00    1.800000E+10  0.02000  7.124E-06    0   0.5013   age213_m62            0.0000     1.3847E-05    32.6675  -1.0000    79.9102
 51      0.0000     0.0000E+00    0.0000E+00    1.000000E+06  0.05000  2.592E-02    0   0.9998   age020_m72            0.0000     1.2886E-05    25.7698   2.5388    88.3589
 52      0.0000     0.0000E+00    0.0000E+00    3.160000E+06  0.05000  4.845E-02    0   0.9577   age045_m72            0.0000     1.2957E-05    25.9096   2.3903    89.4452
 53      0.0000     0.0000E+00    0.0000E+00    5.010000E+06  0.05000  3.072E-02    0   0.9147   age055_m72            0.0000     1.3667E-05    28.2906   1.9171    92.7996
 54      0.0000     0.0000E+00    0.0000E+00    6.610000E+06  0.05000  1.455E-02    0   0.8877   age061_m72            0.0000     1.5892E-05    33.6090   1.1529    98.5725
 55      0.0000     0.0000E+00    0.0000E+00    1.000000E+07  0.05000  9.074E-03    0   0.8524   age070_m72            0.0000     1.3928E-05    28.6099   2.0792    92.7059
 56      0.0000     0.0000E+00    0.0000E+00    2.512000E+07  0.05000  4.250E-03    0   0.7902   age090_m72            0.0000     1.3810E-05    29.0011   1.8203    93.2072
 57      0.0001     4.6897E-07    6.9767E-07    4.000000E+07  0.05000  3.087E-03    0   0.7618   age104_m72            0.0000     1.3845E-05    29.4871   1.6015    94.4419
 58      0.0000     0.0000E+00    0.0000E+00    1.015200E+08  0.05000  1.700E-03    0   0.7096   age116_m72            0.0000     1.3255E-05    28.7052   1.3725    96.2636
 59      0.0000     0.0000E+00    0.0000E+00    2.861200E+08  0.05000  7.384E-04    0   0.6633   age125_m72            0.0000     1.2557E-05    27.7795   0.8632   100.1924
 60     12.7972     6.6410E-01    8.2636E-01    5.088000E+08  0.05000  3.819E-04    0   0.6372   age130_m72            0.0000     1.2235E-05    27.0127   0.3904   100.9669
 61      0.3138     3.7100E-02    4.4267E-02    9.047900E+08  0.05000  1.676E-04    0   0.6110   age135_m72            0.0000     1.2069E-05    25.9576  -0.2880    98.4184
 62     27.4686     6.1603E+00    7.0663E+00    1.434000E+09  0.05000  8.837E-05    0   0.5874   age139_m72            0.0000     1.2198E-05    26.0439  -0.7342    97.3964
 63      0.0106     4.9471E-03    5.4081E-03    2.500000E+09  0.05000  4.233E-05    0   0.5598   age150_m72            0.0000     1.2128E-05    25.7077  -1.0000    95.1104
 64      0.0000     0.0000E+00    0.0000E+00    6.250000E+09  0.05000  1.435E-05    0   0.5249   age166_m72            0.0000     1.3214E-05    31.2945  -1.0000    83.0433
 65      3.6879     1.1222E+01    1.1036E+01    1.300000E+10  0.05000  6.513E-06    0   0.5036   age193_m72            0.0000     1.5054E-05    35.1808  -1.0000    76.9505
 66     10.6075     4.6438E+01    4.4843E+01    1.800000E+10  0.05000  4.527E-06    0   0.4945   age213_m72            0.0000     1.6473E-05    37.3879  -1.0000    72.7851


## Synthesis Results - Average & Chains ##

# j      x_j: min, <> & last-chain-values for 1 ...  7 chains
  1      0.0000      0.3000      1.6924      0.7735      0.0000      0.0863      0.8243      0.1644      0.0000
  2      0.0000      0.2639      0.0000      0.9475      0.0471      0.4786      1.3520      0.3113      0.0081
  3      0.0000      0.2026      0.7245      0.6857      0.6083      0.1053      1.3547      0.4463      0.2164
  4      0.1252      0.2103      1.2859      0.0000      0.3552      0.4141      0.0000      0.0000      1.1489
  5      0.0746      0.2025      0.3913      0.4955      0.0000      0.5582      0.6205      0.0000      0.6036
  6      0.0099      0.2636      0.0000      0.1373      0.0000      0.2715      0.0000      0.4240      1.0340
  7      0.0000      0.3095      0.0744      2.7355      0.4284      0.0065      0.2229      0.0221      1.1584
  8      0.2561      0.2107      0.2217      0.1185      0.2000      0.1744      1.4518      0.7713      0.3665
  9      0.0000      0.2002      0.1228      0.2474      0.2127      0.7234      0.1040      0.0000      0.5170
 10      0.0000      0.2406      0.0356      1.9897      0.3188      0.6717      0.1820      0.0000      0.2247
 11      3.0350      0.2512      0.2835      0.8190      0.0000      0.0000      0.2949      0.6304      1.3042
 12      0.2037     23.3286     18.7524     18.6095     19.9171     20.9236     22.1899     23.3452     20.9425
 13      0.0000      3.6078      4.3554      3.0627      4.6391      2.9721      3.2432      2.6954      3.8561
 14      0.0055      0.1890      0.0519      0.0000      0.2855      0.5347      0.7132      0.0000      0.3208
 15      0.0000      0.1869      0.2295      0.0315      0.0000      0.0000      0.1413      0.0000      0.6774
 16      0.0000      0.1504      0.2954      0.0193      0.0000      0.0000      0.0810      0.0814      0.6041
 17      0.0000      0.2321      0.1133      1.0796      0.0000      0.0000      0.3423      1.9523      0.1341
 18      0.0000      0.2372      0.3213      1.2464      0.3778      0.0000      0.5322      1.0906      0.0000
 19      0.0000      0.3061      0.3606      0.6608      1.2089      0.3670      0.3465      0.5384      0.0000
 20      0.0000      0.2326      0.3587      0.0000      0.3711      0.3947      0.0000      0.1300      0.5885
 21      0.0000      0.1422      0.3224      0.0000      0.8713      0.1091      0.1003      0.0000      0.4510
 22      0.0000      0.2249      0.0000      0.1723      0.1851      0.4197      0.3359      0.8724      0.0181
 23      0.0151      0.2034      0.0000      0.1019      0.0000      0.5095      0.3087      0.3030      0.4708
 24      0.6936      0.2391      0.4548      0.2378      0.4364      0.2608      0.0000      0.2510      0.3388
 25      0.1480      0.2153      0.0000      0.3290      1.2701      0.2312      0.0681      0.0000      0.4043
 26      0.0000      0.2718      0.5669      0.1493      0.3733      0.4179      0.0000      0.0996      0.0000
 27      0.5949      0.1961      0.4034      0.3653      0.5210      0.4607      0.1920      0.8484      0.3137
 28      0.0000      0.2154      0.2505      0.5360      0.3521      1.4143      0.2449      1.0697      0.1998
 29      0.0000      0.2736      1.9095      1.1633      1.5460      0.0000      0.2017      0.0039      1.4820
 30      0.0000      0.2487      0.7455      0.9344      0.0000      0.1902      0.2226      0.0000      0.0000
 31      0.0000      0.1864      0.0000      0.0000      0.4552      0.2836      0.1019      0.0275      0.3224
 32      0.0000      0.1983      0.5341      0.0539      0.9791      0.0000      0.0000      0.0000      0.0000
 33      0.0000      0.2624      0.4412      1.0693      0.2976      0.4349      0.5780      0.0000      1.0116
 34      0.1848     13.7763     10.3544     11.8649      9.7307     11.9834     13.2565     13.1627     11.4425
 35      0.0000      0.1377      0.1103      0.0000      0.0000      0.0000      0.3580      0.3167      0.5164
 36      0.0000      0.2505      0.0000      0.7219      1.0532      0.5052      0.0000      0.2085      0.0055
 37      0.0000      0.2433      1.5951      0.1269      2.0236      0.2995      0.0000      0.2730      0.0000
 38      0.0000      0.2046      0.4546      0.1984      0.8725      1.2116      0.1208      0.0000      0.2269
 39      0.0000      0.2189      0.0000      1.3602      0.1434      0.0738      0.0000      0.0000      0.8908
 40      0.0000      0.2238      0.0000      0.0000      0.6457      0.2779      0.0664      1.4570      0.2319
 41      0.0000      0.2975      0.6289      1.3168      0.3608      1.4094      0.0000      1.2764      0.2798
 42      0.0000      0.2169      0.0000      0.1831      0.0000      0.0000      0.6476      0.2090      0.9813
 43      0.0000      0.1905      1.0588      0.4229      0.2888      0.0000      0.6355      0.3903      0.2277
 44      0.0000      0.2501      0.1479      0.0000      0.3544      0.5233      0.6075      0.6575      0.1388
 45     11.9422      0.2099      0.6964      0.1779      0.9607      1.3735      0.3246      0.2363      0.7345
 46      0.1872      0.3164      0.9595      0.0000      0.5430      0.0000      0.6368      0.5137      0.9208
 47      0.0000      0.2825      1.6975      0.0000      0.4199      0.2095      0.3361      0.7548      0.0323
 48      4.9537      0.3142      0.5642      1.3399      1.0508      0.3364      0.5529      0.8366      0.5090
 49     21.2859     26.6938     21.5053     21.9034     23.6109     22.9276     24.3449     23.2852     21.7264
 50      0.0000     13.6896     12.6076     12.1348     12.2459     12.5709     12.3849     13.3142     10.9438
 51      0.0000      0.2339      1.0039      0.2670      0.9665      0.1058      0.5676      0.0975      0.0000
 52      0.0000      0.1550      0.0000      0.1528      0.2147      0.3786      1.3431      0.0000      0.2549
 53      0.0000      0.2663      2.7163      0.1570      0.0000      0.6822      0.3610      0.0000      0.0000
 54      0.0000      0.1848      0.1039      1.0341      0.2724      0.4322      0.3583      0.0000      0.4040
 55      0.0000      0.3093      0.6240      0.2674      0.0760      1.7053      0.0000      1.2094      0.9551
 56      0.0000      0.2241      0.0000      0.9485      0.3102      1.0983      0.3216      0.1975      0.0000
 57      0.0001      0.2661      0.0830      0.1918      0.0321      1.1513      0.0000      0.0000      1.2474
 58      0.0000      0.2816      1.3458      0.5137      1.0280      0.7643      0.0000      0.3484      0.9283
 59      0.0000      0.1934      0.5052      0.2156      0.2405      0.4301      0.0000      1.4843      0.1622
 60     12.7972      0.1494      0.5074      0.4129      0.0398      0.0959      0.9683      0.2711      0.5156
 61      0.3138      0.3098      0.0000      0.7961      1.1306      0.6697      0.3305      0.5330      0.6555
 62     27.4686      0.2846      0.1521      0.1376      0.0000      0.9671      0.1896      0.5807      0.8334
 63      0.0106      0.7197      1.0591      0.6497      0.8315      0.9735      0.0000      0.0027      0.7103
 64      0.0000      3.3044      2.8948      2.5416      3.2584      2.1348      3.8020      3.3344      3.7818
 65      3.6879      6.3565      6.3896      5.9916      4.9243      6.5451      6.1871      4.1102      4.4246
 66     10.6075      1.2248      0.8599      0.6464      1.6738      0.9823      0.9184      0.8872      2.1113

# j      m_j: min, <> & last-chain-values for 1 ...  7 chains
  1  0.0000E+00  7.8127E-04  5.0644E-03  2.3057E-03  0.0000E+00  2.5076E-04  2.2942E-03  4.7626E-04  0.0000E+00
  2  0.0000E+00  1.8757E-04  0.0000E+00  7.7103E-04  3.8507E-05  3.7966E-04  1.0273E-03  2.4610E-04  6.6680E-06
  3  0.0000E+00  2.1563E-04  8.8627E-04  8.3552E-04  7.4499E-04  1.2504E-04  1.5414E-03  5.2844E-04  2.6677E-04
  4  1.7055E-04  2.1086E-04  1.4815E-03  0.0000E+00  4.0963E-04  4.6326E-04  0.0000E+00  0.0000E+00  1.3335E-03
  5  1.9362E-04  3.8665E-04  8.5867E-04  1.0832E-03  0.0000E+00  1.1894E-03  1.2665E-03  0.0000E+00  1.3347E-03
  6  4.1516E-05  8.1642E-04  0.0000E+00  4.8664E-04  0.0000E+00  9.3852E-04  0.0000E+00  1.4607E-03  3.7085E-03
  7  0.0000E+00  1.3726E-03  3.7897E-04  1.3886E-02  2.1855E-03  3.2024E-05  1.0564E-03  1.0914E-04  5.9480E-03
  8  2.1324E-03  1.2915E-03  1.5612E-03  8.3149E-04  1.4103E-03  1.1929E-03  9.5115E-03  5.2582E-03  2.6011E-03
  9  0.0000E+00  1.4041E-03  9.8988E-04  1.9868E-03  1.7169E-03  5.6625E-03  7.8013E-04  0.0000E+00  4.1998E-03
 10  0.0000E+00  2.2170E-03  3.7688E-04  2.0988E-02  3.3796E-03  6.9067E-03  1.7922E-03  0.0000E+00  2.3972E-03
 11  7.1444E-02  4.3522E-03  5.6446E-03  1.6244E-02  0.0000E+00  0.0000E+00  5.4617E-03  1.2149E-02  2.6164E-02
 12  7.6062E-03  6.4116E-01  5.9232E-01  5.8549E-01  6.2982E-01  6.4172E-01  6.5192E-01  7.1369E-01  6.6649E-01
 13  0.0000E+00  2.7949E-01  3.8776E-01  2.7160E-01  4.1349E-01  2.5693E-01  2.6857E-01  2.3226E-01  3.4590E-01
 14  1.9241E-03  4.9116E-02  1.5502E-02  0.0000E+00  8.5357E-02  1.5505E-01  1.9809E-01  0.0000E+00  9.6522E-02
 15  0.0000E+00  7.9058E-02  1.1154E-01  1.5238E-02  0.0000E+00  0.0000E+00  6.3873E-02  0.0000E+00  3.3176E-01
 16  0.0000E+00  1.0760E-01  2.4280E-01  1.5836E-02  0.0000E+00  0.0000E+00  6.1911E-02  6.4741E-02  5.0032E-01
 17  0.0000E+00  2.1532E-01  1.2078E-01  1.1466E+00  0.0000E+00  0.0000E+00  3.3951E-01  2.0148E+00  1.4409E-01
 18  0.0000E+00  5.4584E-04  8.4967E-04  3.2830E-03  1.0001E-03  0.0000E+00  1.3089E-03  2.7912E-03  0.0000E+00
 19  0.0000E+00  2.8270E-04  3.8277E-04  6.9861E-04  1.2846E-03  3.7817E-04  3.4202E-04  5.5309E-04  0.0000E+00
 20  0.0000E+00  2.3448E-04  4.1561E-04  0.0000E+00  4.3046E-04  4.4405E-04  0.0000E+00  1.4574E-04  6.8703E-04
 21  0.0000E+00  1.7400E-04  4.5343E-04  0.0000E+00  1.2268E-03  1.4904E-04  1.3127E-04  0.0000E+00  6.3916E-04
 22  0.0000E+00  4.6536E-04  0.0000E+00  4.0829E-04  4.4077E-04  9.6933E-04  7.4311E-04  2.0082E-03  4.3256E-05
 23  5.7344E-05  5.6840E-04  0.0000E+00  3.2590E-04  0.0000E+00  1.5890E-03  9.2223E-04  9.4195E-04  1.5234E-03
 24  3.9178E-03  9.9420E-04  2.1730E-03  1.1317E-03  2.0878E-03  1.2100E-03  0.0000E+00  1.1609E-03  1.6309E-03
 25  1.1526E-03  1.2345E-03  0.0000E+00  2.1593E-03  8.3779E-03  1.4790E-03  4.1756E-04  0.0000E+00  2.6841E-03
 26  0.0000E+00  2.6047E-03  6.2429E-03  1.6380E-03  4.1157E-03  4.4694E-03  0.0000E+00  1.0614E-03  0.0000E+00
 27  1.5504E-02  3.7612E-03  8.8933E-03  8.0204E-03  1.1499E-02  9.8618E-03  3.9360E-03  1.8101E-02  6.9681E-03
 28  0.0000E+00  1.1992E-02  1.6024E-02  3.4153E-02  2.2548E-02  8.7854E-02  1.4572E-02  6.6232E-02  1.2881E-02
 29  4.7698E-06  2.6534E-02  2.1285E-01  1.2916E-01  1.7252E-01  0.0000E+00  2.0907E-02  4.2244E-04  1.6644E-01
 30  0.0000E+00  5.0403E-02  1.7363E-01  2.1676E-01  0.0000E+00  4.3018E-02  4.8221E-02  0.0000E+00  0.0000E+00
 31  0.0000E+00  6.6438E-02  0.0000E+00  0.0000E+00  1.8668E-01  1.1282E-01  3.8827E-02  1.0921E-02  1.3306E-01
 32  0.0000E+00  9.5134E-02  2.9439E-01  2.9598E-02  5.4029E-01  0.0000E+00  0.0000E+00  0.0000E+00  0.0000E+00
 33  0.0000E+00  2.7866E-01  5.3834E-01  1.2997E+00  3.6358E-01  5.1535E-01  6.5599E-01  0.0000E+00  1.2438E+00
 34  3.6099E-01  1.9808E+01  1.7110E+01  1.9529E+01  1.6098E+01  1.9227E+01  2.0375E+01  2.1052E+01  1.9051E+01
 35  0.0000E+00  2.5405E-04  2.3396E-04  0.0000E+00  0.0000E+00  0.0000E+00  7.0612E-04  6.4987E-04  1.1032E-03
 36  0.0000E+00  1.8698E-04  0.0000E+00  6.1689E-04  9.0456E-04  4.2084E-04  0.0000E+00  1.7314E-04  4.7453E-06
 37  0.0000E+00  1.9646E-04  1.4800E-03  1.1731E-04  1.8798E-03  2.6984E-04  0.0000E+00  2.4517E-04  0.0000E+00
 38  0.0000E+00  4.4743E-04  1.1427E-03  4.9678E-04  2.1957E-03  2.9573E-03  2.8245E-04  0.0000E+00  5.7465E-04
 39  0.0000E+00  6.8950E-04  0.0000E+00  4.9036E-03  5.1963E-04  2.5950E-04  0.0000E+00  0.0000E+00  3.2484E-03
 40  0.0000E+00  1.1393E-03  0.0000E+00  0.0000E+00  3.7822E-03  1.5787E-03  3.6158E-04  8.2500E-03  1.3668E-03
 41  0.0000E+00  2.3554E-03  5.7218E-03  1.1933E-02  3.2864E-03  1.2450E-02  0.0000E+00  1.1239E-02  2.5646E-03
 42  0.0000E+00  3.1529E-03  0.0000E+00  3.0464E-03  0.0000E+00  0.0000E+00  1.0062E-02  3.3782E-03  1.6516E-02
 43  0.0000E+00  4.0424E-03  2.5822E-02  1.0274E-02  7.0517E-03  0.0000E+00  1.4414E-02  9.2116E-03  5.5938E-03
 44  0.0000E+00  9.1390E-03  6.2120E-03  0.0000E+00  1.4900E-02  2.1335E-02  2.3727E-02  2.6723E-02  5.8732E-03
 45  1.1762E+00  1.5217E-02  5.8019E-02  1.4767E-02  8.0126E-02  1.1111E-01  2.5158E-02  1.9051E-02  6.1659E-02
 46  3.3897E-02  4.2160E-02  1.4694E-01  0.0000E+00  8.3251E-02  0.0000E+00  9.0709E-02  7.6143E-02  1.4207E-01
 47  0.0000E+00  7.6290E-02  5.2676E-01  0.0000E+00  1.3044E-01  6.3109E-02  9.7021E-02  2.2669E-01  1.0090E-02
 48  3.2048E+00  1.4962E-01  3.0878E-01  7.3041E-01  5.7573E-01  1.7875E-01  2.8143E-01  4.4314E-01  2.8068E-01
 49  3.1298E+01  2.8889E+01  2.6748E+01  2.7136E+01  2.9400E+01  2.7690E+01  2.8164E+01  2.8031E+01  2.7227E+01
 50  0.0000E+00  2.7441E+01  2.9044E+01  2.7845E+01  2.8242E+01  2.8119E+01  2.6537E+01  2.9686E+01  2.5401E+01
 51  0.0000E+00  2.5700E-04  1.2677E-03  3.3578E-04  1.2218E-03  1.2971E-04  6.6666E-04  1.1919E-04  0.0000E+00
 52  0.0000E+00  8.7259E-05  0.0000E+00  9.8518E-05  1.3907E-04  2.3790E-04  8.0841E-04  0.0000E+00  1.6623E-04
 53  0.0000E+00  2.2590E-04  2.6478E-03  1.5242E-04  0.0000E+00  6.4571E-04  3.2729E-04  0.0000E+00  0.0000E+00
 54  0.0000E+00  3.2120E-04  2.0756E-04  2.0572E-03  5.4464E-04  8.3819E-04  6.6557E-04  0.0000E+00  8.1297E-04
 55  0.0000E+00  8.2773E-04  1.9191E-03  8.1919E-04  2.3386E-04  5.0921E-03  0.0000E+00  3.5999E-03  2.9593E-03
 56  0.0000E+00  1.1869E-03  0.0000E+00  5.7508E-03  1.8902E-03  6.4912E-03  1.8210E-03  1.1633E-03  0.0000E+00
 57  6.9767E-07  1.8706E-03  6.7072E-04  1.5430E-03  2.5978E-04  9.0316E-03  0.0000E+00  0.0000E+00  1.0153E-02
 58  0.0000E+00  3.3485E-03  1.8390E-02  6.9924E-03  1.4064E-02  1.0141E-02  0.0000E+00  4.6077E-03  1.2781E-02
 59  0.0000E+00  4.9478E-03  1.4857E-02  6.3161E-03  7.0793E-03  1.2280E-02  0.0000E+00  4.2247E-02  4.8050E-03
 60  8.2636E-01  7.1024E-03  2.7715E-02  2.2464E-02  2.1765E-03  5.0838E-03  4.9194E-02  1.4331E-02  2.8375E-02
 61  4.4267E-02  3.2168E-02  0.0000E+00  9.4644E-02  1.3509E-01  7.7611E-02  3.6691E-02  6.1566E-02  7.8819E-02
 62  7.0663E+00  5.3893E-02  3.3090E-02  2.9818E-02  0.0000E+00  2.0434E-01  3.8377E-02  1.2231E-01  1.8271E-01
 63  5.4081E-03  2.7113E-01  4.5854E-01  2.8019E-01  3.6040E-01  4.0924E-01  0.0000E+00  1.1104E-03  3.0984E-01
 64  0.0000E+00  3.4431E+00  3.4665E+00  3.0315E+00  3.9063E+00  2.4822E+00  4.2347E+00  3.8645E+00  4.5629E+00
 65  1.1036E+01  1.4001E+01  1.6174E+01  1.5107E+01  1.2479E+01  1.6087E+01  1.4567E+01  1.0070E+01  1.1285E+01
 66  4.4843E+01  3.8110E+00  3.0750E+00  2.3026E+00  5.9925E+00  3.4108E+00  3.0549E+00  3.0707E+00  7.6071E+00

# AV, chi2 & Mass for <> & i_chain = 1 ...  7 solutions
AV      -0.9298     -0.9948     -1.0000     -1.0000     -1.0000     -1.0000     -1.0000     -1.0000     -1.0000
chi2 1.2139E-05  1.3348E-05  1.2931E-05  1.2924E-05  1.2881E-05  1.2958E-05  1.3029E-05  1.2948E-05  1.2878E-05
Mass 7.0706E-14  8.8039E-14  7.6067E-14  7.6367E-14  7.5981E-14  7.8340E-14  8.1782E-14  7.8592E-14  7.5497E-14
 293.97                                  [v0_min (km/s) before EX0s...]
 110.82                                  [vd_min (km/s) before EX0s...]


## Synthetic spectrum (Best Model) ##l_obs f_obs f_syn wei
 3478    [Nl_obs]
 3741.00   -0.47096   0.39574    0.000
 3742.00   -1.03948   0.45570    0.000
 3743.00   -2.99029   0.51060    0.000
 3744.00   -3.68536   0.54330    0.000
 3745.00   -3.64880   0.54535    0.000
 3746.00   -2.27506   0.52198    0.000
 3747.00   -0.22229   0.48648    0.000
 3748.00    0.48397   0.45007   -1.000
 3749.00    0.59814   0.41697   -1.000
 3750.00   -0.34094   0.38555    0.000
 3751.00   -1.67766   0.35524    0.000
 3752.00   -1.92798   0.33405    0.000
 3753.00   -1.83014   0.33659    0.000
 3754.00   -1.62802   0.37066    0.000
 3755.00   -1.39797   0.42856    0.000
 3756.00   -2.00941   0.49420    0.000
 3757.00   -2.80554   0.55330    0.000
 3758.00   -2.92662   0.59302    0.000
 3759.00   -2.92985   0.60036    0.000
 3760.00   -2.27034   0.57216    0.000
 3761.00   -1.52279   0.52596    0.000
 3762.00   -0.80935   0.49058    0.000
 3763.00   -0.09910   0.48279    0.000
 3764.00   -0.65583   0.49657    0.000
 3765.00   -1.28565   0.51443    0.000
 3766.00   -1.63428   0.52503    0.000
 3767.00   -1.96582   0.52791    0.000
 3768.00   -1.03377   0.52486    0.000
 3769.00   -0.14060   0.51540    0.000
 3770.00   -0.19174   0.50190    0.000
 3771.00   -0.25715   0.49119    0.000
 3772.00   -0.50960   0.48779    0.000
 3773.00   -0.75962   0.49202    0.000
 3774.00   -0.98823   0.50503    0.000
 3775.00   -1.17287   0.52812    0.000
 3776.00   -1.07236   0.55636    0.000
 3777.00   -0.99632   0.58006    0.000
 3778.00   -1.04415   0.59487    0.000
 3779.00   -0.88032   0.60553    0.000
 3780.00    0.14984   0.61882   -1.000
 3781.00    0.58417   0.63778   -1.000
 3782.00   -1.00232   0.66158    0.000
 3783.00   -1.91035   0.68612    0.000
 3784.00   -0.87797   0.70580    0.000
 3785.00   -0.45288   0.71771    0.000
 3786.00   -1.51156   0.72259    0.000
 3787.00   -2.36257   0.71845    0.000
 3788.00   -2.77587   0.69793    0.000
 3789.00   -2.61752   0.65840    0.000
 3790.00   -1.41210   0.60998    0.000
 3791.00   -0.36372   0.56877    0.000
 3792.00    0.43325   0.54496   -1.000
 3793.00    0.71149   0.53891   -1.000
 3794.00    0.26112   0.54323   -1.000
 3795.00   -0.37979   0.54578    0.000
 3796.00   -1.25620   0.53585    0.000
 3797.00   -1.58067   0.51188    0.000
 3798.00   -1.30379   0.48135    0.000
 3799.00   -0.82126   0.45154    0.000
 3800.00   -0.14111   0.42538    0.000
 3801.00    0.49098   0.40779   -1.000
 3802.00    1.08235   0.40900   -1.000
 3803.00    0.81949   0.43613   -1.000
 3804.00   -0.08079   0.48448    0.000
 3805.00   -0.89329   0.54048    0.000
 3806.00   -1.64825   0.59032    0.000
 3807.00   -0.44020   0.62431    0.000
 3808.00    1.89432   0.63739   -1.000
 3809.00    1.56594   0.63234   -1.000
 3810.00   -0.09338   0.62237    0.000
 3811.00   -0.43149   0.62377    0.000
 3812.00   -0.19825   0.64239    0.000
 3813.00   -0.14105   0.66803    0.000
 3814.00   -0.14913   0.68217    0.000
 3815.00   -0.87210   0.67160    0.000
 3816.00   -1.81979   0.63742    0.000
 3817.00   -1.83982   0.59344    0.000
 3818.00   -1.61650   0.55755    0.000
 3819.00   -1.26857   0.54212    0.000
 3820.00   -0.89396   0.54592    0.000
 3821.00   -0.94284   0.55428    0.000
 3822.00   -1.06360   0.55133    0.000
 3823.00   -0.48449   0.53568    0.000
 3824.00    0.18442   0.52085   -1.000
 3825.00   -0.38103   0.51709    0.000
 3826.00   -1.05728   0.51734    0.000
 3827.00   -1.96404   0.50702    0.000
 3828.00   -2.88319   0.48302    0.000
 3829.00   -2.14964   0.45670    0.000
 3830.00   -1.38380   0.44010    0.000
 3831.00   -0.68774   0.43524    0.000
 3832.00   -0.02040   0.43618    0.000
 3833.00    0.00902   0.43475   -1.000
 3834.00    0.03260   0.42364   -1.000
 3835.00   -0.01643   0.40035    0.000
 3836.00   -0.09136   0.37062    0.000
 3837.00   -0.38512   0.34601    0.000
 3838.00   -0.57373   0.33563    0.000
 3839.00   -0.10078   0.33935    0.000
 3840.00    0.26079   0.34979   -1.000
 3841.00    0.07277   0.36031   -1.000
 3842.00   -0.32552   0.37072    0.000
 3843.00   -1.56550   0.38726    0.000
 3844.00   -2.29979   0.41668    0.000
 3845.00   -1.35286   0.45857    0.000
 3846.00   -0.62455   0.50415    0.000
 3847.00   -0.51019   0.54209    0.000
 3848.00   -0.19427   0.56688    0.000
 3849.00    0.60576   0.58166    0.000
 3850.00    0.98390   0.59147    0.000
 3851.00    0.48711   0.59637    0.000
 3852.00    0.06287   0.59463    0.000
 3853.00   -0.23051   0.59017    0.000
 3854.00   -0.29710   0.59131    0.000
 3855.00   -0.00604   0.60076    0.000
 3856.00    0.37288   0.61086    0.000
 3857.00    0.87345   0.61171    0.000
 3858.00    0.90716   0.60189    0.000
 3859.00    0.37204   0.58761    0.000
 3860.00   -0.09595   0.57313    0.000
 3861.00   -0.49184   0.55807    0.000
 3862.00   -0.58180   0.54373    0.000
 3863.00   -0.38191   0.53786    0.000
 3864.00   -0.12063   0.54998    0.000
 3865.00    0.19193   0.57978    0.000
 3866.00   -0.07649   0.61356    0.000
 3867.00   -0.77222   0.63581    0.000
 3868.00   -1.12149   0.64167    0.000
 3869.00   -1.24698   0.63739    0.000
 3870.00   -0.61485   0.63136    0.000
 3871.00    0.44545   0.62648    0.000
 3872.00    1.01266   0.61899    0.000
 3873.00    1.33731   0.60363    0.000
 3874.00    1.11360   0.58070    0.000
 3875.00    0.65671   0.55924    0.000
 3876.00    0.23055   0.55238    0.000
 3877.00   -0.18441   0.56598    0.000
 3878.00   -0.50029   0.59083    0.000
 3879.00   -0.78563   0.60711    0.000
 3880.00   -0.30932   0.60086    0.000
 3881.00    0.36251   0.57731   -1.000
 3882.00    0.41019   0.55427   -1.000
 3883.00    0.32737   0.54322   -1.000
 3884.00    0.60585   0.54107   -1.000
 3885.00    0.94390   0.53896   -1.000
 3886.00    0.87384   0.53395   -1.000
 3887.00    0.75324   0.52627   -1.000
 3888.00    0.11147   0.51093   -1.000
 3889.00   -0.57491   0.48310    0.000
 3890.00   -0.24839   0.44927    0.000
 3891.00    0.12861   0.42520   -1.000
 3892.00    0.32696   0.42288   -1.000
 3893.00    0.51090   0.44439   -1.000
 3894.00   -0.04711   0.48469    0.000
 3895.00   -0.59368   0.53202    0.000
 3896.00   -0.90652   0.57094    0.000
 3897.00   -1.12101   0.59253    0.000
 3898.00   -0.17242   0.60044    0.000
 3899.00    0.63042   0.60504   -1.000
 3900.00    0.24591   0.61228   -1.000
 3901.00   -0.03520   0.62047    0.000
 3902.00    0.31523   0.62653   -1.000
 3903.00    0.62946   0.63274   -1.000
 3904.00    0.76952   0.64303   -1.000
 3905.00    0.81316   0.65405   -1.000
 3906.00    0.47925   0.65719   -1.000
 3907.00    0.12884   0.64839   -1.000
 3908.00   -0.27532   0.63453    0.000
 3909.00   -0.56671   0.62769    0.000
 3910.00   -0.54714   0.63665    0.000
 3911.00   -0.41498   0.66396    0.000
 3912.00   -0.01697   0.70170    0.000
 3913.00    0.24023   0.73578   -1.000
 3914.00    0.21004   0.75791   -1.000
 3915.00    0.32471   0.76774   -1.000
 3916.00    0.69666   0.76774   -1.000
 3917.00    0.95315   0.76024   -1.000
 3918.00    1.03023   0.74788   -1.000
 3919.00    0.76756   0.73360   -1.000
 3920.00    0.04130   0.71789   -1.000
 3921.00   -0.14363   0.69918    0.000
 3922.00    0.32171   0.67730   -1.000
 3923.00    0.45758   0.65383   -1.000
 3924.00    0.24451   0.63363   -1.000
 3925.00    0.34609   0.62334   -1.000
 3926.00    0.74160   0.62437   -1.000
 3927.00    0.36632   0.62934   -1.000
 3928.00   -0.64375   0.62678    0.000
 3929.00   -0.75995   0.60857    0.000
 3930.00   -0.22816   0.57319    0.000
 3931.00    0.17647   0.52547   -1.000
 3932.00    0.50018   0.47183   -1.000
 3933.00    0.89119   0.41696   -1.000
 3934.00    1.31964   0.36412   -1.000
 3935.00    1.05368   0.31578   -1.000
 3936.00    0.45156   0.27652   -1.000
 3937.00    0.25511   0.25396   -1.000
 3938.00    0.22827   0.25543   -1.000
 3939.00    0.44471   0.28299   -1.000
 3940.00    0.74819   0.33121   -1.000
 3941.00    0.60322   0.39015   -1.000
 3942.00    0.32270   0.44940   -1.000
 3943.00    0.03393   0.50029   -1.000
 3944.00   -0.25692   0.53650    0.000
 3945.00   -0.20571   0.55586    0.000
 3946.00   -0.08474   0.56350    0.000
 3947.00    0.42313   0.57088   -1.000
 3948.00    0.99296   0.58831   -1.000
 3949.00    0.97303   0.61714   -1.000
 3950.00    0.88270   0.64763   -1.000
 3951.00    0.64149   0.66864   -1.000
 3952.00    0.38799   0.68048   -1.000
 3953.00    0.58733   0.69153   -1.000
 3954.00    0.80748   0.70387   -1.000
 3955.00    0.76566   0.71265   -1.000
 3956.00    0.72732   0.71659   -1.000
 3957.00    1.04434   0.71922   -1.000
 3958.00    1.34743   0.72013   -1.000
 3959.00    1.38676   0.71312   -1.000
 3960.00    1.39154   0.69786    0.000
 3961.00    1.00693   0.68323    0.000
 3962.00    0.65645   0.67153    0.000
 3963.00    0.57424   0.65120    0.000
 3964.00    0.45802   0.61164    0.000
 3965.00    0.14005   0.55740    0.000
 3966.00   -0.07708   0.50359    0.000
 3967.00    0.17932   0.45871    0.000
 3968.00    0.46403   0.41694    0.000
 3969.00    0.85722   0.36913    0.000
 3970.00    0.98214   0.31526    0.000
 3971.00    0.24954   0.26555    0.000
 3972.00   -0.09527   0.23353    0.000
 3973.00    0.61018   0.22854    0.000
 3974.00    1.10774   0.25145    0.000
 3975.00    1.12258   0.29550    0.000
 3976.00    0.88210   0.35100    0.000
 3977.00    0.12881   0.41018    0.000
 3978.00   -0.16560   0.46894    0.000
 3979.00    0.34268   0.52533    0.000
 3980.00    0.80637   0.57821    0.000
 3981.00    1.20181   0.62796   -1.000
 3982.00    1.31953   0.67454   -1.000
 3983.00    1.06375   0.71341   -1.000
 3984.00    0.80529   0.73783   -1.000
 3985.00    0.54365   0.74613   -1.000
 3986.00    0.38050   0.74580   -1.000
 3987.00    0.32020   0.74813   -1.000
 3988.00    0.03943   0.75860   -1.000
 3989.00   -0.44442   0.77538    0.000
 3990.00   -0.28975   0.79387    0.000
 3991.00    0.38332   0.81019   -1.000
 3992.00    0.91748   0.82210   -1.000
 3993.00    1.35240   0.82848   -1.000
 3994.00    1.50346   0.83309   -1.000
 3995.00    1.47656   0.84193   -1.000
 3996.00    1.33106   0.85338   -1.000
 3997.00    1.12056   0.85905   -1.000
 3998.00    1.27237   0.85258   -1.000
 3999.00    1.59676   0.83575   -1.000
 4000.00    1.57218   0.81811   -1.000
 4001.00    1.40418   0.81189   -1.000
 4002.00    1.14214   0.82500   -1.000
 4003.00    0.84706   0.85433   -1.000
 4004.00    0.58128   0.88593   -1.000
 4005.00    0.32419   0.90569   -1.000
 4006.00    0.35697   0.90716   -1.000
 4007.00    0.46096   0.88876   -1.000
 4008.00    0.72609   0.85475   -1.000
 4009.00    1.02326   0.82199   -1.000
 4010.00    1.17831   0.81275   -1.000
 4011.00    1.31128   0.83285   -1.000
 4012.00    0.99009   0.86629   -1.000
 4013.00    0.61667   0.89439   -1.000
 4014.00    0.88401   0.91050   -1.000
 4015.00    1.20090   0.91786   -1.000
 4016.00    1.00000   0.92192   -1.000
 4017.00    0.77730   0.92664   -1.000
 4018.00    0.85866   0.93242   -1.000
 4019.00    0.94128   0.93720   -1.000
 4020.00    0.95746   0.93922   -1.000
 4021.00    0.96575   0.94017   -1.000
 4022.00    0.83477   0.94522   -1.000
 4023.00    0.74024   0.95388   -1.000
 4024.00    1.03784   0.95730   -1.000
 4025.00    1.30116   0.95026   -1.000
 4026.00    1.30429   0.93657   -1.000
 4027.00    1.28806   0.92328   -1.000
 4028.00    1.16013   0.91712   -1.000
 4029.00    1.03648   0.92403   -1.000
 4030.00    0.93250   0.94207   -1.000
 4031.00    0.86540   0.95637   -1.000
 4032.00    0.93661   0.94909   -1.000
 4033.00    0.95566   0.91285   -1.000
 4034.00    0.81115   0.85692   -1.000
 4035.00    0.78073   0.80438   -1.000
 4036.00    1.05383   0.77490   -1.000
 4037.00    1.27056   0.77411   -1.000
 4038.00    1.35859   0.80023   -1.000
 4039.00    1.43405   0.84689   -1.000
 4040.00    1.48468   0.90197   -1.000
 4041.00    1.43209   0.94906   -1.000
 4042.00    1.20167   0.97420   -1.000
 4043.00    1.15201   0.97530   -1.000
 4044.00    1.37506   0.96174   -1.000
 4045.00    1.38870   0.94324   -1.000
 4046.00    1.12476   0.91839   -1.000
 4047.00    0.85788   0.87675   -1.000
 4048.00    0.58756   0.81987   -1.000
 4049.00    0.48738   0.77301   -1.000
 4050.00    0.56236   0.76630   -1.000
 4051.00    0.61534   0.80487   -1.000
 4052.00    0.64835   0.86296   -1.000
 4053.00    1.09556   0.91159   -1.000
 4054.00    1.87427   0.93862   -1.000
 4055.00    2.01569   0.94293   -1.000
 4056.00    1.70836   0.92884   -1.000
 4057.00    1.32281   0.90528   -1.000
 4058.00    0.88894   0.88083   -1.000
 4059.00    0.76397   0.86105   -1.000
 4060.00    0.80567   0.84811   -1.000
 4061.00    0.82371   0.84177   -1.000
 4062.00    0.83065   0.84509   -1.000
 4063.00    0.88474   0.85840   -1.000
 4064.00    0.95787   0.86843   -1.000
 4065.00    0.99290   0.85767   -1.000
 4066.00    1.01480   0.82434   -1.000
 4067.00    0.89415   0.78865   -1.000
 4068.00    0.73210   0.77617   -1.000
 4069.00    0.78976   0.79203   -1.000
 4070.00    0.90019   0.81984   -1.000
 4071.00    0.84902   0.84687   -1.000
 4072.00    0.76655   0.86945   -1.000
 4073.00    0.68891   0.87960   -1.000
 4074.00    0.61200   0.86942   -1.000
 4075.00    0.56075   0.84788    0.059
 4076.00    0.51234   0.83671    0.028
 4077.00    0.81381   0.84222    0.026
 4078.00    1.14090   0.84501    0.026
 4079.00    0.68384   0.82689    0.026
 4080.00    0.19676   0.79273    0.026
 4081.00    0.38726   0.76679    0.026
 4082.00    0.57982   0.77265    0.026
 4083.00    0.70885   0.81158    0.025
 4084.00    0.80347   0.86315    0.025
 4085.00    0.33126   0.90207    0.025
 4086.00   -0.09256   0.91331    0.000
 4087.00   -0.01843   0.90177    0.000
 4088.00    0.04569   0.88609    0.026
 4089.00    0.03634   0.88265    0.026
 4090.00    0.11864   0.89756    0.026
 4091.00    0.71513   0.92483    0.027
 4092.00    1.18047   0.94990    0.000
 4093.00    1.05890   0.95995    0.000
 4094.00    0.82604   0.95308    0.000
 4095.00    0.18447   0.93652    0.000
 4096.00   -0.20652   0.91762    0.000
 4097.00    0.17313   0.89849    0.000
 4098.00    0.50759   0.87402    0.000
 4099.00    0.72391   0.83959    0.000
 4100.00    0.95877   0.80128    0.000
 4101.00    1.23527   0.76683    0.000
 4102.00    1.38026   0.73497    0.000
 4103.00    1.26937   0.69960    0.000
 4104.00    0.66007   0.66007    0.000
 4105.00   -0.79492   0.62872    0.000
 4106.00   -1.36203   0.62403    0.000
 4107.00   -0.60932   0.65148    0.000
 4108.00    0.11284   0.69938    0.000
 4109.00    0.79509   0.75125    0.000
 4110.00    0.60835   0.79323    0.000
 4111.00   -0.57863   0.81730    0.000
 4112.00   -0.88561   0.82414    0.000
 4113.00   -0.29930   0.82045    0.000
 4114.00    0.15136   0.81604    0.036
 4115.00    0.48057   0.81977    0.117
 4116.00    0.67094   0.83502   -1.000
 4117.00    0.75177   0.85886   -1.000
 4118.00    0.80377   0.88362   -1.000
 4119.00    0.83578   0.90115   -1.000
 4120.00    1.01112   0.90589   -1.000
 4121.00    1.27367   0.89591   -1.000
 4122.00    1.19656   0.87648    0.077
 4123.00    0.93900   0.85993    0.031
 4124.00    0.78118   0.85432    0.026
 4125.00    0.66936   0.85665    0.026
 4126.00    1.07147   0.86220    0.026
 4127.00    1.67766   0.87069    0.025
 4128.00    1.36064   0.88160    0.024
 4129.00    0.73116   0.88872    0.024
 4130.00    0.74869   0.88510    0.024
 4131.00    0.95031   0.87126    0.024
 4132.00    0.87665   0.85352    0.024
 4133.00    0.73837   0.83682    0.024
 4134.00    0.98124   0.82029    0.024
 4135.00    1.29606   0.80235    0.024
 4136.00    1.19154   0.78843    0.024
 4137.00    1.02579   0.78931    0.024
 4138.00    0.34436   0.80969    0.024
 4139.00   -0.39186   0.84444    0.000
 4140.00    0.04848   0.88108    0.024
 4141.00    0.57021   0.90907    0.024
 4142.00    0.89126   0.92681    0.024
 4143.00    1.20539   0.93266    0.024
 4144.00    0.88093   0.92100    0.024
 4145.00    0.56564   0.88791    0.024
 4146.00    0.59567   0.83996    0.024
 4147.00    0.64745   0.79862    0.024
 4148.00    1.03570   0.78644    0.024
 4149.00    1.38650   0.80577    0.025
 4150.00    1.36808   0.83790    0.024
 4151.00    1.31004   0.86191    0.024
 4152.00    0.97063   0.86853    0.024
 4153.00    0.63664   0.86153    0.024
 4154.00    0.33225   0.85094    0.024
 4155.00    0.13123   0.84283    0.024
 4156.00    0.38203   0.83635    0.024
 4157.00    0.54536   0.82877    0.024
 4158.00    0.39408   0.82010    0.024
 4159.00    0.45343   0.81498    0.024
 4160.00    1.14834   0.81797    0.024
 4161.00    1.49353   0.83145    0.024
 4162.00    0.94064   0.85311    0.024
 4163.00    0.68023   0.87594    0.025
 4164.00    1.06590   0.89443    0.025
 4165.00    1.24123   0.90819    0.025
 4166.00    1.01367   0.91906    0.024
 4167.00    0.93977   0.92454    0.024
 4168.00    1.12271   0.92090    0.024
 4169.00    0.98596   0.90874    0.024
 4170.00    0.38090   0.89269    0.024
 4171.00    0.30251   0.88026    0.024
 4172.00    0.90247   0.87592    0.024
 4173.00    1.09050   0.87374    0.024
 4174.00    0.81106   0.86130    0.025
 4175.00    0.77573   0.83261    0.025
 4176.00    0.98472   0.79671    0.025
 4177.00    1.01223   0.77183    0.025
 4178.00    0.87955   0.76758    0.025
 4179.00    0.91550   0.77789    0.024
 4180.00    1.08259   0.79015    0.024
 4181.00    1.03078   0.79796    0.024
 4182.00    0.82926   0.80475    0.024
 4183.00    0.79941   0.81483    0.023
 4184.00    0.87246   0.82572    0.023
 4185.00    0.76994   0.83280    0.023
 4186.00    0.57559   0.83756    0.023
 4187.00    0.60604   0.84510    0.023
 4188.00    0.73845   0.85548    0.023
 4189.00    0.80678   0.86139    0.023
 4190.00    0.85012   0.85569    0.023
 4191.00    1.05031   0.84407    0.023
 4192.00    1.30260   0.84021    0.022
 4193.00    1.18701   0.84920    0.022
 4194.00    0.96889   0.86530    0.022
 4195.00    0.68172   0.88191    0.022
 4196.00    0.37872   0.89643    0.023
 4197.00    0.42282   0.90407    0.022
 4198.00    0.53071   0.89638    0.022
 4199.00    0.40619   0.87074    0.022
 4200.00    0.24881   0.83535    0.022
 4201.00    0.38975   0.80325    0.022
 4202.00    0.56111   0.78343    0.022
 4203.00    0.58695   0.77787    0.022
 4204.00    0.60330   0.78092    0.022
 4205.00    0.35276   0.78629    0.021
 4206.00    0.09488   0.79417    0.021
 4207.00    0.37870   0.80755    0.021
 4208.00    0.65146   0.82751    0.021
 4209.00    0.59940   0.85243    0.021
 4210.00    0.55519   0.87751    0.021
 4211.00    0.62517   0.89739    0.022
 4212.00    0.70765   0.90850    0.022
 4213.00    0.90832   0.91066    0.022
 4214.00    1.02821   0.90947    0.022
 4215.00    0.59275   0.90946    0.022
 4216.00    0.23532   0.90707    0.022
 4217.00    0.29253   0.89479    0.022
 4218.00    0.39392   0.87173    0.022
 4219.00    0.68396   0.85083    0.022
 4220.00    0.92530   0.85085    0.022
 4221.00    0.99502   0.87662    0.022
 4222.00    1.00944   0.91494    0.022
 4223.00    0.86010   0.94728    0.022
 4224.00    0.75275   0.96104    0.022
 4225.00    0.75136   0.95169    0.022
 4226.00    0.75320   0.91848    0.021
 4227.00    0.76205   0.86311    0.022
 4228.00    0.64432   0.79173    0.022
 4229.00    0.28790   0.71953    0.022
 4230.00    0.25079   0.67036    0.021
 4231.00    0.73936   0.66721    0.021
 4232.00    0.89635   0.71403    0.021
 4233.00    0.57467   0.78849    0.021
 4234.00    0.31825   0.85728    0.021
 4235.00    0.14469   0.89533    0.020
 4236.00    0.19261   0.89829    0.020
 4237.00    0.48832   0.88067    0.021
 4238.00    0.65377   0.85942    0.021
 4239.00    0.69068   0.84386    0.020
 4240.00    0.61662   0.83759    0.020
 4241.00    0.44599   0.83966    0.020
 4242.00    0.57896   0.84811    0.020
 4243.00    0.94469   0.86285    0.021
 4244.00    1.10389   0.88345    0.021
 4245.00    1.12392   0.90774    0.021
 4246.00    0.62075   0.93252    0.021
 4247.00   -0.19132   0.95469    0.000
 4248.00    0.05902   0.96874    0.021
 4249.00    0.85638   0.96749    0.022
 4250.00    0.78224   0.94805    0.022
 4251.00    0.31928   0.91544    0.022
 4252.00    0.01852   0.88021    0.021
 4253.00   -0.22003   0.85126    0.000
 4254.00    0.43477   0.83453    0.021
 4255.00    1.38073   0.83205    0.021
 4256.00    1.50581   0.83790    0.021
 4257.00    1.40683   0.84342    0.021
 4258.00    1.05382   0.84709    0.021
 4259.00    0.64388   0.85546    0.021
 4260.00    0.57764   0.87094    0.021
 4261.00    0.57288   0.88228    0.021
 4262.00    0.67958   0.87569    0.021
 4263.00    0.80153   0.85228    0.021
 4264.00    0.70090   0.83119    0.021
 4265.00    0.57852   0.83473    0.021
 4266.00    0.63711   0.86833    0.020
 4267.00    0.70677   0.91793    0.020
 4268.00    0.82418   0.96286    0.020
 4269.00    0.94349   0.98838    0.020
 4270.00    1.18375   0.98938    0.020
 4271.00    1.41849   0.96771    0.020
 4272.00    1.50729   0.92818    0.020
 4273.00    1.57426   0.87600    0.020
 4274.00    1.34136   0.81831    0.020
 4275.00    1.09731   0.76716    0.020
 4276.00    0.75202   0.73619    0.020
 4277.00    0.47271   0.73115    0.020
 4278.00    0.63299   0.74965    0.020
 4279.00    0.80863   0.78645    0.020
 4280.00    1.06383   0.83423    0.020
 4281.00    1.28915   0.88188    0.020
 4282.00    1.38970   0.91448   -2.000
 4283.00    1.57301   0.92266   -2.000
 4284.00    2.04201   0.91217   -2.000
 4285.00    2.31885   0.89674   -2.000
 4286.00    2.03713   0.88656   -2.000
 4287.00    1.72434   0.88289   -2.000
 4288.00    1.33451   0.87947   -2.000
 4289.00    1.00831   0.87153   -2.000
 4290.00    0.81814   0.85745   -2.000
 4291.00    0.71965   0.83553   -2.000
 4292.00    0.79135   0.80539   -2.000
 4293.00    1.02462   0.77417   -2.000
 4294.00    1.51989   0.75722   -2.000
 4295.00    1.67292   0.76566   -2.000
 4296.00    1.33908   0.79391   -2.000
 4297.00    1.00450   0.82274   -2.000
 4298.00    0.66899   0.83733    0.021
 4299.00    0.59481   0.83494    0.021
 4300.00    0.80888   0.81807    0.020
 4301.00    0.89504   0.78800    0.020
 4302.00    0.85675   0.74555    0.020
 4303.00    0.73928   0.69997    0.020
 4304.00    0.55388   0.66607    0.020
 4305.00    0.68496   0.65204    0.020
 4306.00    1.05519   0.65576    0.020
 4307.00    1.05122   0.66805    0.020
 4308.00    0.79874   0.67800    0.021
 4309.00    0.87631   0.67847    0.021
 4310.00    1.14584   0.66677    0.020
 4311.00    1.04858   0.64766    0.020
 4312.00    0.76544   0.63416    0.020
 4313.00    0.88378   0.63851    0.020
 4314.00    1.17829   0.66416    0.020
 4315.00    1.23955   0.70367    0.020
 4316.00    1.21294   0.74618    0.020
 4317.00    1.30622   0.78711    0.020
 4318.00    1.43783   0.83162    0.020
 4319.00    1.26429   0.88619    0.020
 4320.00    1.00919   0.94580    0.020
 4321.00    1.31746   0.99545    0.021
 4322.00    1.74901   1.02110    0.021
 4323.00    1.27529   1.01983    0.021
 4324.00    0.64409   0.99906    0.020
 4325.00    0.56911   0.96660    0.020
 4326.00    0.56769   0.92248    0.020
 4327.00    0.59885   0.86545    0.020
 4328.00    0.63306   0.80287    0.020
 4329.00    0.92071   0.75614    0.019
 4330.00    1.22285   0.74991    0.000
 4331.00    0.92653   0.78920    0.000
 4332.00    0.62212   0.85285    0.000
 4333.00    0.98828   0.90885    0.000
 4334.00    1.34520   0.93972    0.000
 4335.00    1.48032   0.95013    0.000
 4336.00    1.59553   0.95340    0.000
 4337.00    1.45164   0.95687    0.000
 4338.00    1.32880   0.95587    0.000
 4339.00    1.38991   0.93822    0.000
 4340.00    1.35246   0.89371    0.000
 4341.00    0.67837   0.82485    0.000
 4342.00    0.17642   0.74776    0.000
 4343.00    0.54290   0.68451    0.000
 4344.00    0.91607   0.65403    0.000
 4345.00    1.31657   0.66238    0.000
 4346.00    1.54089   0.70095    0.000
 4347.00    1.16919   0.75324    0.000
 4348.00    0.85341   0.80460    0.000
 4349.00    0.69722   0.84808    0.000
 4350.00    0.62439   0.88424    0.000
 4351.00    0.75477   0.91452    0.055
 4352.00    0.86396   0.93573   -1.000
 4353.00    0.92858   0.93908   -1.000
 4354.00    0.93297   0.91714   -1.000
 4355.00    0.82723   0.87771   -1.000
 4356.00    0.78500   0.84431   -1.000
 4357.00    0.84424   0.83760   -1.000
 4358.00    0.81867   0.85972    0.088
 4359.00    0.67418   0.89608    0.026
 4360.00    0.77893   0.92891    0.018
 4361.00    1.19118   0.94740    0.018
 4362.00    1.49866   0.95117    0.018
 4363.00    1.69220   0.94987    0.019
 4364.00    1.55524   0.95598    0.019
 4365.00    1.10124   0.97415    0.019
 4366.00    0.85183   0.99870    0.018
 4367.00    0.77548   1.02160    0.018
 4368.00    0.73441   1.03700    0.018
 4369.00    0.71964   1.03985    0.018
 4370.00    0.86652   1.02632    0.018
 4371.00    1.11918   0.99994    0.018
 4372.00    1.23990   0.97272    0.018
 4373.00    1.28507   0.95576    0.018
 4374.00    1.29556   0.95105    0.018
 4375.00    1.28875   0.95006    0.018
 4376.00    1.21483   0.94128    0.018
 4377.00    1.11196   0.91970    0.018
 4378.00    1.08300   0.89282    0.018
 4379.00    1.08139   0.87775    0.018
 4380.00    1.05243   0.88755    0.018
 4381.00    1.01488   0.91791    0.019
 4382.00    1.06577   0.94957    0.019
 4383.00    1.13979   0.96229    0.018
 4384.00    1.33359   0.94617    0.018
 4385.00    1.55297   0.90011    0.018
 4386.00    1.37857   0.83186    0.018
 4387.00    1.13757   0.76198    0.018
 4388.00    1.05862   0.71874    0.018
 4389.00    1.00038   0.72116    0.017
 4390.00    1.12609   0.76185    0.018
 4391.00    1.26822   0.81362    0.018
 4392.00    1.07906   0.85196    0.018
 4393.00    0.87225   0.87043    0.018
 4394.00    0.98250   0.87802    0.018
 4395.00    1.09859   0.88486    0.019
 4396.00    1.18528   0.89375    0.019
 4397.00    1.27034   0.90175    0.019
 4398.00    1.31972   0.90793    0.019
 4399.00    1.36290   0.91831    0.019
 4400.00    1.32958   0.93734    0.019
 4401.00    1.28330   0.95877    0.018
 4402.00    1.12792   0.96871    0.018
 4403.00    0.94850   0.95897    0.018
 4404.00    0.61836   0.93809    0.019
 4405.00    0.41531   0.91905    0.019
 4406.00    0.83727   0.90306    0.019
 4407.00    1.22601   0.88193    0.019
 4408.00    1.48217   0.85315    0.019
 4409.00    1.68840   0.82804    0.018
 4410.00    1.72910   0.82061    0.018
 4411.00    1.69693   0.83329    0.018
 4412.00    1.46065   0.85949    0.019
 4413.00    1.26500   0.89444    0.019
 4414.00    1.16675   0.93522    0.018
 4415.00    1.12875   0.97270    0.018
 4416.00    1.21545   0.99198    0.018
 4417.00    1.36780   0.98295    0.018
 4418.00    1.63834   0.95010    0.018
 4419.00    1.72096   0.91242    0.018
 4420.00    1.50777   0.89255    0.018
 4421.00    1.35759   0.90293    0.018
 4422.00    1.29448   0.93572    0.019
 4423.00    1.23941   0.97124    0.019
 4424.00    1.19414   0.99187    0.019
 4425.00    1.19239   0.98975    0.019
 4426.00    1.23732   0.97210    0.019
 4427.00    1.12262   0.95430    0.019
 4428.00    0.85692   0.94676    0.018
 4429.00    0.69337   0.94940    0.018
 4430.00    0.61501   0.95516    0.018
 4431.00    0.61395   0.95991    0.018
 4432.00    0.66963   0.96174    0.018
 4433.00    0.91469   0.95921    0.018
 4434.00    1.28183   0.95386    0.019
 4435.00    1.29163   0.94703    0.018
 4436.00    1.09986   0.93906    0.018
 4437.00    1.06352   0.92592    0.018
 4438.00    1.10349   0.90701    0.019
 4439.00    1.13286   0.89476    0.019
 4440.00    1.15773   0.90396    0.019
 4441.00    1.32844   0.93711    0.019
 4442.00    1.55215   0.97926    0.019
 4443.00    1.61274   1.00686    0.018
 4444.00    1.62317   1.00577    0.018
 4445.00    1.67269   0.97872    0.018
 4446.00    1.73221   0.94397    0.018
 4447.00    1.59305   0.92434    0.018
 4448.00    1.41249   0.93195    0.018
 4449.00    1.21636   0.96109    0.018
 4450.00    1.01767   0.99452    0.018
 4451.00    1.21429   1.01761    0.018
 4452.00    1.45964   1.02564    0.018
 4453.00    1.44521   1.02315    0.018
 4454.00    1.40867   1.01509    0.017
 4455.00    1.02396   1.00282    0.017
 4456.00    0.62206   0.98538    0.017
 4457.00    0.86678   0.95902    0.017
 4458.00    1.11914   0.92425    0.017
 4459.00    1.20549   0.89082    0.017
 4460.00    1.27541   0.86906    0.017
 4461.00    1.01257   0.86176    0.000
 4462.00    0.77447   0.86169    0.000
 4463.00    0.82713   0.86077    0.000
 4464.00    0.89030   0.85751    0.000
 4465.00    1.03870   0.85768    0.000
 4466.00    1.15521   0.86836    0.000
 4467.00    1.07763   0.89052    0.000
 4468.00    1.05287   0.91761    0.000
 4469.00    1.28152   0.93815    0.000
 4470.00    1.42985   0.94635    0.000
 4471.00    1.26449   0.94455    0.000
 4472.00    1.12796   0.93787    0.000
 4473.00    1.08511   0.93343    0.000
 4474.00    1.09070   0.93763    0.000
 4475.00    1.22958   0.95441    0.000
 4476.00    1.27970   0.98111    0.000
 4477.00    1.12063   1.00998    0.000
 4478.00    0.99540   1.03384    0.000
 4479.00    0.93909   1.05064    0.000
 4480.00    0.98688   1.06176    0.000
 4481.00    1.21919   1.06640    0.000
 4482.00    1.35677   1.05805    0.017
 4483.00    1.34743   1.03074    0.017
 4484.00    1.36731   0.98975    0.017
 4485.00    1.42700   0.95292    0.017
 4486.00    1.41731   0.93965    0.017
 4487.00    1.32441   0.95648    0.016
 4488.00    1.21125   0.99366    0.016
 4489.00    1.07668   1.03148    0.016
 4490.00    1.04993   1.05197    0.016
 4491.00    1.12373   1.04740    0.016
 4492.00    1.19803   1.02249    0.016
 4493.00    1.27275   0.99211    0.016
 4494.00    1.19918   0.97249    0.016
 4495.00    1.01832   0.97000    0.016
 4496.00    1.03206   0.97668    0.016
 4497.00    1.16941   0.97851    0.016
 4498.00    1.24378   0.96999    0.016
 4499.00    1.28315   0.95859    0.016
 4500.00    1.33492   0.95764    0.016
 4501.00    1.39269   0.97282    0.016
 4502.00    1.37062   0.99746    0.016
 4503.00    1.31526   1.01974    0.016
 4504.00    1.33775   1.03235    0.016
 4505.00    1.38803   1.03992    0.016
 4506.00    1.42026   1.05287    0.016
 4507.00    1.44706   1.07593    0.016
 4508.00    1.28457   1.10191    0.016
 4509.00    1.07468   1.11768    0.016
 4510.00    1.16263   1.11745    0.016
 4511.00    1.31112   1.10661    0.015
 4512.00    1.33652   1.09547    0.016
 4513.00    1.34229   1.09062    0.016
 4514.00    1.16872   1.09033    0.016
 4515.00    0.97383   1.08717    0.016
 4516.00    0.90692   1.07561    0.016
 4517.00    0.85036   1.05678    0.016
 4518.00    0.88250   1.03781    0.016
 4519.00    0.91867   1.02524    0.016
 4520.00    0.93156   1.02032    0.016
 4521.00    0.94644   1.02094    0.015
 4522.00    1.07677   1.02545    0.015
 4523.00    1.19435   1.03352    0.015
 4524.00    1.07261   1.04341    0.016
 4525.00    0.95871   1.04846    0.016
 4526.00    0.93252   1.04292    0.016
 4527.00    0.95822   1.02627    0.016
 4528.00    1.38998   1.00176    0.016
 4529.00    1.69979   0.97288    0.016
 4530.00    1.28856   0.94089    0.016
 4531.00    0.95392   0.90915    0.016
 4532.00    0.97781   0.88443    0.016
 4533.00    1.00422   0.87310    0.016
 4534.00    1.04028   0.87649    0.016
 4535.00    1.06672   0.88952    0.016
 4536.00    1.06245   0.90206    0.016
 4537.00    1.06547   0.90713    0.016
 4538.00    1.08816   0.90695    0.016
 4539.00    1.06820   0.91301    0.016
 4540.00    0.94942   0.93586    0.015
 4541.00    0.87085   0.97188    0.015
 4542.00    0.87287   1.00517    0.016
 4543.00    0.86368   1.02065    0.016
 4544.00    0.83494   1.01758    0.016
 4545.00    0.89609   1.00782    0.016
 4546.00    1.09458   1.00203    0.016
 4547.00    1.23670   1.00108    0.016
 4548.00    1.30314   0.99955    0.015
 4549.00    1.33348   0.99425    0.015
 4550.00    1.32115   0.98655    0.000
 4551.00    1.34416   0.97832    0.000
 4552.00    1.40401   0.96899    0.000
 4553.00    1.32901   0.95992    0.000
 4554.00    1.13004   0.95511    0.000
 4555.00    1.14926   0.95577    0.000
 4556.00    1.34530   0.95776    0.000
 4557.00    1.30035   0.95559    0.000
 4558.00    1.08354   0.95086    0.000
 4559.00    1.14284   0.95214    0.000
 4560.00    1.37496   0.96662    0.000
 4561.00    1.41551   0.99307    0.000
 4562.00    1.35128   1.02282    0.000
 4563.00    1.26988   1.04618    0.000
 4564.00    1.18031   1.05851    0.000
 4565.00    1.12680   1.05938    0.000
 4566.00    1.08807   1.04879    0.000
 4567.00    0.99107   1.02858    0.000
 4568.00    0.87366   1.00589    0.000
 4569.00    0.93823   0.99244    0.000
 4570.00    1.05659   0.99705    0.000
 4571.00    1.18220   1.01687    0.000
 4572.00    1.30960   1.03895    0.000
 4573.00    1.27691   1.04969    0.000
 4574.00    1.21250   1.04426    0.000
 4575.00    1.29584   1.03042    0.000
 4576.00    1.40206   1.02155    0.000
 4577.00    1.43249   1.02473    0.000
 4578.00    1.45425   1.03640    0.000
 4579.00    1.32894   1.04684    0.000
 4580.00    1.19233   1.04881    0.000
 4581.00    1.15509   1.04075    0.000
 4582.00    1.12200   1.02339    0.000
 4583.00    1.13377   0.99934    0.000
 4584.00    1.14430   0.97501    0.000
 4585.00    1.08434   0.95813    0.000
 4586.00    1.03972   0.95197    0.000
 4587.00    1.26296   0.95350    0.000
 4588.00    1.46795   0.95769    0.000
 4589.00    1.47763   0.96286    0.000
 4590.00    1.46896   0.97186    0.000
 4591.00    1.32155   0.98712    0.000
 4592.00    1.17779   1.00595    0.000
 4593.00    1.05507   1.02089    0.000
 4594.00    0.95133   1.02439    0.000
 4595.00    0.93433   1.01502    0.000
 4596.00    0.91614   0.99865    0.000
 4597.00    0.89347   0.98312    0.000
 4598.00    0.91942   0.97286    0.000
 4599.00    1.09742   0.96819    0.000
 4600.00    1.19204   0.96778    0.000
 4601.00    1.06533   0.97043    0.000
 4602.00    1.02151   0.97480    0.000
 4603.00    1.16656   0.97810    0.000
 4604.00    1.17024   0.97882    0.000
 4605.00    0.89501   0.97846    0.000
 4606.00    0.79773   0.97885    0.000
 4607.00    1.00643   0.98077    0.000
 4608.00    1.19865   0.98358    0.000
 4609.00    1.36607   0.98851    0.000
 4610.00    1.41929   1.00000    0.000
 4611.00    1.32143   1.02055    0.000
 4612.00    1.28906   1.04660    0.000
 4613.00    1.33303   1.06857    0.000
 4614.00    1.27427   1.07761    0.000
 4615.00    1.10993   1.07249    0.000
 4616.00    1.13460   1.05966    0.000
 4617.00    1.33060   1.04836    0.000
 4618.00    1.48057   1.04445    0.000
 4619.00    1.59376   1.04701    0.000
 4620.00    1.48737   1.05165    0.000
 4621.00    1.22665   1.05416    0.000
 4622.00    1.13783   1.05255    0.000
 4623.00    1.15500   1.04955    0.000
 4624.00    1.17256   1.04918    0.000
 4625.00    1.19033   1.05269    0.000
 4626.00    1.05082   1.05808    0.000
 4627.00    0.83774   1.06145    0.000
 4628.00    0.83735   1.06022    0.000
 4629.00    0.92272   1.05542    0.000
 4630.00    1.02320   1.04972    0.000
 4631.00    1.12889   1.04486    0.000
 4632.00    1.11057   1.04149    0.000
 4633.00    1.05632   1.04000    0.000
 4634.00    1.08834   1.04087    0.000
 4635.00    1.14101   1.04259    0.000
 4636.00    1.21269   1.04116    0.000
 4637.00    1.28805   1.03377    0.000
 4638.00    1.10900   1.02183    0.000
 4639.00    0.89177   1.00949    0.000
 4640.00    0.82838   0.99884    0.000
 4641.00    0.78192   0.98867    0.000
 4642.00    1.01929   0.97891    0.000
 4643.00    1.27731   0.97205    0.000
 4644.00    1.14209   0.97158    0.000
 4645.00    0.99200   0.97790    0.000
 4646.00    0.91202   0.98545    0.000
 4647.00    0.84223   0.98678    0.000
 4648.00    1.13618   0.97656    0.000
 4649.00    1.40188   0.95506    0.000
 4650.00    1.20565   0.92936    0.000
 4651.00    1.03893   0.91000    0.000
 4652.00    1.17428   0.90532    0.000
 4653.00    1.28187   0.91787    0.000
 4654.00    1.18657   0.94216    0.000
 4655.00    1.08802   0.96807    0.000
 4656.00    0.97124   0.98673    0.000
 4657.00    0.90571   0.99271    0.000
 4658.00    1.06887   0.98658    0.000
 4659.00    1.15944   0.97575    0.000
 4660.00    0.98409   0.97056    0.000
 4661.00    0.90143   0.97977    0.000
 4662.00    1.10314   1.00357    0.000
 4663.00    1.19790   1.03195    0.000
 4664.00    1.01374   1.05146    0.000
 4665.00    0.88547   1.05279    0.000
 4666.00    0.88246   1.03623    0.000
 4667.00    0.93589   1.00918    0.000
 4668.00    1.09894   0.97879    0.000
 4669.00    1.12466   0.94676    0.000
 4670.00    0.91782   0.91291    0.000
 4671.00    0.84099   0.88255    0.000
 4672.00    0.95708   0.86659    0.000
 4673.00    1.09275   0.87310    0.000
 4674.00    1.25395   0.89950    0.000
 4675.00    1.29149   0.93278    0.000
 4676.00    1.18694   0.95947    0.000
 4677.00    1.17383   0.97505    0.000
 4678.00    1.25336   0.98325    0.000
 4679.00    1.27629   0.98982    0.000
 4680.00    1.24863   0.99618    0.000
 4681.00    1.13840   0.99767    0.000
 4682.00    0.96315   0.99027    0.000
 4683.00    0.90536   0.97513    0.000
 4684.00    0.92892   0.95862    0.000
 4685.00    0.94752   0.94838    0.000
 4686.00    0.96311   0.94849    0.000
 4687.00    0.98905   0.95755    0.000
 4688.00    1.02048   0.97009    0.000
 4689.00    1.04449   0.98034    0.000
 4690.00    1.06509   0.98461    0.000
 4691.00    1.14013   0.98282    0.000
 4692.00    1.23674   0.97813    0.000
 4693.00    1.20622   0.97298    0.000
 4694.00    1.13278   0.96840    0.000
 4695.00    1.19555   0.96555    0.000
 4696.00    1.29697   0.96585    0.000
 4697.00    1.21669   0.97060    0.000
 4698.00    1.09386   0.97990    0.000
 4699.00    0.84067   0.99005    0.000
 4700.00    0.56296   0.99451    0.000
 4701.00    0.65779   0.98830    0.000
 4702.00    0.80681   0.97181    0.000
 4703.00    0.94993   0.95138    0.000
 4704.00    1.09242   0.93395    0.000
 4705.00    1.08088   0.92250    0.000
 4706.00    1.05876   0.91658    0.000
 4707.00    1.07559   0.91512    0.000
 4708.00    1.09374   0.91874    0.000
 4709.00    0.97970   0.92535    0.000
 4710.00    0.86816   0.93013    0.000
 4711.00    0.84461   0.92947    0.000
 4712.00    0.83036   0.92560    0.000
 4713.00    0.95903   0.92513    0.000
 4714.00    1.06235   0.93297    0.000
 4715.00    0.91723   0.94651    0.000
 4716.00    0.79185   0.95764    0.000
 4717.00    0.80605   0.96111    0.000
 4718.00    0.82123   0.95832    0.000
 4719.00    0.84174   0.95811    0.000
 4720.00    0.84289   0.96784    0.000
 4721.00    0.75962   0.98690    0.000
 4722.00    0.68728   1.00960    0.000
 4723.00    0.65410   1.02888    0.000
 4724.00    0.68182   1.04070    0.000
 4725.00    0.89291   1.04499    0.000
 4726.00    1.02553   1.04398    0.000
 4727.00    0.95707   1.04148    0.000
 4728.00    0.88556   1.03936    0.000
 4729.00    0.80729   1.03399    0.000
 4730.00    0.77613   1.01908    0.000
 4731.00    0.83505   0.99180    0.000
 4732.00    0.98190   0.95872    0.000
 4733.00    1.27543   0.93113    0.000
 4734.00    1.35454   0.91751    0.000
 4735.00    1.12017   0.91946    0.000
 4736.00    0.93517   0.93239    0.000
 4737.00    0.81365   0.94886    0.000
 4738.00    0.76184   0.96306    0.000
 4739.00    0.78901   0.97166    0.000
 4740.00    0.89668   0.97428    0.000
 4741.00    1.08479   0.97606    0.000
 4742.00    1.12973   0.98133    0.000
 4743.00    1.04853   0.98873    0.000
 4744.00    1.00205   0.99517    0.000
 4745.00    0.98253   0.99847    0.000
 4746.00    0.99056   0.99996    0.000
 4747.00    1.01738   1.00253    0.000
 4748.00    1.02924   1.00634    0.000
 4749.00    1.03212   1.01066    0.000
 4750.00    0.99177   1.01567    0.000
 4751.00    0.92884   1.02076    0.000
 4752.00    0.87069   1.02473    0.000
 4753.00    0.81472   1.02646    0.000
 4754.00    0.97831   1.02455    0.000
 4755.00    1.22740   1.01823    0.000
 4756.00    1.23300   1.00759    0.000
 4757.00    1.15792   0.99439    0.000
 4758.00    1.14624   0.98152    0.000
 4759.00    1.15220   0.97259    0.000
 4760.00    0.99756   0.96932    0.000
 4761.00    0.80619   0.97163    0.013
 4762.00    0.77848   0.97760    0.014
 4763.00    0.78074   0.98342    0.014
 4764.00    0.93182   0.98435    0.014
 4765.00    1.10386   0.97615    0.013
 4766.00    1.08894   0.95925    0.013
 4767.00    1.05507   0.93858    0.013
 4768.00    1.11059   0.91933    0.013
 4769.00    1.17189   0.90588    0.013
 4770.00    1.06292   0.90166    0.013
 4771.00    0.94944   0.90863    0.013
 4772.00    1.15738   0.92512    0.013
 4773.00    1.35086   0.94585    0.013
 4774.00    1.12541   0.96314    0.013
 4775.00    0.91157   0.97220    0.013
 4776.00    0.86559   0.97603    0.013
 4777.00    0.84269   0.98089    0.013
 4778.00    1.03691   0.99044    0.013
 4779.00    1.19057   1.00250    0.013
 4780.00    1.06660   1.01258    0.013
 4781.00    0.97052   1.01876    0.013
 4782.00    1.02220   1.01988    0.013
 4783.00    1.03167   1.01610    0.013
 4784.00    0.86140   1.00856    0.012
 4785.00    0.76469   0.99801    0.012
 4786.00    0.92646   0.98515    0.012
 4787.00    1.04934   0.97187    0.012
 4788.00    1.05730   0.96154    0.013
 4789.00    1.01990   0.95482    0.013
 4790.00    0.86825   0.94996    0.013
 4791.00    0.78895   0.94767    0.013
 4792.00    0.86654   0.94748    0.013
 4793.00    0.94146   0.94863    0.013
 4794.00    1.01135   0.95333    0.013
 4795.00    1.01541   0.96293    0.013
 4796.00    0.91130   0.97793    0.013
 4797.00    0.82376   0.99828    0.013
 4798.00    0.76012   1.01955    0.013
 4799.00    0.75732   1.03458    0.013
 4800.00    0.83163   1.03773    0.013
 4801.00    0.94301   1.02822    0.013
 4802.00    1.09579   1.01033    0.013
 4803.00    1.13872   0.99241    0.013
 4804.00    1.07343   0.98276    0.013
 4805.00    1.01616   0.98485    0.013
 4806.00    0.96585   0.99489    0.013
 4807.00    0.96368   1.00415    0.013
 4808.00    0.99836   1.00515    0.013
 4809.00    1.10708   0.99662    0.013
 4810.00    1.26562   0.98383    0.013
 4811.00    1.27449   0.97189    0.013
 4812.00    1.19517   0.96491    0.013
 4813.00    1.08190   0.96494    0.013
 4814.00    0.95119   0.96998    0.013
 4815.00    0.88229   0.97676    0.013
 4816.00    0.84091   0.98284    0.013
 4817.00    0.81329   0.98749    0.013
 4818.00    0.79094   0.99209    0.013
 4819.00    0.86084   0.99829    0.013
 4820.00    0.96073   1.00684    0.013
 4821.00    0.97345   1.01677    0.013
 4822.00    0.96244   1.02591    0.013
 4823.00    0.91591   1.03187    0.013
 4824.00    0.86145   1.03116    0.013
 4825.00    1.00577   1.02152    0.013
 4826.00    1.18553   1.00333    0.013
 4827.00    1.04348   0.98046    0.013
 4828.00    0.85758   0.96253    0.013
 4829.00    0.85798   0.95679    0.013
 4830.00    0.87648   0.96128    0.013
 4831.00    0.91569   0.96920    0.013
 4832.00    0.95615   0.97368    0.013
 4833.00    0.99204   0.97239    0.012
 4834.00    1.02751   0.96748    0.012
 4835.00    1.00887   0.96082    0.013
 4836.00    0.98887   0.95529    0.013
 4837.00    0.93345   0.95474    0.013
 4838.00    0.88431   0.95942    0.013
 4839.00    0.92098   0.96631    0.013
 4840.00    0.95349   0.97127    0.012
 4841.00    0.94850   0.97131    0.012
 4842.00    0.94028   0.96513    0.012
 4843.00    0.91071   0.95435    0.012
 4844.00    0.86518   0.94332    0.012
 4845.00    0.73734   0.93598    0.012
 4846.00    0.66744   0.93345    0.012
 4847.00    0.83874   0.93506    0.012
 4848.00    0.98897   0.94089    0.000
 4849.00    1.06662   0.94894    0.000
 4850.00    1.07178   0.95443    0.000
 4851.00    0.86675   0.95368    0.000
 4852.00    0.72618   0.94636    0.000
 4853.00    0.74516   0.93756    0.000
 4854.00    0.79559   0.93296    0.000
 4855.00    0.91309   0.93165    0.000
 4856.00    0.98288   0.92859    0.000
 4857.00    0.96423   0.91890    0.000
 4858.00    0.92486   0.89973    0.000
 4859.00    0.85192   0.87467    0.000
 4860.00    0.83743   0.85165    0.000
 4861.00    0.90596   0.83308    0.000
 4862.00    0.95753   0.81296    0.000
 4863.00    0.98792   0.78442    0.000
 4864.00    0.96249   0.74727    0.000
 4865.00    0.87559   0.71175    0.000
 4866.00    0.89042   0.69470    0.000
 4867.00    1.00406   0.70415    0.000
 4868.00    1.03877   0.73375    0.000
 4869.00    1.00589   0.77254    0.000
 4870.00    1.01749   0.80961    0.000
 4871.00    1.06264   0.83735    0.000
 4872.00    1.00820   0.85317    0.000
 4873.00    0.88775   0.85652    0.000
 4874.00    0.91090   0.84763    0.000
 4875.00    1.01740   0.83143    0.013
 4876.00    1.05017   0.81938    0.013
 4877.00    1.04565   0.82031    0.013
 4878.00    1.09445   0.83375    0.013
 4879.00    1.16661   0.85406    0.012
 4880.00    1.14808   0.87564    0.012
 4881.00    1.09548   0.89535    0.012
 4882.00    0.97326   0.91267    0.012
 4883.00    0.82884   0.92798    0.012
 4884.00    0.86470   0.93776    0.012
 4885.00    0.94861   0.93806    0.012
 4886.00    0.94520   0.93123    0.012
 4887.00    0.92274   0.92075    0.012
 4888.00    0.91535   0.90772    0.012
 4889.00    0.91057   0.89369    0.012
 4890.00    0.87953   0.88107    0.012
 4891.00    0.84504   0.87186    0.013
 4892.00    0.89347   0.86577    0.013
 4893.00    0.94961   0.86023    0.013
 4894.00    1.06268   0.85386    0.013
 4895.00    1.17898   0.85073    0.013
 4896.00    1.03123   0.86114    0.013
 4897.00    0.87883   0.88973    0.013
 4898.00    0.87535   0.92999    0.013
 4899.00    0.87643   0.97108    0.013
 4900.00    0.98565   1.00126    0.013
 4901.00    1.07011   1.01471    0.012
 4902.00    0.83438   1.01355    0.012
 4903.00    0.64052   1.00216    0.013
 4904.00    0.81076   0.98645    0.013
 4905.00    0.97001   0.97277    0.013
 4906.00    1.05849   0.96333    0.013
 4907.00    1.12879   0.95845    0.013
 4908.00    1.10763   0.95989    0.013
 4909.00    1.08316   0.96728    0.013
 4910.00    1.04517   0.97614    0.013
 4911.00    1.01330   0.97933    0.013
 4912.00    1.00210   0.97158    0.013
 4913.00    1.01426   0.95364    0.013
 4914.00    1.09293   0.93267    0.013
 4915.00    1.12419   0.91898    0.013
 4916.00    1.04009   0.91888    0.013
 4917.00    0.98608   0.93072    0.013
 4918.00    0.99522   0.94812    0.013
 4919.00    0.99515   0.96248    0.013
 4920.00    0.97827   0.96436    0.012
 4921.00    0.95207   0.94738    0.012
 4922.00    0.91101   0.91215    0.012
 4923.00    0.88707   0.86790    0.012
 4924.00    0.88710   0.83001    0.012
 4925.00    0.89801   0.81160    0.012
 4926.00    0.92231   0.81614    0.012
 4927.00    0.90915   0.83595    0.013
 4928.00    0.85532   0.86049    0.013
 4929.00    0.82003   0.88511    0.013
 4930.00    0.80251   0.91034    0.013
 4931.00    0.86515   0.93639    0.012
 4932.00    0.99547   0.96165    0.012
 4933.00    0.93831   0.98310    0.012
 4934.00    0.74175   0.99550    0.013
 4935.00    0.71684   0.99589    0.013
 4936.00    0.80405   0.98523    0.013
 4937.00    0.82845   0.96607    0.013
 4938.00    0.81695   0.94521    0.013
 4939.00    0.84082   0.92939    0.013
 4940.00    0.88230   0.91709    0.000
 4941.00    0.88792   0.90382    0.000
 4942.00    0.87810   0.88975    0.000
 4943.00    0.91679   0.88070    0.000
 4944.00    0.97339   0.88520    0.000
 4945.00    0.99811   0.90563    0.000
 4946.00    1.01284   0.93440    0.000
 4947.00    1.03440   0.96131    0.000
 4948.00    1.05774   0.97955    0.000
 4949.00    1.06040   0.98700    0.000
 4950.00    1.05865   0.98775    0.000
 4951.00    1.02543   0.98830    0.000
 4952.00    0.98691   0.99172    0.000
 4953.00    1.03236   0.99748    0.000
 4954.00    1.08848   1.00332    0.000
 4955.00    1.13102   1.00630    0.000
 4956.00    1.17235   1.00388    0.000
 4957.00    1.13926   0.99477    0.000
 4958.00    1.10225   0.97843    0.000
 4959.00    1.00421   0.95402    0.000
 4960.00    0.90744   0.92271    0.000
 4961.00    1.00222   0.89033    0.000
 4962.00    1.09580   0.86912    0.000
 4963.00    1.16337   0.87089    0.000
 4964.00    1.21610   0.89338    0.000
 4965.00    1.08662   0.92371    0.000
 4966.00    0.96525   0.94842    0.000
 4967.00    0.91188   0.95942    0.000
 4968.00    0.87460   0.95641    0.000
 4969.00    0.93776   0.94333    0.000
 4970.00    0.97530   0.92660    0.000
 4971.00    0.88721   0.91298    0.000
 4972.00    0.84957   0.90598    0.000
 4973.00    1.01275   0.90663    0.000
 4974.00    1.13875   0.91394    0.000
 4975.00    1.14173   0.92540    0.000
 4976.00    1.12633   0.93922    0.000
 4977.00    1.05956   0.95276    0.000
 4978.00    1.00759   0.96304    0.000
 4979.00    0.99100   0.96773    0.000
 4980.00    0.94919   0.96468    0.000
 4981.00    0.85525   0.95419    0.000
 4982.00    0.80423   0.93765    0.000
 4983.00    0.83033   0.91667    0.000
 4984.00    0.86571   0.89327    0.000
 4985.00    0.91566   0.86783    0.000
 4986.00    0.92568   0.84125    0.000
 4987.00    0.88061   0.81874    0.000
 4988.00    0.87512   0.80838    0.000
 4989.00    0.91769   0.81444    0.000
 4990.00    0.98033   0.83458    0.000
 4991.00    1.06445   0.86207    0.000
 4992.00    1.01335   0.88755    0.000
 4993.00    0.83458   0.90367    0.000
 4994.00    0.82460   0.90963    0.000
 4995.00    0.95513   0.90870    0.000
 4996.00    1.04010   0.90608    0.000
 4997.00    1.09168   0.90578    0.000
 4998.00    1.08618   0.90755    0.000
 4999.00    1.04394   0.91105    0.000
 5000.00    0.98388   0.91492    0.000
 5001.00    0.91379   0.91488    0.000
 5002.00    0.88119   0.90844    0.000
 5003.00    0.86695   0.89497    0.000
 5004.00    0.93144   0.87666    0.000
 5005.00    1.02926   0.85925    0.000
 5006.00    1.01131   0.84646    0.000
 5007.00    0.95137   0.83773    0.000
 5008.00    0.97673   0.83032    0.000
 5009.00    1.02825   0.82205    0.000
 5010.00    1.00087   0.81496    0.000
 5011.00    0.95335   0.81510    0.000
 5012.00    0.86622   0.82611    0.000
 5013.00    0.77087   0.84286    0.000
 5014.00    0.87525   0.85473    0.000
 5015.00    1.01232   0.85430    0.000
 5016.00    1.07682   0.84070    0.000
 5017.00    1.13242   0.81990    0.000
 5018.00    1.01162   0.80163    0.000
 5019.00    0.87592   0.79229    0.000
 5020.00    0.88523   0.79281    0.000
 5021.00    0.90162   0.79884    0.000
 5022.00    0.84165   0.80510    0.000
 5023.00    0.78150   0.81079    0.000
 5024.00    0.78211   0.81702    0.000
 5025.00    0.78604   0.82345    0.000
 5026.00    0.85673   0.82956    0.000
 5027.00    0.91864   0.83639    0.000
 5028.00    0.87786   0.84531    0.000
 5029.00    0.84205   0.85416    0.012
 5030.00    0.84643   0.85977    0.012
 5031.00    0.84028   0.86154    0.012
 5032.00    0.77029   0.86160    0.012
 5033.00    0.72781   0.86572    0.012
 5034.00    0.81690   0.87697    0.012
 5035.00    0.88816   0.89245    0.012
 5036.00    0.88995   0.90830    0.012
 5037.00    0.86497   0.91946    0.012
 5038.00    0.75312   0.92073    0.012
 5039.00    0.66561   0.91017    0.012
 5040.00    0.64490   0.89010    0.012
 5041.00    0.64497   0.86708    0.012
 5042.00    0.69387   0.84526    0.012
 5043.00    0.77748   0.82250    0.012
 5044.00    0.93163   0.79940    0.012
 5045.00    1.04921   0.78240    0.012
 5046.00    1.10209   0.78054    0.012
 5047.00    1.07439   0.80066    0.012
 5048.00    0.92196   0.83716    0.012
 5049.00    0.84880   0.87573    0.012
 5050.00    0.88341   0.90421    0.012
 5051.00    0.86440   0.91464    0.012
 5052.00    0.78123   0.90562    0.012
 5053.00    0.82917   0.88429    0.012
 5054.00    1.01549   0.86234    0.012
 5055.00    1.02029   0.84886    0.012
 5056.00    0.85614   0.84690    0.012
 5057.00    0.80136   0.85564    0.012
 5058.00    0.83636   0.87188    0.012
 5059.00    0.95088   0.89021    0.012
 5060.00    1.12285   0.90606    0.012
 5061.00    1.06527   0.91770    0.012
 5062.00    0.86215   0.92632    0.012
 5063.00    0.79601   0.93366    0.012
 5064.00    0.80581   0.93977    0.012
 5065.00    0.80790   0.94355    0.012
 5066.00    0.80629   0.94193    0.012
 5067.00    0.80801   0.93141    0.012
 5068.00    0.81113   0.91203    0.012
 5069.00    0.86932   0.88795    0.012
 5070.00    0.94711   0.86751    0.012
 5071.00    0.93665   0.85707    0.012
 5072.00    0.89964   0.85481    0.012
 5073.00    0.82565   0.85692    0.012
 5074.00    0.74242   0.86158    0.012
 5075.00    0.78532   0.86607    0.012
 5076.00    0.85379   0.86702    0.012
 5077.00    0.76251   0.86537    0.012
 5078.00    0.64585   0.86530    0.012
 5079.00    0.72021   0.86655    0.012
 5080.00    0.81716   0.86542    0.012
 5081.00    0.78387   0.85998    0.012
 5082.00    0.74010   0.84885    0.011
 5083.00    0.75089   0.83057    0.011
 5084.00    0.76413   0.80877    0.011
 5085.00    0.77292   0.79351    0.011
 5086.00    0.78220   0.79122    0.011
 5087.00    0.81863   0.79954    0.011
 5088.00    0.85158   0.81370    0.011
 5089.00    0.81987   0.83071    0.011
 5090.00    0.79715   0.84742    0.011
 5091.00    0.87446   0.86073    0.011
 5092.00    0.94731   0.87020    0.011
 5093.00    0.98537   0.87769    0.011
 5094.00    1.00690   0.88483    0.011
 5095.00    0.93108   0.89198    0.011
 5096.00    0.87117   0.89920    0.011
 5097.00    0.88552   0.90573    0.011
 5098.00    0.90185   0.90825    0.011
 5099.00    0.92567   0.90264    0.011
 5100.00    0.94579   0.88758    0.011
 5101.00    0.95412   0.86557    0.011
 5102.00    0.94902   0.84207    0.011
 5103.00    0.90772   0.82362    0.011
 5104.00    0.87293   0.81628    0.011
 5105.00    0.85322   0.82274    0.011
 5106.00    0.83438   0.83747    0.011
 5107.00    0.81730   0.85111    0.011
 5108.00    0.83853   0.85784    0.011
 5109.00    0.92652   0.85656    0.011
 5110.00    1.00627   0.84958    0.011
 5111.00    1.07343   0.83968    0.011
 5112.00    1.08528   0.82911    0.011
 5113.00    1.02301   0.82211    0.012
 5114.00    0.93797   0.82093    0.012
 5115.00    0.82608   0.82508    0.012
 5116.00    0.80261   0.83555    0.012
 5117.00    0.87113   0.84990    0.012
 5118.00    0.90457   0.86386    0.012
 5119.00    0.90581   0.87683    0.012
 5120.00    0.93048   0.88817    0.012
 5121.00    0.97410   0.89704    0.011
 5122.00    1.00546   0.90293    0.011
 5123.00    1.02810   0.90307    0.011
 5124.00    1.01120   0.89520    0.011
 5125.00    0.96961   0.87943    0.011
 5126.00    0.94847   0.85807    0.011
 5127.00    0.93848   0.83498    0.011
 5128.00    0.92454   0.81377    0.012
 5129.00    0.90872   0.79858    0.012
 5130.00    0.87017   0.79164    0.012
 5131.00    0.82232   0.79057    0.012
 5132.00    0.82090   0.79229    0.012
 5133.00    0.83571   0.79596    0.012
 5134.00    0.84755   0.80175    0.012
 5135.00    0.85851   0.81040    0.012
 5136.00    0.81795   0.82189    0.012
 5137.00    0.76480   0.83399    0.012
 5138.00    0.81817   0.84383    0.012
 5139.00    0.89259   0.85004    0.012
 5140.00    0.91723   0.85135    0.012
 5141.00    0.93419   0.84501    0.012
 5142.00    0.87786   0.83291    0.012
 5143.00    0.81319   0.82043    0.012
 5144.00    0.84197   0.81057    0.012
 5145.00    0.87787   0.80640    0.012
 5146.00    0.91512   0.80648    0.012
 5147.00    0.95242   0.80554    0.012
 5148.00    0.91127   0.80471    0.012
 5149.00    0.87024   0.80546    0.011
 5150.00    0.86175   0.80462    0.011
 5151.00    0.85528   0.80209    0.011
 5152.00    0.88401   0.80024    0.011
 5153.00    0.90576   0.80005    0.012
 5154.00    0.85323   0.80101    0.012
 5155.00    0.82326   0.80058    0.012
 5156.00    0.96316   0.79772    0.012
 5157.00    1.06266   0.79522    0.012
 5158.00    0.93082   0.79626    0.012
 5159.00    0.83015   0.80334    0.012
 5160.00    0.87147   0.81739    0.012
 5161.00    0.91736   0.83546    0.012
 5162.00    0.98032   0.85291    0.012
 5163.00    1.00208   0.86534    0.012
 5164.00    0.89529   0.86991    0.012
 5165.00    0.79720   0.86713    0.011
 5166.00    0.72216   0.85710    0.011
 5167.00    0.68020   0.83838    0.011
 5168.00    0.71348   0.81095    0.011
 5169.00    0.71700   0.77441    0.011
 5170.00    0.66191   0.72965    0.011
 5171.00    0.66380   0.68377    0.011
 5172.00    0.76347   0.64755    0.011
 5173.00    0.85543   0.62827    0.011
 5174.00    0.93579   0.62453    0.011
 5175.00    0.94352   0.62754    0.011
 5176.00    0.85534   0.62911    0.011
 5177.00    0.79954   0.63117    0.011
 5178.00    0.78142   0.64512    0.011
 5179.00    0.80307   0.67754    0.011
 5180.00    0.86553   0.72066    0.011
 5181.00    0.87146   0.76043    0.011
 5182.00    0.82624   0.78783    0.011
 5183.00    0.86207   0.79917    0.011
 5184.00    0.96253   0.79254    0.011
 5185.00    0.99411   0.76828    0.011
 5186.00    0.97735   0.73132    0.011
 5187.00    0.90742   0.69127    0.011
 5188.00    0.80474   0.66147    0.011
 5189.00    0.74555   0.65621    0.011
 5190.00    0.70973   0.68001    0.000
 5191.00    0.74489   0.72165    0.000
 5192.00    0.81317   0.76357    0.000
 5193.00    0.85667   0.79277    0.000
 5194.00    0.89020   0.80538    0.000
 5195.00    0.83297   0.80387    0.000
 5196.00    0.74459   0.79177    0.000
 5197.00    0.71030   0.77620    0.000
 5198.00    0.69162   0.76764    0.000
 5199.00    0.68129   0.76981    0.000
 5200.00    0.67294   0.77886    0.000
 5201.00    0.64085   0.79221    0.000
 5202.00    0.60419   0.80845    0.000
 5203.00    0.74524   0.82419    0.000
 5204.00    0.91285   0.83622    0.000
 5205.00    0.81617   0.84193    0.000
 5206.00    0.69054   0.83851    0.000
 5207.00    0.60285   0.82485    0.000
 5208.00    0.51790   0.80286    0.000
 5209.00    0.64282   0.77562    0.000
 5210.00    0.77557   0.74749    0.000
 5211.00    0.76947   0.72577    0.011
 5212.00    0.76809   0.71565    0.011
 5213.00    0.96211   0.71729    0.012
 5214.00    1.13596   0.73083    0.012
 5215.00    0.98286   0.75570    0.012
 5216.00    0.84676   0.78606    0.012
 5217.00    0.88364   0.81353    0.012
 5218.00    0.91445   0.83144    0.012
 5219.00    0.90111   0.83719    0.012
 5220.00    0.89442   0.83417    0.012
 5221.00    0.92486   0.83054    0.012
 5222.00    0.95268   0.83359    0.012
 5223.00    0.96884   0.84475    0.012
 5224.00    0.93478   0.85941    0.012
 5225.00    0.71728   0.87051    0.012
 5226.00    0.57276   0.87242    0.012
 5227.00    0.65161   0.86207    0.011
 5228.00    0.73969   0.83889    0.011
 5229.00    0.85176   0.80668    0.011
 5230.00    0.92269   0.77438    0.012
 5231.00    0.90160   0.75206    0.012
 5232.00    0.88880   0.74745    0.012
 5233.00    0.89206   0.76284    0.012
 5234.00    0.92321   0.78995    0.012
 5235.00    1.00152   0.81420    0.011
 5236.00    1.03761   0.82707    0.011
 5237.00    1.01118   0.82853    0.011
 5238.00    0.95034   0.82424    0.011
 5239.00    0.84471   0.82340    0.011
 5240.00    0.78279   0.83166    0.011
 5241.00    0.77098   0.84718    0.011
 5242.00    0.78916   0.86460    0.011
 5243.00    0.83765   0.87865    0.011
 5244.00    0.90741   0.88660    0.011
 5245.00    0.99613   0.88962    0.011
 5246.00    1.04157   0.89067    0.011
 5247.00    1.05299   0.89124    0.011
 5248.00    1.07719   0.89036    0.011
 5249.00    1.11022   0.88655    0.011
 5250.00    1.05759   0.87843    0.011
 5251.00    0.95303   0.86438    0.011
 5252.00    0.85761   0.84621    0.011
 5253.00    0.76703   0.83033    0.011
 5254.00    0.79079   0.82119    0.011
 5255.00    0.86706   0.81755    0.011
 5256.00    0.91734   0.81795    0.011
 5257.00    0.95735   0.82234    0.011
 5258.00    0.95168   0.82900    0.011
 5259.00    0.93064   0.83633    0.011
 5260.00    0.92198   0.84561    0.011
 5261.00    0.91683   0.85918    0.011
 5262.00    0.87611   0.87555    0.011
 5263.00    0.82708   0.88725    0.011
 5264.00    0.86181   0.88633    0.011
 5265.00    0.91225   0.86967    0.011
 5266.00    0.84664   0.83902    0.012
 5267.00    0.76423   0.79988    0.012
 5268.00    0.82235   0.76011    0.012
 5269.00    0.89525   0.72765    0.012
 5270.00    0.88988   0.70645    0.012
 5271.00    0.87917   0.69487    0.012
 5272.00    0.86859   0.68967    0.012
 5273.00    0.85802   0.68823    0.012
 5274.00    0.93006   0.68825    0.012
 5275.00    0.99744   0.69316    0.012
 5276.00    0.91248   0.71044    0.012
 5277.00    0.83976   0.73801    0.012
 5278.00    0.95322   0.76501    0.012
 5279.00    1.04091   0.78638    0.012
 5280.00    0.87723   0.80461    0.012
 5281.00    0.75028   0.82281    0.012
 5282.00    0.88190   0.84221    0.012
 5283.00    0.98842   0.85890    0.012
 5284.00    0.95879   0.86553    0.012
 5285.00    0.91748   0.85981    0.012
 5286.00    0.82543   0.84646    0.012
 5287.00    0.77950   0.83388    0.012
 5288.00    0.89859   0.82968    0.012
 5289.00    0.98916   0.83732    0.012
 5290.00    0.99405   0.85602    0.012
 5291.00    0.98394   0.88081    0.012
 5292.00    0.93545   0.90327    0.012
 5293.00    0.91395   0.91783    0.012
 5294.00    0.95184   0.92511    0.012
 5295.00    0.96920   0.92790    0.012
 5296.00    0.94742   0.92723    0.012
 5297.00    0.94873   0.92211    0.012
 5298.00    0.98852   0.91127    0.012
 5299.00    0.95312   0.89444    0.012
 5300.00    0.80798   0.87259    0.011
 5301.00    0.76330   0.84813    0.011
 5302.00    0.84755   0.82558    0.011
 5303.00    0.86822   0.81111    0.011
 5304.00    0.81699   0.80956    0.011
 5305.00    0.84188   0.82031    0.011
 5306.00    0.94269   0.83700    0.011
 5307.00    0.95826   0.85496    0.011
 5308.00    0.89883   0.87382    0.011
 5309.00    0.85538   0.89221    0.011
 5310.00    0.82430   0.90664    0.011
 5311.00    0.78731   0.91500    0.011
 5312.00    0.74629   0.91837    0.011
 5313.00    0.79030   0.91993    0.011
 5314.00    0.88509   0.92230    0.011
 5315.00    0.91136   0.92479    0.011
 5316.00    0.90194   0.92463    0.011
 5317.00    0.85907   0.92058    0.011
 5318.00    0.80109   0.91321    0.011
 5319.00    0.83805   0.90398    0.011
 5320.00    0.91190   0.89504    0.011
 5321.00    0.94284   0.88772    0.011
 5322.00    0.95959   0.88256    0.011
 5323.00    0.92219   0.88068    0.011
 5324.00    0.86976   0.88105    0.011
 5325.00    0.87275   0.87977    0.011
 5326.00    0.88837   0.87415    0.011
 5327.00    0.82138   0.86375    0.011
 5328.00    0.73931   0.84901    0.011
 5329.00    0.81083   0.82988    0.011
 5330.00    0.90388   0.80684    0.011
 5331.00    0.92997   0.78306    0.011
 5332.00    0.94931   0.76179    0.011
 5333.00    0.91707   0.74704    0.011
 5334.00    0.88153   0.74643    0.011
 5335.00    0.91612   0.76521    0.011
 5336.00    0.95258   0.79652    0.011
 5337.00    0.90063   0.82745    0.011
 5338.00    0.84860   0.85091    0.011
 5339.00    0.79422   0.86691    0.011
 5340.00    0.74941   0.87705    0.011
 5341.00    0.84195   0.88010    0.011
 5342.00    0.92338   0.87436    0.011
 5343.00    0.90087   0.86179    0.011
 5344.00    0.88825   0.84720    0.011
 5345.00    0.94310   0.83504    0.011
 5346.00    0.96836   0.82959    0.011
 5347.00    0.83741   0.83384    0.011
 5348.00    0.75613   0.84445    0.011
 5349.00    0.88582   0.85364    0.011
 5350.00    0.97315   0.85687    0.011
 5351.00    0.91201   0.85432    0.011
 5352.00    0.85805   0.84961    0.011
 5353.00    0.82522   0.84722    0.011
 5354.00    0.84163   0.84896    0.011
 5355.00    0.98172   0.85611    0.011
 5356.00    1.03778   0.86960    0.011
 5357.00    0.91200   0.88704    0.011
 5358.00    0.87631   0.90406    0.011
 5359.00    1.00986   0.91842    0.011
 5360.00    1.08520   0.93041    0.011
 5361.00    1.06504   0.93943    0.011
 5362.00    1.00211   0.94393    0.011
 5363.00    0.87766   0.94349    0.011
 5364.00    0.83046   0.93825    0.011
 5365.00    0.88099   0.92862    0.011
 5366.00    0.91024   0.91561    0.011
 5367.00    0.91575   0.90063    0.011
 5368.00    0.94406   0.88601   -2.000
 5369.00    0.99479   0.87386   -2.000
 5370.00    1.07319   0.86397   -2.000
 5371.00    1.17558   0.85470   -2.000
 5372.00    1.21075   0.84428   -2.000
 5373.00    1.19455   0.83067   -2.000
 5374.00    1.18008   0.81466   -2.000
 5375.00    1.16676   0.80090   -2.000
 5376.00    1.12012   0.79571   -2.000
 5377.00    1.05387   0.80416   -2.000
 5378.00    1.04228   0.82609   -2.000
 5379.00    1.05873   0.85381   -2.000
 5380.00    0.98111   0.87739   -2.000
 5381.00    0.86171   0.89195   -2.000
 5382.00    0.88955   0.89777   -2.000
 5383.00    0.97362   0.89760    0.011
 5384.00    0.96267   0.89451    0.011
 5385.00    0.92092   0.88961    0.011
 5386.00    0.89795   0.88338    0.011
 5387.00    0.88008   0.87801    0.011
 5388.00    0.88751   0.87558    0.011
 5389.00    0.90057   0.87625    0.011
 5390.00    0.88130   0.87905    0.011
 5391.00    0.85629   0.88127    0.011
 5392.00    0.88412   0.87929    0.011
 5393.00    0.91913   0.87207    0.011
 5394.00    1.02099   0.86125    0.011
 5395.00    1.12932   0.84920    0.011
 5396.00    0.99310   0.83834    0.011
 5397.00    0.84217   0.83019    0.011
 5398.00    0.78483   0.82383    0.011
 5399.00    0.73090   0.81689    0.011
 5400.00    0.83875   0.80877    0.011
 5401.00    0.94493   0.80149    0.011
 5402.00    1.00815   0.79741    0.011
 5403.00    1.05794   0.79893    0.011
 5404.00    0.92580   0.80748    0.011
 5405.00    0.81816   0.81883    0.011
 5406.00    0.93083   0.82482    0.011
 5407.00    1.00848   0.82090    0.011
 5408.00    0.85456   0.80785    0.011
 5409.00    0.73886   0.78942    0.011
 5410.00    0.81977   0.77179    0.011
 5411.00    0.87581   0.76139    0.011
 5412.00    0.82856   0.76104    0.011
 5413.00    0.80120   0.76883    0.011
 5414.00    0.84212   0.78054    0.011
 5415.00    0.87311   0.79311    0.011
 5416.00    0.87531   0.80676    0.011
 5417.00    0.87989   0.82260    0.011
 5418.00    0.89032   0.83906    0.011
 5419.00    0.91168   0.85311    0.011
 5420.00    0.95629   0.86358    0.011
 5421.00    0.96188   0.87133    0.011
 5422.00    0.89530   0.87677    0.011
 5423.00    0.87110   0.87874    0.011
 5424.00    0.91538   0.87640    0.011
 5425.00    0.93950   0.87085    0.011
 5426.00    0.93503   0.86388    0.011
 5427.00    0.92160   0.85749    0.011
 5428.00    0.89699   0.85365    0.011
 5429.00    0.87327   0.85277    0.011
 5430.00    0.85050   0.85405    0.011
 5431.00    0.88476   0.85580    0.011
 5432.00    0.97431   0.85470    0.011
 5433.00    0.98726   0.84788    0.011
 5434.00    0.93471   0.83577    0.011
 5435.00    0.89123   0.82191    0.011
 5436.00    0.85457   0.81127    0.011
 5437.00    0.89096   0.80587    0.011
 5438.00    0.97567   0.80288    0.011
 5439.00    0.95643   0.80070    0.011
 5440.00    0.87697   0.80283    0.011
 5441.00    0.86427   0.81321    0.011
 5442.00    0.88527   0.83180    0.011
 5443.00    0.88746   0.85493    0.011
 5444.00    0.88145   0.87746    0.011
 5445.00    0.87912   0.89482    0.011
 5446.00    0.87817   0.90390    0.011
 5447.00    0.83600   0.90317    0.011
 5448.00    0.78072   0.89233    0.011
 5449.00    0.90668   0.87269    0.011
 5450.00    1.08083   0.84861    0.011
 5451.00    1.08095   0.82708    0.011
 5452.00    1.04323   0.81488    0.011
 5453.00    1.07507   0.81556    0.011
 5454.00    1.11893   0.82724    0.011
 5455.00    1.05050   0.84231    0.011
 5456.00    0.96735   0.85143    0.011
 5457.00    0.92620   0.84978    0.011
 5458.00    0.88894   0.83868    0.011
 5459.00    0.86675   0.82399    0.011
 5460.00    0.84542   0.81283    0.011
 5461.00    0.86364   0.81018    0.011
 5462.00    0.88240   0.81746    0.011
 5463.00    0.86571   0.83143    0.011
 5464.00    0.85402   0.84435    0.011
 5465.00    0.95987   0.84894    0.011
 5466.00    1.05664   0.84442    0.011
 5467.00    1.03668   0.83584    0.011
 5468.00    1.01730   0.82890    0.011
 5469.00    1.00291   0.82671    0.011
 5470.00    0.99231   0.83007    0.011
 5471.00    1.00604   0.83722    0.011
 5472.00    1.01296   0.84369    0.011
 5473.00    0.98581   0.84648    0.011
 5474.00    0.95759   0.84598    0.011
 5475.00    0.92503   0.84269    0.011
 5476.00    0.89560   0.83641    0.011
 5477.00    0.87671   0.82810    0.011
 5478.00    0.89564   0.81833   -2.000
 5479.00    1.02197   0.80630   -2.000
 5480.00    1.08551   0.79342   -2.000
 5481.00    0.99660   0.78412   -2.000
 5482.00    0.93633   0.78066   -2.000
 5483.00    0.93603   0.78233   -2.000
 5484.00    1.05107   0.78836   -2.000
 5485.00    1.37617   0.79654   -2.000
 5486.00    1.92414   0.80336   -2.000
 5487.00    2.82689   0.80888   -2.000
 5488.00    3.23684   0.81630   -2.000
 5489.00    2.95836   0.82614   -2.000
 5490.00    2.48069   0.83461   -2.000
 5491.00    1.75812   0.83840   -2.000
 5492.00    1.12250   0.83739   -2.000
 5493.00    0.58109   0.83366   -2.000
 5494.00    0.37261   0.83095   -2.000
 5495.00    0.48239   0.83175   -2.000
 5496.00    0.60443   0.83461   -2.000
 5497.00    0.73682   0.83689   -2.000
 5498.00    0.79485   0.83798   -2.000
 5499.00    0.79769   0.83746   -2.000
 5500.00    0.86990   0.83545   -2.000
 5501.00    0.98734   0.83413   -2.000
 5502.00    0.92918   0.83463    0.011
 5503.00    0.77082   0.83535    0.011
 5504.00    0.80730   0.83505    0.011
 5505.00    0.94058   0.83376    0.011
 5506.00    1.02329   0.83066    0.011
 5507.00    1.08426   0.82498    0.011
 5508.00    0.94209   0.81831    0.011
 5509.00    0.72507   0.81292    0.011
 5510.00    0.71380   0.80987    0.011
 5511.00    0.76673   0.80899    0.011
 5512.00    0.85167   0.80960    0.011
 5513.00    0.94494   0.81116    0.011
 5514.00    0.94525   0.81273    0.011
 5515.00    0.92581   0.81177    0.011
 5516.00    0.89057   0.80677    0.011
 5517.00    0.85266   0.79985    0.011
 5518.00    0.77814   0.79472    0.011
 5519.00    0.69898   0.79425    0.011
 5520.00    0.83589   0.80000    0.011
 5521.00    0.99185   0.81115    0.011
 5522.00    0.92817   0.82484    0.011
 5523.00    0.85300   0.83799    0.011
 5524.00    0.84791   0.84854    0.010
 5525.00    0.84346   0.85536    0.010
 5526.00    0.78826   0.85790    0.010
 5527.00    0.73854   0.85659    0.010
 5528.00    0.80680   0.85233    0.010
 5529.00    0.86812   0.84524    0.010
 5530.00    0.84468   0.83488    0.010
 5531.00    0.83424   0.82211    0.010
 5532.00    0.93222   0.81024    0.010
 5533.00    1.01580   0.80314    0.011
 5534.00    1.00984   0.80269    0.010
 5535.00    0.99464   0.80828    0.010
 5536.00    0.93427   0.81715    0.010
 5537.00    0.89555   0.82471    0.010
 5538.00    0.94273   0.82771    0.010
 5539.00    0.96965   0.82705    0.010
 5540.00    0.92971   0.82557    0.010
 5541.00    0.88891   0.82547    0.010
 5542.00    0.84572   0.82807    0.011
 5543.00    0.82335   0.83356    0.013
 5544.00    0.85066   0.84029    0.031
 5545.00    0.88240   0.84590   -1.000
 5546.00    0.92331   0.84893   -1.000
 5547.00    0.93421   0.84899   -1.000
 5548.00    0.89131   0.84642   -1.000
 5549.00    0.89237   0.84272   -1.000
 5550.00    0.96240   0.84059   -1.000
 5551.00    1.01534   0.84223   -1.000
 5552.00    1.04476   0.84739   -1.000
 5553.00    1.02895   0.85434   -1.000
 5554.00    0.95831   0.86122   -1.000
 5555.00    0.94361   0.86585    0.043
 5556.00    0.98866   0.86630    0.014
 5557.00    0.99755   0.86251    0.011
 5558.00    0.97235   0.85638    0.011
 5559.00    0.93840   0.85009    0.011
 5560.00    0.89718   0.84510    0.011
 5561.00    0.87720   0.84221    0.011
 5562.00    0.87273   0.84137    0.010
 5563.00    0.84096   0.84129    0.010
 5564.00    0.79165   0.84042    0.010
 5565.00    0.83365   0.83795    0.010
 5566.00    0.92695   0.83399    0.010
 5567.00    0.96798   0.82911    0.010
 5568.00    0.98345   0.82368    0.010
 5569.00    0.97133   0.81832    0.010
 5570.00    0.94756   0.81392    0.010
 5571.00    0.90875   0.81077    0.010
 5572.00    0.86451   0.80841    0.010
 5573.00    0.87695   0.80709    0.010
 5574.00    0.90674   0.80735    0.010
 5575.00    0.92544   0.80810    0.010
 5576.00    0.94131   0.80863    0.010
 5577.00    0.94923   0.80989    0.010
 5578.00    0.95551   0.81221    0.010
 5579.00    0.97857   0.81522    0.010
 5580.00    1.00437   0.81935    0.010
 5581.00    0.98320   0.82456    0.010
 5582.00    0.95629   0.82944    0.010
 5583.00    0.94394   0.83290    0.010
 5584.00    0.93281   0.83478    0.010
 5585.00    0.88292   0.83508    0.010
 5586.00    0.83116   0.83363    0.010
 5587.00    0.79008   0.82997    0.010
 5588.00    0.75092   0.82312    0.010
 5589.00    0.81672   0.81200    0.010
 5590.00    0.88102   0.79669    0.010
 5591.00    0.91569   0.77908    0.010
 5592.00    0.94538   0.76230    0.011
 5593.00    0.91731   0.75042    0.011
 5594.00    0.89406   0.74634    0.011
 5595.00    0.90946   0.74997    0.011
 5596.00    0.92879   0.75862    0.011
 5597.00    0.97193   0.76876    0.011
 5598.00    0.99343   0.77863    0.011
 5599.00    0.91176   0.78799    0.011
 5600.00    0.84488   0.79600    0.011
 5601.00    0.83543   0.80135    0.011
 5602.00    0.83501   0.80305    0.011
 5603.00    0.86383   0.80032    0.011
 5604.00    0.89333   0.79308    0.010
 5605.00    0.92471   0.78358    0.010
 5606.00    0.91927   0.77627    0.010
 5607.00    0.82744   0.77533    0.010
 5608.00    0.80088   0.78202    0.010
 5609.00    0.90676   0.79535    0.010
 5610.00    0.96339   0.81277    0.010
 5611.00    0.93307   0.83036    0.010
 5612.00    0.88224   0.84439    0.010
 5613.00    0.79972   0.85297    0.010
 5614.00    0.76939   0.85671    0.010
 5615.00    0.80989   0.85716    0.010
 5616.00    0.82612   0.85465    0.010
 5617.00    0.81337   0.84745    0.009
 5618.00    0.81758   0.83396    0.009
 5619.00    0.83965   0.81606    0.009
 5620.00    0.85546   0.79844    0.009
 5621.00    0.86545   0.78564    0.009
 5622.00    0.88663   0.78033    0.010
 5623.00    0.91698   0.78276    0.010
 5624.00    0.90972   0.79060    0.010
 5625.00    0.87535   0.79919    0.010
 5626.00    0.86428   0.80396    0.010
 5627.00    0.86797   0.80324    0.010
 5628.00    0.92738   0.79824    0.010
 5629.00    1.01761   0.79173    0.010
 5630.00    0.99195   0.78681    0.010
 5631.00    0.91052   0.78630    0.010
 5632.00    0.83335   0.79195    0.010
 5633.00    0.75796   0.80298    0.010
 5634.00    0.81218   0.81594    0.010
 5635.00    0.91245   0.82685    0.010
 5636.00    0.96176   0.83348    0.010
 5637.00    0.99577   0.83522    0.010
 5638.00    1.00819   0.83228    0.010
 5639.00    1.01523   0.82568    0.010
 5640.00    0.97442   0.81716    0.010
 5641.00    0.92394   0.80880    0.010
 5642.00    0.86089   0.80227    0.010
 5643.00    0.79584   0.79807    0.010
 5644.00    0.85232   0.79556    0.010
 5645.00    0.92311   0.79424    0.010
 5646.00    0.93921   0.79396    0.010
 5647.00    0.95095   0.79460    0.010
 5648.00    0.93798   0.79632    0.010
 5649.00    0.92391   0.79948    0.010
 5650.00    0.85978   0.80394    0.010
 5651.00    0.79530   0.80854    0.010
 5652.00    0.74134   0.81196    0.009
 5653.00    0.69192   0.81399    0.009
 5654.00    0.72612   0.81531    0.009
 5655.00    0.75747   0.81668    0.009
 5656.00    0.75739   0.81805    0.009
 5657.00    0.76118   0.81838    0.009
 5658.00    0.79507   0.81665    0.009
 5659.00    0.82074   0.81243    0.009
 5660.00    0.79815   0.80506    0.009
 5661.00    0.78592   0.79426    0.009
 5662.00    0.82190   0.78204    0.009
 5663.00    0.85572   0.77187    0.009
 5664.00    0.88134   0.76582    0.009
 5665.00    0.89365   0.76395    0.009
 5666.00    0.86376   0.76609    0.009
 5667.00    0.83766   0.77207    0.009
 5668.00    0.82177   0.78029    0.009
 5669.00    0.80230   0.78835    0.009
 5670.00    0.77456   0.79477    0.009
 5671.00    0.77571   0.79908    0.009
 5672.00    0.83453   0.80115    0.009
 5673.00    0.90454   0.80159    0.009
 5674.00    0.99401   0.80217    0.010
 5675.00    1.03495   0.80499    0.010
 5676.00    1.00200   0.81099    0.010
 5677.00    0.95966   0.81908    0.010
 5678.00    0.90473   0.82706    0.010
 5679.00    0.89905   0.83341    0.010
 5680.00    0.95141   0.83757    0.010
 5681.00    0.90757   0.83927    0.010
 5682.00    0.76381   0.83850    0.010
 5683.00    0.71925   0.83577    0.010
 5684.00    0.76556   0.83130    0.010
 5685.00    0.79440   0.82479    0.010
 5686.00    0.80911   0.81660    0.010
 5687.00    0.82754   0.80847    0.010
 5688.00    0.84861   0.80208    0.010
 5689.00    0.83578   0.79773    0.010
 5690.00    0.80181   0.79474    0.009
 5691.00    0.79397   0.79264    0.009
 5692.00    0.80038   0.79168    0.009
 5693.00    0.84839   0.79262    0.009
 5694.00    0.91609   0.79635    0.009
 5695.00    0.92692   0.80321    0.009
 5696.00    0.91452   0.81216    0.009
 5697.00    0.92036   0.82087    0.009
 5698.00    0.93256   0.82718    0.009
 5699.00    0.92312   0.83018    0.009
 5700.00    0.90731   0.82988    0.009
 5701.00    0.85070   0.82652    0.009
 5702.00    0.78415   0.82062    0.009
 5703.00    0.79770   0.81298    0.009
 5704.00    0.82701   0.80432    0.009
 5705.00    0.84790   0.79566    0.009
 5706.00    0.86750   0.78864    0.009
 5707.00    0.84431   0.78454    0.009
 5708.00    0.81626   0.78296    0.009
 5709.00    0.87810   0.78186    0.009
 5710.00    0.94675   0.77906    0.009
 5711.00    0.95921   0.77330    0.009
 5712.00    0.96938   0.76469    0.009
 5713.00    0.99241   0.75522    0.009
 5714.00    1.01354   0.74774    0.009
 5715.00    0.95203   0.74454    0.009
 5716.00    0.89333   0.74710    0.009
 5717.00    0.88291   0.75546    0.009
 5718.00    0.87221   0.76793    0.009
 5719.00    0.85860   0.78219    0.009
 5720.00    0.84456   0.79581    0.009
 5721.00    0.82729   0.80711    0.009
 5722.00    0.82242   0.81572    0.009
 5723.00    0.88832   0.82214    0.009
 5724.00    0.93166   0.82741    0.009
 5725.00    0.87251   0.83255    0.010
 5726.00    0.82286   0.83771    0.010
 5727.00    0.80862   0.84219    0.009
 5728.00    0.81869   0.84500    0.009
 5729.00    0.90443   0.84505    0.009
 5730.00    0.95263   0.84195    0.009
 5731.00    0.90160   0.83672    0.009
 5732.00    0.86280   0.83134    0.009
 5733.00    0.85171   0.82717    0.009
 5734.00    0.85637   0.82422    0.009
 5735.00    0.89198   0.82209    0.009
 5736.00    0.89471   0.82105    0.009
 5737.00    0.84113   0.82169    0.009
 5738.00    0.79424   0.82399    0.009
 5739.00    0.75740   0.82727    0.009
 5740.00    0.75112   0.83045    0.000
 5741.00    0.78514   0.83252    0.000
 5742.00    0.83785   0.83288    0.000
 5743.00    0.91225   0.83175    0.000
 5744.00    0.91096   0.82996    0.000
 5745.00    0.83218   0.82820    0.000
 5746.00    0.79984   0.82676    0.000
 5747.00    0.80945   0.82604    0.000
 5748.00    0.85923   0.82648    0.000
 5749.00    0.94098   0.82790    0.000
 5750.00    0.97594   0.82912    0.000
 5751.00    0.97813   0.82869    0.000
 5752.00    0.99214   0.82644    0.000
 5753.00    1.01340   0.82358    0.000
 5754.00    1.01792   0.82101    0.000
 5755.00    1.01347   0.81834    0.000
 5756.00    0.99136   0.81440    0.000
 5757.00    0.96102   0.80873    0.000
 5758.00    0.97820   0.80287    0.000
 5759.00    1.01445   0.79962    0.000
 5760.00    0.95847   0.80107    0.000
 5761.00    0.87090   0.80693    0.000
 5762.00    0.84721   0.81448    0.000
 5763.00    0.84194   0.81970    0.000
 5764.00    0.88775   0.81964    0.000
 5765.00    0.94573   0.81402    0.000
 5766.00    1.00877   0.80554    0.000
 5767.00    1.07279   0.79881    0.000
 5768.00    0.97271   0.79766    0.000
 5769.00    0.84820   0.80288    0.000
 5770.00    0.82851   0.81251    0.000
 5771.00    0.82024   0.82333    0.000
 5772.00    0.91241   0.83218    0.000
 5773.00    1.01177   0.83718    0.000
 5774.00    1.01036   0.83808    0.000
 5775.00    1.00524   0.83574    0.000
 5776.00    0.96995   0.83158    0.000
 5777.00    0.93316   0.82702    0.000
 5778.00    0.84749   0.82304    0.000
 5779.00    0.76681   0.82040    0.000
 5780.00    0.76646   0.81944    0.000
 5781.00    0.76752   0.81931    0.000
 5782.00    0.78294   0.81827    0.000
 5783.00    0.79586   0.81408    0.000
 5784.00    0.79067   0.80507    0.000
 5785.00    0.79102   0.79180    0.000
 5786.00    0.82202   0.77711    0.000
 5787.00    0.85582   0.76411    0.000
 5788.00    0.90204   0.75479    0.000
 5789.00    0.93746   0.75023    0.000
 5790.00    0.93353   0.75119    0.000
 5791.00    0.95779   0.75731   -2.000
 5792.00    1.06815   0.76683   -2.000
 5793.00    1.16932   0.77741   -2.000
 5794.00    1.24664   0.78656   -2.000
 5795.00    1.26488   0.79315   -2.000
 5796.00    1.15129   0.79795   -2.000
 5797.00    1.05256   0.80224   -2.000
 5798.00    0.98258   0.80697   -2.000
 5799.00    0.95363   0.81203   -2.000
 5800.00    0.99388   0.81582   -2.000
 5801.00    1.01408   0.81713   -2.000
 5802.00    1.00464   0.81678   -2.000
 5803.00    0.98115   0.81718   -2.000
 5804.00    0.93941   0.82002   -2.000
 5805.00    0.89683   0.82517   -2.000
 5806.00    0.85331   0.83080   -2.000
 5807.00    0.84821   0.83408   -2.000
 5808.00    0.88192   0.83314   -2.000
 5809.00    0.88584   0.82855   -2.000
 5810.00    0.86322   0.82250   -2.000
 5811.00    0.86014   0.81748    0.000
 5812.00    0.87238   0.81508    0.000
 5813.00    0.87262   0.81551    0.000
 5814.00    0.86458   0.81803    0.000
 5815.00    0.87335   0.82137    0.000
 5816.00    0.89228   0.82406    0.000
 5817.00    0.88484   0.82503    0.000
 5818.00    0.86345   0.82362    0.000
 5819.00    0.83062   0.81989    0.000
 5820.00    0.79254   0.81524    0.000
 5821.00    0.80960   0.81218    0.000
 5822.00    0.84841   0.81269    0.000
 5823.00    0.90752   0.81691    0.000
 5824.00    0.97344   0.82337    0.000
 5825.00    0.96123   0.82987    0.000
 5826.00    0.92695   0.83440    0.000
 5827.00    0.90740   0.83632    0.000
 5828.00    0.89128   0.83630    0.000
 5829.00    0.92959   0.83553    0.000
 5830.00    0.97808   0.83491    0.000
 5831.00    1.00225   0.83479    0.000
 5832.00    1.02291   0.83520    0.000
 5833.00    0.98864   0.83596    0.000
 5834.00    0.94863   0.83661    0.000
 5835.00    0.90160   0.83664    0.000
 5836.00    0.85410   0.83585    0.000
 5837.00    0.79991   0.83407    0.000
 5838.00    0.74550   0.83126    0.000
 5839.00    0.77996   0.82809    0.000
 5840.00    0.81454   0.82555    0.000
 5841.00    0.85127   0.82391    0.000
 5842.00    0.88517   0.82310    0.000
 5843.00    0.87627   0.82353    0.000
 5844.00    0.86322   0.82552    0.000
 5845.00    0.81004   0.82877    0.000
 5846.00    0.76410   0.83251    0.000
 5847.00    0.76902   0.83561    0.000
 5848.00    0.77608   0.83678    0.000
 5849.00    0.79470   0.83526    0.000
 5850.00    0.80782   0.83108    0.000
 5851.00    0.79715   0.82513    0.000
 5852.00    0.78577   0.81894    0.000
 5853.00    0.77187   0.81376    0.000
 5854.00    0.77060   0.80985    0.000
 5855.00    0.80713   0.80637    0.000
 5856.00    0.84744   0.80207    0.000
 5857.00    0.89737   0.79640    0.000
 5858.00    0.91454   0.79010    0.000
 5859.00    0.85982   0.78399    0.000
 5860.00    0.79224   0.77789    0.000
 5861.00    0.70017   0.77158    0.000
 5862.00    0.65837   0.76603    0.000
 5863.00    0.70011   0.76306    0.000
 5864.00    0.74733   0.76379    0.000
 5865.00    0.80256   0.76799    0.000
 5866.00    0.83314   0.77401    0.000
 5867.00    0.83214   0.78010    0.000
 5868.00    0.84260   0.78524    0.000
 5869.00    0.86597   0.78880    0.000
 5870.00    0.87235   0.79062    0.000
 5871.00    0.86181   0.79158    0.000
 5872.00    0.85480   0.79312    0.000
 5873.00    0.85089   0.79603    0.000
 5874.00    0.85311   0.80010    0.000
 5875.00    0.86006   0.80431    0.000
 5876.00    0.87192   0.80741    0.000
 5877.00    0.88712   0.80876    0.000
 5878.00    0.88701   0.80875    0.000
 5879.00    0.87777   0.80794    0.000
 5880.00    0.88926   0.80641    0.000
 5881.00    0.91152   0.80393    0.000
 5882.00    0.89385   0.80019    0.000
 5883.00    0.85818   0.79511    0.000
 5884.00    0.82428   0.78916    0.000
 5885.00    0.79108   0.78357    0.000
 5886.00    0.75347   0.77937    0.000
 5887.00    0.71440   0.77641    0.000
 5888.00    0.68575   0.77369    0.000
 5889.00    0.65998   0.76989    0.000
 5890.00    0.68357   0.76276    0.000
 5891.00    0.71839   0.74901    0.000
 5892.00    0.76482   0.72547    0.000
 5893.00    0.81337   0.69168    0.000
 5894.00    0.78686   0.65329    0.000
 5895.00    0.74986   0.62103    0.000
 5896.00    0.71868   0.60323    0.000
 5897.00    0.68808   0.60054    0.000
 5898.00    0.70946   0.60695    0.000
 5899.00    0.73414   0.61385    0.000
 5900.00    0.72907   0.61715    0.000
 5901.00    0.72325   0.62059    0.009
 5902.00    0.75844   0.63016    0.009
 5903.00    0.79294   0.64832    0.009
 5904.00    0.80798   0.67351    0.009
 5905.00    0.82067   0.70136    0.009
 5906.00    0.79981   0.72670    0.009
 5907.00    0.77971   0.74629    0.009
 5908.00    0.76676   0.75950    0.009
 5909.00    0.75369   0.76718    0.009
 5910.00    0.73984   0.77110    0.009
 5911.00    0.72565   0.77340    0.009
 5912.00    0.70963   0.77558    0.009
 5913.00    0.70285   0.77807    0.009
 5914.00    0.73516   0.78066    0.009
 5915.00    0.75432   0.78275    0.009
 5916.00    0.72746   0.78338    0.008
 5917.00    0.70899   0.78148    0.008
 5918.00    0.71518   0.77680    0.008
 5919.00    0.73327   0.77066    0.008
 5920.00    0.78122   0.76528    0.008
 5921.00    0.81740   0.76261    0.008
 5922.00    0.82814   0.76351    0.008
 5923.00    0.82470   0.76730    0.008
 5924.00    0.79467   0.77242    0.008
 5925.00    0.77895   0.77717    0.008
 5926.00    0.78665   0.78041    0.008
 5927.00    0.79782   0.78219    0.008
 5928.00    0.81396   0.78329    0.008
 5929.00    0.80216   0.78436    0.008
 5930.00    0.75509   0.78542    0.008
 5931.00    0.71369   0.78581    0.008
 5932.00    0.67858   0.78464    0.008
 5933.00    0.67304   0.78166    0.008
 5934.00    0.69653   0.77772    0.009
 5935.00    0.72439   0.77454    0.009
 5936.00    0.75604   0.77345    0.008
 5937.00    0.77971   0.77405    0.008
 5938.00    0.79729   0.77495    0.008
 5939.00    0.78502   0.77540    0.009
 5940.00    0.75273   0.77595    0.009
 5941.00    0.71624   0.77739    0.009
 5942.00    0.67730   0.77976    0.009
 5943.00    0.70501   0.78237    0.009
 5944.00    0.76684   0.78399    0.009
 5945.00    0.81854   0.78354    0.009
 5946.00    0.86577   0.78139    0.009
 5947.00    0.86390   0.77921    0.009
 5948.00    0.84333   0.77854    0.009
 5949.00    0.80324   0.77982    0.009
 5950.00    0.75683   0.78221    0.009
 5951.00    0.75553   0.78396    0.008
 5952.00    0.76644   0.78350    0.008
 5953.00    0.77527   0.78065    0.008
 5954.00    0.78365   0.77683    0.008
 5955.00    0.80515   0.77368    0.008
 5956.00    0.82898   0.77153    0.008
 5957.00    0.83667   0.76994    0.008
 5958.00    0.84217   0.76895    0.008
 5959.00    0.79333   0.76877    0.008
 5960.00    0.73927   0.76886    0.008
 5961.00    0.70432   0.76873    0.008
 5962.00    0.67051   0.76880    0.008
 5963.00    0.68562   0.77002    0.008
 5964.00    0.70206   0.77306    0.008
 5965.00    0.73281   0.77782    0.008
 5966.00    0.76173   0.78333    0.008
 5967.00    0.74393   0.78811    0.008
 5968.00    0.72490   0.79105    0.008
 5969.00    0.68921   0.79183    0.008
 5970.00    0.66095   0.79098    0.008
 5971.00    0.69916   0.78987    0.008
 5972.00    0.73615   0.78987    0.008
 5973.00    0.76507   0.79138    0.008
 5974.00    0.79127   0.79403    0.009
 5975.00    0.80357   0.79706    0.009
 5976.00    0.80477   0.79942    0.009
 5977.00    0.76001   0.80010    0.009
 5978.00    0.73046   0.79845    0.009
 5979.00    0.75303   0.79417    0.008
 5980.00    0.77503   0.78764    0.008
 5981.00    0.79538   0.78023    0.008
 5982.00    0.80585   0.77394    0.008
 5983.00    0.79201   0.77040    0.008
 5984.00    0.77253   0.76999    0.008
 5985.00    0.74111   0.77160    0.008
 5986.00    0.71623   0.77288    0.008
 5987.00    0.70342   0.77173    0.008
 5988.00    0.70510   0.76759    0.008
 5989.00    0.73015   0.76207    0.008
 5990.00    0.73994   0.75812    0.008
 5991.00    0.72817   0.75755    0.008
 5992.00    0.71669   0.76015    0.008
 5993.00    0.70557   0.76477    0.008
 5994.00    0.70570   0.76989    0.008
 5995.00    0.71818   0.77410    0.008
 5996.00    0.71695   0.77689    0.008
 5997.00    0.70246   0.77903    0.008
 5998.00    0.70114   0.78129    0.008
 5999.00    0.71105   0.78314    0.008
 6000.00    0.72752   0.78339    0.008
 6001.00    0.74893   0.78131    0.008
 6002.00    0.76663   0.77726    0.008
 6003.00    0.78189   0.77281    0.008
 6004.00    0.79915   0.76963    0.008
 6005.00    0.81757   0.76825    0.008
 6006.00    0.80003   0.76799    0.008
 6007.00    0.76439   0.76763    0.008
 6008.00    0.73379   0.76667    0.008
 6009.00    0.70539   0.76533    0.009
 6010.00    0.76980   0.76320    0.009
 6011.00    0.86894   0.75988    0.009
 6012.00    0.90374   0.75589    0.009
 6013.00    0.91812   0.75270    0.009
 6014.00    0.87241   0.75225    0.008
 6015.00    0.81078   0.75474    0.008
 6016.00    0.77039   0.75809    0.008
 6017.00    0.73460   0.75999    0.008
 6018.00    0.71101   0.75968    0.008
 6019.00    0.68952   0.75808    0.008
 6020.00    0.70319   0.75623    0.008
 6021.00    0.72145   0.75443    0.008
 6022.00    0.74028   0.75289    0.008
 6023.00    0.75916   0.75170    0.008
 6024.00    0.74895   0.75029    0.008
 6025.00    0.73711   0.74860    0.008
 6026.00    0.74358   0.74751    0.008
 6027.00    0.75056   0.74786    0.008
 6028.00    0.76784   0.74991    0.008
 6029.00    0.78380   0.75347    0.008
 6030.00    0.76906   0.75824    0.008
 6031.00    0.75688   0.76350    0.008
 6032.00    0.77750   0.76852    0.008
 6033.00    0.79365   0.77329    0.008
 6034.00    0.77144   0.77779    0.008
 6035.00    0.74273   0.78169    0.008
 6036.00    0.67247   0.78494    0.008
 6037.00    0.62002   0.78774    0.008
 6038.00    0.65653   0.79013    0.008
 6039.00    0.69262   0.79193    0.008
 6040.00    0.72703   0.79305    0.008
 6041.00    0.74832   0.79353    0.008
 6042.00    0.72553   0.79337    0.008
 6043.00    0.70398   0.79248    0.008
 6044.00    0.68594   0.79087    0.008
 6045.00    0.68413   0.78888    0.008
 6046.00    0.72166   0.78724    0.008
 6047.00    0.75306   0.78666    0.008
 6048.00    0.77165   0.78763    0.008
 6049.00    0.78047   0.79000    0.008
 6050.00    0.77151   0.79292    0.008
 6051.00    0.76566   0.79560    0.008
 6052.00    0.76476   0.79756    0.008
 6053.00    0.77075   0.79858    0.008
 6054.00    0.78637   0.79872    0.008
 6055.00    0.78266   0.79812    0.008
 6056.00    0.75522   0.79664    0.008
 6057.00    0.73193   0.79388    0.008
 6058.00    0.71314   0.78975    0.008
 6059.00    0.72393   0.78484    0.008
 6060.00    0.76294   0.78004    0.008
 6061.00    0.79565   0.77625    0.008
 6062.00    0.82306   0.77431    0.008
 6063.00    0.82851   0.77463    0.008
 6064.00    0.81771   0.77668    0.008
 6065.00    0.77251   0.77905    0.008
 6066.00    0.70494   0.78006    0.008
 6067.00    0.66457   0.77855    0.008
 6068.00    0.63968   0.77449    0.008
 6069.00    0.64660   0.76915    0.008
 6070.00    0.66929   0.76473    0.008
 6071.00    0.69397   0.76377    0.008
 6072.00    0.71950   0.76770    0.008
 6073.00    0.71153   0.77546    0.008
 6074.00    0.69125   0.78440    0.008
 6075.00    0.65877   0.79223    0.008
 6076.00    0.62250   0.79785    0.008
 6077.00    0.61078   0.80116    0.008
 6078.00    0.60544   0.80245    0.008
 6079.00    0.63105   0.80193    0.008
 6080.00    0.66321   0.79955    0.008
 6081.00    0.70694   0.79518    0.008
 6082.00    0.75262   0.78899    0.008
 6083.00    0.74096   0.78165    0.008
 6084.00    0.72208   0.77432    0.008
 6085.00    0.70049   0.76823    0.008
 6086.00    0.67866   0.76379    0.008
 6087.00    0.70536   0.76063    0.008
 6088.00    0.73456   0.75870    0.008
 6089.00    0.75202   0.75819    0.008
 6090.00    0.76910   0.75868    0.008
 6091.00    0.77502   0.75959    0.008
 6092.00    0.77907   0.76058    0.008
 6093.00    0.74359   0.76115    0.008
 6094.00    0.70668   0.76064    0.008
 6095.00    0.65234   0.75883    0.008
 6096.00    0.60725   0.75664    0.008
 6097.00    0.63881   0.75551    0.008
 6098.00    0.66952   0.75625    0.008
 6099.00    0.69486   0.75886    0.008
 6100.00    0.71795   0.76278    0.008
 6101.00    0.73008   0.76681    0.008
 6102.00    0.73690   0.76958    0.008
 6103.00    0.72268   0.77046    0.008
 6104.00    0.70499   0.76924    0.008
 6105.00    0.67587   0.76533    0.008
 6106.00    0.65153   0.75825    0.008
 6107.00    0.64049   0.74879    0.008
 6108.00    0.62385   0.73980    0.008
 6109.00    0.59389   0.73556    0.008
 6110.00    0.57035   0.73811    0.008
 6111.00    0.56003   0.74521    0.008
 6112.00    0.55886   0.75326    0.008
 6113.00    0.57405   0.75996    0.008
 6114.00    0.60428   0.76470    0.008
 6115.00    0.65804   0.76790    0.008
 6116.00    0.70397   0.76987    0.008
 6117.00    0.73913   0.77099    0.008
 6118.00    0.75793   0.77212    0.008
 6119.00    0.75693   0.77348    0.008
 6120.00    0.74684   0.77423    0.008
 6121.00    0.72704   0.77339    0.008
 6122.00    0.70290   0.77054    0.008
 6123.00    0.67467   0.76601    0.008
 6124.00    0.66675   0.75975    0.008
 6125.00    0.67566   0.75152    0.008
 6126.00    0.69235   0.74242    0.008
 6127.00    0.71473   0.73478    0.008
 6128.00    0.72568   0.73098    0.008
 6129.00    0.72929   0.73251    0.008
 6130.00    0.74523   0.73797    0.008
 6131.00    0.76808   0.74390    0.008
 6132.00    0.77608   0.74827    0.008
 6133.00    0.77685   0.75104    0.008
 6134.00    0.77167   0.75316    0.008
 6135.00    0.76398   0.75578    0.008
 6136.00    0.76615   0.75888    0.008
 6137.00    0.77188   0.76084    0.008
 6138.00    0.75257   0.75932    0.008
 6139.00    0.72561   0.75263    0.008
 6140.00    0.68926   0.74049    0.008
 6141.00    0.65053   0.72507    0.008
 6142.00    0.64856   0.71082    0.008
 6143.00    0.65419   0.70283    0.008
 6144.00    0.66391   0.70418    0.008
 6145.00    0.67429   0.71329    0.008
 6146.00    0.70950   0.72517    0.008
 6147.00    0.74772   0.73588    0.008
 6148.00    0.77298   0.74465    0.008
 6149.00    0.79716   0.75228    0.008
 6150.00    0.75975   0.75847    0.008
 6151.00    0.71938   0.76196    0.008
 6152.00    0.69379   0.76210    0.008
 6153.00    0.66939   0.75928    0.008
 6154.00    0.70124   0.75486    0.008
 6155.00    0.73436   0.75062    0.008
 6156.00    0.79227   0.74798    0.008
 6157.00    0.83973   0.74719    0.008
 6158.00    0.76643   0.74738    0.008
 6159.00    0.69222   0.74721    0.008
 6160.00    0.61076   0.74575    0.008
 6161.00    0.54381   0.74299    0.008
 6162.00    0.56415   0.73917    0.008
 6163.00    0.58875   0.73353    0.008
 6164.00    0.63360   0.72462    0.008
 6165.00    0.67001   0.71166    0.008
 6166.00    0.67375   0.69548    0.008
 6167.00    0.68031   0.67914    0.008
 6168.00    0.69600   0.66738    0.008
 6169.00    0.70633   0.66402    0.008
 6170.00    0.70206   0.66901    0.008
 6171.00    0.68850   0.67853    0.008
 6172.00    0.65322   0.68762    0.008
 6173.00    0.62358   0.69310    0.008
 6174.00    0.60537   0.69453    0.008
 6175.00    0.59188   0.69375    0.008
 6176.00    0.58673   0.69402    0.008
 6177.00    0.59093   0.69786    0.008
 6178.00    0.60954   0.70478    0.008
 6179.00    0.62596   0.71213    0.008
 6180.00    0.63942   0.71801    0.008
 6181.00    0.66272   0.72217    0.008
 6182.00    0.69775   0.72511    0.008
 6183.00    0.73421   0.72756    0.008
 6184.00    0.77220   0.73023    0.008
 6185.00    0.76368   0.73325    0.008
 6186.00    0.71201   0.73617    0.008
 6187.00    0.67596   0.73857    0.008
 6188.00    0.65268   0.74013    0.008
 6189.00    0.67152   0.74009    0.008
 6190.00    0.72067   0.73779    0.008
 6191.00    0.75585   0.73317    0.008
 6192.00    0.78220   0.72663    0.008
 6193.00    0.90743   0.71882    0.008
 6194.00    1.08726   0.71069    0.008
 6195.00    1.41614   0.70319    0.008
 6196.00    1.81660   0.69734   -2.000
 6197.00    1.90788   0.69445   -2.000
 6198.00    1.87100   0.69590   -2.000
 6199.00    1.44593   0.70229   -2.000
 6200.00    0.88327   0.71178   -2.000
 6201.00    0.40534   0.72079   -2.000
 6202.00   -0.04724   0.72672   -2.000
 6203.00    0.01599   0.72880   -2.000
 6204.00    0.20734   0.72766   -2.000
 6205.00    0.40494   0.72503   -2.000
 6206.00    0.60378   0.72324   -2.000
 6207.00    0.66926   0.72419   -2.000
 6208.00    0.71370   0.72801    0.008
 6209.00    0.69386   0.73302    0.008
 6210.00    0.66648   0.73731    0.008
 6211.00    0.64241   0.74002    0.008
 6212.00    0.61861   0.74117    0.008
 6213.00    0.62728   0.74091    0.008
 6214.00    0.63739   0.73903    0.008
 6215.00    0.64246   0.73519    0.008
 6216.00    0.64811   0.72906    0.008
 6217.00    0.68423   0.72057    0.016
 6218.00    0.71911   0.71033   -1.000
 6219.00    0.73154   0.69975   -1.000
 6220.00    0.74184   0.69058   -1.000
 6221.00    0.72872   0.68461   -1.000
 6222.00    0.72306   0.68249   -1.000
 6223.00    0.77501   0.68320   -1.000
 6224.00    0.82598   0.68510   -1.000
 6225.00    0.87131   0.68687   -1.000
 6226.00    0.90165   0.68832   -1.000
 6227.00    0.86245   0.69029   -1.000
 6228.00    0.81613   0.69334    0.074
 6229.00    0.74279   0.69700    0.013
 6230.00    0.67276   0.70018    0.008
 6231.00    0.61321   0.70191    0.008
 6232.00    0.57297   0.70152    0.008
 6233.00    0.58456   0.69844    0.008
 6234.00    0.60148   0.69249    0.008
 6235.00    0.63069   0.68475    0.008
 6236.00    0.65166   0.67755    0.008
 6237.00    0.65619   0.67378    0.008
 6238.00    0.65200   0.67554    0.008
 6239.00    0.63266   0.68263    0.008
 6240.00    0.60189   0.69221    0.008
 6241.00    0.55375   0.70059    0.008
 6242.00    0.51272   0.70493    0.008
 6243.00    0.48117   0.70411    0.008
 6244.00    0.48052   0.69912    0.008
 6245.00    0.51622   0.69208    0.008
 6246.00    0.57668   0.68499    0.008
 6247.00    0.66281   0.67900    0.008
 6248.00    0.72435   0.67457    0.008
 6249.00    0.76339   0.67179    0.008
 6250.00    0.75078   0.67084    0.008
 6251.00    0.69653   0.67237    0.008
 6252.00    0.63613   0.67666    0.008
 6253.00    0.57138   0.68266    0.008
 6254.00    0.53887   0.68848    0.008
 6255.00    0.52642   0.69206    0.008
 6256.00    0.58228   0.69170    0.008
 6257.00    0.67528   0.68713    0.008
 6258.00    0.79062   0.67970    0.008
 6259.00    0.91651   0.67145    0.008
 6260.00    0.92666   0.66408    0.009
 6261.00    0.88965   0.65849    0.009
 6262.00    0.78412   0.65483    0.010
 6263.00    0.65475   0.65328    0.010
 6264.00    0.59221   0.65455    0.010
 6265.00    0.54926   0.65940    0.009
 6266.00    0.56387   0.66769    0.009
 6267.00    0.59246   0.67796    0.008
 6268.00    0.59223   0.68785    0.008
 6269.00    0.58634   0.69521    0.008
 6270.00    0.62021   0.69942    0.008
 6271.00    0.66015   0.70101    0.008
 6272.00    0.65808   0.70101    0.008
 6273.00    0.65127   0.70070    0.008
 6274.00    0.64709   0.70093    0.008
 6275.00    0.64311   0.70171    0.008
 6276.00    0.65213   0.70280    0.008
 6277.00    0.66167   0.70429    0.008
 6278.00    0.63936   0.70628    0.008
 6279.00    0.61678   0.70835    0.008
 6280.00    0.59218   0.70990    0.000
 6281.00    0.56885   0.71046    0.000
 6282.00    0.56726   0.70976    0.000
 6283.00    0.57145   0.70787    0.000
 6284.00    0.63637   0.70502    0.000
 6285.00    0.69109   0.70180    0.000
 6286.00    0.66979   0.69923    0.000
 6287.00    0.64867   0.69837    0.000
 6288.00    0.62859   0.69977    0.000
 6289.00    0.61724   0.70335    0.000
 6290.00    0.64542   0.70824    0.000
 6291.00    0.66767   0.71337    0.000
 6292.00    0.66796   0.71794    0.000
 6293.00    0.65639   0.72139    0.000
 6294.00    0.60802   0.72331    0.000
 6295.00    0.56902   0.72335    0.000
 6296.00    0.55474   0.72139    0.000
 6297.00    0.54670   0.71792    0.000
 6298.00    0.55280   0.71378    0.000
 6299.00    0.56271   0.70967    0.000
 6300.00    0.58005   0.70579    0.000
 6301.00    0.58932   0.70189    0.000
 6302.00    0.58477   0.69785    0.000
 6303.00    0.57930   0.69390    0.000
 6304.00    0.57244   0.69046    0.000
 6305.00    0.58477   0.68787    0.000
 6306.00    0.62234   0.68628    0.000
 6307.00    0.64266   0.68573    0.000
 6308.00    0.64299   0.68650    0.000
 6309.00    0.64092   0.68900    0.000
 6310.00    0.63642   0.69345    0.000
 6311.00    0.63139   0.69939    0.000
 6312.00    0.62588   0.70569    0.000
 6313.00    0.62044   0.71096    0.000
 6314.00    0.61506   0.71413    0.000
 6315.00    0.62524   0.71467    0.000
 6316.00    0.64628   0.71263    0.000
 6317.00    0.64683   0.70857    0.000
 6318.00    0.63481   0.70337    0.000
 6319.00    0.62207   0.69777    0.000
 6320.00    0.60895   0.69215    0.000
 6321.00    0.60149   0.68675    0.007
 6322.00    0.59668   0.68197    0.007
 6323.00    0.60424   0.67852    0.008
 6324.00    0.61674   0.67730    0.008
 6325.00    0.59422   0.67888    0.008
 6326.00    0.55973   0.68302    0.008
 6327.00    0.55366   0.68894    0.008
 6328.00    0.55575   0.69573    0.008
 6329.00    0.57711   0.70236    0.008
 6330.00    0.60305   0.70797    0.008
 6331.00    0.60536   0.71227    0.008
 6332.00    0.60316   0.71525    0.008
 6333.00    0.60523   0.71702    0.008
 6334.00    0.60794   0.71778    0.008
 6335.00    0.60723   0.71786    0.008
 6336.00    0.60616   0.71746    0.008
 6337.00    0.63945   0.71639    0.008
 6338.00    0.67519   0.71409    0.008
 6339.00    0.69609   0.70996    0.007
 6340.00    0.71646   0.70413    0.007
 6341.00    0.70549   0.69767    0.008
 6342.00    0.69368   0.69236    0.008
 6343.00    0.65658   0.68981    0.008
 6344.00    0.61918   0.69053    0.007
 6345.00    0.57677   0.69359    0.007
 6346.00    0.53917   0.69707    0.007
 6347.00    0.55007   0.69906    0.007
 6348.00    0.56150   0.69881    0.008
 6349.00    0.57670   0.69700    0.007
 6350.00    0.58620   0.69518    0.007
 6351.00    0.56413   0.69481    0.007
 6352.00    0.54557   0.69662    0.008
 6353.00    0.54258   0.70033    0.008
 6354.00    0.54255   0.70495    0.008
 6355.00    0.55331   0.70920    0.008
 6356.00    0.57386   0.71203    0.008
 6357.00    0.62421   0.71280    0.008
 6358.00    0.65671   0.71127    0.008
 6359.00    0.64295   0.70760    0.008
 6360.00    0.61780   0.70238    0.008
 6361.00    0.56726   0.69628    0.008
 6362.00    0.52932   0.68978    0.008
 6363.00    0.51568   0.68306    0.008
 6364.00    0.51365   0.67620    0.008
 6365.00    0.53113   0.66955    0.008
 6366.00    0.53810   0.66382    0.008
 6367.00    0.52954   0.65992    0.008
 6368.00    0.52434   0.65874    0.008
 6369.00    0.52347   0.66084    0.008
 6370.00    0.54489   0.66610    0.008
 6371.00    0.59178   0.67369    0.007
 6372.00    0.62081   0.68238    0.007
 6373.00    0.63184   0.69086    0.007
 6374.00    0.61671   0.69812    0.007
 6375.00    0.57833   0.70377    0.007
 6376.00    0.55829   0.70811    0.007
 6377.00    0.55262   0.71173    0.007
 6378.00    0.55063   0.71503    0.008
 6379.00    0.55117   0.71792    0.008
 6380.00    0.56386   0.71994    0.008
 6381.00    0.58390   0.72060    0.008
 6382.00    0.59798   0.71968    0.008
 6383.00    0.60893   0.71737    0.008
 6384.00    0.59500   0.71428    0.008
 6385.00    0.56969   0.71123    0.008
 6386.00    0.55320   0.70895    0.008
 6387.00    0.54017   0.70783    0.008
 6388.00    0.58862   0.70782    0.008
 6389.00    0.65768   0.70865    0.008
 6390.00    0.66961   0.71004    0.008
 6391.00    0.66545   0.71177    0.008
 6392.00    0.61975   0.71363    0.008
 6393.00    0.56442   0.71522    0.008
 6394.00    0.57666   0.71585    0.008
 6395.00    0.60147   0.71477    0.008
 6396.00    0.58474   0.71151    0.008
 6397.00    0.56204   0.70628    0.008
 6398.00    0.50745   0.70030    0.008
 6399.00    0.44955   0.69543    0.008
 6400.00    0.47860   0.69327    0.008
 6401.00    0.51350   0.69403    0.008
 6402.00    0.58546   0.69627    0.008
 6403.00    0.65863   0.69778    0.008
 6404.00    0.66414   0.69721    0.008
 6405.00    0.66897   0.69512    0.008
 6406.00    0.65310   0.69359    0.008
 6407.00    0.63721   0.69466    0.008
 6408.00    0.62115   0.69878    0.008
 6409.00    0.60699   0.70438    0.008
 6410.00    0.61114   0.70894    0.008
 6411.00    0.61165   0.71063    0.008
 6412.00    0.58666   0.70915    0.008
 6413.00    0.56598   0.70560    0.008
 6414.00    0.56852   0.70158    0.008
 6415.00    0.56957   0.69832    0.008
 6416.00    0.56416   0.69627    0.008
 6417.00    0.56003   0.69533    0.008
 6418.00    0.56040   0.69534    0.008
 6419.00    0.55492   0.69623    0.008
 6420.00    0.53192   0.69777    0.008
 6421.00    0.51213   0.69936    0.008
 6422.00    0.50050   0.70012    0.007
 6423.00    0.49863   0.69933    0.007
 6424.00    0.51816   0.69690    0.007
 6425.00    0.54436   0.69365    0.007
 6426.00    0.58325   0.69121    0.008
 6427.00    0.60966   0.69123    0.008
 6428.00    0.61537   0.69444    0.008
 6429.00    0.59688   0.70021    0.008
 6430.00    0.54320   0.70690    0.008
 6431.00    0.51559   0.71265    0.008
 6432.00    0.52131   0.71603    0.008
 6433.00    0.55015   0.71626    0.008
 6434.00    0.60504   0.71327    0.008
 6435.00    0.62051   0.70785    0.008
 6436.00    0.59682   0.70168    0.008
 6437.00    0.56937   0.69692    0.008
 6438.00    0.53862   0.69520    0.008
 6439.00    0.52767   0.69672    0.008
 6440.00    0.53200   0.70007    0.008
 6441.00    0.53943   0.70307    0.008
 6442.00    0.54896   0.70402    0.008
 6443.00    0.55748   0.70269    0.008
 6444.00    0.56539   0.70046    0.008
 6445.00    0.55887   0.69948    0.008
 6446.00    0.54485   0.70136    0.008
 6447.00    0.49292   0.70628    0.008
 6448.00    0.42394   0.71286    0.008
 6449.00    0.41038   0.71908    0.008
 6450.00    0.41826   0.72305    0.008
 6451.00    0.42873   0.72351    0.008
 6452.00    0.44006   0.71977    0.008
 6453.00    0.46306   0.71193    0.008
 6454.00    0.48929   0.70125    0.008
 6455.00    0.52732   0.69033    0.008
 6456.00    0.56802   0.68228    0.008
 6457.00    0.57488   0.67922    0.008
 6458.00    0.57560   0.68115    0.008
 6459.00    0.57265   0.68611    0.008
 6460.00    0.56919   0.69161    0.008
 6461.00    0.54567   0.69621    0.008
 6462.00    0.52014   0.69990    0.008
 6463.00    0.51324   0.70325    0.008
 6464.00    0.50752   0.70620    0.008
 6465.00    0.51183   0.70770    0.008
 6466.00    0.51652   0.70654    0.008
 6467.00    0.54987   0.70264    0.008
 6468.00    0.58363   0.69755    0.008
 6469.00    0.62862   0.69380    0.008
 6470.00    0.66881   0.69336    0.008
 6471.00    0.64096   0.69644    0.008
 6472.00    0.61300   0.70150    0.008
 6473.00    0.58399   0.70629    0.008
 6474.00    0.56169   0.70909    0.008
 6475.00    0.58483   0.70946    0.008
 6476.00    0.60631   0.70811    0.008
 6477.00    0.61914   0.70627    0.008
 6478.00    0.62050   0.70499    0.008
 6479.00    0.57343   0.70468    0.007
 6480.00    0.53131   0.70520    0.007
 6481.00    0.50643   0.70613    0.008
 6482.00    0.49107   0.70701    0.008
 6483.00    0.50361   0.70733    0.008
 6484.00    0.53002   0.70653    0.008
 6485.00    0.59111   0.70410    0.008
 6486.00    0.62599   0.69999    0.008
 6487.00    0.60441   0.69497    0.008
 6488.00    0.58110   0.69045    0.008
 6489.00    0.55456   0.68792    0.008
 6490.00    0.55713   0.68812    0.008
 6491.00    0.60727   0.69064    0.008
 6492.00    0.63190   0.69408    0.008
 6493.00    0.62001   0.69670    0.008
 6494.00    0.61081   0.69698    0.008
 6495.00    0.60503   0.69388    0.008
 6496.00    0.62493   0.68688    0.008
 6497.00    0.67337   0.67592    0.008
 6498.00    0.69256   0.66158    0.008
 6499.00    0.68310   0.64537    0.008
 6500.00    0.63938   0.62981    0.008
 6501.00    0.56606   0.61789    0.008
 6502.00    0.54577   0.61199    0.008
 6503.00    0.56585   0.61300    0.008
 6504.00    0.59189   0.61998    0.008
 6505.00    0.62192   0.63094    0.008
 6506.00    0.61528   0.64366    0.008
 6507.00    0.58716   0.65637    0.008
 6508.00    0.56418   0.66792    0.008
 6509.00    0.54383   0.67764    0.008
 6510.00    0.55334   0.68520    0.008
 6511.00    0.57607   0.69052    0.008
 6512.00    0.58744   0.69375    0.008
 6513.00    0.59450   0.69529    0.008
 6514.00    0.62371   0.69577    0.008
 6515.00    0.66007   0.69588    0.008
 6516.00    0.64020   0.69608    0.008
 6517.00    0.60514   0.69635    0.008
 6518.00    0.54302   0.69625    0.008
 6519.00    0.47491   0.69519    0.008
 6520.00    0.46770   0.69286    0.008
 6521.00    0.47124   0.68944    0.008
 6522.00    0.48751   0.68567    0.008
 6523.00    0.50549   0.68259    0.008
 6524.00    0.51335   0.68117    0.008
 6525.00    0.52023   0.68192    0.007
 6526.00    0.50772   0.68464    0.007
 6527.00    0.49405   0.68848    0.007
 6528.00    0.49244   0.69228    0.000
 6529.00    0.49134   0.69501    0.000
 6530.00    0.52071   0.69608    0.000
 6531.00    0.54957   0.69553    0.000
 6532.00    0.56572   0.69391    0.000
 6533.00    0.58085   0.69201    0.000
 6534.00    0.58239   0.69051    0.000
 6535.00    0.58325   0.68959    0.000
 6536.00    0.57805   0.68902    0.000
 6537.00    0.57487   0.68847    0.000
 6538.00    0.58486   0.68791    0.000
 6539.00    0.59329   0.68775    0.000
 6540.00    0.59368   0.68841    0.000
 6541.00    0.58459   0.69000    0.000
 6542.00    0.53641   0.69219    0.000
 6543.00    0.49770   0.69445    0.000
 6544.00    0.49137   0.69629    0.000
 6545.00    0.50057   0.69729    0.000
 6546.00    0.55450   0.69705    0.000
 6547.00    0.60231   0.69517    0.000
 6548.00    0.63507   0.69147    0.000
 6549.00    0.66050   0.68618    0.000
 6550.00    0.67040   0.68000    0.000
 6551.00    0.66724   0.67400    0.000
 6552.00    0.64005   0.66925    0.000
 6553.00    0.62143   0.66647    0.000
 6554.00    0.61663   0.66556    0.000
 6555.00    0.61444   0.66562    0.000
 6556.00    0.61591   0.66537    0.000
 6557.00    0.63234   0.66369    0.000
 6558.00    0.66736   0.66014    0.000
 6559.00    0.72564   0.65502    0.000
 6560.00    0.80942   0.64909    0.000
 6561.00    0.86992   0.64311    0.000
 6562.00    0.90792   0.63727    0.000
 6563.00    0.91826   0.63078    0.000
 6564.00    0.90502   0.62193    0.000
 6565.00    0.85765   0.60880    0.000
 6566.00    0.78466   0.59080    0.000
 6567.00    0.70906   0.57004    0.000
 6568.00    0.63172   0.55143    0.000
 6569.00    0.56818   0.54097    0.000
 6570.00    0.51260   0.54266    0.000
 6571.00    0.49127   0.55630    0.000
 6572.00    0.48716   0.57738    0.000
 6573.00    0.49975   0.59963    0.000
 6574.00    0.51960   0.61791    0.000
 6575.00    0.54700   0.62999    0.000
 6576.00    0.57722   0.63626    0.000
 6577.00    0.60200   0.63848    0.000
 6578.00    0.62506   0.63869    0.000
 6579.00    0.61720   0.63865    0.000
 6580.00    0.60117   0.63973    0.000
 6581.00    0.63144   0.64278    0.000
 6582.00    0.67171   0.64776    0.000
 6583.00    0.67842   0.65377    0.000
 6584.00    0.67937   0.65936    0.000
 6585.00    0.64695   0.66336    0.000
 6586.00    0.61019   0.66545    0.000
 6587.00    0.55892   0.66620    0.000
 6588.00    0.50632   0.66655    0.000
 6589.00    0.51495   0.66722    0.000
 6590.00    0.52697   0.66846    0.000
 6591.00    0.56065   0.67009    0.000
 6592.00    0.59419   0.67182    0.000
 6593.00    0.56951   0.67330    0.000
 6594.00    0.54492   0.67393    0.000
 6595.00    0.52232   0.67285    0.000
 6596.00    0.49985   0.66937    0.000
 6597.00    0.47903   0.66348    0.000
 6598.00    0.46033   0.65635    0.000
 6599.00    0.45965   0.64999    0.000
 6600.00    0.46101   0.64633    0.000
 6601.00    0.47529   0.64624    0.000
 6602.00    0.48780   0.64919    0.000
 6603.00    0.49152   0.65385    0.000
 6604.00    0.49722   0.65895    0.000
 6605.00    0.51093   0.66378    0.000
 6606.00    0.51995   0.66800    0.000
 6607.00    0.51326   0.67124    0.000
 6608.00    0.50083   0.67298    0.000
 6609.00    0.47217   0.67276    0.008
 6610.00    0.46036   0.67050    0.008
 6611.00    0.48928   0.66668    0.008
 6612.00    0.52041   0.66217    0.008
 6613.00    0.55615   0.65800    0.008
 6614.00    0.57734   0.65517    0.008
 6615.00    0.57215   0.65442    0.008
 6616.00    0.57298   0.65599    0.008
 6617.00    0.58338   0.65943    0.008
 6618.00    0.57173   0.66384    0.008
 6619.00    0.52938   0.66825    0.008
 6620.00    0.50941   0.67202    0.008
 6621.00    0.51685   0.67496    0.008
 6622.00    0.54605   0.67717    0.008
 6623.00    0.59877   0.67879    0.008
 6624.00    0.62554   0.67989    0.008
 6625.00    0.62759   0.68042    0.008
 6626.00    0.60158   0.68015    0.008
 6627.00    0.55200   0.67876    0.008
 6628.00    0.49187   0.67607    0.008
 6629.00    0.42395   0.67235    0.008
 6630.00    0.39878   0.66833    0.008
 6631.00    0.40139   0.66493    0.008
 6632.00    0.42426   0.66277    0.008
 6633.00    0.45866   0.66179    0.008
 6634.00    0.48332   0.66128    0.008
 6635.00    0.50316   0.66032    0.008
 6636.00    0.52602   0.65824    0.008
 6637.00    0.55018   0.65496    0.008
 6638.00    0.57233   0.65113    0.008
 6639.00    0.59375   0.64783    0.008
 6640.00    0.57182   0.64620    0.008
 6641.00    0.53642   0.64685    0.008
 6642.00    0.49514   0.64952    0.008
 6643.00    0.45232   0.65320    0.008
 6644.00    0.45243   0.65664    0.008
 6645.00    0.46158   0.65891    0.008
 6646.00    0.48135   0.65968    0.008
 6647.00    0.50289   0.65911    0.008
 6648.00    0.55137   0.65770    0.008
 6649.00    0.60324   0.65610    0.008
 6650.00    0.59704   0.65496    0.008
 6651.00    0.58577   0.65471    0.008
 6652.00    0.55899   0.65543    0.008
 6653.00    0.53141   0.65678    0.008
 6654.00    0.56283   0.65828    0.008
 6655.00    0.59495   0.65948    0.008
 6656.00    0.60215   0.66017    0.008
 6657.00    0.60796   0.66033    0.008
 6658.00    0.58452   0.66011    0.008
 6659.00    0.56340   0.65970    0.008
 6660.00    0.57031   0.65930    0.008
 6661.00    0.57436   0.65894    0.008
 6662.00    0.55465   0.65855    0.008
 6663.00    0.54121   0.65789    0.008
 6664.00    0.56645   0.65669    0.008
 6665.00    0.58533   0.65466    0.008
 6666.00    0.57336   0.65164    0.008
 6667.00    0.55987   0.64777    0.008
 6668.00    0.54036   0.64354    0.008
 6669.00    0.52135   0.63974    0.008
 6670.00    0.50396   0.63716    0.008
 6671.00    0.48591   0.63630    0.008
 6672.00    0.46602   0.63723    0.008
 6673.00    0.44912   0.63964    0.008
 6674.00    0.43930   0.64309    0.008
 6675.00    0.43718   0.64708    0.008
 6676.00    0.45087   0.65109    0.008
 6677.00    0.48133   0.65454    0.008
 6678.00    0.54176   0.65683    0.008
 6679.00    0.57037   0.65745    0.008
 6680.00    0.54927   0.65604    0.008
 6681.00    0.52555   0.65254    0.008
 6682.00    0.49823   0.64736    0.008
 6683.00    0.49163   0.64161    0.008
 6684.00    0.51006   0.63681    0.009
 6685.00    0.52210   0.63434    0.009
 6686.00    0.52736   0.63481    0.009
 6687.00    0.50094   0.63775    0.008
 6688.00    0.44476   0.64201    0.008
 6689.00    0.43827   0.64633    0.008
 6690.00    0.47292   0.64988    0.008
 6691.00    0.52783   0.65229    0.008
 6692.00    0.59749   0.65364    0.009
 6693.00    0.58757   0.65420    0.008
 6694.00    0.52671   0.65433    0.008
 6695.00    0.50700   0.65431    0.008
 6696.00    0.51033   0.65421    0.000
 6697.00    0.53383   0.65387    0.000
 6698.00    0.56715   0.65295    0.000
 6699.00    0.55382   0.65113    0.000
 6700.00    0.52087   0.64835    0.000
 6701.00    0.48321   0.64493    0.000
 6702.00    0.44387   0.64163    0.000
 6703.00    0.43189   0.63933    0.000
 6704.00    0.42825   0.63865    0.000
 6705.00    0.49414   0.63959    0.000
 6706.00    0.57765   0.64145    0.000
 6707.00    0.58404   0.64325    0.000
 6708.00    0.57455   0.64420    0.000
 6709.00    0.52752   0.64413    0.000
 6710.00    0.47441   0.64345    0.000
 6711.00    0.46510   0.64282    0.000
 6712.00    0.46110   0.64264    0.000
 6713.00    0.51410   0.64290    0.000
 6714.00    0.57183   0.64316    0.000
 6715.00    0.62700   0.64293    0.000
 6716.00    0.68206   0.64185    0.000
 6717.00    0.67413   0.63979    0.000
 6718.00    0.66371   0.63671    0.000
 6719.00    0.56224   0.63271    0.000
 6720.00    0.46482   0.62803    0.000
 6721.00    0.44616   0.62320    0.000
 6722.00    0.43155   0.61907    0.000
 6723.00    0.46330   0.61659    0.000
 6724.00    0.49469   0.61644    0.000
 6725.00    0.52317   0.61863    0.000
 6726.00    0.53886   0.62251    0.000
 6727.00    0.47776   0.62700    0.000
 6728.00    0.44965   0.63110    0.000
 6729.00    0.57790   0.63417    0.000
 6730.00    0.67745   0.63603    0.000
 6731.00    0.66619   0.63690    0.000
 6732.00    0.64259   0.63723    0.000
 6733.00    0.57930   0.63752    0.000
 6734.00    0.51845   0.63817    0.000
 6735.00    0.46424   0.63921    0.000
 6736.00    0.41217   0.64038    0.000
 6737.00    0.36505   0.64127    0.000
 6738.00    0.32783   0.64161    0.000
 6739.00    0.31059   0.64133    0.000
 6740.00    0.31890   0.64056    0.000
 6741.00    0.37212   0.63941    0.000
 6742.00    0.41919   0.63791    0.000
 6743.00    0.45678   0.63607    0.000
 6744.00    0.49376   0.63403    0.000
 6745.00    0.52992   0.63205    0.000
 6746.00    0.56214   0.63040    0.000
 6747.00    0.58967   0.62922    0.000
 6748.00    0.58065   0.62845    0.000
 6749.00    0.53325   0.62792    0.000
 6750.00    0.51136   0.62748    0.000
 6751.00    0.51310   0.62696    0.000
 6752.00    0.54259   0.62625    0.000
 6753.00    0.59474   0.62527    0.010
 6754.00    0.58873   0.62408    0.010
 6755.00    0.54093   0.62289    0.010
 6756.00    0.54516   0.62198    0.011
 6757.00    0.58219   0.62160    0.011
 6758.00    0.63036   0.62196    0.011
 6759.00    0.68467   0.62315    0.011
 6760.00    0.69055   0.62522    0.011
 6761.00    0.67323   0.62810    0.011
 6762.00    0.70540   0.63158    0.011
 6763.00    0.75804   0.63529    0.011
 6764.00    0.78723   0.63879    0.011
 6765.00    0.80812   0.64164    0.010
 6766.00    0.73390   0.64351    0.010
 6767.00    0.63129   0.64428    0.010
 6768.00    0.67588   0.64396    0.010
 6769.00    0.75693   0.64265    0.010
 6770.00    0.73596   0.64047    0.010
 6771.00    0.69452   0.63758    0.010
 6772.00    0.62562   0.63429    0.010
 6773.00    0.55241   0.63106    0.010
 6774.00    0.47792   0.62844    0.010
 6775.00    0.40328   0.62686    0.010
 6776.00    0.41593   0.62655    0.010
 6777.00    0.43546   0.62754    0.010
 6778.00    0.43979   0.62971    0.010
 6779.00    0.44345   0.63285    0.010
 6780.00    0.45743   0.63656    0.010
 6781.00    0.47307   0.64031    0.010
 6782.00    0.56118   0.64352    0.010
 6783.00    0.64130   0.64578    0.010
 6784.00    0.57683   0.64678    0.010
 6785.00    0.51943   0.64633    0.010
 6786.00    0.53941   0.64424    0.010
 6787.00    0.55423   0.64049    0.010
 6788.00    0.52936   0.63538    0.010
 6789.00    0.50403   0.62973    0.010
 6790.00    0.47600   0.62468    0.010
 6791.00    0.44731   0.62132    0.010
 6792.00    0.41555   0.62025    0.010
 6793.00    0.39829   0.62134    0.010
 6794.00    0.43583   0.62383    0.010
 6795.00    0.47988   0.62667    0.010
 6796.00    0.54448   0.62894    0.010
 6797.00    0.57676   0.63013    0.010
 6798.00    0.52248   0.63015    0.010
 6799.00    0.51064   0.62931    0.010
 6800.00    0.59634   0.62815    0.011
 6801.00    0.65413   0.62721    0.011
 6802.00    0.65639   0.62691    0.011
 6803.00    0.65617   0.62735    0.011
 6804.00    0.65164   0.62843    0.011
 6805.00    0.62592   0.62987    0.011
 6806.00    0.56805   0.63134    0.011
 6807.00    0.50433   0.63252    0.010
 6808.00    0.43282   0.63321    0.010
 6809.00    0.43914   0.63332    0.010
 6810.00    0.53683   0.63293    0.010
 6811.00    0.58378   0.63223    0.010
 6812.00    0.57822   0.63141    0.010
 6813.00    0.58083   0.63063    0.011
 6814.00    0.59090   0.62996    0.011
 6815.00    0.59375   0.62941    0.011
 6816.00    0.59077   0.62894    0.011
 6817.00    0.59104   0.62853    0.011
 6818.00    0.59361   0.62813    0.010
 6819.00    0.58817   0.62776    0.010
 6820.00    0.57777   0.62755    0.010
 6821.00    0.59007   0.62764    0.010
 6822.00    0.61469   0.62816    0.010
 6823.00    0.57757   0.62901    0.010
 6824.00    0.51133   0.62997    0.010
 6825.00    0.55873   0.63084    0.011
 6826.00    0.65234   0.63166    0.011
 6827.00    0.64142   0.63264    0.011
 6828.00    0.59421   0.63392    0.011
 6829.00    0.53964   0.63535    0.011
 6830.00    0.48291   0.63647    0.011
 6831.00    0.41992   0.63679    0.011
 6832.00    0.35541   0.63605    0.011
 6833.00    0.42653   0.63445    0.010
 6834.00    0.52418   0.63257    0.010
 6835.00    0.56358   0.63110    0.010
 6836.00    0.59410   0.63052    0.011
 6837.00    0.61498   0.63088    0.011
 6838.00    0.63477   0.63185    0.011
 6839.00    0.66279   0.63290    0.011
 6840.00    0.69143   0.63352    0.011
 6841.00    0.65612   0.63326    0.011
 6842.00    0.61827   0.63174    0.011
 6843.00    0.59170   0.62877    0.011
 6844.00    0.56735   0.62442    0.011
 6845.00    0.62798   0.61917    0.011
 6846.00    0.68092   0.61393    0.011
 6847.00    0.60382   0.60980    0.011
 6848.00    0.53301   0.60776    0.011
 6849.00    0.52787   0.60832    0.011
 6850.00    0.51868   0.61125    0.011
 6851.00    0.47942   0.61571    0.011
 6852.00    0.46369   0.62054    0.011
 6853.00    0.58131   0.62471    0.011
 6854.00    0.68355   0.62761    0.011
 6855.00    0.71631   0.62912    0.011
 6856.00    0.73590   0.62938    0.011
 6857.00    0.70674   0.62856    0.011
 6858.00    0.66211   0.62676    0.011
 6859.00    0.56958   0.62406    0.010
 6860.00    0.49216   0.62069    0.010
 6861.00    0.45454   0.61710    0.010
 6862.00    0.44882   0.61393    0.010
 6863.00    0.51521   0.61165    0.010
 6864.00    0.55584   0.61038    0.011
 6865.00    0.54601   0.60992    0.011
 6866.00    0.54165   0.61003    0.011
 6867.00    0.54661   0.61064    0.011
 6868.00    0.50291   0.61186    0.011
 6869.00    0.38647   0.61367    0.011
 6870.00    0.36498   0.61567    0.011
 6871.00    0.46820   0.61715    0.011
 6872.00    0.49890   0.61751    0.011
 6873.00    0.44567   0.61667    0.011
 6874.00    0.42356   0.61511    0.011
 6875.00    0.43321   0.61358    0.011
 6876.00    0.43086   0.61261    0.010
 6877.00    0.41771   0.61232    0.010
 6878.00    0.39402   0.61251    0.010
 6879.00    0.36196   0.61301    0.010
 6880.00    0.44983   0.61381    0.010
 6881.00    0.62138   0.61500    0.010
 6882.00    0.62474   0.61656    0.010
 6883.00    0.52517   0.61826    0.010
 6884.00    0.48115   0.61964    0.010
 6885.00    0.46681   0.62023    0.010
 6886.00    0.44745   0.61975    0.010
 6887.00    0.42576   0.61837    0.011
 6888.00    0.40630   0.61666    0.011
 6889.00    0.38773   0.61542    0.010
 6890.00    0.37159   0.61525    0.011
 6891.00    0.35628   0.61640    0.011
 6892.00    0.40231   0.61869    0.011
 6893.00    0.46593   0.62172    0.011
 6894.00    0.45625   0.62501    0.011
 6895.00    0.42922   0.62812    0.011
 6896.00    0.41957   0.63066    0.011
 6897.00    0.41324   0.63233    0.011
 6898.00    0.38771   0.63298    0.011
 6899.00    0.35935   0.63269    0.011
 6900.00    0.42667   0.63176    0.011
 6901.00    0.50432   0.63061    0.011
 6902.00    0.54429   0.62963    0.011
 6903.00    0.58159   0.62905    0.011
 6904.00    0.58384   0.62894    0.011
 6905.00    0.58483   0.62919    0.010
 6906.00    0.46834   0.62969    0.010
 6907.00    0.35403   0.63035    0.010
 6908.00    0.32878   0.63109    0.010
 6909.00    0.31511   0.63186    0.010
 6910.00    0.48471   0.63262    0.011
 6911.00    0.63802   0.63334    0.011
 6912.00    0.62815   0.63406    0.011
 6913.00    0.60784   0.63473    0.011
 6914.00    0.51246   0.63520    0.011
 6915.00    0.41747   0.63517    0.011
 6916.00    0.32466   0.63434    0.011
 6917.00    0.25067   0.63256    0.011
 6918.00    0.25962   0.62996    0.011
 6919.00    0.29152   0.62692    0.011
 6920.00    0.40659   0.62406    0.011
 6921.00    0.49297   0.62194    0.011
 6922.00    0.49217   0.62100    0.011
 6923.00    0.49383   0.62136    0.011
 6924.00    0.50182   0.62281    0.011
 6925.00    0.51978   0.62490    0.010
 6926.00    0.55988   0.62693    0.010
 6927.00    0.58844   0.62816    0.010
 6928.00    0.59473   0.62804    0.011
 6929.00    0.57981   0.62640    0.011
 6930.00    0.52922   0.62368    0.011
 6931.00    0.53123   0.62079    0.011
 6932.00    0.61068   0.61872    0.011
 6933.00    0.60957   0.61808    0.011
 6934.00    0.50415   0.61884    0.011
 6935.00    0.43728   0.62039    0.011
 6936.00    0.41438   0.62190    0.011
 6937.00    0.43766   0.62283    0.011
 6938.00    0.50740   0.62305    0.012
 6939.00    0.55150   0.62291    0.012
 6940.00    0.57284   0.62286    0.011
 6941.00    0.60604   0.62325    0.011
 6942.00    0.64851   0.62416    0.011
 6943.00    0.61024   0.62543    0.011
 6944.00    0.51647   0.62678    0.011
 6945.00    0.52080   0.62789    0.011
 6946.00    0.58426   0.62841    0.011
 6947.00    0.57609   0.62799    0.011
 6948.00    0.53023   0.62644    0.011
 6949.00    0.50799   0.62389    0.011
 6950.00    0.49653   0.62093    0.011
 6951.00    0.48146   0.61843    0.011
 6952.00    0.46497   0.61715    0.011
 6953.00    0.45000   0.61731    0.011
 6954.00    0.43554   0.61848    0.011
 6955.00    0.43474   0.61978    0.011
 6956.00    0.43778   0.62039    0.011
 6957.00    0.47779   0.61997    0.011
 6958.00    0.52636   0.61880    0.011
 6959.00    0.46089   0.61758    0.011
 6960.00    0.37425   0.61704    0.011
 6961.00    0.34999   0.61757    0.011
 6962.00    0.33466   0.61914    0.011
 6963.00    0.49576   0.62136    0.011
 6964.00    0.67512   0.62373    0.011
 6965.00    0.62447   0.62586    0.011
 6966.00    0.55850   0.62756    0.011
 6967.00    0.54814   0.62883    0.011
 6968.00    0.53957   0.62971    0.011
 6969.00    0.57364   0.63026    0.011
 6970.00    0.60385   0.63053    0.011
 6971.00    0.51543   0.63065    0.011
 6972.00    0.42921   0.63080    0.010
 6973.00    0.37552   0.63112    0.011
 6974.00    0.33686   0.63160    0.011
 6975.00    0.44253   0.63205    0.011
 6976.00    0.53493   0.63218    0.011
 6977.00    0.53500   0.63174    0.011
 6978.00    0.53511   0.63058    0.011
 6979.00    0.53548   0.62849    0.011
 6980.00    0.54935   0.62518    0.011
 6981.00    0.62134   0.62043    0.011
 6982.00    0.63285   0.61437    0.012
 6983.00    0.42959   0.60781    0.011
 6984.00    0.31409   0.60214    0.011
 6985.00    0.46031   0.59890    0.011
 6986.00    0.58073   0.59918    0.011
 6987.00    0.63559   0.60306    0.011
 6988.00    0.64870   0.60954    0.011
 6989.00    0.57054   0.61694    0.011
 6990.00    0.49812   0.62357    0.011
 6991.00    0.43661   0.62834    0.011
 6992.00    0.42274   0.63089    0.011
 6993.00    0.48773   0.63149    0.011
 6994.00    0.45826   0.63082    0.011
 6995.00    0.29166   0.62972    0.011
 6996.00    0.25389   0.62885    0.011
 6997.00    0.38054   0.62860    0.011
 6998.00    0.42445   0.62897    0.011
 6999.00    0.37528   0.62963    0.011
 7000.00    0.38251   0.63012    0.011
 7001.00    0.44567   0.63008    0.011
 7002.00    0.47015   0.62929    0.011
 7003.00    0.46078   0.62771    0.011
 7004.00    0.50552   0.62547    0.012
 7005.00    0.59197   0.62287    0.012
 7006.00    0.59078   0.62035    0.012
 7007.00    0.53022   0.61831    0.012
 7008.00    0.52046   0.61691    0.011
 7009.00    0.54087   0.61604    0.011
 7010.00    0.52072   0.61545    0.011
 7011.00    0.47955   0.61503    0.011
 7012.00    0.42162   0.61492    0.011
 7013.00    0.35617   0.61534    0.011
 7014.00    0.32771   0.61636    0.011
 7015.00    0.31353   0.61778    0.011
 7016.00    0.36675   0.61911    0.011
 7017.00    0.44211   0.61977    0.011
 7018.00    0.44787   0.61932    0.011
 7019.00    0.43450   0.61755    0.011
 7020.00    0.49890   0.61460    0.011
 7021.00    0.58088   0.61107    0.011
 7022.00    0.50529   0.60799    0.011
 7023.00    0.40123   0.60648    0.011
 7024.00    0.43096   0.60723    0.011
 7025.00    0.47922   0.61002    0.012
 7026.00    0.41982   0.61369    0.012
 7027.00    0.34973   0.61669    0.012
 7028.00    0.33904   0.61783    0.012
 7029.00    0.33208   0.61691    0.011
 7030.00    0.45146   0.61479    0.012
 7031.00    0.57347   0.61287    0.012
 7032.00    0.44233   0.61220    0.012
 7033.00    0.32149   0.61312    0.011
 7034.00    0.48352   0.61531    0.011
 7035.00    0.63229   0.61799    0.011
 7036.00    0.59497   0.62042    0.011
 7037.00    0.55157   0.62213    0.011
 7038.00    0.45220   0.62304    0.011
 7039.00    0.36897   0.62328    0.011
 7040.00    0.39450   0.62299    0.011
 7041.00    0.40269   0.62230    0.011
 7042.00    0.32019   0.62139    0.011
 7043.00    0.28204   0.62056    0.011
 7044.00    0.43061   0.62035    0.012
 7045.00    0.54390   0.62144    0.012
 7046.00    0.53452   0.62423    0.012
 7047.00    0.50206   0.62852    0.012
 7048.00    0.40207   0.63347    0.012
 7049.00    0.33261   0.63790    0.012
 7050.00    0.33937   0.64087   -2.000
 7051.00    0.38020   0.64229   -2.000
 7052.00    0.49430   0.64280   -2.000
 7053.00    0.53759   0.64308   -2.000
 7054.00    0.44864   0.64326   -2.000
 7055.00    0.35571   0.64277   -2.000
 7056.00    0.25629   0.64063   -2.000
 7057.00    0.22288   0.63610   -2.000
 7058.00    0.28386   0.62922   -2.000
 7059.00    0.39998   0.62095   -2.000
 7060.00    0.58546   0.61274   -2.000
 7061.00    0.65288   0.60590   -2.000
 7062.00    0.58939   0.60114   -2.000
 7063.00    0.49245   0.59831   -2.000
 7064.00    0.36280   0.59655   -2.000
 7065.00    0.28424   0.59500   -2.000
 7066.00    0.24976   0.59328   -2.000
 7067.00    0.24336   0.59160   -2.000
 7068.00    0.25832   0.59042   -2.000
 7069.00    0.27862   0.58996   -2.000
 7070.00    0.30251   0.58991   -2.000
 7071.00    0.40425   0.58952   -2.000
 7072.00    0.55153   0.58832   -2.000
 7073.00    0.59513   0.58641   -2.000
 7074.00    0.58587   0.58453   -2.000
 7075.00    0.53436   0.58370   -2.000
 7076.00    0.46420   0.58468   -2.000
 7077.00   -0.18789   0.58753   -2.000
 7078.00   -1.06063   0.59153   -2.000
 7079.00   -0.66266   0.59557   -2.000
 7080.00    0.14450   0.59878   -2.000
 7081.00    0.30096   0.60095   -2.000
 7082.00    0.28213   0.60233   -2.000
 7083.00    0.31752   0.60324   -2.000
 7084.00    0.36490   0.60388   -2.000
 7085.00    0.35447   0.60415   -2.000
 7086.00    0.33388   0.60361   -2.000
 7087.00    0.34830   0.60165   -2.000
 7088.00    0.36741   0.59786   -2.000
 7089.00    0.27786   0.59223   -2.000
 7090.00    0.17798   0.58533   -2.000
 7091.00    0.15962   0.57818   -2.000
 7092.00    0.14605   0.57187   -2.000
 7093.00    0.32532   0.56711   -2.000
 7094.00    0.50847   0.56388   -2.000
 7095.00    0.57274   0.56164   -2.000
 7096.00    0.63345   0.55996   -2.000
 7097.00    0.60575   0.55879   -2.000
 7098.00    0.56380   0.55812   -2.000
 7099.00    0.33239   0.55802   -2.000
 7100.00    0.13853   0.55846   -2.000
 7101.00    0.27739   0.55937   -2.000
 7102.00    0.40916   0.56075   -2.000
 7103.00    0.49451   0.56259   -2.000
 7104.00    0.52679   0.56478   -2.000
 7105.00    0.28875   0.56710   -2.000
 7106.00    0.13564   0.56925   -2.000
 7107.00    0.33211   0.57092   -2.000
 7108.00    0.44101   0.57196   -2.000
 7109.00    0.25137   0.57248   -2.000
 7110.00    0.12506   0.57274   -2.000
 7111.00    0.18071   0.57288   -2.000
 7112.00    0.23217   0.57279   -2.000
 7113.00    0.27333   0.57217   -2.000
 7114.00    0.32223   0.57089   -2.000
 7115.00    0.38748   0.56916   -2.000
 7116.00    0.37923   0.56736   -2.000
 7117.00    0.23580   0.56581   -2.000
 7118.00    0.19626   0.56484   -2.000
 7119.00    0.32364   0.56481   -2.000
 7120.00    0.49000   0.56581   -2.000
 7121.00    0.71132   0.56748   -2.000
 7122.00    0.74479   0.56920   -2.000
 7123.00    0.54527   0.57048   -2.000
 7124.00    0.33721   0.57106   -2.000
 7125.00    0.11983   0.57087   -2.000
 7126.00   -0.00964   0.57005   -2.000
 7127.00   -0.05436   0.56885   -2.000
 7128.00    0.00687   0.56749   -2.000
 7129.00    0.15818   0.56607   -2.000
 7130.00    0.26613   0.56464   -2.000
 7131.00    0.34161   0.56307   -2.000
 7132.00    0.20405   0.56107   -2.000
 7133.00   -0.07368   0.55858   -2.000
 7134.00    0.14789   0.55586   -2.000
 7135.00    0.65707   0.55321   -2.000
 7136.00    0.59589   0.55092   -2.000
 7137.00    0.24852   0.54939   -2.000
 7138.00    0.10154   0.54926   -2.000
 7139.00    0.04158   0.55089   -2.000
 7140.00   -0.04581   0.55395   -2.000
 7141.00   -0.14343   0.55765   -2.000
 7142.00   -0.02717   0.56115   -2.000
 7143.00    0.15663   0.56382   -2.000
 7144.00    0.27008   0.56549   -2.000
 7145.00    0.36497   0.56619   -2.000
 7146.00    0.25491   0.56623   -2.000
 7147.00    0.10068   0.56617   -2.000
 7148.00    0.32810   0.56620   -2.000
 7149.00    0.62076   0.56602   -2.000
 7150.00    0.56499   0.56533   -2.000
 7151.00    0.46413   0.56396   -2.000
 7152.00   -1.02314   0.56187   -2.000
 7153.00   -2.63630   0.55930   -2.000
 7154.00   -1.19214   0.55678   -2.000
 7155.00    0.41932   0.55510   -2.000
 7156.00    0.58078   0.55516   -2.000
 7157.00    0.71047   0.55710   -2.000
 7158.00    0.71295   0.56035   -2.000
 7159.00    0.70069   0.56414   -2.000
 7160.00    0.35356   0.56761   -2.000
 7161.00    0.04211   0.57016   -2.000
 7162.00    0.17999   0.57172   -2.000
 7163.00    0.31242   0.57256   -2.000
 7164.00    0.39832   0.57278   -2.000
 7165.00    0.57318   0.57218   -2.000
 7166.00    1.31183   0.57074   -2.000
 7167.00    1.78700   0.56866   -2.000
 7168.00    0.95397   0.56609   -2.000
 7169.00    0.29397   0.56312   -2.000
 7170.00    0.33045   0.56003   -2.000
 7171.00    0.37453   0.55761   -2.000
 7172.00    0.44403   0.55694   -2.000
 7173.00    0.48322   0.55859   -2.000
 7174.00    0.43691   0.56212   -2.000
 7175.00    0.43869   0.56651   -2.000
 7176.00    0.55651   0.57080   -2.000
 7177.00    0.58821   0.57441   -2.000
 7178.00    0.44060   0.57707   -2.000
 7179.00    0.45764   0.57861   -2.000
 7180.00    0.77279   0.57889   -2.000
 7181.00    0.83156   0.57798   -2.000
 7182.00    0.48453   0.57617   -2.000
 7183.00    0.40281   0.57395   -2.000
 7184.00    0.68972   0.57166   -2.000
 7185.00    0.80078   0.56924   -2.000
 7186.00    0.69681   0.56666   -2.000
 7187.00    0.70669   0.56439   -2.000
 7188.00    0.83931   0.56315   -2.000
 7189.00    0.74800   0.56319   -2.000
 7190.00    0.44376   0.56385   -2.000
 7191.00    0.30335   0.56402   -2.000
 7192.00    0.30029   0.56292   -2.000
 7193.00    0.29782   0.56043   -2.000
 7194.00    0.29577   0.55731   -2.000
 7195.00    0.31703   0.55468   -2.000
 7196.00    0.35340   0.55334   -2.000
 7197.00    0.58467   0.55343   -2.000
 7198.00    0.92652   0.55452   -2.000
 7199.00    0.84288   0.55606   -2.000
 7200.00    0.54911   0.55779   -2.000
 7201.00    0.21280   0.55957   -2.000
 7202.00   -0.14166   0.56113   -2.000
 7203.00   -0.08078   0.56235   -2.000
 7204.00    0.13206   0.56342   -2.000
 7205.00    0.62357   0.56447   -2.000
 7206.00    1.20140   0.56539   -2.000
 7207.00    0.96771   0.56609   -2.000
 7208.00    0.52458   0.56657   -2.000
 7209.00    0.53810   0.56684   -2.000
 7210.00    0.64768   0.56662   -2.000
 7211.00    0.54392   0.56538   -2.000
 7212.00    0.40473   0.56280   -2.000
 7213.00    0.37642   0.55941   -2.000
 7214.00    0.36196   0.55656   -2.000
 7215.00    0.22349   0.55541   -2.000
 7216.00    0.07428   0.55629   -2.000
 7217.00    0.12796   0.55872   -2.000
 7218.00    0.19195   0.56156   -2.000
