###################################################################
## OUTPUT of StarlightChains_v04.for    [Cid@UFSC - 01/Apr/2007] ##
###################################################################

## Some input info
KUG0210-078._27_47.txt                   [arq_obs]
Base.CB07.vall.4m                        [arq_base]
Masks.EmLines.NEW.gm                     [arq_masks]
StCv04.C11.config                        [arq_config]
   66                                    [N_base]
    0                                    [N_YAV_components = # of components with extra extinction!]
    0                                    [i_FitPowerLaw (1/0 = Yes/No)]
-9.99                                    [alpha_PowerLaw]
CCM                                      [red_law_option]
 1.458241                                [q_norm = A(l_norm)/A(V)]

## (Re)Sampling Parameters
 3741.00                                 [l_ini (A)]
 7218.00                                 [l_fin (A)]
    1.00                                 [dl    (A)]     (OBS: dl_cushion =    50.00 A)

## Normalization info
 4020.00                                 [l_norm (A) - for base]
 4010.00                                 [llow_norm (A) - window for f_obs]
 4060.00                                 [lupp_norm (A) - window for f_obs]
9.676327E-18                             [fobs_norm (in input units)]

## S/N
 3691.00                                 [llow_SN (A) - window for S/N]
 7268.00                                 [lupp_SN (A) - window for S/N]
   2.717                                 [S/N in S/N window]
   4.173                                 [S/N in norm. window]
   0.008                                 [S/N_err in S/N window]
   0.012                                 [S/N_err in norm. window]
  1.0000                                 [fscale_chi2]

## etc...
    -2007366                             [idum_orig]
  2416                                   [NOl_eff]
  2339                                   [Nl_eff]
    77    NSIGMA                         [Ntot_cliped & clip_method]
  5999070                                [Nglobal_steps]
   7                                     [N_chains]
  45                                     [NEX0s_base = N_base in EX0s-fits]
 0   0   1       77   2.0   3.650E+03    [Clip-Bug, RC-Crash & Burn-In warning-flags, n_censored_weights, wei_nsig_threshold & wei_limit]
    63     62.339     61.540      0.799  [idt_all, wdt_TotTime, wdt_UsrTime & wdt_SysTime (sec)]

## Synthesis Results - Best model ##

 1.14347E-05                             [chi2/Nl_eff]
    26.68898                             [adev (%)]

   105.72605                             [sum-of-x (%)]
 2.74025E-18                             [Flux_tot (units of input spectrum!)]
 2.19284E-14                             [Mini_tot (???)]
 1.26755E-14                             [Mcor_tot (???)]

 -53.08                                  [v0_min  (km/s)]
   0.00                                  [vd_min  (km/s)]
-0.9808                                  [AV_min  (mag)]
 0.0000                                  [YAV_min (mag)]

# j     x_j(%)      Mini_j(%)     Mcor_j(%)     age_j(yr)     Z_j      (L/M)_j    YAV?  Mstars   component_j        a/Fe...       SSP_chi2r SSP_adev(%)   SSP_AV   SSP_x(%)
  1      0.0000     0.0000E+00    0.0000E+00    1.000000E+06  0.00400  1.094E-02    0   1.0000   age020_m42            0.0000     1.4701E-05    30.3024   2.1139    83.9504
  2      5.1116     1.5078E-02    2.6081E-02    3.160000E+06  0.00400  4.007E-02    0   0.9999   age045_m42            0.0000     1.3222E-05    28.9742   1.3260    91.2401
  3      0.0000     0.0000E+00    0.0000E+00    5.010000E+06  0.00400  2.539E-02    0   0.9488   age055_m42            0.0000     1.3890E-05    29.5113   1.6800    88.2001
  4      0.0084     3.8030E-05    6.0659E-05    6.610000E+06  0.00400  2.620E-02    0   0.9220   age061_m42            0.0000     1.3251E-05    28.8211   1.2602    91.2490
  5      0.0000     0.0000E+00    0.0000E+00    1.000000E+07  0.00400  1.322E-02    0   0.8862   age070_m42            0.0000     1.3512E-05    29.3161   1.0597    91.2517
  6      0.0000     0.0000E+00    0.0000E+00    1.445000E+07  0.00400  7.883E-03    0   0.8571   age078_m42            0.0000     1.3893E-05    29.6129   1.3909    88.7926
  7      0.2498     5.6221E-03    7.9502E-03    2.512000E+07  0.00400  5.251E-03    0   0.8174   age090_m42            0.0000     1.3476E-05    29.2991   0.9409    91.5079
  8      0.0000     0.0000E+00    0.0000E+00    4.000000E+07  0.00400  3.649E-03    0   0.7851   age104_m42            0.0000     1.3187E-05    28.9326   0.6947    92.7673
  9      0.0000     0.0000E+00    0.0000E+00    5.500000E+07  0.00400  3.098E-03    0   0.7629   age110_m42            0.0000     1.2944E-05    28.4254   0.8034    93.8619
 10      0.0000     0.0000E+00    0.0000E+00    1.015200E+08  0.00400  2.228E-03    0   0.7207   age116_m42            0.0000     1.2819E-05    28.0885   0.7907    94.8181
 11      0.0000     0.0000E+00    0.0000E+00    2.861200E+08  0.00400  1.093E-03    0   0.6648   age125_m42            0.0000     1.2609E-05    28.0580   0.2343    97.3152
 12      0.0000     0.0000E+00    0.0000E+00    5.088000E+08  0.00400  6.597E-04    0   0.6365   age130_m42            0.0000     1.2364E-05    27.4987   0.1723    99.5045
 13      0.8395     4.6540E-01    4.6682E-01    1.434000E+09  0.00400  2.132E-04    0   0.5798   age139_m42            0.0000     1.1618E-05    26.7098  -0.8386   102.6534
 14      0.0000     0.0000E+00    0.0000E+00    4.250000E+09  0.00400  5.895E-05    0   0.5377   age158_m42            0.0000     1.2127E-05    29.0151  -1.0000    94.8362
 15      0.0000     0.0000E+00    0.0000E+00    7.500000E+09  0.00400  3.510E-05    0   0.5212   age171_m42            0.0000     1.2943E-05    31.7901  -1.0000    91.1002
 16      0.0000     0.0000E+00    0.0000E+00    1.300000E+10  0.00400  2.005E-05    0   0.5034   age193_m42            0.0000     1.4024E-05    34.7798  -1.0000    87.5757
 17      0.0003     2.2051E-03    1.8948E-03    1.800000E+10  0.00400  1.525E-05    0   0.4967   age213_m42            0.0000     1.4183E-05    35.2836  -1.0000    86.7149
 18      0.0000     7.6584E-08    1.3249E-07    1.000000E+06  0.00800  1.238E-02    0   1.0000   age020_m52            0.0000     1.4710E-05    30.3199   2.1108    84.1130
 19      0.0000     0.0000E+00    0.0000E+00    3.160000E+06  0.00800  3.074E-02    0   0.9966   age045_m52            0.0000     1.4588E-05    30.1224   2.0244    85.0595
 20      0.0000     0.0000E+00    0.0000E+00    5.010000E+06  0.00800  2.668E-02    0   0.9443   age055_m52            0.0000     1.4096E-05    29.6310   1.7709    87.1947
 21      0.7848     4.3428E-03    6.8946E-03    6.610000E+06  0.00800  2.136E-02    0   0.9177   age061_m52            0.0000     1.3282E-05    29.2431   0.5577    92.4852
 22      0.0036     3.4928E-05    5.3336E-05    1.000000E+07  0.00800  1.215E-02    0   0.8827   age070_m52            0.0000     1.3805E-05    29.8002   1.2661    90.3617
 23      0.0000     0.0000E+00    0.0000E+00    1.445000E+07  0.00800  8.717E-03    0   0.8552   age078_m52            0.0000     1.3748E-05    29.5001   1.3542    90.0938
 24      0.0727     1.5369E-03    2.1701E-03    2.512000E+07  0.00800  5.592E-03    0   0.8162   age090_m52            0.0000     1.3396E-05    29.2422   1.0025    92.6254
 25      3.2035     9.7185E-02    1.3183E-01    4.000000E+07  0.00800  3.896E-03    0   0.7841   age104_m52            0.0000     1.3090E-05    28.7999   0.8878    94.0248
 26      0.0000     0.0000E+00    0.0000E+00    1.015200E+08  0.00800  2.148E-03    0   0.7226   age116_m52            0.0000     1.2831E-05    28.2300   0.7797    95.0445
 27      0.0000     0.0000E+00    0.0000E+00    2.861200E+08  0.00800  9.925E-04    0   0.6683   age125_m52            0.0000     1.2305E-05    27.3365   0.2385   100.4168
 28     43.3073     1.6296E+01    1.7305E+01    9.047900E+08  0.00800  3.141E-04    0   0.6138   age135_m52            0.0000     1.1466E-05    26.3263  -0.6525   107.1492
 29      0.2230     1.5334E-01    1.5526E-01    1.434000E+09  0.00800  1.719E-04    0   0.5853   age139_m52            0.0000     1.1667E-05    27.7438  -1.0000   101.2046
 30      0.0000     0.0000E+00    0.0000E+00    2.500000E+09  0.00800  7.872E-05    0   0.5600   age150_m52            0.0000     1.2748E-05    31.2609  -1.0000    94.3043
 31      0.0000     0.0000E+00    0.0000E+00    4.250000E+09  0.00800  4.336E-05    0   0.5426   age158_m52            0.0000     1.2930E-05    31.5884  -1.0000    93.1290
 32      0.2673     1.0001E+00    9.2028E-01    6.250000E+09  0.00800  3.159E-05    0   0.5319   age166_m52            0.0000     1.4388E-05    35.2004  -1.0000    89.3506
 33      0.0000     0.0000E+00    0.0000E+00    1.300000E+10  0.00800  1.361E-05    0   0.5073   age193_m52            0.0000     1.9307E-05    43.7425  -1.0000    78.5431
 34      0.0000     0.0000E+00    0.0000E+00    1.800000E+10  0.00800  9.886E-06    0   0.4990   age213_m52            0.0000     2.1160E-05    45.3547  -1.0000    75.6256
 35      0.0000     0.0000E+00    0.0000E+00    1.000000E+06  0.02000  1.544E-02    0   1.0000   age020_m62            0.0000     1.4759E-05    30.3498   2.1057    84.3088
 36      0.0000     0.0000E+00    0.0000E+00    3.160000E+06  0.02000  3.762E-02    0   0.9858   age045_m62            0.0000     1.4715E-05    30.2120   2.0413    85.1318
 37      0.8537     3.0613E-03    4.9474E-03    5.010000E+06  0.02000  3.296E-02    0   0.9342   age055_m62            0.0000     1.3615E-05    29.1623   1.6179    89.8265
 38      0.0000     0.0000E+00    0.0000E+00    8.710000E+06  0.02000  1.154E-02    0   0.8861   age067_m62            0.0000     1.4981E-05    32.2456   0.8700    89.1653
 39      0.1590     2.4531E-03    3.5953E-03    1.445000E+07  0.02000  7.663E-03    0   0.8472   age078_m62            0.0000     1.3893E-05    30.2789   0.9541    91.4147
 40      2.1888     5.7084E-02    7.9981E-02    2.512000E+07  0.02000  4.532E-03    0   0.8099   age090_m62            0.0000     1.3936E-05    30.2806   0.9505    91.0211
 41      0.0000     0.0000E+00    0.0000E+00    5.500000E+07  0.02000  2.733E-03    0   0.7595   age110_m62            0.0000     1.3246E-05    28.9056   0.8810    93.1354
 42      0.3325     2.8711E-02    3.4694E-02    1.609000E+08  0.02000  1.369E-03    0   0.6985   age120_m62            0.0000     1.2742E-05    27.8206   0.6433    97.6525
 43      0.0000     0.0000E+00    0.0000E+00    2.861200E+08  0.02000  9.013E-04    0   0.6714   age125_m62            0.0000     1.2454E-05    27.1527   0.3435   101.7895
 44      0.0000     0.0000E+00    0.0000E+00    5.088000E+08  0.02000  5.028E-04    0   0.6449   age130_m62            0.0000     1.1871E-05    26.4548  -0.1236   106.9554
 45      1.8498     9.0051E-01    9.6260E-01    9.047900E+08  0.02000  2.428E-04    0   0.6179   age135_m62            0.0000     1.1387E-05    26.4030  -0.7438   107.3673
 46      7.5124     7.0303E+00    7.1855E+00    1.434000E+09  0.02000  1.263E-04    0   0.5908   age139_m62            0.0000     1.1647E-05    26.9836  -1.0000   102.9315
 47      7.6544     1.5116E+01    1.4836E+01    2.500000E+09  0.02000  5.985E-05    0   0.5673   age150_m62            0.0000     1.3094E-05    31.4344  -1.0000    95.3453
 48      0.0858     3.1018E-01    2.9342E-01    4.250000E+09  0.02000  3.271E-05    0   0.5468   age158_m62            0.0000     1.5660E-05    36.9607  -1.0000    88.4419
 49      0.0000     0.0000E+00    0.0000E+00    1.000000E+10  0.02000  1.360E-05    0   0.5167   age181_m62            0.0000     2.0121E-05    42.9470  -1.0000    80.1048
 50      0.0000     0.0000E+00    0.0000E+00    1.800000E+10  0.02000  7.124E-06    0   0.5013   age213_m62            0.0000     2.3634E-05    46.1698  -1.0000    74.3255
 51      0.0791     3.6077E-04    6.2401E-04    1.000000E+06  0.05000  2.592E-02    0   0.9998   age020_m72            0.0000     1.4921E-05    30.4794   2.1043    84.1691
 52      0.0000     0.0000E+00    0.0000E+00    3.160000E+06  0.05000  4.845E-02    0   0.9577   age045_m72            0.0000     1.4297E-05    29.7530   1.9002    86.8077
 53      0.0000     0.0000E+00    0.0000E+00    5.010000E+06  0.05000  3.072E-02    0   0.9147   age055_m72            0.0000     1.4250E-05    30.2825   1.5032    88.6687
 54      0.5237     4.2541E-03    6.5330E-03    6.610000E+06  0.05000  1.455E-02    0   0.8877   age061_m72            0.0000     1.5682E-05    33.9390   0.9637    88.5381
 55      0.0000     0.0000E+00    0.0000E+00    1.000000E+07  0.05000  9.074E-03    0   0.8524   age070_m72            0.0000     1.4344E-05    30.6646   1.6859    88.3279
 56      0.0000     0.0000E+00    0.0000E+00    2.512000E+07  0.05000  4.250E-03    0   0.7902   age090_m72            0.0000     1.3806E-05    29.8350   1.3666    90.5180
 57      0.0000     0.0000E+00    0.0000E+00    4.000000E+07  0.05000  3.087E-03    0   0.7618   age104_m72            0.0000     1.3619E-05    29.6764   1.1382    92.0490
 58      0.0000     0.0000E+00    0.0000E+00    1.015200E+08  0.05000  1.700E-03    0   0.7096   age116_m72            0.0000     1.2944E-05    28.2037   0.8116    96.5035
 59      0.0000     0.0000E+00    0.0000E+00    2.861200E+08  0.05000  7.384E-04    0   0.6633   age125_m72            0.0000     1.2155E-05    26.7104   0.1612   104.5486
 60      0.0000     0.0000E+00    0.0000E+00    5.088000E+08  0.05000  3.819E-04    0   0.6372   age130_m72            0.0000     1.1563E-05    26.3694  -0.4016   108.3039
 61      3.9074     2.7556E+00    2.9127E+00    9.047900E+08  0.05000  1.676E-04    0   0.6110   age135_m72            0.0000     1.1661E-05    26.5427  -1.0000   105.6746
 62     13.8758     1.8559E+01    1.8859E+01    1.434000E+09  0.05000  8.837E-05    0   0.5874   age139_m72            0.0000     1.3289E-05    31.4235  -1.0000    96.8193
 63     12.5068     3.4922E+01    3.3820E+01    2.500000E+09  0.05000  4.233E-05    0   0.5598   age150_m72            0.0000     1.5926E-05    36.9131  -1.0000    89.2766
 64      0.0000     0.0000E+00    0.0000E+00    6.250000E+09  0.05000  1.435E-05    0   0.5249   age166_m72            0.0000     2.1549E-05    44.5639  -1.0000    77.4688
 65      0.1250     2.2687E+00    1.9766E+00    1.300000E+10  0.05000  6.513E-06    0   0.5036   age193_m72            0.0000     2.6553E-05    48.6420  -1.0000    71.0414
 66      0.0000     0.0000E+00    0.0000E+00    1.800000E+10  0.05000  4.527E-06    0   0.4945   age213_m72            0.0000     2.9722E-05    50.6990  -1.0000    66.7210


## Synthesis Results - Average & Chains ##

# j      x_j: min, <> & last-chain-values for 1 ...  7 chains
  1      0.0000      0.2297      0.9871      0.2918      0.3595      0.1755      0.5207      0.8522      0.0000
  2      5.1116      0.2571      1.2472      0.4501      0.0000      0.0049      0.0466      0.8370      0.9100
  3      0.0000      0.2198      0.7809      0.0000      0.4869      0.8949      0.1053      0.1495      0.0000
  4      0.0084      0.2885      0.1599      0.1045      0.1701      0.7219      0.7053      1.2209      0.8635
  5      0.0000      0.2369      0.8550      0.0000      0.7798      0.6861      0.2561      0.3783      0.0000
  6      0.0000      0.2796      0.4520      0.8012      0.0000      0.6329      0.6736      2.5675      1.1105
  7      0.2498      0.3014      0.9016      0.8536      0.0000      0.0730      0.3902      0.7990      0.0000
  8      0.0000      0.2740      0.0000      1.3330      0.8488      1.2193      0.6101      0.0391      0.5050
  9      0.0000      0.2922      0.1796      1.6028      0.0123      0.0000      0.4657      0.2177      1.0243
 10      0.0000      0.2317      0.3088      0.0000      1.4741      0.4331      0.6829      0.0274      1.2690
 11      0.0000      0.1892      0.2989      0.0000      0.0000      0.5378      0.3093      0.5563      0.8323
 12      0.0000      0.2680      1.1771      0.1904      0.4426      0.5205      0.5426      0.5380      0.0000
 13      0.8395      0.2300      0.2337      0.8281      0.6471      0.4791      1.2637      0.6446      0.5516
 14      0.0000      0.1826      0.0000      0.0000      0.0236      0.2765      0.3679      0.5269      0.3840
 15      0.0000      0.2285      0.0000      0.1786      0.7909      0.0000      0.2199      2.3698      0.0000
 16      0.0000      0.1701      0.0000      0.0000      1.6689      0.0000      0.0000      0.4033      0.0000
 17      0.0003      0.1708      0.3271      1.1185      0.0000      0.6870      0.0678      0.3950      0.0000
 18      0.0000      0.1996      0.4075      1.0558      0.0000      1.2660      0.0000      1.3113      1.3039
 19      0.0000      0.2067      1.2692      1.2253      0.3021      0.4133      0.1075      0.0000      0.8270
 20      0.0000      0.1667      0.0000      0.5235      0.3843      1.4803      0.1513      0.0000      0.0000
 21      0.7848      0.2739      1.5258      0.6543      0.5033      3.5187      0.4221      0.8287      0.0000
 22      0.0036      0.2777      0.9014      0.0517      0.1821      0.7850      0.5214      0.4946      0.0000
 23      0.0000      0.2649      0.5233      0.3968      0.7440      2.2509      0.2862      0.2178      0.9120
 24      0.0727      0.1921      0.4549      0.2649      0.0000      0.2982      1.0026      0.5174      0.1855
 25      3.2035      0.1947      0.8838      0.6997      1.1170      0.3045      0.0939      0.7711      0.1273
 26      0.0000      0.1893      0.1585      0.0297      1.0160      0.7644      0.7054      0.0000      0.0000
 27      0.0000      0.1890      0.5412      0.0000      0.0914      0.0000      0.2742      0.0000      0.0899
 28     43.3073      0.2101      0.0000      0.0000      0.7389      1.0486      0.1007      1.2763      0.3729
 29      0.2230      0.2939      0.1581      1.1160      0.2812      0.7726      0.3376      0.4169      1.6369
 30      0.0000      0.1545      0.4065      0.0041      0.0000      0.2490      0.3225      0.0000      0.0000
 31      0.0000      0.1363      0.0000      0.0000      0.2904      0.5229      0.5940      0.1592      0.3585
 32      0.2673      0.1722      1.2159      0.1455      0.0000      0.1957      0.2456      1.0378      0.8542
 33      0.0000      0.2832      0.2774      0.6547      0.9941      0.0120      0.0218      0.2988      0.7712
 34      0.0000      0.2798      0.0565      0.2891      0.0000      0.2435      0.2227      0.0000      0.4102
 35      0.0000      0.1543      0.0000      0.1155      0.1140      0.4611      0.0487      0.3400      0.2377
 36      0.0000      0.2811      0.0000      0.4723      4.8328      0.1652      0.0000      1.7684      1.7983
 37      0.8537      0.1899      0.0000      0.0000      0.7017      0.0000      0.1176      0.3097      0.0000
 38      0.0000      0.1950      1.0954      0.5821      0.4889      0.0000      0.2726      0.6727      0.2815
 39      0.1590      0.2427      0.8916      1.3340      0.3785      0.0000      0.1799      1.1139      1.2209
 40      2.1888      0.1821      0.0000      0.5584      0.8078      0.7620      0.1654      0.5015      0.6491
 41      0.0000      0.1879      0.1236      1.5384      0.3263      0.4370      0.0368      0.0000      0.5984
 42      0.3325      0.2154      0.2760      0.4898      0.0000      0.1373      0.1946      0.8110      0.0000
 43      0.0000      0.2270      0.1163      0.0000      0.3898      0.1684      0.5760      1.4136      1.1874
 44      0.0000      0.2496      0.6159      0.9123      0.3808      0.3544      0.7073      0.7817      0.0000
 45      1.8498      0.2140      0.0157      0.4013      0.4462      1.1987      0.8035      0.7835      0.3091
 46      7.5124      0.1944      0.1122      0.6848      0.1486      0.0000      0.0678      0.6241      1.3365
 47      7.6544      0.1808      0.3179      0.1214      0.2644      0.0000      0.0095      0.6084      0.0000
 48      0.0858      0.2320      0.0000      2.5250      0.2038      0.1683      0.1614      1.0161      0.0000
 49      0.0000      0.1492      0.8785      0.6277      0.2971      0.0000      0.0000      1.2703      0.0000
 50      0.0000      0.2246      0.2544      0.0000      0.0000      0.3687      0.5981      0.0704      0.0000
 51      0.0791      0.2161      0.3090      0.0000      0.0000      0.4563      0.5000      0.9886      0.0108
 52      0.0000      0.2243      0.4242      2.1737      0.5047      0.1639      0.0000      0.2498      0.0914
 53      0.0000      0.2268      0.9367      0.4293      0.2282      0.5804      0.3561      2.1609      0.8786
 54      0.5237     66.3825     54.0865     49.2744     47.9946     48.4936     59.9967     44.4864     51.2421
 55      0.0000      0.1795      0.1147      0.7124      0.6957      0.5184      0.0880      0.0000      0.5283
 56      0.0000      0.2188      2.2415      0.0514      0.0000      0.0828      0.0000      0.3447      0.1512
 57      0.0000      0.2844      1.0740      0.7311      0.7010      0.9076      0.4136      0.2312      0.2475
 58      0.0000      0.2279      0.5171      0.1462      1.7899      2.2247      0.5020      0.0000      0.3094
 59      0.0000      0.1960      0.0000      1.5042      0.0000      0.1885      0.2819      0.0000      0.6606
 60      0.0000      0.2281      0.2316      0.5172      2.2451      0.5630      0.2860      0.3167      0.0000
 61      3.9074      0.1913      0.0847      0.0000      0.9271      0.1505      0.5321      1.3756      2.9283
 62     13.8758      0.2557      0.0275      0.3690      0.0000      0.0000      1.3239      0.3947      0.0000
 63     12.5068      0.2210      0.2618      1.0384      0.8687      0.0000      0.1723      0.4036      0.6334
 64      0.0000      0.1834      0.0133      0.0000      0.1291      0.5155      0.0000      0.0000      0.0000
 65      0.1250      2.0641      1.5845      0.1157      2.7418      2.8965      1.5531      0.5502      1.9789
 66      0.0000      2.9594      2.2846      2.3313      2.6599      2.5853      2.5953      2.0551      2.7731

# j      m_j: min, <> & last-chain-values for 1 ...  7 chains
  1  0.0000E+00  3.6364E-03  1.8473E-02  5.9655E-03  5.0496E-03  2.5817E-03  9.3011E-03  1.6632E-02  0.0000E+00
  2  2.6081E-02  1.1111E-03  6.3720E-03  2.5122E-03  0.0000E+00  1.9623E-05  2.2711E-04  4.4594E-03  3.9922E-03
  3  0.0000E+00  1.4227E-03  5.9745E-03  0.0000E+00  2.7958E-03  5.3812E-03  7.6911E-04  1.1929E-03  0.0000E+00
  4  6.0659E-05  1.7586E-03  1.1523E-03  8.2287E-04  9.1988E-04  4.0875E-03  4.8503E-03  9.1731E-03  5.3418E-03
  5  0.0000E+00  2.7501E-03  1.1735E-02  0.0000E+00  8.0328E-03  7.4002E-03  3.3547E-03  5.4139E-03  0.0000E+00
  6  0.0000E+00  5.2650E-03  1.0063E-02  1.9484E-02  0.0000E+00  1.1073E-02  1.4312E-02  5.9603E-02  2.1227E-02
  7  7.9502E-03  8.1252E-03  2.8736E-02  2.9720E-02  0.0000E+00  1.8273E-03  1.1871E-02  2.6557E-02  0.0000E+00
  8  0.0000E+00  1.0211E-02  0.0000E+00  6.4147E-02  2.8063E-02  4.2213E-02  2.5651E-02  1.7963E-03  1.9100E-02
  9  0.0000E+00  1.2465E-02  9.0574E-03  8.8277E-02  4.6648E-04  0.0000E+00  2.2410E-02  1.1447E-02  4.4342E-02
 10  0.0000E+00  1.2980E-02  2.0449E-02  0.0000E+00  7.3273E-02  2.2545E-02  4.3171E-02  1.8893E-03  7.2162E-02
 11  0.0000E+00  1.9929E-02  3.7226E-02  0.0000E+00  0.0000E+00  5.2631E-02  3.6765E-02  7.2244E-02  8.8996E-02
 12  0.0000E+00  4.4787E-02  2.3253E-01  4.1087E-02  6.5621E-02  8.0805E-02  1.0231E-01  1.1084E-01  0.0000E+00
 13  4.6682E-01  1.0835E-01  1.3014E-01  5.0369E-01  2.7044E-01  2.0964E-01  6.7160E-01  3.7430E-01  2.6374E-01
 14  0.0000E+00  2.8848E-01  0.0000E+00  0.0000E+00  3.3101E-02  4.0575E-01  6.5577E-01  1.0262E+00  6.1575E-01
 15  0.0000E+00  5.8756E-01  0.0000E+00  5.9318E-01  1.8047E+00  0.0000E+00  6.3807E-01  7.5133E+00  0.0000E+00
 16  0.0000E+00  7.3978E-01  0.0000E+00  0.0000E+00  6.4390E+00  0.0000E+00  0.0000E+00  2.1620E+00  0.0000E+00
 17  1.8948E-03  9.6377E-01  2.1809E+00  8.1479E+00  0.0000E+00  3.6004E+00  4.3124E-01  2.7470E+00  0.0000E+00
 18  1.3249E-07  2.7925E-03  6.7393E-03  1.9075E-02  0.0000E+00  1.6455E-02  0.0000E+00  2.2616E-02  1.8515E-02
 19  0.0000E+00  1.1606E-03  8.4246E-03  8.8848E-03  1.5051E-03  2.1563E-03  6.8091E-04  0.0000E+00  4.7135E-03
 20  0.0000E+00  1.0216E-03  0.0000E+00  4.1442E-03  2.0899E-03  8.4303E-03  1.0467E-03  0.0000E+00  0.0000E+00
 21  6.8946E-03  2.0379E-03  1.3421E-02  6.2877E-03  3.3226E-03  2.4326E-02  3.5442E-03  7.6015E-03  0.0000E+00
 22  5.3336E-05  3.4941E-03  1.3408E-02  8.3945E-04  2.0330E-03  9.1761E-03  7.4031E-03  7.6718E-03  0.0000E+00
 23  0.0000E+00  4.5014E-03  1.0511E-02  8.7060E-03  1.1217E-02  3.5533E-02  5.4874E-03  4.5617E-03  1.5729E-02
 24  2.1701E-03  4.8564E-03  1.3595E-02  8.6464E-03  0.0000E+00  7.0025E-03  2.8597E-02  1.6125E-02  4.7588E-03
 25  1.3183E-01  6.7858E-03  3.6416E-02  3.1497E-02  3.4545E-02  9.8594E-03  3.6912E-03  3.3134E-02  4.5035E-03
 26  0.0000E+00  1.1031E-02  1.0916E-02  2.2314E-03  5.2519E-02  4.1376E-02  4.6377E-02  0.0000E+00  0.0000E+00
 27  0.0000E+00  2.2041E-02  7.4607E-02  0.0000E+00  9.4554E-03  0.0000E+00  3.6083E-02  0.0000E+00  1.0646E-02
 28  1.7305E+01  7.1108E-02  0.0000E+00  0.0000E+00  2.2187E-01  3.2971E-01  3.8453E-02  5.3253E-01  1.2812E-01
 29  1.5526E-01  1.7334E-01  1.1021E-01  8.4988E-01  1.4710E-01  4.2331E-01  2.2462E-01  3.0310E-01  9.7979E-01
 30  0.0000E+00  1.9031E-01  5.9211E-01  6.6012E-03  0.0000E+00  2.8502E-01  4.4837E-01  0.0000E+00  0.0000E+00
 31  0.0000E+00  2.9549E-01  0.0000E+00  0.0000E+00  5.5834E-01  1.0528E+00  1.4527E+00  4.2549E-01  7.8877E-01
 32  9.2028E-01  5.0229E-01  4.1916E+00  5.4776E-01  0.0000E+00  5.3021E-01  8.0803E-01  3.7310E+00  2.5284E+00
 33  0.0000E+00  1.8281E+00  2.1173E+00  5.4584E+00  5.6941E+00  7.1893E-02  1.5858E-01  2.3783E+00  5.0533E+00
 34  0.0000E+00  2.4461E+00  5.8419E-01  3.2640E+00  0.0000E+00  1.9778E+00  2.1969E+00  0.0000E+00  3.6403E+00
 35  0.0000E+00  1.7314E-03  0.0000E+00  1.6726E-03  1.1345E-03  4.8054E-03  6.1635E-04  4.7010E-03  2.7061E-03
 36  0.0000E+00  1.2759E-03  0.0000E+00  2.7681E-03  1.9460E-02  6.9657E-04  0.0000E+00  9.8938E-03  8.2844E-03
 37  4.9474E-03  9.3233E-04  0.0000E+00  0.0000E+00  3.0562E-03  0.0000E+00  6.5123E-04  1.8742E-03  0.0000E+00
 38  0.0000E+00  2.5930E-03  1.7221E-02  9.9975E-03  5.7684E-03  0.0000E+00  4.0910E-03  1.1029E-02  3.8001E-03
 39  3.5953E-03  4.6480E-03  2.0183E-02  3.2987E-02  6.4310E-03  0.0000E+00  3.8864E-03  2.6293E-02  2.3729E-02
 40  7.9981E-02  5.6367E-03  0.0000E+00  2.2320E-02  2.2184E-02  2.1911E-02  5.7759E-03  1.9135E-02  2.0391E-02
 41  0.0000E+00  9.0449E-03  7.0329E-03  9.5617E-02  1.3932E-02  1.9543E-02  1.9986E-03  0.0000E+00  2.9233E-02
 42  3.4694E-02  1.9035E-02  2.8833E-02  5.5894E-02  0.0000E+00  1.1273E-02  1.9400E-02  8.8354E-02  0.0000E+00
 43  0.0000E+00  2.9287E-02  1.7731E-02  0.0000E+00  4.4617E-02  2.0190E-02  8.3854E-02  2.2483E-01  1.5549E-01
 44  0.0000E+00  5.5453E-02  1.6174E-01  2.6172E-01  7.5059E-02  7.3136E-02  1.7730E-01  2.1408E-01  0.0000E+00
 45  9.6260E-01  9.4306E-02  8.1754E-03  2.2839E-01  1.7447E-01  4.9086E-01  3.9961E-01  4.2571E-01  1.3827E-01
 46  7.1855E+00  1.5751E-01  1.0743E-01  7.1643E-01  1.0683E-01  0.0000E+00  6.1938E-02  6.2334E-01  1.0991E+00
 47  1.4836E+01  2.9683E-01  6.1700E-01  2.5737E-01  3.8504E-01  0.0000E+00  1.7555E-02  1.2313E+00  0.0000E+00
 48  2.9342E-01  6.7167E-01  0.0000E+00  9.4404E+00  5.2345E-01  4.5273E-01  5.2712E-01  3.6267E+00  0.0000E+00
 49  0.0000E+00  9.8195E-01  6.8338E+00  5.3334E+00  1.7348E+00  0.0000E+00  0.0000E+00  1.0304E+01  0.0000E+00
 50  0.0000E+00  2.7375E+00  3.6650E+00  0.0000E+00  0.0000E+00  4.1749E+00  8.2241E+00  1.0576E+00  0.0000E+00
 51  6.2401E-04  1.4438E-03  2.4405E-03  0.0000E+00  0.0000E+00  2.8318E-03  3.7686E-03  8.1419E-03  7.2941E-05
 52  0.0000E+00  7.6787E-04  1.7169E-03  9.6099E-03  1.5331E-03  5.2143E-04  0.0000E+00  1.0543E-03  3.1770E-04
 53  0.0000E+00  1.1695E-03  5.7105E-03  2.8592E-03  1.0440E-03  2.7807E-03  2.0719E-03  1.3738E-02  4.5992E-03
 54  6.5330E-03  7.0144E-01  6.7561E-01  6.7237E-01  4.4996E-01  4.7607E-01  7.1533E-01  5.7950E-01  5.4960E-01
 55  0.0000E+00  2.9203E-03  2.2053E-03  1.4967E-02  1.0042E-02  7.8354E-03  1.6162E-03  0.0000E+00  8.7242E-03
 56  0.0000E+00  7.0460E-03  8.5327E-02  2.1369E-03  0.0000E+00  2.4766E-03  0.0000E+00  1.3683E-02  4.9422E-03
 57  0.0000E+00  1.2157E-02  5.4263E-02  4.0351E-02  2.6582E-02  3.6038E-02  1.9947E-02  1.2183E-02  1.0739E-02
 58  0.0000E+00  1.6473E-02  4.4194E-02  1.3649E-02  1.1481E-01  1.4942E-01  4.0947E-02  0.0000E+00  2.2701E-02
 59  0.0000E+00  3.0501E-02  0.0000E+00  3.0221E-01  0.0000E+00  2.7242E-02  4.9491E-02  0.0000E+00  1.0432E-01
 60  0.0000E+00  6.5916E-02  7.9107E-02  1.9300E-01  5.7563E-01  1.5116E-01  9.3268E-02  1.1284E-01  0.0000E+00
 61  2.9127E+00  1.2076E-01  6.3247E-02  0.0000E+00  5.1937E-01  8.8272E-02  3.7910E-01  1.0708E+00  1.8767E+00
 62  1.8859E+01  2.9440E-01  3.7391E-02  5.4863E-01  0.0000E+00  0.0000E+00  1.7197E+00  5.6013E-01  0.0000E+00
 63  3.3820E+01  5.0623E-01  7.0899E-01  3.0715E+00  1.7654E+00  0.0000E+00  4.4526E-01  1.1397E+00  1.4727E+00
 64  0.0000E+00  1.1616E+00  9.9824E-02  0.0000E+00  7.2551E-01  3.0341E+00  0.0000E+00  0.0000E+00  0.0000E+00
 65  1.9766E+00  2.7641E+01  2.5085E+01  2.0007E+00  3.2577E+01  3.6038E+01  2.3468E+01  9.0837E+00  2.6900E+01
 66  0.0000E+00  5.5987E+01  5.1095E+01  5.6955E+01  4.4647E+01  4.5442E+01  5.5401E+01  4.7929E+01  5.3252E+01

# AV, chi2 & Mass for <> & i_chain = 1 ...  7 solutions
AV      -0.9808      0.5945      0.5669      0.4982      0.3963      0.5382      0.4867      0.4878      0.5076
chi2 1.1435E-05  1.5277E-05  1.4919E-05  1.4825E-05  1.4663E-05  1.4725E-05  1.4951E-05  1.4582E-05  1.4811E-05
Mass 1.2676E-14  1.2416E-13  1.0120E-13  8.4470E-14  1.0722E-13  1.2389E-13  9.5196E-14  8.7260E-14  1.0883E-13
 -53.08                                  [v0_min (km/s) before EX0s...]
   0.00                                  [vd_min (km/s) before EX0s...]


## Synthetic spectrum (Best Model) ##l_obs f_obs f_syn wei
 3478    [Nl_obs]
 3741.00    0.14745   0.68604    0.000
 3742.00    0.38781   0.64482    0.000
 3743.00    0.33353   0.61039    0.000
 3744.00    0.33554   0.58114    0.000
 3745.00    0.37034   0.54732    0.026
 3746.00    0.49139   0.51579    0.025
 3747.00    0.65624   0.46378    0.025
 3748.00    0.43642   0.39853    0.025
 3749.00    0.04746   0.38353    0.025
 3750.00    0.13447   0.44287    0.025
 3751.00    0.40117   0.52982    0.025
 3752.00    0.41296   0.60290    0.025
 3753.00    0.34306   0.66817    0.025
 3754.00    0.48926   0.72626    0.025
 3755.00    0.69338   0.74229    0.025
 3756.00    0.85459   0.69168    0.025
 3757.00    1.00639   0.61945    0.025
 3758.00    0.78652   0.59623    0.025
 3759.00    0.50176   0.62344    0.025
 3760.00    0.77782   0.65640    0.025
 3761.00    1.12839   0.67459    0.025
 3762.00    0.92421   0.67565    0.025
 3763.00    0.66790   0.67115    0.025
 3764.00    0.51559   0.67187    0.024
 3765.00    0.36928   0.64937    0.024
 3766.00    0.85173   0.60239    0.024
 3767.00    1.34430   0.57180    0.024
 3768.00    1.25622   0.55118    0.024
 3769.00    1.16739   0.51621    0.024
 3770.00    1.06029   0.50716    0.024
 3771.00    0.93715   0.55713    0.024
 3772.00    0.60377   0.62340    0.023
 3773.00    0.34140   0.66059    0.022
 3774.00    0.70242   0.67718    0.023
 3775.00    1.02423   0.69939    0.023
 3776.00    1.09174   0.73003    0.022
 3777.00    1.10210   0.75691    0.022
 3778.00    0.82313   0.78645    0.022
 3779.00    0.60908   0.82394    0.022
 3780.00    0.66075   0.84562    0.023
 3781.00    0.71375   0.84484    0.023
 3782.00    0.77134   0.84796    0.023
 3783.00    0.77131   0.86375    0.023
 3784.00    0.60653   0.84918    0.023
 3785.00    0.36405   0.78390    0.024
 3786.00   -0.06827   0.72566    0.000
 3787.00   -0.28392   0.70308    0.000
 3788.00   -0.04292   0.68923    0.000
 3789.00    0.25455   0.68173    0.023
 3790.00    0.65545   0.69241    0.024
 3791.00    0.85299   0.69450    0.024
 3792.00    0.72500   0.66129    0.024
 3793.00    0.55706   0.60770    0.024
 3794.00    0.33300   0.56155    0.023
 3795.00    0.27227   0.52403    0.023
 3796.00    0.41341   0.47333    0.023
 3797.00    0.43046   0.42805    0.023
 3798.00    0.31229   0.44066    0.023
 3799.00    0.17974   0.51367    0.023
 3800.00    0.03337   0.59643    0.023
 3801.00    0.05928   0.66277    0.024
 3802.00    0.23118   0.72131    0.024
 3803.00    0.29952   0.76200    0.025
 3804.00    0.29060   0.77059    0.024
 3805.00    0.26675   0.75121    0.024
 3806.00    0.23313   0.73275    0.024
 3807.00    0.41587   0.75392    0.024
 3808.00    0.72277   0.80818    0.024
 3809.00    0.99501   0.85507    0.023
 3810.00    1.24994   0.87075    0.023
 3811.00    0.95211   0.84592    0.023
 3812.00    0.41524   0.78650    0.023
 3813.00    0.35931   0.73077    0.023
 3814.00    0.48174   0.70403    0.023
 3815.00    0.32747   0.70923    0.023
 3816.00    0.08621   0.74844    0.022
 3817.00   -0.06773   0.77995    0.000
 3818.00   -0.19878   0.75488    0.000
 3819.00    0.04205   0.69563    0.022
 3820.00    0.36255   0.67737    0.022
 3821.00    0.30875   0.71608    0.022
 3822.00    0.19143   0.73800    0.021
 3823.00    0.04575   0.69720    0.022
 3824.00   -0.10358   0.64041    0.000
 3825.00    0.15582   0.61424    0.022
 3826.00    0.45190   0.60904    0.022
 3827.00    0.64098   0.60364    0.022
 3828.00    0.82431   0.59488    0.022
 3829.00    0.73079   0.58760    0.023
 3830.00    0.63143   0.56557    0.023
 3831.00    0.50785   0.51086    0.023
 3832.00    0.38823   0.44913    0.023
 3833.00    0.35653   0.40594    0.023
 3834.00    0.31999   0.38674    0.023
 3835.00    0.22316   0.39989    0.023
 3836.00    0.16192   0.43199    0.023
 3837.00    0.40150   0.45843    0.023
 3838.00    0.66096   0.48304    0.023
 3839.00    1.04547   0.51421    0.024
 3840.00    1.27377   0.56123    0.024
 3841.00    0.73129   0.62851    0.023
 3842.00    0.31548   0.68574    0.023
 3843.00    0.40673   0.71631    0.023
 3844.00    0.51185   0.72914    0.023
 3845.00    0.66307   0.73869    0.024
 3846.00    0.76170   0.76312    0.024
 3847.00    0.71263   0.78629    0.000
 3848.00    0.66638   0.77361    0.000
 3849.00    0.62689   0.75102    0.000
 3850.00    0.53565   0.77069    0.000
 3851.00    0.33705   0.81204    0.000
 3852.00    0.22073   0.82435    0.000
 3853.00    0.25280   0.81000    0.000
 3854.00    0.27311   0.78765    0.000
 3855.00    0.27487   0.77008    0.000
 3856.00    0.27744   0.77431    0.000
 3857.00    0.28112   0.77073    0.000
 3858.00    0.11275   0.73822    0.000
 3859.00   -0.26529   0.72616    0.000
 3860.00   -0.29383   0.76491    0.000
 3861.00    0.05306   0.81908    0.000
 3862.00    0.48695   0.84973    0.000
 3863.00    1.00330   0.85185    0.000
 3864.00    1.03939   0.83679    0.000
 3865.00    0.67429   0.82151    0.000
 3866.00    0.47009   0.81987    0.000
 3867.00    0.38423   0.82847    0.000
 3868.00    0.35678   0.83089    0.000
 3869.00    0.36706   0.81002    0.000
 3870.00    0.46241   0.76775    0.000
 3871.00    0.60583   0.72240    0.000
 3872.00    0.72508   0.71095    0.000
 3873.00    0.83244   0.74847    0.000
 3874.00    0.75512   0.79590    0.000
 3875.00    0.59927   0.80751    0.000
 3876.00    0.55268   0.76698    0.000
 3877.00    0.54588   0.70032    0.000
 3878.00    0.41759   0.67873    0.000
 3879.00    0.25185   0.70953    0.000
 3880.00    0.36616   0.71473    0.000
 3881.00    0.55236   0.67755    0.022
 3882.00    0.49633   0.65534    0.022
 3883.00    0.38965   0.65644    0.022
 3884.00    0.26472   0.62430    0.022
 3885.00    0.13677   0.55341    0.023
 3886.00    0.45090   0.49367    0.023
 3887.00    0.81978   0.45482    0.023
 3888.00    0.66647   0.43445    0.023
 3889.00    0.46848   0.46333    0.023
 3890.00    0.67174   0.53851    0.023
 3891.00    0.89500   0.61322    0.023
 3892.00    0.97166   0.65671    0.023
 3893.00    1.03920   0.67280    0.023
 3894.00    0.67277   0.67854    0.023
 3895.00    0.32171   0.69778    0.022
 3896.00    0.28499   0.73178    0.022
 3897.00    0.27308   0.74779    0.022
 3898.00    0.55462   0.74226    0.022
 3899.00    0.78226   0.75093    0.021
 3900.00    0.57092   0.79071    0.021
 3901.00    0.40030   0.81647    0.020
 3902.00    0.47835   0.80305    0.019
 3903.00    0.57646   0.78791    0.019
 3904.00    0.77110   0.77195    0.019
 3905.00    0.97505   0.75735    0.019
 3906.00    1.21547   0.78227    0.019
 3907.00    1.41261   0.83844    0.019
 3908.00    1.46868   0.88347    0.020
 3909.00    1.39839   0.90278    0.020
 3910.00    0.97966   0.91363    0.020
 3911.00    0.73919   0.91889    0.020
 3912.00    0.91969   0.90240    0.021
 3913.00    1.06634   0.88047    0.021
 3914.00    1.14393   0.87604    0.021
 3915.00    1.12502   0.86972    0.022
 3916.00    0.93472   0.85643    0.022
 3917.00    0.75873   0.84440    0.022
 3918.00    0.60499   0.82479    0.022
 3919.00    0.54545   0.80036    0.022
 3920.00    0.61444   0.78860    0.022
 3921.00    0.74101   0.79570    0.022
 3922.00    0.93674   0.81083    0.022
 3923.00    0.82912   0.82338    0.022
 3924.00    0.40020   0.81202    0.022
 3925.00    0.40180   0.77499    0.022
 3926.00    0.80560   0.72980    0.023
 3927.00    0.89245   0.67563    0.023
 3928.00    0.71829   0.61702    0.023
 3929.00    0.55585   0.55916    0.023
 3930.00    0.40191   0.49509    0.023
 3931.00    0.15918   0.42023    0.023
 3932.00   -0.14005   0.34909    0.000
 3933.00    0.11245   0.31924    0.023
 3934.00    0.67202   0.35425    0.023
 3935.00    0.90780   0.43509    0.024
 3936.00    0.98684   0.52252    0.024
 3937.00    0.83972   0.59726    0.024
 3938.00    0.59804   0.66501    0.024
 3939.00    0.20345   0.72111    0.024
 3940.00   -0.24583   0.74857    0.000
 3941.00    0.17352   0.75229    0.023
 3942.00    0.85542   0.74228    0.023
 3943.00    0.65652   0.73386    0.023
 3944.00    0.23640   0.76189    0.023
 3945.00    0.49112   0.81682    0.023
 3946.00    0.88347   0.83722    0.023
 3947.00    0.67679   0.81700    0.023
 3948.00    0.37420   0.80935    0.022
 3949.00   -0.05301   0.83176    0.000
 3950.00   -0.49510   0.84895    0.000
 3951.00    0.01139   0.83471    0.023
 3952.00    0.59512   0.82286    0.023
 3953.00    0.78234   0.84512    0.023
 3954.00    0.95134   0.85245    0.023
 3955.00    1.04860   0.81096    0.023
 3956.00    1.14203   0.77440    0.023
 3957.00    1.08355   0.78298    0.022
 3958.00    1.02082   0.80383    0.022
 3959.00    0.87769   0.78250    0.022
 3960.00    0.74152   0.70889    0.000
 3961.00    0.68375   0.63498    0.000
 3962.00    0.60348   0.59615    0.000
 3963.00    0.34640   0.56716    0.000
 3964.00    0.15330   0.51961    0.000
 3965.00    0.33990   0.44846    0.000
 3966.00    0.53803   0.36505    0.000
 3967.00    0.79032   0.29126    0.000
 3968.00    0.88296   0.25207    0.000
 3969.00    0.36380   0.26289    0.000
 3970.00    0.05776   0.31830    0.000
 3971.00    0.43294   0.39346    0.000
 3972.00    0.84367   0.46439    0.000
 3973.00    1.35068   0.52899    0.000
 3974.00    1.63897   0.59254    0.000
 3975.00    1.41937   0.64387    0.000
 3976.00    1.15749   0.68462    0.000
 3977.00    0.81072   0.73161    0.000
 3978.00    0.53848   0.78429    0.000
 3979.00    0.39661   0.82646    0.000
 3980.00    0.39970   0.83693    0.000
 3981.00    0.62472   0.82212    0.024
 3982.00    0.82552   0.81595    0.024
 3983.00    0.99376   0.83051    0.025
 3984.00    1.19781   0.85461    0.025
 3985.00    1.44427   0.87009    0.024
 3986.00    1.46706   0.88320    0.024
 3987.00    1.25631   0.90983    0.024
 3988.00    1.18969   0.92169    0.024
 3989.00    1.25583   0.91241    0.024
 3990.00    1.24136   0.91795    0.024
 3991.00    1.16146   0.94327    0.024
 3992.00    1.15787   0.96493    0.024
 3993.00    1.20881   0.96497    0.023
 3994.00    1.34051   0.94614    0.024
 3995.00    1.52284   0.91881    0.024
 3996.00    1.11796   0.89030    0.024
 3997.00    0.39128   0.88603    0.023
 3998.00    0.24988   0.92831    0.023
 3999.00    0.38726   0.97990    0.023
 4000.00    0.58912   0.99639    0.023
 4001.00    0.81748   0.99726    0.022
 4002.00    0.78243   1.00286    0.023
 4003.00    0.65485   0.97524    0.023
 4004.00    0.62914   0.90360    0.023
 4005.00    0.63362   0.86524    0.022
 4006.00    0.58996   0.90355    0.022
 4007.00    0.53447   0.96220    0.022
 4008.00    0.67277   0.98865    0.022
 4009.00    0.84959   0.99371    0.022
 4010.00    1.03418   0.99780    0.023
 4011.00    1.21997   0.99748    0.022
 4012.00    1.40686   0.99680    0.022
 4013.00    1.59387   1.00001    0.022
 4014.00    1.32916   1.01211    0.022
 4015.00    1.02953   1.02131    0.022
 4016.00    0.99649   1.00710    0.022
 4017.00    0.97467   0.99972    0.022
 4018.00    0.97075   1.02904    0.022
 4019.00    0.96738   1.05259    0.022
 4020.00    0.98100   1.03955    0.023
 4021.00    1.00000   1.01801    0.023
 4022.00    1.11399   1.00323    0.023
 4023.00    1.20393   0.97932    0.022
 4024.00    1.03505   0.96440    0.022
 4025.00    0.93042   0.99097    0.022
 4026.00    1.31352   1.03480    0.022
 4027.00    1.64585   1.05500    0.021
 4028.00    1.68530   1.03198    0.022
 4029.00    1.65365   0.96213    0.022
 4030.00    1.29616   0.89398    0.022
 4031.00    0.98923   0.87137    0.022
 4032.00    0.87197   0.87635    0.022
 4033.00    0.84369   0.89665    0.022
 4034.00    1.09436   0.93343    0.022
 4035.00    1.25918   0.98486    0.022
 4036.00    1.19564   1.04015    0.022
 4037.00    1.15946   1.07260    0.022
 4038.00    1.18577   1.06771    0.022
 4039.00    1.06340   1.03542    0.022
 4040.00    0.64708   1.01115    0.022
 4041.00    0.39417   1.02218    0.022
 4042.00    0.42276   1.02684    0.022
 4043.00    0.51660   0.96665    0.023
 4044.00    0.70887   0.86615    0.023
 4045.00    0.97195   0.82467    0.023
 4046.00    1.32890   0.89078    0.023
 4047.00    1.44339   0.97879    0.023
 4048.00    1.27483   1.01625    0.023
 4049.00    1.14831   1.02985    0.023
 4050.00    1.06508   1.03428    0.022
 4051.00    0.91924   1.01485    0.022
 4052.00    0.71654   0.98273    0.022
 4053.00    0.64005   0.95368    0.023
 4054.00    0.66457   0.93916    0.022
 4055.00    0.70727   0.94149    0.022
 4056.00    0.76277   0.93288    0.022
 4057.00    0.66852   0.91655    0.022
 4058.00    0.48176   0.93485    0.022
 4059.00    0.55816   0.98209    0.022
 4060.00    0.77656   1.00319    0.022
 4061.00    0.70452   0.96002    0.022
 4062.00    0.49636   0.87833    0.022
 4063.00    0.45156   0.84495    0.022
 4064.00    0.47276   0.89041    0.021
 4065.00    0.67176   0.92963    0.021
 4066.00    0.93206   0.92427    0.021
 4067.00    0.91923   0.93791    0.021
 4068.00    0.82707   0.98486    0.021
 4069.00    1.02140   0.99028    0.022
 4070.00    1.28454   0.92746    0.022
 4071.00    1.41111   0.88215    0.021
 4072.00    1.51121   0.91437    0.021
 4073.00    1.14140   0.95944    0.021
 4074.00    0.70078   0.94853    0.021
 4075.00    0.38469   0.88306    0.021
 4076.00    0.08239   0.80957    0.021
 4077.00    0.55308   0.79126    0.021
 4078.00    1.08038   0.84122    0.021
 4079.00    1.29109   0.91559    0.021
 4080.00    1.48968   0.97205    0.021
 4081.00    1.11607   0.98119    0.021
 4082.00    0.74889   0.94704    0.021
 4083.00    0.74396   0.90930    0.021
 4084.00    0.74480   0.89099    0.021
 4085.00    0.84087   0.89694    0.021
 4086.00    0.92926   0.92682    0.021
 4087.00    0.93864   0.96141    0.021
 4088.00    0.91104   0.97218    0.020
 4089.00    0.61209   0.95692    0.020
 4090.00    0.35154   0.93222    0.020
 4091.00    0.30640   0.90685    0.021
 4092.00    0.33924   0.89517    0.000
 4093.00    0.72102   0.88913    0.000
 4094.00    1.02809   0.85255    0.000
 4095.00    1.06084   0.79640    0.000
 4096.00    1.10269   0.75737    0.000
 4097.00    1.17260   0.73312    0.000
 4098.00    1.29982   0.70088    0.000
 4099.00    1.57682   0.63758    0.000
 4100.00    1.75063   0.55060    0.000
 4101.00    1.69268   0.50910    0.000
 4102.00    1.60355   0.55359    0.000
 4103.00    1.45376   0.63608    0.000
 4104.00    1.25354   0.70984    0.000
 4105.00    0.96775   0.76753    0.000
 4106.00    0.93465   0.80199    0.000
 4107.00    1.27717   0.81534    0.000
 4108.00    1.36955   0.81544    0.000
 4109.00    1.13510   0.81129    0.000
 4110.00    0.87291   0.81686    0.000
 4111.00    0.57880   0.83736    0.000
 4112.00    0.53761   0.86954    0.000
 4113.00    0.75315   0.90163    0.022
 4114.00    0.77880   0.92509    0.021
 4115.00    0.63445   0.94398    0.022
 4116.00    0.76002   0.94523    0.022
 4117.00    1.09855   0.91150    0.022
 4118.00    1.01556   0.87563    0.022
 4119.00    0.64008   0.88037    0.022
 4120.00    0.48578   0.90030    0.021
 4121.00    0.46609   0.90125    0.021
 4122.00    0.82681   0.89942    0.021
 4123.00    1.38962   0.91886    0.022
 4124.00    1.32350   0.94369    0.022
 4125.00    0.96739   0.94254    0.022
 4126.00    1.25531   0.91573    0.022
 4127.00    1.79896   0.88796    0.022
 4128.00    1.51737   0.88460    0.022
 4129.00    0.95648   0.89420    0.021
 4130.00    0.60395   0.88438    0.021
 4131.00    0.31072   0.85289    0.020
 4132.00    0.48681   0.84054    0.020
 4133.00    0.77309   0.86162    0.020
 4134.00    0.84645   0.90591    0.020
 4135.00    0.87963   0.95264    0.021
 4136.00    0.95967   0.97016    0.021
 4137.00    1.04654   0.97866    0.021
 4138.00    1.02640   0.99863    0.021
 4139.00    0.99488   1.01073    0.021
 4140.00    1.10217   0.99649    0.021
 4141.00    1.21907   0.93906    0.021
 4142.00    1.15363   0.85706    0.021
 4143.00    1.08191   0.82580    0.021
 4144.00    1.01079   0.87402    0.021
 4145.00    0.94549   0.93361    0.021
 4146.00    1.07280   0.95905    0.021
 4147.00    1.17947   0.95959    0.021
 4148.00    0.96711   0.94193    0.021
 4149.00    0.75354   0.92425    0.020
 4150.00    0.52810   0.92588    0.020
 4151.00    0.34500   0.93059    0.020
 4152.00    0.46241   0.92139    0.020
 4153.00    0.61057   0.89973    0.020
 4154.00    0.92661   0.88739    0.020
 4155.00    1.17416   0.88787    0.020
 4156.00    1.12226   0.89383    0.020
 4157.00    1.10450   0.91650    0.020
 4158.00    1.20949   0.94575    0.020
 4159.00    1.16351   0.95802    0.019
 4160.00    0.66195   0.95301    0.019
 4161.00    0.30979   0.96184    0.019
 4162.00    0.34125   0.98178    0.019
 4163.00    0.54723   0.98498    0.019
 4164.00    1.13870   0.97952    0.020
 4165.00    1.42534   0.96560    0.020
 4166.00    1.12806   0.93690    0.020
 4167.00    0.91308   0.92716    0.020
 4168.00    0.83564   0.95113    0.020
 4169.00    0.78130   0.96114    0.020
 4170.00    0.76078   0.92008    0.020
 4171.00    0.89003   0.84888    0.020
 4172.00    1.21219   0.80583    0.020
 4173.00    1.30356   0.81990    0.020
 4174.00    1.13305   0.86111    0.020
 4175.00    1.16231   0.88543    0.020
 4176.00    1.39150   0.87574    0.020
 4177.00    1.34922   0.85715    0.020
 4178.00    1.06731   0.86835    0.020
 4179.00    0.92666   0.90439    0.020
 4180.00    0.89589   0.91850    0.020
 4181.00    0.80065   0.90115    0.020
 4182.00    0.66132   0.89293    0.020
 4183.00    0.65161   0.90922    0.020
 4184.00    0.71960   0.93716    0.020
 4185.00    0.78099   0.93825    0.020
 4186.00    0.83893   0.89520    0.020
 4187.00    1.17620   0.87188    0.020
 4188.00    1.64018   0.90396    0.020
 4189.00    1.54788   0.93698    0.020
 4190.00    1.23851   0.93482    0.020
 4191.00    0.90042   0.94052    0.020
 4192.00    0.55279   0.97757    0.020
 4193.00    0.54330   0.99195    0.020
 4194.00    0.62805   0.95218    0.020
 4195.00    0.72368   0.90244    0.020
 4196.00    0.82180   0.87407    0.020
 4197.00    0.66767   0.84645    0.021
 4198.00    0.46719   0.83598    0.021
 4199.00    0.58853   0.86230    0.021
 4200.00    0.75537   0.87546    0.020
 4201.00    0.91782   0.86214    0.021
 4202.00    1.07981   0.86813    0.021
 4203.00    0.81118   0.88802    0.020
 4204.00    0.51448   0.90067    0.020
 4205.00    0.93299   0.91977    0.020
 4206.00    1.37227   0.94407    0.020
 4207.00    1.04391   0.95833    0.020
 4208.00    0.73985   0.95192    0.020
 4209.00    1.14943   0.93694    0.020
 4210.00    1.52702   0.94280    0.021
 4211.00    1.43886   0.96674    0.021
 4212.00    1.35527   0.97548    0.021
 4213.00    1.31502   0.94681    0.020
 4214.00    1.22425   0.88522    0.020
 4215.00    0.78615   0.85107    0.020
 4216.00    0.46964   0.89209    0.019
 4217.00    0.79930   0.95311    0.020
 4218.00    1.07281   0.97762    0.020
 4219.00    1.10644   0.98272    0.020
 4220.00    1.13868   0.98874    0.019
 4221.00    1.16602   0.97386    0.019
 4222.00    1.15389   0.93301    0.019
 4223.00    1.02488   0.88019    0.019
 4224.00    0.88383   0.81006    0.019
 4225.00    0.71235   0.72724    0.019
 4226.00    0.66352   0.69256    0.019
 4227.00    0.88118   0.76617    0.019
 4228.00    1.03648   0.88409    0.019
 4229.00    1.07421   0.95668    0.018
 4230.00    1.04151   0.98135    0.018
 4231.00    0.89289   0.95871    0.018
 4232.00    0.72499   0.90448    0.018
 4233.00    0.52929   0.88208    0.018
 4234.00    0.58191   0.88609    0.017
 4235.00    0.94983   0.87578    0.018
 4236.00    1.21828   0.87787    0.018
 4237.00    1.37545   0.89049    0.018
 4238.00    1.42095   0.88877    0.018
 4239.00    1.35623   0.89676    0.018
 4240.00    1.17336   0.92879    0.018
 4241.00    0.88766   0.94892    0.018
 4242.00    0.73105   0.95356    0.018
 4243.00    0.67342   0.97528    0.018
 4244.00    0.72964   0.98826    0.018
 4245.00    0.86258   0.95606    0.018
 4246.00    0.95228   0.90674    0.018
 4247.00    1.01645   0.88731    0.018
 4248.00    1.12563   0.88556    0.019
 4249.00    1.25798   0.86449    0.019
 4250.00    1.38774   0.85886    0.019
 4251.00    1.51634   0.89651    0.019
 4252.00    1.30247   0.91693    0.019
 4253.00    0.95730   0.89098    0.018
 4254.00    0.58371   0.87453    0.018
 4255.00    0.20086   0.90752    0.018
 4256.00    0.40509   0.94917    0.018
 4257.00    0.76958   0.94034    0.018
 4258.00    0.80566   0.89002    0.018
 4259.00    0.76814   0.83780    0.018
 4260.00    0.66521   0.82472    0.018
 4261.00    0.55058   0.87375    0.018
 4262.00    0.82223   0.94305    0.018
 4263.00    1.14674   0.98183    0.019
 4264.00    1.24561   0.99576    0.019
 4265.00    1.32244   0.99877    0.019
 4266.00    1.20333   0.97706    0.019
 4267.00    1.07225   0.94048    0.019
 4268.00    0.93082   0.91139    0.018
 4269.00    0.79029   0.87300    0.018
 4270.00    0.87876   0.80817    0.018
 4271.00    0.96103   0.76931    0.018
 4272.00    0.87955   0.79091    0.018
 4273.00    0.81876   0.81333    0.018
 4274.00    1.04233   0.82231    0.018
 4275.00    1.23411   0.86316    0.019
 4276.00    1.13711   0.92200    0.019
 4277.00    1.02729   0.95609    0.019
 4278.00    0.83213   0.95107    0.019
 4279.00    0.69092   0.91866    0.019
 4280.00    0.82910   0.89603    0.019
 4281.00    0.89260   0.89053    0.019
 4282.00    0.64437   0.89153   -2.000
 4283.00    0.49273   0.89808   -2.000
 4284.00    0.67450   0.89149   -2.000
 4285.00    0.82491   0.87790   -2.000
 4286.00    0.88414   0.87324   -2.000
 4287.00    0.88423   0.85440   -2.000
 4288.00    0.73764   0.79791   -2.000
 4289.00    0.65438   0.74823   -2.000
 4290.00    0.70652   0.76996   -2.000
 4291.00    0.72807   0.84192   -2.000
 4292.00    0.69280   0.88744   -2.000
 4293.00    0.66676   0.87522   -2.000
 4294.00    0.65571   0.85463   -2.000
 4295.00    0.59001   0.85261   -2.000
 4296.00    0.44655   0.84240   -2.000
 4297.00    0.47911   0.80460   -2.000
 4298.00    0.73196   0.73691    0.019
 4299.00    0.90161   0.68808    0.019
 4300.00    0.97947   0.69426    0.019
 4301.00    0.96956   0.70994    0.019
 4302.00    0.87423   0.71908    0.019
 4303.00    0.69753   0.74483    0.019
 4304.00    0.45102   0.76203    0.019
 4305.00    0.37650   0.75303    0.019
 4306.00    0.43194   0.72397    0.019
 4307.00    0.43924   0.68622    0.019
 4308.00    0.41455   0.67937    0.019
 4309.00    0.70319   0.71611    0.019
 4310.00    1.17404   0.76575    0.019
 4311.00    1.28749   0.79579    0.019
 4312.00    1.21981   0.80025    0.019
 4313.00    1.12444   0.79502    0.019
 4314.00    1.01692   0.82129    0.019
 4315.00    0.88339   0.89731    0.019
 4316.00    0.74007   0.96098    0.019
 4317.00    0.66329   0.97055    0.019
 4318.00    0.60779   0.95203    0.019
 4319.00    0.76218   0.92558    0.019
 4320.00    0.97265   0.89919    0.018
 4321.00    0.92857   0.88956    0.018
 4322.00    0.82878   0.86496    0.018
 4323.00    0.70701   0.79669    0.019
 4324.00    0.58143   0.71387    0.019
 4325.00    0.59535   0.68408    0.019
 4326.00    0.62772   0.74615    0.019
 4327.00    0.92034   0.84176    0.019
 4328.00    1.23729   0.89006    0.019
 4329.00    1.11906   0.87480    0.019
 4330.00    0.97594   0.84694    0.000
 4331.00    1.03841   0.84464    0.000
 4332.00    1.10332   0.84770    0.000
 4333.00    0.89884   0.84508    0.000
 4334.00    0.70677   0.84307    0.000
 4335.00    0.81242   0.81020    0.000
 4336.00    0.91615   0.72135    0.000
 4337.00    0.99482   0.62387    0.000
 4338.00    1.06854   0.55295    0.000
 4339.00    1.09911   0.49631    0.000
 4340.00    1.12269   0.49454    0.000
 4341.00    1.10110   0.57214    0.000
 4342.00    1.07537   0.65250    0.000
 4343.00    1.02879   0.69440    0.000
 4344.00    0.95943   0.73753    0.000
 4345.00    0.79712   0.78094    0.000
 4346.00    0.66277   0.80360    0.000
 4347.00    0.62300   0.83105    0.000
 4348.00    0.58337   0.86838    0.000
 4349.00    0.54416   0.86154    0.000
 4350.00    0.55665   0.78760    0.000
 4351.00    0.69520   0.72649    0.019
 4352.00    0.82754   0.75029    0.019
 4353.00    0.94682   0.81119    0.018
 4354.00    1.03745   0.84908    0.018
 4355.00    1.07570   0.87904    0.018
 4356.00    1.06131   0.90417    0.018
 4357.00    0.96284   0.89371    0.018
 4358.00    0.91063   0.86237    0.018
 4359.00    0.92328   0.86528    0.018
 4360.00    0.89913   0.90633    0.019
 4361.00    0.82957   0.93694    0.019
 4362.00    0.81351   0.94238    0.018
 4363.00    0.85564   0.95522    0.018
 4364.00    0.90320   0.97684    0.018
 4365.00    0.95597   0.96866    0.018
 4366.00    0.98060   0.92189    0.018
 4367.00    0.98141   0.88144    0.018
 4368.00    1.01009   0.87902    0.018
 4369.00    1.05951   0.89202    0.018
 4370.00    1.23742   0.90491    0.018
 4371.00    1.49940   0.91684    0.018
 4372.00    1.38709   0.90163    0.018
 4373.00    1.06040   0.84631    0.018
 4374.00    0.93552   0.80225    0.018
 4375.00    0.91130   0.82500    0.018
 4376.00    1.17312   0.89362    0.018
 4377.00    1.55838   0.94412    0.018
 4378.00    1.35115   0.94935    0.018
 4379.00    0.92469   0.93197    0.018
 4380.00    0.75867   0.91438    0.018
 4381.00    0.67433   0.86459    0.018
 4382.00    0.68129   0.75995    0.018
 4383.00    0.71212   0.67795    0.018
 4384.00    1.00240   0.69833    0.018
 4385.00    1.34809   0.78619    0.018
 4386.00    1.34335   0.84904    0.018
 4387.00    1.27934   0.86291    0.017
 4388.00    1.00998   0.86167    0.017
 4389.00    0.71438   0.85603    0.017
 4390.00    0.88019   0.85561    0.017
 4391.00    1.08717   0.87814    0.017
 4392.00    1.04609   0.89580    0.017
 4393.00    0.99180   0.87439    0.017
 4394.00    0.76568   0.84626    0.017
 4395.00    0.54038   0.87099    0.017
 4396.00    0.65581   0.92865    0.017
 4397.00    0.77429   0.94834    0.017
 4398.00    0.95980   0.91568    0.017
 4399.00    1.10863   0.86203    0.017
 4400.00    0.80433   0.84428    0.017
 4401.00    0.54380   0.88387    0.016
 4402.00    0.65152   0.90111    0.017
 4403.00    0.76909   0.84363    0.017
 4404.00    0.94843   0.79506    0.017
 4405.00    1.07630   0.82204    0.017
 4406.00    0.95101   0.85612    0.017
 4407.00    0.84684   0.84874    0.017
 4408.00    0.82703   0.85408    0.017
 4409.00    0.82109   0.89725    0.017
 4410.00    0.86115   0.93729    0.017
 4411.00    0.95543   0.96047    0.017
 4412.00    1.20162   0.96225    0.017
 4413.00    1.38134   0.91080    0.017
 4414.00    1.40177   0.83502    0.017
 4415.00    1.33252   0.81259    0.018
 4416.00    1.07769   0.84010    0.017
 4417.00    0.95548   0.87944    0.017
 4418.00    1.07201   0.92860    0.017
 4419.00    1.15825   0.96347    0.017
 4420.00    1.19684   0.94984    0.017
 4421.00    1.23130   0.90222    0.017
 4422.00    1.26006   0.87559    0.017
 4423.00    1.28722   0.89156    0.017
 4424.00    1.31243   0.90961    0.017
 4425.00    1.17449   0.90806    0.017
 4426.00    0.86158   0.90336    0.017
 4427.00    0.80324   0.91296    0.017
 4428.00    0.98566   0.91828    0.017
 4429.00    1.11479   0.89415    0.017
 4430.00    1.19947   0.88226    0.017
 4431.00    1.22341   0.90114    0.017
 4432.00    1.20276   0.90043    0.018
 4433.00    1.12137   0.86046    0.018
 4434.00    1.00081   0.81950    0.017
 4435.00    1.07745   0.82865    0.017
 4436.00    1.26532   0.88773    0.017
 4437.00    1.33002   0.94740    0.017
 4438.00    1.33426   0.97698    0.018
 4439.00    1.30284   0.96593    0.017
 4440.00    1.25629   0.91786    0.017
 4441.00    1.13416   0.85761    0.017
 4442.00    0.98457   0.81906    0.017
 4443.00    0.97774   0.83421    0.017
 4444.00    1.01480   0.89779    0.017
 4445.00    1.08257   0.94612    0.017
 4446.00    1.15819   0.94405    0.017
 4447.00    1.02420   0.93813    0.017
 4448.00    0.84653   0.94111    0.017
 4449.00    0.84343   0.92394    0.017
 4450.00    0.86903   0.91155    0.017
 4451.00    0.93473   0.92122    0.017
 4452.00    1.00538   0.91481    0.017
 4453.00    0.93618   0.86725    0.017
 4454.00    0.85509   0.81215    0.017
 4455.00    0.98236   0.80437    0.017
 4456.00    1.11992   0.83110    0.017
 4457.00    1.14069   0.84118    0.017
 4458.00    1.15800   0.83377    0.017
 4459.00    1.07476   0.83076    0.017
 4460.00    0.98488   0.81868    0.017
 4461.00    0.76081   0.81195    0.000
 4462.00    0.57749   0.84822    0.000
 4463.00    0.87301   0.88747    0.000
 4464.00    1.13715   0.89156    0.000
 4465.00    1.14686   0.88468    0.000
 4466.00    1.12675   0.88089    0.000
 4467.00    0.92522   0.86793    0.000
 4468.00    0.77399   0.84532    0.000
 4469.00    0.86406   0.84283    0.000
 4470.00    0.92515   0.86558    0.000
 4471.00    0.87303   0.89682    0.000
 4472.00    0.81289   0.93018    0.000
 4473.00    0.72668   0.95261    0.000
 4474.00    0.71853   0.95013    0.000
 4475.00    0.92516   0.94545    0.000
 4476.00    1.05853   0.96430    0.000
 4477.00    1.01927   0.97795    0.000
 4478.00    0.97361   0.94719    0.000
 4479.00    0.91493   0.87824    0.000
 4480.00    0.87257   0.81363    0.000
 4481.00    0.85916   0.80201    0.000
 4482.00    0.89091   0.85284    0.016
 4483.00    0.99271   0.91721    0.017
 4484.00    1.09742   0.95757    0.017
 4485.00    1.20612   0.97365    0.017
 4486.00    1.23536   0.96311    0.017
 4487.00    1.16932   0.92040    0.017
 4488.00    1.04212   0.86891    0.017
 4489.00    0.85026   0.84995    0.017
 4490.00    0.76423   0.87305    0.017
 4491.00    0.77689   0.91074    0.016
 4492.00    0.76029   0.92162    0.016
 4493.00    0.71964   0.89119    0.016
 4494.00    0.72886   0.86299    0.017
 4495.00    0.77418   0.86664    0.017
 4496.00    0.88508   0.89247    0.017
 4497.00    1.03763   0.92697    0.017
 4498.00    1.02505   0.94910    0.017
 4499.00    0.92075   0.94035    0.017
 4500.00    0.87787   0.90871    0.017
 4501.00    0.86467   0.90808    0.017
 4502.00    0.79767   0.95706    0.017
 4503.00    0.70822   1.00073    0.016
 4504.00    0.83802   1.00745    0.017
 4505.00    1.04608   0.99110    0.017
 4506.00    1.06536   0.96574    0.017
 4507.00    1.02773   0.94619    0.017
 4508.00    1.07230   0.94978    0.017
 4509.00    1.13747   0.97048    0.017
 4510.00    1.00475   0.98048    0.016
 4511.00    0.83181   0.96522    0.016
 4512.00    0.92572   0.93990    0.016
 4513.00    1.06219   0.91652    0.017
 4514.00    1.08360   0.90472    0.017
 4515.00    1.09135   0.91327    0.016
 4516.00    1.05953   0.91922    0.016
 4517.00    1.02452   0.91141    0.017
 4518.00    1.09849   0.91523    0.017
 4519.00    1.17741   0.93201    0.016
 4520.00    1.00392   0.94380    0.017
 4521.00    0.82835   0.92714    0.017
 4522.00    0.70461   0.89827    0.016
 4523.00    0.58672   0.89192    0.016
 4524.00    0.57865   0.88422    0.016
 4525.00    0.58468   0.85896    0.017
 4526.00    0.74864   0.83144    0.017
 4527.00    0.91080   0.80802    0.017
 4528.00    1.05889   0.79857    0.017
 4529.00    1.17425   0.81101    0.017
 4530.00    1.09611   0.83440    0.017
 4531.00    1.02564   0.85793    0.016
 4532.00    0.99107   0.85139    0.016
 4533.00    0.90379   0.81540    0.016
 4534.00    0.61509   0.79911    0.016
 4535.00    0.43143   0.83502    0.016
 4536.00    0.58270   0.90704    0.016
 4537.00    0.73805   0.95000    0.016
 4538.00    0.90440   0.93800    0.016
 4539.00    0.96563   0.90208    0.016
 4540.00    0.78328   0.87775    0.016
 4541.00    0.71331   0.88795    0.017
 4542.00    0.86860   0.91237    0.017
 4543.00    0.99529   0.90699    0.017
 4544.00    1.07204   0.88239    0.016
 4545.00    1.09905   0.87936    0.016
 4546.00    1.05003   0.88919    0.017
 4547.00    0.99748   0.87584    0.017
 4548.00    0.94019   0.83389    0.016
 4549.00    0.97108   0.82063    0.016
 4550.00    1.10621   0.85757    0.000
 4551.00    1.14898   0.88058    0.000
 4552.00    1.09547   0.86709    0.000
 4553.00    0.97442   0.84042    0.000
 4554.00    0.79128   0.82332    0.000
 4555.00    0.68841   0.84068    0.000
 4556.00    0.65061   0.88492    0.000
 4557.00    0.74780   0.91432    0.000
 4558.00    0.94126   0.92183    0.000
 4559.00    1.00084   0.92745    0.000
 4560.00    0.97664   0.93652    0.000
 4561.00    0.95142   0.93730    0.000
 4562.00    0.92565   0.90762    0.000
 4563.00    0.96799   0.86430    0.000
 4564.00    1.04270   0.84652    0.000
 4565.00    0.90214   0.86749    0.000
 4566.00    0.67329   0.91148    0.000
 4567.00    0.67447   0.94131    0.000
 4568.00    0.75624   0.94461    0.000
 4569.00    0.89741   0.92780    0.000
 4570.00    1.05613   0.88483    0.000
 4571.00    0.99123   0.86011    0.000
 4572.00    0.87155   0.89366    0.000
 4573.00    0.74752   0.92871    0.000
 4574.00    0.62264   0.92721    0.000
 4575.00    0.87914   0.91881    0.000
 4576.00    1.19467   0.91869    0.000
 4577.00    1.12780   0.91257    0.000
 4578.00    1.01716   0.88602    0.000
 4579.00    0.90777   0.85281    0.000
 4580.00    0.79847   0.83945    0.000
 4581.00    0.86815   0.84620    0.000
 4582.00    0.94527   0.84726    0.000
 4583.00    0.80807   0.84264    0.000
 4584.00    0.67549   0.84688    0.000
 4585.00    0.82098   0.85401    0.000
 4586.00    0.95451   0.86921    0.000
 4587.00    0.87886   0.89137    0.000
 4588.00    0.82209   0.90686    0.000
 4589.00    0.96727   0.90513    0.000
 4590.00    1.10137   0.88355    0.000
 4591.00    1.15163   0.85965    0.000
 4592.00    1.16150   0.85708    0.000
 4593.00    0.93926   0.86590    0.000
 4594.00    0.82672   0.86388    0.000
 4595.00    1.21549   0.86122    0.000
 4596.00    1.48194   0.86692    0.000
 4597.00    1.29072   0.87560    0.000
 4598.00    1.08665   0.88220    0.000
 4599.00    0.84236   0.87035    0.000
 4600.00    0.70807   0.85758    0.000
 4601.00    0.86577   0.86641    0.000
 4602.00    1.01618   0.87821    0.000
 4603.00    1.15000   0.87960    0.000
 4604.00    1.13324   0.87170    0.000
 4605.00    0.81939   0.87267    0.000
 4606.00    0.68087   0.89287    0.000
 4607.00    0.84384   0.92389    0.000
 4608.00    0.86227   0.94755    0.000
 4609.00    0.66306   0.94421    0.000
 4610.00    0.59417   0.92242    0.000
 4611.00    0.69772   0.90498    0.000
 4612.00    0.74770   0.89499    0.000
 4613.00    0.73526   0.89920    0.000
 4614.00    0.75875   0.91184    0.000
 4615.00    0.81916   0.90917    0.000
 4616.00    0.82124   0.90672    0.000
 4617.00    0.77043   0.90375    0.000
 4618.00    0.72632   0.88534    0.000
 4619.00    0.68756   0.88408    0.000
 4620.00    0.87154   0.90799    0.000
 4621.00    1.21209   0.92034    0.000
 4622.00    1.18424   0.92025    0.000
 4623.00    0.92927   0.91993    0.000
 4624.00    0.82025   0.90920    0.000
 4625.00    0.78984   0.89781    0.000
 4626.00    0.74650   0.90261    0.000
 4627.00    0.69713   0.90253    0.000
 4628.00    0.80637   0.88424    0.000
 4629.00    0.97955   0.88209    0.000
 4630.00    1.04031   0.90825    0.000
 4631.00    1.06239   0.91653    0.000
 4632.00    0.96786   0.89114    0.000
 4633.00    0.83956   0.86992    0.000
 4634.00    0.89633   0.87059    0.000
 4635.00    0.99742   0.87564    0.000
 4636.00    1.04361   0.86746    0.000
 4637.00    1.07918   0.85469    0.000
 4638.00    0.91110   0.85045    0.000
 4639.00    0.71244   0.85214    0.000
 4640.00    0.69215   0.86814    0.000
 4641.00    0.69149   0.88702    0.000
 4642.00    0.84674   0.88519    0.000
 4643.00    1.01332   0.87162    0.000
 4644.00    0.84779   0.85216    0.000
 4645.00    0.66970   0.81754    0.000
 4646.00    0.69459   0.79060    0.000
 4647.00    0.72211   0.79375    0.000
 4648.00    0.80864   0.81973    0.000
 4649.00    0.88182   0.85181    0.000
 4650.00    0.73679   0.87165    0.000
 4651.00    0.61807   0.88055    0.000
 4652.00    0.76861   0.88378    0.000
 4653.00    0.90696   0.86507    0.000
 4654.00    0.95630   0.83792    0.000
 4655.00    0.99671   0.82749    0.000
 4656.00    0.98717   0.83926    0.000
 4657.00    0.96338   0.87738    0.000
 4658.00    0.87605   0.91925    0.000
 4659.00    0.83072   0.93449    0.000
 4660.00    0.93926   0.91827    0.000
 4661.00    0.98420   0.88593    0.000
 4662.00    0.83399   0.85744    0.000
 4663.00    0.72042   0.84950    0.000
 4664.00    0.70240   0.84695    0.000
 4665.00    0.80245   0.81082    0.000
 4666.00    1.16713   0.75470    0.000
 4667.00    1.29815   0.73835    0.000
 4668.00    0.97540   0.77118    0.000
 4669.00    0.71390   0.81515    0.000
 4670.00    0.55610   0.84926    0.000
 4671.00    0.54216   0.86082    0.000
 4672.00    0.74164   0.85258    0.000
 4673.00    0.85406   0.84846    0.000
 4674.00    0.85293   0.86047    0.000
 4675.00    0.82387   0.88207    0.000
 4676.00    0.76274   0.88733    0.000
 4677.00    0.83073   0.86478    0.000
 4678.00    1.02955   0.83831    0.000
 4679.00    1.01888   0.82552    0.000
 4680.00    0.82098   0.82059    0.000
 4681.00    0.80117   0.82581    0.000
 4682.00    0.92161   0.84586    0.000
 4683.00    0.86197   0.86235    0.000
 4684.00    0.67760   0.86329    0.000
 4685.00    0.68160   0.86065    0.000
 4686.00    0.80003   0.85606    0.000
 4687.00    0.92412   0.85045    0.000
 4688.00    1.05122   0.85053    0.000
 4689.00    1.09005   0.84852    0.000
 4690.00    1.08826   0.83858    0.000
 4691.00    1.08469   0.83649    0.000
 4692.00    1.08041   0.84587    0.000
 4693.00    1.00450   0.85693    0.000
 4694.00    0.90440   0.87031    0.000
 4695.00    0.84266   0.88124    0.000
 4696.00    0.79181   0.87031    0.000
 4697.00    0.75847   0.83502    0.000
 4698.00    0.72924   0.80938    0.000
 4699.00    0.73008   0.81332    0.000
 4700.00    0.73658   0.81889    0.000
 4701.00    0.86292   0.80468    0.000
 4702.00    1.00670   0.78838    0.000
 4703.00    0.91479   0.80109    0.000
 4704.00    0.79796   0.82942    0.000
 4705.00    0.66862   0.83599    0.000
 4706.00    0.53842   0.81650    0.000
 4707.00    0.69214   0.79652    0.000
 4708.00    0.85551   0.79311    0.000
 4709.00    0.83401   0.81174    0.000
 4710.00    0.81534   0.84395    0.000
 4711.00    0.89833   0.85789    0.000
 4712.00    0.96999   0.84277    0.000
 4713.00    0.86775   0.81606    0.000
 4714.00    0.76637   0.81079    0.000
 4715.00    0.67330   0.83849    0.000
 4716.00    0.60896   0.86526    0.000
 4717.00    0.74765   0.87402    0.000
 4718.00    0.84970   0.88207    0.000
 4719.00    0.75243   0.89080    0.000
 4720.00    0.67595   0.88745    0.000
 4721.00    0.69003   0.87431    0.000
 4722.00    0.72401   0.86970    0.000
 4723.00    0.82937   0.88284    0.000
 4724.00    0.89714   0.89646    0.000
 4725.00    0.85177   0.88501    0.000
 4726.00    0.85646   0.84158    0.000
 4727.00    0.98940   0.79968    0.000
 4728.00    1.05209   0.78839    0.000
 4729.00    0.95991   0.79274    0.000
 4730.00    0.86700   0.79811    0.000
 4731.00    0.77273   0.81407    0.000
 4732.00    0.71102   0.83347    0.000
 4733.00    0.70361   0.84478    0.000
 4734.00    0.68122   0.84940    0.000
 4735.00    0.63690   0.83347    0.000
 4736.00    0.63398   0.81749    0.000
 4737.00    0.68428   0.83756    0.000
 4738.00    0.67741   0.86194    0.000
 4739.00    0.60578   0.85650    0.000
 4740.00    0.47102   0.84259    0.000
 4741.00    0.27319   0.84510    0.000
 4742.00    0.19240   0.85865    0.000
 4743.00    0.21474   0.86157    0.000
 4744.00    0.30011   0.85425    0.000
 4745.00    0.43441   0.85911    0.000
 4746.00    0.53117   0.86924    0.000
 4747.00    0.60230   0.86654    0.000
 4748.00    0.70060   0.86351    0.000
 4749.00    0.81516   0.86871    0.000
 4750.00    0.82504   0.86687    0.000
 4751.00    0.78027   0.85217    0.000
 4752.00    0.82663   0.83771    0.000
 4753.00    0.91424   0.82717    0.000
 4754.00    0.97513   0.82168    0.000
 4755.00    1.02562   0.82033    0.000
 4756.00    0.92362   0.82515    0.000
 4757.00    0.77109   0.83645    0.000
 4758.00    0.91084   0.84927    0.000
 4759.00    1.13185   0.85522    0.000
 4760.00    1.10550   0.83794    0.000
 4761.00    1.02256   0.80379    0.015
 4762.00    0.85214   0.78440    0.015
 4763.00    0.66569   0.78021    0.014
 4764.00    0.77014   0.77222    0.014
 4765.00    0.91556   0.76722    0.014
 4766.00    0.78869   0.78161    0.014
 4767.00    0.63421   0.80691    0.014
 4768.00    0.75833   0.83092    0.014
 4769.00    0.90046   0.84230    0.014
 4770.00    0.87041   0.82880    0.014
 4771.00    0.83513   0.81134    0.015
 4772.00    0.79339   0.81962    0.014
 4773.00    0.74941   0.84631    0.014
 4774.00    0.64059   0.85958    0.014
 4775.00    0.55161   0.85436    0.014
 4776.00    0.74938   0.85686    0.014
 4777.00    0.92725   0.86151    0.014
 4778.00    0.91795   0.85025    0.014
 4779.00    0.88620   0.83901    0.014
 4780.00    0.70071   0.84060    0.014
 4781.00    0.56854   0.83442    0.014
 4782.00    0.71886   0.81405    0.014
 4783.00    0.82554   0.81131    0.014
 4784.00    0.74639   0.82123    0.014
 4785.00    0.69687   0.80967    0.014
 4786.00    0.75149   0.80006    0.014
 4787.00    0.77553   0.80796    0.014
 4788.00    0.70924   0.80668    0.014
 4789.00    0.69846   0.80533    0.014
 4790.00    0.82746   0.81581    0.014
 4791.00    0.89033   0.82638    0.014
 4792.00    0.80981   0.84377    0.014
 4793.00    0.77447   0.86883    0.014
 4794.00    0.82416   0.88190    0.014
 4795.00    0.83371   0.87446    0.014
 4796.00    0.77729   0.85592    0.014
 4797.00    0.73685   0.83214    0.014
 4798.00    0.71942   0.81041    0.014
 4799.00    0.71571   0.80503    0.014
 4800.00    0.72942   0.82246    0.014
 4801.00    0.79641   0.84857    0.014
 4802.00    0.92293   0.85804    0.014
 4803.00    0.90284   0.84189    0.014
 4804.00    0.73835   0.81752    0.015
 4805.00    0.75150   0.81071    0.015
 4806.00    0.91896   0.81012    0.014
 4807.00    0.93918   0.80580    0.014
 4808.00    0.84673   0.81070    0.014
 4809.00    0.78236   0.82180    0.014
 4810.00    0.73687   0.82581    0.014
 4811.00    0.69680   0.82407    0.014
 4812.00    0.65993   0.82354    0.014
 4813.00    0.71833   0.82733    0.014
 4814.00    0.82569   0.83367    0.014
 4815.00    0.76059   0.84086    0.014
 4816.00    0.61869   0.84694    0.014
 4817.00    0.50664   0.85126    0.014
 4818.00    0.40599   0.85621    0.014
 4819.00    0.49957   0.85599    0.014
 4820.00    0.65629   0.84911    0.014
 4821.00    0.80806   0.82871    0.014
 4822.00    0.95849   0.78642    0.014
 4823.00    0.99958   0.76186    0.014
 4824.00    1.01625   0.78461    0.014
 4825.00    0.79154   0.81700    0.014
 4826.00    0.52382   0.82543    0.014
 4827.00    0.61003   0.81400    0.014
 4828.00    0.74448   0.80344    0.014
 4829.00    0.82970   0.80476    0.014
 4830.00    0.91015   0.79902    0.014
 4831.00    0.77976   0.78373    0.014
 4832.00    0.63658   0.78615    0.014
 4833.00    0.61818   0.80276    0.014
 4834.00    0.60331   0.80871    0.014
 4835.00    0.62863   0.80300    0.014
 4836.00    0.65693   0.80259    0.014
 4837.00    0.76324   0.79762    0.014
 4838.00    0.86599   0.77748    0.014
 4839.00    0.92022   0.76234    0.014
 4840.00    0.96494   0.76789    0.014
 4841.00    0.92374   0.77410    0.014
 4842.00    0.86757   0.76571    0.013
 4843.00    0.71201   0.76672    0.013
 4844.00    0.60532   0.78418    0.013
 4845.00    0.75072   0.79255    0.013
 4846.00    0.84747   0.77695    0.013
 4847.00    0.74163   0.74599    0.014
 4848.00    0.64373   0.73164    0.000
 4849.00    0.57317   0.74667    0.000
 4850.00    0.55121   0.75729    0.000
 4851.00    0.67022   0.75046    0.000
 4852.00    0.71852   0.73835    0.000
 4853.00    0.59184   0.70818    0.000
 4854.00    0.55412   0.66182    0.000
 4855.00    0.70623   0.64240    0.000
 4856.00    0.82028   0.65513    0.000
 4857.00    0.86383   0.65126    0.000
 4858.00    0.80557   0.60492    0.000
 4859.00    0.58252   0.52472    0.000
 4860.00    0.49696   0.45462    0.000
 4861.00    0.60665   0.46362    0.000
 4862.00    0.66424   0.53589    0.000
 4863.00    0.65674   0.59283    0.000
 4864.00    0.60753   0.62758    0.000
 4865.00    0.51240   0.65974    0.000
 4866.00    0.53281   0.68293    0.000
 4867.00    0.66544   0.69603    0.000
 4868.00    0.73711   0.70666    0.000
 4869.00    0.75657   0.69404    0.000
 4870.00    0.70481   0.65260    0.000
 4871.00    0.59932   0.63872    0.000
 4872.00    0.67087   0.67392    0.000
 4873.00    0.85978   0.70955    0.000
 4874.00    0.86393   0.71984    0.000
 4875.00    0.76084   0.72368    0.013
 4876.00    0.73005   0.73243    0.013
 4877.00    0.73582   0.74419    0.013
 4878.00    0.86740   0.77034    0.013
 4879.00    1.05408   0.78710    0.013
 4880.00    0.99351   0.76870    0.013
 4881.00    0.84001   0.75053    0.013
 4882.00    0.76380   0.75346    0.013
 4883.00    0.71225   0.75025    0.013
 4884.00    0.62108   0.73100    0.013
 4885.00    0.51936   0.71726    0.013
 4886.00    0.62875   0.72327    0.013
 4887.00    0.78421   0.73724    0.013
 4888.00    0.69364   0.73848    0.013
 4889.00    0.56043   0.71413    0.013
 4890.00    0.70230   0.68251    0.013
 4891.00    0.88041   0.70253    0.014
 4892.00    0.82443   0.76211    0.014
 4893.00    0.74671   0.80795    0.014
 4894.00    0.73934   0.83202    0.014
 4895.00    0.73595   0.83728    0.014
 4896.00    0.68102   0.83339    0.014
 4897.00    0.62572   0.82677    0.013
 4898.00    0.65806   0.80562    0.013
 4899.00    0.69092   0.78265    0.013
 4900.00    0.73613   0.78595    0.014
 4901.00    0.78355   0.79281    0.014
 4902.00    0.85952   0.77910    0.014
 4903.00    0.92133   0.77351    0.013
 4904.00    0.86013   0.79675    0.013
 4905.00    0.80333   0.82391    0.013
 4906.00    0.77484   0.82435    0.013
 4907.00    0.73955   0.80238    0.014
 4908.00    0.67009   0.77141    0.014
 4909.00    0.62983   0.74109    0.014
 4910.00    0.70845   0.73549    0.014
 4911.00    0.74680   0.75856    0.014
 4912.00    0.64926   0.78289    0.014
 4913.00    0.61714   0.79828    0.014
 4914.00    0.77125   0.81450    0.014
 4915.00    0.86180   0.82036    0.014
 4916.00    0.79769   0.79686    0.014
 4917.00    0.76029   0.74378    0.014
 4918.00    0.77893   0.68604    0.014
 4919.00    0.77908   0.65457    0.014
 4920.00    0.74552   0.66722    0.014
 4921.00    0.72001   0.70973    0.014
 4922.00    0.70734   0.73192    0.014
 4923.00    0.72087   0.72443    0.013
 4924.00    0.77107   0.73257    0.013
 4925.00    0.72609   0.76883    0.013
 4926.00    0.56387   0.79542    0.014
 4927.00    0.46670   0.80711    0.014
 4928.00    0.44016   0.82034    0.013
 4929.00    0.45667   0.82420    0.013
 4930.00    0.51442   0.81920    0.013
 4931.00    0.61390   0.80284    0.013
 4932.00    0.74862   0.76233    0.014
 4933.00    0.79237   0.73661    0.014
 4934.00    0.76850   0.75857    0.014
 4935.00    0.76866   0.77938    0.014
 4936.00    0.78450   0.75873    0.014
 4937.00    0.76205   0.71777    0.013
 4938.00    0.71772   0.70066    0.013
 4939.00    0.78651   0.73190    0.013
 4940.00    0.91161   0.77968    0.000
 4941.00    0.98772   0.80107    0.000
 4942.00    1.04272   0.80951    0.000
 4943.00    0.87968   0.81629    0.000
 4944.00    0.63614   0.80524    0.000
 4945.00    0.76432   0.78966    0.000
 4946.00    1.00878   0.79522    0.000
 4947.00    0.96720   0.80988    0.000
 4948.00    0.85100   0.81431    0.000
 4949.00    0.78405   0.81563    0.000
 4950.00    0.72759   0.82010    0.000
 4951.00    0.88321   0.81436    0.000
 4952.00    1.07456   0.79903    0.000
 4953.00    0.86287   0.79092    0.000
 4954.00    0.59990   0.78726    0.000
 4955.00    0.68037   0.75542    0.000
 4956.00    0.79130   0.68668    0.000
 4957.00    0.83718   0.66425    0.000
 4958.00    0.87962   0.72473    0.000
 4959.00    0.81975   0.78558    0.000
 4960.00    0.75885   0.80017    0.000
 4961.00    0.76936   0.79411    0.000
 4962.00    0.77378   0.79479    0.000
 4963.00    0.64571   0.79018    0.000
 4964.00    0.53175   0.76509    0.000
 4965.00    0.59084   0.74397    0.000
 4966.00    0.66372   0.74280    0.000
 4967.00    0.85216   0.74594    0.000
 4968.00    1.01148   0.74958    0.000
 4969.00    0.98893   0.75454    0.000
 4970.00    0.97066   0.76355    0.000
 4971.00    0.97339   0.77754    0.000
 4972.00    0.93270   0.78730    0.000
 4973.00    0.71922   0.79546    0.000
 4974.00    0.57106   0.79789    0.000
 4975.00    0.63899   0.79175    0.000
 4976.00    0.72156   0.78009    0.000
 4977.00    0.84502   0.75959    0.000
 4978.00    0.90011   0.74398    0.000
 4979.00    0.79168   0.73979    0.000
 4980.00    0.71270   0.72189    0.000
 4981.00    0.69454   0.67966    0.000
 4982.00    0.67333   0.64981    0.000
 4983.00    0.64666   0.65821    0.000
 4984.00    0.63555   0.68474    0.000
 4985.00    0.64890   0.71623    0.000
 4986.00    0.64433   0.75227    0.000
 4987.00    0.61505   0.76958    0.000
 4988.00    0.59831   0.76244    0.000
 4989.00    0.59680   0.74674    0.000
 4990.00    0.66236   0.73573    0.000
 4991.00    0.79973   0.74279    0.000
 4992.00    0.82919   0.74787    0.000
 4993.00    0.75679   0.74327    0.000
 4994.00    0.70400   0.75326    0.000
 4995.00    0.66754   0.76438    0.000
 4996.00    0.65783   0.76380    0.000
 4997.00    0.66773   0.75538    0.000
 4998.00    0.72510   0.73277    0.000
 4999.00    0.81302   0.70692    0.000
 5000.00    0.86592   0.69463    0.000
 5001.00    0.89910   0.69660    0.000
 5002.00    0.85513   0.70828    0.000
 5003.00    0.77337   0.71010    0.000
 5004.00    0.74633   0.68457    0.000
 5005.00    0.74245   0.65573    0.000
 5006.00    0.70486   0.66698    0.000
 5007.00    0.65505   0.71153    0.000
 5008.00    0.71697   0.74121    0.000
 5009.00    0.81317   0.74006    0.000
 5010.00    0.87562   0.72152    0.000
 5011.00    0.92946   0.69000    0.000
 5012.00    0.74739   0.66200    0.000
 5013.00    0.51630   0.65125    0.000
 5014.00    0.62274   0.66507    0.000
 5015.00    0.78444   0.68756    0.000
 5016.00    0.65794   0.68303    0.000
 5017.00    0.49607   0.66185    0.000
 5018.00    0.56185   0.66658    0.000
 5019.00    0.64687   0.69163    0.000
 5020.00    0.67001   0.70033    0.000
 5021.00    0.69014   0.69099    0.000
 5022.00    0.69464   0.69595    0.000
 5023.00    0.69858   0.71765    0.000
 5024.00    0.68297   0.73062    0.000
 5025.00    0.66914   0.72689    0.000
 5026.00    0.69134   0.70528    0.000
 5027.00    0.70719   0.69598    0.000
 5028.00    0.64898   0.71677    0.000
 5029.00    0.59714   0.73238    0.013
 5030.00    0.59678   0.73735    0.013
 5031.00    0.59348   0.75253    0.013
 5032.00    0.57234   0.77123    0.013
 5033.00    0.53875   0.76796    0.013
 5034.00    0.44555   0.73094    0.013
 5035.00    0.41128   0.69644    0.013
 5036.00    0.60655   0.70139    0.013
 5037.00    0.74727   0.71001    0.013
 5038.00    0.71109   0.68816    0.013
 5039.00    0.73870   0.64531    0.013
 5040.00    0.94144   0.61035    0.013
 5041.00    1.04865   0.63121    0.013
 5042.00    0.93122   0.69348    0.013
 5043.00    0.78991   0.73767    0.013
 5044.00    0.60008   0.76151    0.013
 5045.00    0.50323   0.77596    0.012
 5046.00    0.57090   0.76447    0.012
 5047.00    0.64535   0.72615    0.013
 5048.00    0.73031   0.69402    0.013
 5049.00    0.77476   0.68728    0.012
 5050.00    0.76414   0.68903    0.012
 5051.00    0.70346   0.69254    0.012
 5052.00    0.58286   0.71131    0.012
 5053.00    0.53390   0.73588    0.012
 5054.00    0.56056   0.74735    0.012
 5055.00    0.61400   0.74611    0.012
 5056.00    0.69238   0.74643    0.012
 5057.00    0.74256   0.75399    0.012
 5058.00    0.76962   0.75863    0.012
 5059.00    0.75813   0.76226    0.012
 5060.00    0.71880   0.77133    0.012
 5061.00    0.65185   0.77625    0.012
 5062.00    0.56739   0.76158    0.012
 5063.00    0.56783   0.72122    0.012
 5064.00    0.61533   0.68864    0.012
 5065.00    0.59025   0.69624    0.012
 5066.00    0.53017   0.70974    0.012
 5067.00    0.54910   0.70440    0.012
 5068.00    0.60092   0.70633    0.012
 5069.00    0.64987   0.72468    0.012
 5070.00    0.69779   0.72408    0.012
 5071.00    0.63150   0.70150    0.012
 5072.00    0.53085   0.69950    0.012
 5073.00    0.56100   0.71428    0.012
 5074.00    0.62381   0.71348    0.012
 5075.00    0.64747   0.71033    0.012
 5076.00    0.66318   0.71986    0.012
 5077.00    0.68788   0.71144    0.012
 5078.00    0.71401   0.66477    0.012
 5079.00    0.65713   0.63097    0.012
 5080.00    0.59042   0.64551    0.012
 5081.00    0.58294   0.67299    0.012
 5082.00    0.58022   0.68065    0.012
 5083.00    0.59671   0.68715    0.012
 5084.00    0.61407   0.70697    0.012
 5085.00    0.70433   0.71994    0.012
 5086.00    0.79228   0.71663    0.012
 5087.00    0.72190   0.71457    0.012
 5088.00    0.65609   0.72223    0.012
 5089.00    0.67510   0.72594    0.012
 5090.00    0.69733   0.72558    0.012
 5091.00    0.75535   0.73470    0.012
 5092.00    0.78669   0.74831    0.012
 5093.00    0.61015   0.75047    0.012
 5094.00    0.46799   0.73891    0.012
 5095.00    0.52837   0.71857    0.012
 5096.00    0.57676   0.69295    0.012
 5097.00    0.56921   0.66438    0.012
 5098.00    0.58676   0.64541    0.012
 5099.00    0.69998   0.66032    0.012
 5100.00    0.77316   0.69722    0.012
 5101.00    0.71895   0.72050    0.012
 5102.00    0.67482   0.72022    0.012
 5103.00    0.65783   0.71127    0.012
 5104.00    0.60180   0.70610    0.012
 5105.00    0.45551   0.69986    0.012
 5106.00    0.35817   0.68353    0.012
 5107.00    0.35872   0.67473    0.012
 5108.00    0.40741   0.67656    0.012
 5109.00    0.53999   0.67349    0.012
 5110.00    0.61097   0.68390    0.012
 5111.00    0.58801   0.70573    0.013
 5112.00    0.57351   0.71579    0.013
 5113.00    0.57034   0.71960    0.013
 5114.00    0.59415   0.72155    0.013
 5115.00    0.64979   0.72530    0.013
 5116.00    0.66693   0.73724    0.013
 5117.00    0.64401   0.74469    0.013
 5118.00    0.64440   0.73881    0.013
 5119.00    0.66618   0.72387    0.013
 5120.00    0.69231   0.70743    0.013
 5121.00    0.72198   0.69118    0.012
 5122.00    0.76304   0.66792    0.012
 5123.00    0.81221   0.65061    0.012
 5124.00    0.77763   0.65385    0.012
 5125.00    0.69073   0.66455    0.012
 5126.00    0.62002   0.66807    0.012
 5127.00    0.55816   0.66502    0.012
 5128.00    0.65581   0.66060    0.012
 5129.00    0.82913   0.66553    0.012
 5130.00    0.79815   0.68117    0.012
 5131.00    0.68355   0.69052    0.012
 5132.00    0.76533   0.68906    0.012
 5133.00    0.91577   0.69330    0.012
 5134.00    0.90323   0.71043    0.012
 5135.00    0.84264   0.70916    0.012
 5136.00    0.75173   0.68538    0.012
 5137.00    0.65342   0.66407    0.012
 5138.00    0.63057   0.64859    0.012
 5139.00    0.62262   0.66023    0.012
 5140.00    0.60412   0.68016    0.012
 5141.00    0.58398   0.66316    0.012
 5142.00    0.61911   0.65054    0.012
 5143.00    0.66053   0.67154    0.012
 5144.00    0.72551   0.68079    0.012
 5145.00    0.79230   0.66666    0.012
 5146.00    0.72318   0.65490    0.012
 5147.00    0.64846   0.65752    0.012
 5148.00    0.70527   0.67280    0.012
 5149.00    0.76026   0.67773    0.012
 5150.00    0.69275   0.66615    0.012
 5151.00    0.62318   0.65723    0.012
 5152.00    0.51795   0.65202    0.012
 5153.00    0.43369   0.64911    0.012
 5154.00    0.57253   0.66174    0.012
 5155.00    0.69705   0.68475    0.012
 5156.00    0.71391   0.70557    0.012
 5157.00    0.71172   0.71472    0.012
 5158.00    0.60036   0.71157    0.012
 5159.00    0.50761   0.71112    0.012
 5160.00    0.49964   0.70650    0.012
 5161.00    0.52225   0.68820    0.012
 5162.00    0.65897   0.67920    0.012
 5163.00    0.74357   0.67537    0.012
 5164.00    0.66554   0.64424    0.012
 5165.00    0.59036   0.58405    0.012
 5166.00    0.52276   0.52142    0.012
 5167.00    0.48958   0.49998    0.012
 5168.00    0.53466   0.53644    0.012
 5169.00    0.53569   0.58804    0.012
 5170.00    0.44994   0.58195    0.012
 5171.00    0.44387   0.52118    0.015
 5172.00    0.57452   0.50373    0.040
 5173.00    0.64637   0.56870   -1.000
 5174.00    0.62985   0.64200   -1.000
 5175.00    0.56820   0.66949   -1.000
 5176.00    0.44696   0.67466   -1.000
 5177.00    0.39572   0.68054   -1.000
 5178.00    0.42591   0.67978   -1.000
 5179.00    0.45020   0.66949   -1.000
 5180.00    0.46842   0.64945   -1.000
 5181.00    0.53717   0.59973    0.045
 5182.00    0.65164   0.52225    0.015
 5183.00    0.70699   0.49442    0.012
 5184.00    0.71519   0.55502    0.012
 5185.00    0.61058   0.63049    0.012
 5186.00    0.42682   0.66403    0.012
 5187.00    0.41642   0.66088    0.012
 5188.00    0.51271   0.66317    0.012
 5189.00    0.52247   0.67777    0.012
 5190.00    0.48574   0.65300    0.000
 5191.00    0.45326   0.60738    0.000
 5192.00    0.42276   0.60870    0.000
 5193.00    0.50741   0.63571    0.000
 5194.00    0.63837   0.63791    0.000
 5195.00    0.69096   0.63559    0.000
 5196.00    0.71665   0.64758    0.000
 5197.00    0.56780   0.66204    0.000
 5198.00    0.36852   0.67735    0.000
 5199.00    0.43077   0.68695    0.000
 5200.00    0.55549   0.68433    0.000
 5201.00    0.58932   0.67519    0.000
 5202.00    0.60566   0.66626    0.000
 5203.00    0.61110   0.64133    0.000
 5204.00    0.61492   0.60259    0.000
 5205.00    0.53545   0.58865    0.000
 5206.00    0.44687   0.59801    0.000
 5207.00    0.38563   0.59253    0.000
 5208.00    0.32637   0.59267    0.000
 5209.00    0.39251   0.61847    0.000
 5210.00    0.46333   0.64839    0.000
 5211.00    0.51158   0.67749    0.012
 5212.00    0.55808   0.69749    0.012
 5213.00    0.54431   0.69275    0.012
 5214.00    0.52923   0.66388    0.012
 5215.00    0.49282   0.64039    0.012
 5216.00    0.46791   0.64433    0.012
 5217.00    0.55993   0.66878    0.012
 5218.00    0.63895   0.69349    0.012
 5219.00    0.62336   0.70484    0.012
 5220.00    0.62005   0.70834    0.012
 5221.00    0.68520   0.70577    0.012
 5222.00    0.71758   0.69096    0.012
 5223.00    0.60418   0.66415    0.012
 5224.00    0.50643   0.62633    0.012
 5225.00    0.46581   0.57983    0.012
 5226.00    0.42253   0.55765    0.012
 5227.00    0.37107   0.59845    0.012
 5228.00    0.35229   0.65631    0.012
 5229.00    0.41853   0.68247    0.012
 5230.00    0.46209   0.68967    0.012
 5231.00    0.45492   0.67221    0.012
 5232.00    0.48840   0.63992    0.012
 5233.00    0.60065   0.63028    0.012
 5234.00    0.65514   0.64409    0.012
 5235.00    0.61199   0.67003    0.012
 5236.00    0.57352   0.69238    0.012
 5237.00    0.54199   0.70042    0.012
 5238.00    0.54805   0.69882    0.012
 5239.00    0.60306   0.69639    0.012
 5240.00    0.63832   0.69889    0.012
 5241.00    0.65095   0.69535    0.012
 5242.00    0.61886   0.68975    0.012
 5243.00    0.54154   0.70115    0.012
 5244.00    0.48295   0.71237    0.012
 5245.00    0.44107   0.69112    0.012
 5246.00    0.42749   0.65739    0.012
 5247.00    0.43616   0.65355    0.012
 5248.00    0.43022   0.66068    0.012
 5249.00    0.41418   0.64861    0.012
 5250.00    0.35540   0.64509    0.012
 5251.00    0.27071   0.66338    0.012
 5252.00    0.32907   0.67609    0.013
 5253.00    0.46313   0.66653    0.014
 5254.00    0.53047   0.65125    0.014
 5255.00    0.56716   0.66505    0.014
 5256.00    0.62417   0.69809    0.014
 5257.00    0.68922   0.71835    0.014
 5258.00    0.68967   0.71940    0.013
 5259.00    0.66835   0.70341    0.012
 5260.00    0.61352   0.67337    0.012
 5261.00    0.54921   0.63455    0.012
 5262.00    0.51686   0.60011    0.012
 5263.00    0.49197   0.57532    0.012
 5264.00    0.52462   0.55761    0.012
 5265.00    0.56805   0.55782    0.012
 5266.00    0.51340   0.59067    0.012
 5267.00    0.44454   0.60654    0.012
 5268.00    0.52871   0.56027    0.012
 5269.00    0.62898   0.52660    0.012
 5270.00    0.52186   0.57056    0.012
 5271.00    0.40061   0.62875    0.012
 5272.00    0.46333   0.64377    0.012
 5273.00    0.53222   0.63518    0.012
 5274.00    0.51176   0.61899    0.012
 5275.00    0.49092   0.62324    0.012
 5276.00    0.46125   0.66582    0.012
 5277.00    0.43526   0.70134    0.012
 5278.00    0.46534   0.70119    0.012
 5279.00    0.49056   0.68057    0.012
 5280.00    0.46822   0.66034    0.012
 5281.00    0.45437   0.64642    0.012
 5282.00    0.50019   0.63194    0.012
 5283.00    0.55775   0.62898    0.012
 5284.00    0.67891   0.66214    0.012
 5285.00    0.75708   0.70634    0.012
 5286.00    0.64845   0.72160    0.012
 5287.00    0.57351   0.71340    0.012
 5288.00    0.61912   0.70888    0.012
 5289.00    0.64365   0.71653    0.012
 5290.00    0.60486   0.72214    0.012
 5291.00    0.58531   0.71522    0.012
 5292.00    0.61492   0.70350    0.012
 5293.00    0.62792   0.70076    0.012
 5294.00    0.60437   0.69745    0.012
 5295.00    0.57091   0.67175    0.012
 5296.00    0.51857   0.62885    0.012
 5297.00    0.49928   0.60752    0.012
 5298.00    0.53503   0.63150    0.012
 5299.00    0.55709   0.66293    0.012
 5300.00    0.55919   0.66502    0.012
 5301.00    0.59884   0.66036    0.012
 5302.00    0.68668   0.67573    0.012
 5303.00    0.68791   0.70203    0.012
 5304.00    0.59120   0.71563    0.012
 5305.00    0.57137   0.70900    0.012
 5306.00    0.62821   0.69470    0.012
 5307.00    0.68235   0.69331    0.012
 5308.00    0.73412   0.70634    0.012
 5309.00    0.70151   0.71597    0.012
 5310.00    0.60351   0.71427    0.012
 5311.00    0.59010   0.70744    0.012
 5312.00    0.63433   0.69847    0.012
 5313.00    0.61678   0.69382    0.011
 5314.00    0.56234   0.68808    0.011
 5315.00    0.52720   0.66950    0.011
 5316.00    0.50211   0.65993    0.011
 5317.00    0.53758   0.67351    0.011
 5318.00    0.60041   0.68587    0.011
 5319.00    0.58260   0.68791    0.011
 5320.00    0.53346   0.68764    0.011
 5321.00    0.53895   0.68367    0.011
 5322.00    0.56251   0.66574    0.011
 5323.00    0.56736   0.64005    0.011
 5324.00    0.56703   0.63807    0.011
 5325.00    0.62051   0.64571    0.011
 5326.00    0.68627   0.61052    0.011
 5327.00    0.66669   0.54871    0.011
 5328.00    0.63152   0.54800    0.011
 5329.00    0.61629   0.61087    0.011
 5330.00    0.60387   0.66125    0.011
 5331.00    0.58831   0.66976    0.011
 5332.00    0.57244   0.66451    0.011
 5333.00    0.59676   0.67495    0.011
 5334.00    0.62366   0.68883    0.011
 5335.00    0.68640   0.68554    0.011
 5336.00    0.74982   0.67517    0.011
 5337.00    0.65549   0.67099    0.011
 5338.00    0.56240   0.65545    0.011
 5339.00    0.50500   0.62447    0.011
 5340.00    0.45367   0.61857    0.011
 5341.00    0.48943   0.64958    0.011
 5342.00    0.52314   0.67656    0.011
 5343.00    0.53778   0.68192    0.011
 5344.00    0.54827   0.67047    0.011
 5345.00    0.53044   0.65888    0.011
 5346.00    0.52142   0.66191    0.011
 5347.00    0.55892   0.65729    0.011
 5348.00    0.58479   0.64373    0.011
 5349.00    0.56122   0.65069    0.011
 5350.00    0.55197   0.67746    0.011
 5351.00    0.59294   0.69410    0.011
 5352.00    0.62468   0.69362    0.011
 5353.00    0.62924   0.69919    0.011
 5354.00    0.65619   0.71352    0.012
 5355.00    0.73945   0.71967    0.011
 5356.00    0.74031   0.71908    0.011
 5357.00    0.56288   0.71860    0.011
 5358.00    0.49203   0.71780    0.011
 5359.00    0.62137   0.71244    0.011
 5360.00    0.67432   0.69720    0.011
 5361.00    0.60200   0.67773    0.011
 5362.00    0.57382   0.66874    0.011
 5363.00    0.60914   0.66450    0.011
 5364.00    0.58621   0.65667    0.011
 5365.00    0.48961   0.65715    0.011
 5366.00    0.46052   0.66001    0.011
 5367.00    0.50672   0.65744    0.011
 5368.00    0.60646   0.64214   -2.000
 5369.00    0.75885   0.60919   -2.000
 5370.00    0.71146   0.58614   -2.000
 5371.00    0.49083   0.60506   -2.000
 5372.00    0.34702   0.65173   -2.000
 5373.00    0.26188   0.68507   -2.000
 5374.00    0.29777   0.69778   -2.000
 5375.00    0.41492   0.69493   -2.000
 5376.00    0.54199   0.68634   -2.000
 5377.00    0.67490   0.68639   -2.000
 5378.00    0.77749   0.68752   -2.000
 5379.00    0.86452   0.67774   -2.000
 5380.00    0.79489   0.66833   -2.000
 5381.00    0.65566   0.66398   -2.000
 5382.00    0.61187   0.65794   -2.000
 5383.00    0.60451   0.66366    0.011
 5384.00    0.62605   0.68060    0.011
 5385.00    0.65696   0.68680    0.011
 5386.00    0.71369   0.68308    0.011
 5387.00    0.77744   0.67652    0.011
 5388.00    0.72391   0.66367    0.011
 5389.00    0.64426   0.65004    0.011
 5390.00    0.59208   0.64429    0.011
 5391.00    0.54479   0.64279    0.011
 5392.00    0.51715   0.64215    0.011
 5393.00    0.49217   0.64418    0.011
 5394.00    0.48811   0.64488    0.011
 5395.00    0.48607   0.62482    0.011
 5396.00    0.57071   0.59857    0.011
 5397.00    0.66057   0.61026    0.011
 5398.00    0.54540   0.64128    0.011
 5399.00    0.42577   0.65033    0.011
 5400.00    0.45297   0.65059    0.011
 5401.00    0.47861   0.65742    0.011
 5402.00    0.46425   0.64542    0.011
 5403.00    0.45822   0.60762    0.011
 5404.00    0.56506   0.57521    0.011
 5405.00    0.65078   0.57520    0.011
 5406.00    0.54649   0.60496    0.011
 5407.00    0.46431   0.62829    0.011
 5408.00    0.52824   0.61927    0.011
 5409.00    0.58481   0.60294    0.011
 5410.00    0.60354   0.61754    0.011
 5411.00    0.62815   0.64915    0.011
 5412.00    0.67713   0.66308    0.011
 5413.00    0.69944   0.65532    0.011
 5414.00    0.63013   0.64959    0.011
 5415.00    0.59773   0.66335    0.011
 5416.00    0.67213   0.67937    0.011
 5417.00    0.71158   0.67883    0.011
 5418.00    0.66474   0.66752    0.011
 5419.00    0.62221   0.65593    0.011
 5420.00    0.58889   0.65458    0.011
 5421.00    0.54266   0.66339    0.011
 5422.00    0.47256   0.65474    0.011
 5423.00    0.46468   0.63120    0.011
 5424.00    0.55734   0.63476    0.011
 5425.00    0.60496   0.66507    0.011
 5426.00    0.58873   0.68581    0.011
 5427.00    0.55798   0.66836    0.011
 5428.00    0.50910   0.62048    0.011
 5429.00    0.48448   0.60295    0.011
 5430.00    0.48653   0.63167    0.011
 5431.00    0.57800   0.64451    0.011
 5432.00    0.75614   0.62727    0.011
 5433.00    0.86728   0.60928    0.011
 5434.00    0.92114   0.60674    0.011
 5435.00    0.89558   0.62059    0.011
 5436.00    0.81020   0.64282    0.011
 5437.00    0.70399   0.66754    0.011
 5438.00    0.58398   0.68488    0.011
 5439.00    0.56901   0.69122    0.011
 5440.00    0.61490   0.69089    0.011
 5441.00    0.62044   0.69000    0.011
 5442.00    0.60562   0.68833    0.011
 5443.00    0.62555   0.67408    0.011
 5444.00    0.66065   0.64209    0.011
 5445.00    0.72592   0.60204    0.011
 5446.00    0.80251   0.58707    0.011
 5447.00    0.82229   0.61662    0.011
 5448.00    0.82398   0.65309    0.011
 5449.00    0.78628   0.66743    0.011
 5450.00    0.73811   0.66660    0.011
 5451.00    0.72259   0.66150    0.011
 5452.00    0.71418   0.65255    0.011
 5453.00    0.62171   0.62859    0.011
 5454.00    0.51472   0.59384    0.011
 5455.00    0.51603   0.58971    0.011
 5456.00    0.53154   0.62649    0.011
 5457.00    0.62091   0.66084    0.011
 5458.00    0.71711   0.67000    0.011
 5459.00    0.73794   0.66204    0.011
 5460.00    0.75454   0.64853    0.011
 5461.00    0.69092   0.62842    0.011
 5462.00    0.62563   0.61066    0.011
 5463.00    0.57327   0.62028    0.011
 5464.00    0.52754   0.64148    0.011
 5465.00    0.63727   0.64497    0.011
 5466.00    0.74068   0.64495    0.011
 5467.00    0.76292   0.65243    0.011
 5468.00    0.77364   0.65262    0.011
 5469.00    0.68463   0.64369    0.011
 5470.00    0.60522   0.64057    0.011
 5471.00    0.58730   0.63970    0.011
 5472.00    0.56899   0.62850    0.011
 5473.00    0.54869   0.62291    0.011
 5474.00    0.52615   0.61808    0.011
 5475.00    0.49450   0.58847    0.011
 5476.00    0.49258   0.56986    0.011
 5477.00    0.59075   0.59831    0.011
 5478.00    0.68343   0.63341   -2.000
 5479.00    0.76051   0.63228   -2.000
 5480.00    0.80780   0.61041   -2.000
 5481.00    0.78279   0.60700   -2.000
 5482.00    0.77650   0.62370   -2.000
 5483.00    0.80941   0.64439   -2.000
 5484.00    0.76408   0.65967   -2.000
 5485.00    0.57630   0.65403   -2.000
 5486.00   -0.05923   0.63069   -2.000
 5487.00   -1.40746   0.62069   -2.000
 5488.00   -1.72801   0.62997   -2.000
 5489.00   -0.61292   0.63635   -2.000
 5490.00    0.40823   0.64166   -2.000
 5491.00    1.31388   0.64531   -2.000
 5492.00    1.89906   0.63720   -2.000
 5493.00    2.13693   0.63318   -2.000
 5494.00    2.01275   0.64161   -2.000
 5495.00    1.54250   0.64015   -2.000
 5496.00    1.18469   0.62416   -2.000
 5497.00    0.92166   0.62600   -2.000
 5498.00    0.70512   0.64705   -2.000
 5499.00    0.52308   0.64923   -2.000
 5500.00    0.47940   0.62741   -2.000
 5501.00    0.52591   0.61249   -2.000
 5502.00    0.60410   0.61761    0.010
 5503.00    0.70037   0.62810    0.011
 5504.00    0.70863   0.62604    0.011
 5505.00    0.67315   0.60950    0.010
 5506.00    0.68810   0.60758    0.010
 5507.00    0.72470   0.62517    0.010
 5508.00    0.74073   0.63303    0.010
 5509.00    0.74917   0.62897    0.010
 5510.00    0.71885   0.61998    0.010
 5511.00    0.67644   0.60487    0.010
 5512.00    0.69044   0.59834    0.010
 5513.00    0.71912   0.60595    0.010
 5514.00    0.66180   0.61716    0.010
 5515.00    0.58623   0.62571    0.010
 5516.00    0.58553   0.63413    0.010
 5517.00    0.59740   0.64777    0.010
 5518.00    0.64290   0.65599    0.010
 5519.00    0.69266   0.65269    0.011
 5520.00    0.71262   0.64764    0.011
 5521.00    0.72995   0.64624    0.010
 5522.00    0.69648   0.64705    0.010
 5523.00    0.66036   0.64535    0.010
 5524.00    0.60708   0.63603    0.010
 5525.00    0.55397   0.62177    0.010
 5526.00    0.53866   0.60166    0.010
 5527.00    0.52671   0.58474    0.010
 5528.00    0.58728   0.59523    0.010
 5529.00    0.64723   0.62523    0.011
 5530.00    0.69976   0.64156    0.011
 5531.00    0.74365   0.63966    0.011
 5532.00    0.71552   0.63296    0.011
 5533.00    0.69296   0.62303    0.011
 5534.00    0.70509   0.61386    0.011
 5535.00    0.70766   0.62103    0.011
 5536.00    0.66355   0.63205    0.011
 5537.00    0.61308   0.63379    0.010
 5538.00    0.53737   0.63811    0.011
 5539.00    0.50748   0.64806    0.011
 5540.00    0.62879   0.65333    0.011
 5541.00    0.71936   0.64563    0.012
 5542.00    0.72420   0.63101    0.030
 5543.00    0.73029   0.62634   -1.000
 5544.00    0.73938   0.62932   -1.000
 5545.00    0.73057   0.62902   -1.000
 5546.00    0.68488   0.63439   -1.000
 5547.00    0.62480   0.64799    0.056
 5548.00    0.53890   0.65562    0.015
 5549.00    0.51196   0.65612    0.010
 5550.00    0.57748   0.65454    0.010
 5551.00    0.60652   0.64903    0.010
 5552.00    0.58532   0.63852    0.010
 5553.00    0.58087   0.62908    0.010
 5554.00    0.59670   0.62963    0.010
 5555.00    0.60113   0.63595    0.010
 5556.00    0.59337   0.63625    0.010
 5557.00    0.57151   0.63382    0.010
 5558.00    0.53637   0.63608    0.010
 5559.00    0.56730   0.63655    0.010
 5560.00    0.65313   0.63252    0.010
 5561.00    0.69968   0.62421    0.010
 5562.00    0.71749   0.61715    0.010
 5563.00    0.69754   0.61910    0.010
 5564.00    0.65333   0.61786    0.010
 5565.00    0.65680   0.61156    0.010
 5566.00    0.68706   0.61263    0.010
 5567.00    0.72709   0.61543    0.010
 5568.00    0.77191   0.61073    0.010
 5569.00    0.70099   0.61275    0.010
 5570.00    0.58116   0.62346    0.010
 5571.00    0.58939   0.61383    0.010
 5572.00    0.64395   0.60149    0.010
 5573.00    0.62329   0.61595    0.010
 5574.00    0.57961   0.62794    0.010
 5575.00    0.55257   0.62330    0.010
 5576.00    0.52976   0.62556    0.011
 5577.00    0.48917   0.62959    0.011
 5578.00    0.44490   0.63026    0.011
 5579.00    0.51691   0.63422    0.011
 5580.00    0.60789   0.63066    0.010
 5581.00    0.58178   0.62251    0.011
 5582.00    0.54136   0.62394    0.011
 5583.00    0.56413   0.62529    0.011
 5584.00    0.59220   0.61399    0.011
 5585.00    0.57014   0.58978    0.011
 5586.00    0.54564   0.56502    0.011
 5587.00    0.64905   0.55572    0.011
 5588.00    0.75274   0.56164    0.010
 5589.00    0.75912   0.57855    0.011
 5590.00    0.76069   0.59633    0.011
 5591.00    0.66672   0.60229    0.011
 5592.00    0.58451   0.59765    0.011
 5593.00    0.63896   0.59023    0.011
 5594.00    0.68219   0.60075    0.011
 5595.00    0.63521   0.62534    0.011
 5596.00    0.58671   0.62529    0.010
 5597.00    0.52900   0.60101    0.011
 5598.00    0.48121   0.58989    0.011
 5599.00    0.48078   0.59124    0.011
 5600.00    0.49394   0.58367    0.011
 5601.00    0.55987   0.57339    0.011
 5602.00    0.62570   0.57767    0.011
 5603.00    0.69124   0.60295    0.011
 5604.00    0.73259   0.62927    0.010
 5605.00    0.70773   0.64156    0.010
 5606.00    0.70558   0.64346    0.010
 5607.00    0.75670   0.64063    0.010
 5608.00    0.76500   0.63785    0.010
 5609.00    0.68642   0.63696    0.010
 5610.00    0.60966   0.64016    0.010
 5611.00    0.53611   0.64504    0.010
 5612.00    0.48286   0.64108    0.010
 5613.00    0.46096   0.61139    0.010
 5614.00    0.45012   0.56851    0.010
 5615.00    0.45430   0.56126    0.010
 5616.00    0.47879   0.59076    0.010
 5617.00    0.52754   0.60950    0.010
 5618.00    0.56383   0.60729    0.010
 5619.00    0.58700   0.60604    0.010
 5620.00    0.58901   0.61520    0.010
 5621.00    0.57136   0.62348    0.010
 5622.00    0.52706   0.61271    0.010
 5623.00    0.46093   0.58481    0.010
 5624.00    0.44375   0.57325    0.010
 5625.00    0.46186   0.58891    0.010
 5626.00    0.52170   0.60522    0.010
 5627.00    0.60795   0.61234    0.010
 5628.00    0.62458   0.62186    0.010
 5629.00    0.60270   0.63066    0.010
 5630.00    0.63888   0.63287    0.010
 5631.00    0.70299   0.62966    0.010
 5632.00    0.71420   0.62309    0.010
 5633.00    0.70343   0.61553    0.010
 5634.00    0.70234   0.61039    0.010
 5635.00    0.70468   0.60347    0.010
 5636.00    0.62945   0.59489    0.010
 5637.00    0.53095   0.59485    0.010
 5638.00    0.51093   0.60294    0.010
 5639.00    0.51045   0.60272    0.010
 5640.00    0.57375   0.59275    0.010
 5641.00    0.64993   0.59257    0.010
 5642.00    0.58976   0.60085    0.010
 5643.00    0.50800   0.60460    0.010
 5644.00    0.50583   0.60750    0.010
 5645.00    0.51304   0.61163    0.010
 5646.00    0.57707   0.61613    0.010
 5647.00    0.64564   0.61633    0.010
 5648.00    0.70902   0.61033    0.010
 5649.00    0.77218   0.60651    0.010
 5650.00    0.68928   0.61277    0.010
 5651.00    0.60728   0.62185    0.010
 5652.00    0.64951   0.62058    0.010
 5653.00    0.68929   0.60587    0.010
 5654.00    0.68378   0.59542    0.010
 5655.00    0.67673   0.60080    0.010
 5656.00    0.65259   0.59114    0.010
 5657.00    0.62677   0.55861    0.011
 5658.00    0.58795   0.55328    0.024
 5659.00    0.55081   0.58224   -1.000
 5660.00    0.52350   0.59464   -1.000
 5661.00    0.50640   0.58214   -1.000
 5662.00    0.53681   0.57935   -1.000
 5663.00    0.56887   0.59589   -1.000
 5664.00    0.60718   0.61033   -1.000
 5665.00    0.62651   0.60880   -1.000
 5666.00    0.58561   0.59702   -1.000
 5667.00    0.55343   0.59086    0.073
 5668.00    0.54470   0.59424    0.015
 5669.00    0.54022   0.59981    0.010
 5670.00    0.54553   0.60547    0.010
 5671.00    0.54729   0.61600    0.010
 5672.00    0.54197   0.62697    0.010
 5673.00    0.49458   0.62674    0.010
 5674.00    0.37402   0.61833    0.010
 5675.00    0.32044   0.61876    0.010
 5676.00    0.36883   0.62500    0.010
 5677.00    0.43984   0.62151    0.010
 5678.00    0.54113   0.61407    0.010
 5679.00    0.61418   0.61324    0.010
 5680.00    0.65397   0.60896    0.010
 5681.00    0.65613   0.59286    0.010
 5682.00    0.61921   0.58388    0.010
 5683.00    0.55680   0.59116    0.010
 5684.00    0.47104   0.60014    0.010
 5685.00    0.48601   0.59663    0.010
 5686.00    0.58232   0.58504    0.010
 5687.00    0.63089   0.58046    0.010
 5688.00    0.64553   0.58878    0.010
 5689.00    0.62051   0.60211    0.010
 5690.00    0.57076   0.61075    0.010
 5691.00    0.55390   0.61778    0.010
 5692.00    0.55496   0.62009    0.010
 5693.00    0.59582   0.61584    0.010
 5694.00    0.65551   0.61364    0.010
 5695.00    0.62540   0.61554    0.010
 5696.00    0.55862   0.61269    0.010
 5697.00    0.58334   0.60172    0.010
 5698.00    0.63997   0.59648    0.010
 5699.00    0.63022   0.59367    0.010
 5700.00    0.60095   0.58334    0.010
 5701.00    0.68719   0.57914    0.010
 5702.00    0.80158   0.58902    0.010
 5703.00    0.74814   0.59926    0.010
 5704.00    0.66165   0.59547    0.010
 5705.00    0.64937   0.58139    0.010
 5706.00    0.64849   0.57109    0.010
 5707.00    0.65681   0.56141    0.010
 5708.00    0.66616   0.55285    0.010
 5709.00    0.64413   0.55712    0.010
 5710.00    0.61972   0.56196    0.010
 5711.00    0.56557   0.56610    0.010
 5712.00    0.51022   0.58454    0.010
 5713.00    0.52242   0.60018    0.010
 5714.00    0.53582   0.60403    0.010
 5715.00    0.57725   0.60738    0.010
 5716.00    0.61688   0.60789    0.010
 5717.00    0.62551   0.60588    0.010
 5718.00    0.63309   0.60996    0.010
 5719.00    0.62950   0.61485    0.010
 5720.00    0.63138   0.61839    0.009
 5721.00    0.67420   0.62319    0.010
 5722.00    0.70040   0.62525    0.010
 5723.00    0.63168   0.62371    0.010
 5724.00    0.55898   0.62068    0.010
 5725.00    0.46821   0.61168    0.010
 5726.00    0.42876   0.60039    0.010
 5727.00    0.58034   0.60288    0.010
 5728.00    0.70413   0.61413    0.010
 5729.00    0.74146   0.61362    0.010
 5730.00    0.76222   0.60003    0.010
 5731.00    0.73923   0.59539    0.010
 5732.00    0.68820   0.60624    0.010
 5733.00    0.57355   0.61672    0.010
 5734.00    0.50020   0.61942    0.010
 5735.00    0.50804   0.61595    0.010
 5736.00    0.53167   0.61136    0.010
 5737.00    0.58238   0.60976    0.010
 5738.00    0.62565   0.60963    0.010
 5739.00    0.65778   0.60991    0.010
 5740.00    0.67045   0.60947    0.000
 5741.00    0.65744   0.60595    0.000
 5742.00    0.66542   0.60297    0.000
 5743.00    0.69777   0.60835    0.000
 5744.00    0.68308   0.61793    0.000
 5745.00    0.62021   0.61939    0.000
 5746.00    0.59839   0.60570    0.000
 5747.00    0.61365   0.59205    0.000
 5748.00    0.62997   0.59713    0.000
 5749.00    0.64715   0.61145    0.000
 5750.00    0.62860   0.61296    0.000
 5751.00    0.58502   0.59718    0.000
 5752.00    0.52805   0.57719    0.000
 5753.00    0.46285   0.57007    0.000
 5754.00    0.46956   0.58450    0.000
 5755.00    0.51485   0.60554    0.000
 5756.00    0.54604   0.61640    0.000
 5757.00    0.57068   0.61752    0.000
 5758.00    0.58223   0.61046    0.000
 5759.00    0.58853   0.59804    0.000
 5760.00    0.60894   0.58444    0.000
 5761.00    0.63418   0.57250    0.000
 5762.00    0.64893   0.57287    0.000
 5763.00    0.66065   0.59246    0.000
 5764.00    0.64067   0.61114    0.000
 5765.00    0.61314   0.61598    0.000
 5766.00    0.57941   0.61602    0.000
 5767.00    0.54450   0.61519    0.000
 5768.00    0.64117   0.61211    0.000
 5769.00    0.75743   0.60905    0.000
 5770.00    0.71805   0.60511    0.000
 5771.00    0.66170   0.60001    0.000
 5772.00    0.60194   0.59892    0.000
 5773.00    0.54194   0.59752    0.000
 5774.00    0.61159   0.59652    0.000
 5775.00    0.68603   0.60161    0.000
 5776.00    0.63216   0.60700    0.000
 5777.00    0.57972   0.60654    0.000
 5778.00    0.59741   0.59801    0.000
 5779.00    0.61086   0.57827    0.000
 5780.00    0.55618   0.55736    0.000
 5781.00    0.51346   0.55404    0.000
 5782.00    0.59182   0.56274    0.000
 5783.00    0.66630   0.56295    0.000
 5784.00    0.71257   0.55542    0.000
 5785.00    0.73582   0.56199    0.000
 5786.00    0.63127   0.58042    0.000
 5787.00    0.55619   0.59176    0.000
 5788.00    0.61181   0.59573    0.000
 5789.00    0.64614   0.58995    0.000
 5790.00    0.60286   0.58119    0.000
 5791.00    0.57708   0.58487   -2.000
 5792.00    0.60470   0.59396   -2.000
 5793.00    0.62488   0.60159   -2.000
 5794.00    0.62573   0.60821   -2.000
 5795.00    0.58503   0.60547   -2.000
 5796.00    0.45159   0.59100   -2.000
 5797.00    0.39158   0.58318   -2.000
 5798.00    0.47362   0.59530   -2.000
 5799.00    0.52897   0.61174   -2.000
 5800.00    0.53926   0.61851   -2.000
 5801.00    0.57220   0.61916   -2.000
 5802.00    0.63861   0.61201   -2.000
 5803.00    0.70422   0.59790   -2.000
 5804.00    0.76879   0.58979   -2.000
 5805.00    0.80206   0.59075   -2.000
 5806.00    0.79951   0.59546   -2.000
 5807.00    0.78571   0.59930   -2.000
 5808.00    0.76054   0.60064   -2.000
 5809.00    0.72664   0.60348   -2.000
 5810.00    0.68495   0.60668   -2.000
 5811.00    0.61920   0.60639    0.000
 5812.00    0.53458   0.60419    0.000
 5813.00    0.52016   0.59919    0.000
 5814.00    0.55418   0.58916    0.000
 5815.00    0.58247   0.58092    0.000
 5816.00    0.60727   0.58643    0.000
 5817.00    0.61319   0.60166    0.000
 5818.00    0.60913   0.61085    0.000
 5819.00    0.62553   0.61247    0.000
 5820.00    0.65131   0.61194    0.000
 5821.00    0.65788   0.60845    0.000
 5822.00    0.65687   0.60453    0.000
 5823.00    0.71923   0.60414    0.000
 5824.00    0.80288   0.60707    0.000
 5825.00    0.86255   0.60768    0.000
 5826.00    0.91544   0.60616    0.000
 5827.00    0.87536   0.60620    0.000
 5828.00    0.81364   0.60863    0.000
 5829.00    0.73720   0.60939    0.000
 5830.00    0.65801   0.60718    0.000
 5831.00    0.65955   0.60619    0.000
 5832.00    0.67274   0.60490    0.000
 5833.00    0.64286   0.59963    0.000
 5834.00    0.60847   0.59664    0.000
 5835.00    0.59373   0.60118    0.000
 5836.00    0.58033   0.60303    0.000
 5837.00    0.63911   0.59773    0.000
 5838.00    0.70027   0.59734    0.000
 5839.00    0.72033   0.60412    0.000
 5840.00    0.73850   0.60961    0.000
 5841.00    0.69747   0.61146    0.000
 5842.00    0.66015   0.61107    0.000
 5843.00    0.67882   0.60764    0.000
 5844.00    0.69664   0.60198    0.000
 5845.00    0.70616   0.59512    0.000
 5846.00    0.71402   0.58883    0.000
 5847.00    0.71029   0.58703    0.000
 5848.00    0.70131   0.59032    0.000
 5849.00    0.66399   0.59301    0.000
 5850.00    0.64065   0.58988    0.000
 5851.00    0.67787   0.57928    0.000
 5852.00    0.71566   0.56709    0.000
 5853.00    0.75550   0.56725    0.000
 5854.00    0.76470   0.57533    0.000
 5855.00    0.68209   0.57072    0.000
 5856.00    0.61996   0.55265    0.000
 5857.00    0.61008   0.54511    0.000
 5858.00    0.59220   0.55714    0.000
 5859.00    0.55675   0.57249    0.000
 5860.00    0.53743   0.58008    0.000
 5861.00    0.54879   0.57636    0.000
 5862.00    0.55811   0.57401    0.000
 5863.00    0.56401   0.58057    0.000
 5864.00    0.56597   0.58410    0.000
 5865.00    0.56220   0.57819    0.000
 5866.00    0.55880   0.57386    0.000
 5867.00    0.55589   0.58041    0.000
 5868.00    0.55519   0.58945    0.000
 5869.00    0.55701   0.59363    0.000
 5870.00    0.56848   0.59286    0.000
 5871.00    0.58954   0.58830    0.000
 5872.00    0.59990   0.58445    0.000
 5873.00    0.60086   0.58568    0.000
 5874.00    0.60742   0.58746    0.000
 5875.00    0.61830   0.58471    0.000
 5876.00    0.63364   0.58119    0.000
 5877.00    0.65200   0.57857    0.000
 5878.00    0.65458   0.57308    0.000
 5879.00    0.64775   0.56669    0.000
 5880.00    0.66079   0.56785    0.000
 5881.00    0.68416   0.57321    0.000
 5882.00    0.66288   0.57103    0.000
 5883.00    0.62149   0.56533    0.000
 5884.00    0.60852   0.56610    0.000
 5885.00    0.60657   0.56847    0.000
 5886.00    0.61957   0.55887    0.000
 5887.00    0.63750   0.52148    0.000
 5888.00    0.61920   0.45325    0.000
 5889.00    0.59088   0.40761    0.000
 5890.00    0.55770   0.43579    0.000
 5891.00    0.52341   0.49162    0.000
 5892.00    0.50827   0.51986    0.000
 5893.00    0.49661   0.51421    0.000
 5894.00    0.47624   0.47195    0.000
 5895.00    0.45465   0.43756    0.000
 5896.00    0.55315   0.46597    0.000
 5897.00    0.66371   0.51625    0.000
 5898.00    0.69113   0.53959    0.000
 5899.00    0.71326   0.55037    0.000
 5900.00    0.67304   0.56083    0.000
 5901.00    0.63111   0.56532    0.009
 5902.00    0.63185   0.56727    0.009
 5903.00    0.63138   0.56808    0.009
 5904.00    0.59672   0.56409    0.009
 5905.00    0.56890   0.56107    0.009
 5906.00    0.63851   0.56512    0.009
 5907.00    0.69919   0.57071    0.009
 5908.00    0.67664   0.57135    0.009
 5909.00    0.65088   0.57098    0.009
 5910.00    0.60331   0.57467    0.009
 5911.00    0.56423   0.57513    0.009
 5912.00    0.56977   0.56386    0.009
 5913.00    0.58108   0.54903    0.009
 5914.00    0.61683   0.54576    0.009
 5915.00    0.63285   0.55087    0.009
 5916.00    0.57990   0.55871    0.009
 5917.00    0.53822   0.56474    0.009
 5918.00    0.52968   0.56801    0.009
 5919.00    0.51907   0.57168    0.009
 5920.00    0.50328   0.57072    0.009
 5921.00    0.53131   0.56599    0.009
 5922.00    0.65400   0.56562    0.010
 5923.00    0.75638   0.56933    0.010
 5924.00    0.82071   0.57321    0.010
 5925.00    0.86415   0.57561    0.010
 5926.00    0.87341   0.57289    0.010
 5927.00    0.84018   0.56532    0.010
 5928.00    0.74595   0.55581    0.009
 5929.00    0.66509   0.55029    0.009
 5930.00    0.60112   0.55840    0.009
 5931.00    0.59591   0.57078    0.009
 5932.00    0.65610   0.57059    0.009
 5933.00    0.69633   0.55998    0.009
 5934.00    0.71694   0.55568    0.009
 5935.00    0.71316   0.56421    0.009
 5936.00    0.68825   0.57194    0.009
 5937.00    0.68398   0.57465    0.009
 5938.00    0.69544   0.57552    0.009
 5939.00    0.68586   0.56937    0.009
 5940.00    0.66219   0.55854    0.009
 5941.00    0.62805   0.55611    0.009
 5942.00    0.58777   0.56152    0.009
 5943.00    0.55839   0.56745    0.009
 5944.00    0.53459   0.57263    0.009
 5945.00    0.53244   0.57482    0.009
 5946.00    0.53988   0.56943    0.009
 5947.00    0.51558   0.55697    0.009
 5948.00    0.47919   0.54944    0.009
 5949.00    0.46798   0.55708    0.009
 5950.00    0.46492   0.56546    0.009
 5951.00    0.47713   0.55875    0.009
 5952.00    0.49347   0.55053    0.009
 5953.00    0.55179   0.55696    0.009
 5954.00    0.61944   0.56457    0.009
 5955.00    0.64248   0.55947    0.009
 5956.00    0.65763   0.55201    0.009
 5957.00    0.63520   0.55327    0.009
 5958.00    0.60770   0.56047    0.009
 5959.00    0.56991   0.56819    0.009
 5960.00    0.53113   0.57356    0.008
 5961.00    0.52387   0.57529    0.009
 5962.00    0.51849   0.57388    0.009
 5963.00    0.52656   0.57141    0.008
 5964.00    0.53484   0.56578    0.008
 5965.00    0.52169   0.56199    0.008
 5966.00    0.51110   0.56602    0.008
 5967.00    0.56581   0.57107    0.008
 5968.00    0.61734   0.57334    0.008
 5969.00    0.62626   0.57581    0.008
 5970.00    0.63325   0.57781    0.008
 5971.00    0.62303   0.57751    0.009
 5972.00    0.61012   0.57579    0.009
 5973.00    0.57950   0.57147    0.009
 5974.00    0.55596   0.56228    0.009
 5975.00    0.56871   0.55211    0.009
 5976.00    0.58578   0.54779    0.009
 5977.00    0.62078   0.55020    0.009
 5978.00    0.64274   0.55710    0.009
 5979.00    0.62008   0.56571    0.009
 5980.00    0.59624   0.56950    0.009
 5981.00    0.56897   0.56448    0.009
 5982.00    0.54944   0.55036    0.009
 5983.00    0.54895   0.53639    0.009
 5984.00    0.55941   0.53767    0.009
 5985.00    0.59311   0.54899    0.009
 5986.00    0.62768   0.55471    0.009
 5987.00    0.66385   0.55758    0.009
 5988.00    0.67631   0.56242    0.009
 5989.00    0.65055   0.56297    0.009
 5990.00    0.62057   0.55668    0.009
 5991.00    0.58460   0.55555    0.009
 5992.00    0.55470   0.56518    0.009
 5993.00    0.53233   0.57307    0.008
 5994.00    0.54105   0.57164    0.008
 5995.00    0.58390   0.56345    0.008
 5996.00    0.60213   0.55300    0.008
 5997.00    0.59651   0.54856    0.008
 5998.00    0.57726   0.55229    0.008
 5999.00    0.54637   0.55847    0.008
 6000.00    0.52966   0.56043    0.008
 6001.00    0.52360   0.55416    0.008
 6002.00    0.51710   0.54862    0.008
 6003.00    0.51032   0.55345    0.008
 6004.00    0.53010   0.55778    0.008
 6005.00    0.56524   0.55251    0.008
 6006.00    0.59242   0.54030    0.009
 6007.00    0.61558   0.53058    0.009
 6008.00    0.62957   0.53861    0.009
 6009.00    0.63956   0.55700    0.009
 6010.00    0.65045   0.56323    0.009
 6011.00    0.66168   0.55397    0.009
 6012.00    0.63259   0.54279    0.009
 6013.00    0.59071   0.54327    0.009
 6014.00    0.54334   0.54936    0.009
 6015.00    0.49452   0.54713    0.009
 6016.00    0.48280   0.54419    0.009
 6017.00    0.47913   0.54788    0.009
 6018.00    0.50573   0.54604    0.009
 6019.00    0.53755   0.53763    0.009
 6020.00    0.57171   0.53567    0.009
 6021.00    0.60618   0.54064    0.009
 6022.00    0.62610   0.54392    0.009
 6023.00    0.64470   0.54461    0.009
 6024.00    0.67485   0.54995    0.008
 6025.00    0.70564   0.55450    0.008
 6026.00    0.67508   0.55354    0.008
 6027.00    0.64287   0.55687    0.008
 6028.00    0.57862   0.56254    0.008
 6029.00    0.51768   0.56340    0.008
 6030.00    0.53363   0.56237    0.008
 6031.00    0.54987   0.56478    0.008
 6032.00    0.56969   0.56793    0.008
 6033.00    0.58997   0.56770    0.008
 6034.00    0.61431   0.56621    0.008
 6035.00    0.63655   0.56613    0.008
 6036.00    0.64546   0.56704    0.008
 6037.00    0.65558   0.56717    0.008
 6038.00    0.67178   0.56443    0.009
 6039.00    0.68445   0.56056    0.009
 6040.00    0.68281   0.55801    0.009
 6041.00    0.69104   0.55685    0.009
 6042.00    0.73238   0.56144    0.009
 6043.00    0.75926   0.56711    0.009
 6044.00    0.74514   0.56800    0.009
 6045.00    0.74041   0.56740    0.009
 6046.00    0.75843   0.56849    0.009
 6047.00    0.75586   0.56842    0.009
 6048.00    0.71023   0.56728    0.009
 6049.00    0.66145   0.56894    0.009
 6050.00    0.60696   0.56975    0.009
 6051.00    0.59323   0.56458    0.009
 6052.00    0.64424   0.55728    0.008
 6053.00    0.67655   0.55419    0.008
 6054.00    0.68279   0.55235    0.008
 6055.00    0.66684   0.54836    0.008
 6056.00    0.62365   0.54861    0.008
 6057.00    0.58512   0.55411    0.008
 6058.00    0.55164   0.56055    0.008
 6059.00    0.54957   0.56391    0.008
 6060.00    0.57748   0.56304    0.008
 6061.00    0.60098   0.55834    0.008
 6062.00    0.62075   0.55222    0.008
 6063.00    0.62499   0.54321    0.008
 6064.00    0.61772   0.53211    0.008
 6065.00    0.61349   0.53588    0.008
 6066.00    0.61123   0.55447    0.008
 6067.00    0.61796   0.56678    0.008
 6068.00    0.62981   0.56876    0.009
 6069.00    0.63018   0.56834    0.009
 6070.00    0.62486   0.56861    0.009
 6071.00    0.64301   0.56939    0.009
 6072.00    0.67123   0.57017    0.009
 6073.00    0.70176   0.56979    0.009
 6074.00    0.73313   0.56823    0.009
 6075.00    0.69479   0.56453    0.009
 6076.00    0.63474   0.55743    0.009
 6077.00    0.59447   0.54638    0.009
 6078.00    0.55933   0.54152    0.008
 6079.00    0.56295   0.54665    0.008
 6080.00    0.57478   0.54694    0.008
 6081.00    0.58378   0.54087    0.008
 6082.00    0.59230   0.54112    0.008
 6083.00    0.56702   0.54443    0.008
 6084.00    0.53747   0.54300    0.008
 6085.00    0.54725   0.54267    0.008
 6086.00    0.56047   0.54723    0.008
 6087.00    0.58939   0.55144    0.008
 6088.00    0.61912   0.54748    0.008
 6089.00    0.61089   0.53906    0.008
 6090.00    0.60278   0.53722    0.008
 6091.00    0.65462   0.53947    0.017
 6092.00    0.70338   0.54087   -1.000
 6093.00    0.68673   0.54645   -1.000
 6094.00    0.66540   0.55487   -1.000
 6095.00    0.58749   0.55543   -1.000
 6096.00    0.51384   0.55036   -1.000
 6097.00    0.47551   0.55069   -1.000
 6098.00    0.43673   0.55601   -1.000
 6099.00    0.39518   0.55769   -1.000
 6100.00    0.36542   0.54388   -1.000
 6101.00    0.39308   0.51386   -1.000
 6102.00    0.42830   0.49969    0.087
 6103.00    0.49346   0.52089    0.015
 6104.00    0.54592   0.54531    0.009
 6105.00    0.55656   0.55147    0.009
 6106.00    0.55831   0.54718    0.009
 6107.00    0.53531   0.54459    0.009
 6108.00    0.51828   0.55034    0.009
 6109.00    0.51549   0.55383    0.008
 6110.00    0.52873   0.54811    0.008
 6111.00    0.57495   0.54500    0.008
 6112.00    0.60773   0.55099    0.008
 6113.00    0.61645   0.55732    0.008
 6114.00    0.61900   0.55543    0.008
 6115.00    0.61188   0.54689    0.008
 6116.00    0.59894   0.54563    0.008
 6117.00    0.57801   0.55062    0.008
 6118.00    0.53008   0.54744    0.008
 6119.00    0.44947   0.53608    0.008
 6120.00    0.40887   0.51975    0.008
 6121.00    0.41096   0.50619    0.008
 6122.00    0.44183   0.51553    0.008
 6123.00    0.49980   0.53814    0.008
 6124.00    0.54296   0.54576    0.008
 6125.00    0.57383   0.54215    0.008
 6126.00    0.57947   0.53740    0.008
 6127.00    0.56669   0.53366    0.008
 6128.00    0.55112   0.53521    0.008
 6129.00    0.53376   0.54246    0.008
 6130.00    0.51988   0.54841    0.008
 6131.00    0.50795   0.55018    0.008
 6132.00    0.49671   0.55062    0.008
 6133.00    0.48582   0.54453    0.008
 6134.00    0.52482   0.52556    0.008
 6135.00    0.58488   0.49527    0.009
 6136.00    0.62151   0.47398    0.009
 6137.00    0.64968   0.48949    0.009
 6138.00    0.64992   0.52589    0.009
 6139.00    0.64163   0.54192    0.009
 6140.00    0.60410   0.52946    0.009
 6141.00    0.55914   0.51939    0.008
 6142.00    0.54616   0.53202    0.008
 6143.00    0.53977   0.54823    0.008
 6144.00    0.54616   0.55173    0.008
 6145.00    0.55463   0.54845    0.008
 6146.00    0.56044   0.54226    0.008
 6147.00    0.56594   0.53282    0.008
 6148.00    0.56130   0.52525    0.008
 6149.00    0.55582   0.52480    0.008
 6150.00    0.55581   0.53085    0.008
 6151.00    0.55606   0.53802    0.008
 6152.00    0.51947   0.54056    0.008
 6153.00    0.48302   0.53368    0.008
 6154.00    0.48564   0.52630    0.008
 6155.00    0.48628   0.52769    0.008
 6156.00    0.44788   0.52934    0.008
 6157.00    0.41383   0.52754    0.008
 6158.00    0.42991   0.52489    0.009
 6159.00    0.44974   0.51053    0.009
 6160.00    0.49951   0.47926    0.009
 6161.00    0.54376   0.45639    0.008
 6162.00    0.55477   0.46259    0.008
 6163.00    0.55929   0.48576    0.009
 6164.00    0.53304   0.50364    0.008
 6165.00    0.50601   0.51096    0.008
 6166.00    0.47599   0.51592    0.008
 6167.00    0.45918   0.51004    0.008
 6168.00    0.48503   0.48811    0.008
 6169.00    0.51479   0.47912    0.008
 6170.00    0.55523   0.49786    0.008
 6171.00    0.58517   0.51671    0.008
 6172.00    0.59050   0.51840    0.008
 6173.00    0.58160   0.51658    0.008
 6174.00    0.54389   0.51719    0.008
 6175.00    0.49936   0.51522    0.008
 6176.00    0.44282   0.51473    0.008
 6177.00    0.42755   0.52076    0.008
 6178.00    0.47592   0.52437    0.008
 6179.00    0.50460   0.52200    0.008
 6180.00    0.50664   0.52438    0.008
 6181.00    0.50865   0.52957    0.008
 6182.00    0.51065   0.52987    0.008
 6183.00    0.53634   0.52820    0.008
 6184.00    0.58695   0.52530    0.008
 6185.00    0.59271   0.51695    0.008
 6186.00    0.55688   0.50946    0.008
 6187.00    0.54517   0.50830    0.008
 6188.00    0.55318   0.50895    0.009
 6189.00    0.56454   0.50024    0.009
 6190.00    0.57830   0.48223    0.008
 6191.00    0.59086   0.48143    0.008
 6192.00    0.60265   0.50253    0.008
 6193.00    0.58457   0.51741    0.008
 6194.00    0.54998   0.52075    0.008
 6195.00    0.41961   0.52386    0.009
 6196.00    0.24325   0.52684   -2.000
 6197.00   -0.20346   0.52241   -2.000
 6198.00   -0.76223   0.50950   -2.000
 6199.00   -0.96121   0.50166   -2.000
 6200.00   -1.03266   0.50892   -2.000
 6201.00   -0.33240   0.52134   -2.000
 6202.00    0.59881   0.52668   -2.000
 6203.00    1.32400   0.52546   -2.000
 6204.00    1.99800   0.52409   -2.000
 6205.00    1.95997   0.52554   -2.000
 6206.00    1.77857   0.52642   -2.000
 6207.00    1.34730   0.52591   -2.000
 6208.00    0.87663   0.52463    0.009
 6209.00    0.72482   0.52163    0.009
 6210.00    0.61037   0.51798    0.008
 6211.00    0.61518   0.51164    0.008
 6212.00    0.62945   0.49792    0.008
 6213.00    0.59835   0.48566    0.008
 6214.00    0.56525   0.48290    0.008
 6215.00    0.57881   0.48879    0.008
 6216.00    0.59284   0.49968    0.008
 6217.00    0.60469   0.50341    0.008
 6218.00    0.61608   0.49483    0.008
 6219.00    0.61899   0.48822    0.008
 6220.00    0.61893   0.49289    0.008
 6221.00    0.58608   0.50191    0.008
 6222.00    0.56262   0.50566    0.008
 6223.00    0.61168   0.50324    0.008
 6224.00    0.65698   0.50326    0.008
 6225.00    0.68034   0.50614    0.008
 6226.00    0.68348   0.50722    0.008
 6227.00    0.59289   0.50553    0.008
 6228.00    0.50298   0.49421    0.008
 6229.00    0.41570   0.47489    0.008
 6230.00    0.36415   0.46700    0.008
 6231.00    0.42572   0.47671    0.008
 6232.00    0.47164   0.49051    0.008
 6233.00    0.47556   0.50581    0.008
 6234.00    0.48290   0.51689    0.008
 6235.00    0.49809   0.51556    0.008
 6236.00    0.51386   0.50603    0.008
 6237.00    0.53076   0.49556    0.008
 6238.00    0.53032   0.48762    0.008
 6239.00    0.49980   0.48451    0.008
 6240.00    0.49098   0.48979    0.008
 6241.00    0.51517   0.49141    0.008
 6242.00    0.53511   0.48253    0.008
 6243.00    0.54938   0.47864    0.008
 6244.00    0.54530   0.47981    0.008
 6245.00    0.51964   0.47919    0.008
 6246.00    0.50634   0.48549    0.008
 6247.00    0.50584   0.49826    0.008
 6248.00    0.53283   0.50628    0.008
 6249.00    0.58495   0.50686    0.008
 6250.00    0.59187   0.49868    0.008
 6251.00    0.56236   0.48293    0.008
 6252.00    0.52180   0.47355    0.008
 6253.00    0.47341   0.47528    0.008
 6254.00    0.45968   0.47941    0.008
 6255.00    0.46751   0.47779    0.008
 6256.00    0.50594   0.47133    0.008
 6257.00    0.56102   0.46624    0.008
 6258.00    0.52540   0.47177    0.008
 6259.00    0.44691   0.48572    0.009
 6260.00    0.24097   0.49430    0.009
 6261.00   -0.01691   0.50160    0.000
 6262.00   -0.09298   0.50986    0.000
 6263.00   -0.10578   0.50708    0.000
 6264.00    0.17979   0.49669    0.010
 6265.00    0.55287   0.49633    0.010
 6266.00    0.78990   0.50441    0.010
 6267.00    0.99389   0.50565    0.009
 6268.00    0.95244   0.50058    0.009
 6269.00    0.86280   0.49792    0.008
 6270.00    0.72938   0.50002    0.008
 6271.00    0.58927   0.50500    0.008
 6272.00    0.55238   0.50847    0.008
 6273.00    0.52714   0.50757    0.008
 6274.00    0.53327   0.50666    0.008
 6275.00    0.54177   0.50671    0.008
 6276.00    0.53677   0.50541    0.008
 6277.00    0.53123   0.50292    0.008
 6278.00    0.47337   0.49749    0.008
 6279.00    0.41663   0.48950    0.008
 6280.00    0.42082   0.48886    0.000
 6281.00    0.42616   0.49577    0.000
 6282.00    0.45103   0.50315    0.000
 6283.00    0.47746   0.50769    0.000
 6284.00    0.52022   0.50673    0.000
 6285.00    0.55602   0.50692    0.000
 6286.00    0.53988   0.51194    0.000
 6287.00    0.52173   0.51676    0.000
 6288.00    0.49222   0.51736    0.000
 6289.00    0.47395   0.51143    0.000
 6290.00    0.50664   0.50440    0.000
 6291.00    0.53689   0.50141    0.000
 6292.00    0.55810   0.50192    0.000
 6293.00    0.56787   0.50512    0.000
 6294.00    0.54212   0.50468    0.000
 6295.00    0.52674   0.49570    0.000
 6296.00    0.53871   0.48742    0.000
 6297.00    0.54709   0.48822    0.000
 6298.00    0.54733   0.49388    0.000
 6299.00    0.55584   0.49341    0.000
 6300.00    0.58055   0.48396    0.000
 6301.00    0.59507   0.47897    0.000
 6302.00    0.59218   0.48708    0.000
 6303.00    0.58886   0.49740    0.000
 6304.00    0.58490   0.49984    0.000
 6305.00    0.57302   0.50168    0.000
 6306.00    0.55072   0.50912    0.000
 6307.00    0.51206   0.51425    0.000
 6308.00    0.45443   0.51146    0.000
 6309.00    0.41887   0.50384    0.000
 6310.00    0.40586   0.49815    0.000
 6311.00    0.41523   0.49852    0.000
 6312.00    0.44478   0.50089    0.000
 6313.00    0.47041   0.49473    0.000
 6314.00    0.49294   0.48547    0.000
 6315.00    0.50778   0.48587    0.000
 6316.00    0.51724   0.48508    0.000
 6317.00    0.51167   0.47594    0.000
 6318.00    0.49686   0.47698    0.000
 6319.00    0.50598   0.48978    0.000
 6320.00    0.52789   0.49724    0.000
 6321.00    0.50844   0.49658    0.008
 6322.00    0.46977   0.49847    0.008
 6323.00    0.45439   0.50536    0.008
 6324.00    0.44836   0.50948    0.008
 6325.00    0.43824   0.50887    0.008
 6326.00    0.42672   0.50625    0.008
 6327.00    0.42957   0.50708    0.008
 6328.00    0.43655   0.50860    0.008
 6329.00    0.45139   0.50483    0.008
 6330.00    0.46808   0.50345    0.008
 6331.00    0.45999   0.50849    0.008
 6332.00    0.44715   0.51198    0.008
 6333.00    0.46078   0.50419    0.008
 6334.00    0.47834   0.48595    0.008
 6335.00    0.48496   0.47545    0.008
 6336.00    0.49040   0.48156    0.008
 6337.00    0.49936   0.49138    0.008
 6338.00    0.50856   0.49591    0.008
 6339.00    0.55973   0.50177    0.008
 6340.00    0.61244   0.50629    0.008
 6341.00    0.61707   0.50149    0.008
 6342.00    0.61997   0.49066    0.008
 6343.00    0.56797   0.48368    0.008
 6344.00    0.51854   0.48670    0.008
 6345.00    0.50996   0.49129    0.008
 6346.00    0.50193   0.49276    0.008
 6347.00    0.49938   0.49785    0.008
 6348.00    0.49987   0.50436    0.008
 6349.00    0.52227   0.50647    0.008
 6350.00    0.53771   0.50692    0.008
 6351.00    0.51470   0.50670    0.008
 6352.00    0.49157   0.50227    0.008
 6353.00    0.46791   0.49323    0.008
 6354.00    0.45011   0.48731    0.008
 6355.00    0.45363   0.49036    0.008
 6356.00    0.46183   0.49111    0.008
 6357.00    0.48429   0.48160    0.008
 6358.00    0.49872   0.47318    0.008
 6359.00    0.49239   0.47243    0.008
 6360.00    0.48378   0.47051    0.008
 6361.00    0.47006   0.46626    0.008
 6362.00    0.46929   0.46775    0.008
 6363.00    0.49349   0.47553    0.008
 6364.00    0.51283   0.48380    0.008
 6365.00    0.52400   0.48991    0.008
 6366.00    0.52656   0.49584    0.008
 6367.00    0.51642   0.50101    0.008
 6368.00    0.52395   0.50011    0.008
 6369.00    0.55439   0.49480    0.008
 6370.00    0.58215   0.49379    0.008
 6371.00    0.60686   0.50077    0.008
 6372.00    0.62762   0.50814    0.008
 6373.00    0.64443   0.50921    0.008
 6374.00    0.64579   0.50762    0.008
 6375.00    0.63342   0.50776    0.008
 6376.00    0.63202   0.50620    0.008
 6377.00    0.63921   0.49982    0.008
 6378.00    0.64121   0.49488    0.008
 6379.00    0.63965   0.49442    0.008
 6380.00    0.60536   0.49587    0.008
 6381.00    0.55130   0.49949    0.008
 6382.00    0.52142   0.50088    0.008
 6383.00    0.50430   0.49733    0.008
 6384.00    0.49324   0.49628    0.008
 6385.00    0.48497   0.50083    0.008
 6386.00    0.47732   0.50471    0.008
 6387.00    0.46993   0.50521    0.008
 6388.00    0.47482   0.50545    0.008
 6389.00    0.48382   0.50566    0.008
 6390.00    0.48817   0.50179    0.008
 6391.00    0.49120   0.48912    0.008
 6392.00    0.46256   0.47377    0.008
 6393.00    0.42658   0.47408    0.008
 6394.00    0.43846   0.49026    0.008
 6395.00    0.45926   0.50387    0.008
 6396.00    0.48641   0.50790    0.008
 6397.00    0.51447   0.50124    0.008
 6398.00    0.49347   0.48156    0.008
 6399.00    0.46736   0.46552    0.008
 6400.00    0.46626   0.47667    0.008
 6401.00    0.46683   0.49885    0.008
 6402.00    0.52402   0.50827    0.008
 6403.00    0.58305   0.50871    0.008
 6404.00    0.59990   0.50587    0.008
 6405.00    0.61475   0.49889    0.008
 6406.00    0.56742   0.48792    0.008
 6407.00    0.52045   0.48272    0.008
 6408.00    0.47887   0.49115    0.008
 6409.00    0.44126   0.49619    0.008
 6410.00    0.44205   0.48743    0.008
 6411.00    0.44180   0.48332    0.008
 6412.00    0.43429   0.48908    0.008
 6413.00    0.42438   0.49224    0.008
 6414.00    0.40151   0.49296    0.008
 6415.00    0.38524   0.49504    0.008
 6416.00    0.39754   0.49520    0.008
 6417.00    0.40405   0.49248    0.008
 6418.00    0.38995   0.48506    0.008
 6419.00    0.39126   0.47390    0.008
 6420.00    0.43864   0.47102    0.008
 6421.00    0.47404   0.48371    0.008
 6422.00    0.47896   0.50008    0.008
 6423.00    0.48061   0.50450    0.008
 6424.00    0.47511   0.50218    0.008
 6425.00    0.46330   0.50366    0.008
 6426.00    0.43950   0.50756    0.008
 6427.00    0.42179   0.50753    0.008
 6428.00    0.41418   0.49803    0.008
 6429.00    0.42573   0.48091    0.008
 6430.00    0.46516   0.47085    0.008
 6431.00    0.48033   0.47756    0.008
 6432.00    0.46451   0.48967    0.008
 6433.00    0.49144   0.49792    0.008
 6434.00    0.56656   0.50221    0.008
 6435.00    0.59581   0.50281    0.008
 6436.00    0.57947   0.49631    0.008
 6437.00    0.55301   0.47999    0.008
 6438.00    0.51766   0.46980    0.008
 6439.00    0.49720   0.48198    0.008
 6440.00    0.48824   0.50092    0.008
 6441.00    0.48553   0.50827    0.008
 6442.00    0.48706   0.50804    0.008
 6443.00    0.51674   0.50754    0.008
 6444.00    0.56318   0.50897    0.008
 6445.00    0.58228   0.51049    0.008
 6446.00    0.58720   0.50724    0.008
 6447.00    0.54004   0.49222    0.008
 6448.00    0.46946   0.46648    0.008
 6449.00    0.43191   0.45320    0.008
 6450.00    0.40714   0.46696    0.008
 6451.00    0.43811   0.48739    0.008
 6452.00    0.48743   0.49800    0.008
 6453.00    0.53847   0.49605    0.008
 6454.00    0.58999   0.48325    0.008
 6455.00    0.56912   0.47385    0.008
 6456.00    0.53183   0.48096    0.008
 6457.00    0.49403   0.49643    0.008
 6458.00    0.45614   0.50636    0.008
 6459.00    0.46093   0.50623    0.008
 6460.00    0.47167   0.49251    0.008
 6461.00    0.47222   0.46927    0.008
 6462.00    0.47177   0.46187    0.008
 6463.00    0.42985   0.47787    0.008
 6464.00    0.38532   0.49358    0.008
 6465.00    0.41151   0.49985    0.008
 6466.00    0.43982   0.50195    0.008
 6467.00    0.49006   0.50039    0.008
 6468.00    0.53779   0.49492    0.008
 6469.00    0.51593   0.48949    0.008
 6470.00    0.49511   0.48479    0.008
 6471.00    0.48899   0.48552    0.008
 6472.00    0.48370   0.49228    0.008
 6473.00    0.48606   0.49277    0.008
 6474.00    0.48937   0.48791    0.008
 6475.00    0.49912   0.48927    0.008
 6476.00    0.50446   0.49501    0.008
 6477.00    0.48673   0.49620    0.008
 6478.00    0.46094   0.49450    0.008
 6479.00    0.40113   0.49098    0.008
 6480.00    0.35388   0.48046    0.008
 6481.00    0.35040   0.46890    0.008
 6482.00    0.36404   0.46895    0.008
 6483.00    0.42792   0.47815    0.008
 6484.00    0.48702   0.48559    0.008
 6485.00    0.53420   0.48870    0.008
 6486.00    0.56491   0.49047    0.008
 6487.00    0.56015   0.49100    0.008
 6488.00    0.53292   0.48755    0.008
 6489.00    0.46365   0.48067    0.008
 6490.00    0.42841   0.47467    0.008
 6491.00    0.44878   0.46768    0.008
 6492.00    0.45322   0.45018    0.008
 6493.00    0.43484   0.42474    0.008
 6494.00    0.42163   0.41227    0.008
 6495.00    0.41493   0.41810    0.008
 6496.00    0.42490   0.43156    0.008
 6497.00    0.45338   0.44514    0.008
 6498.00    0.47561   0.45240    0.008
 6499.00    0.49172   0.45996    0.008
 6500.00    0.50966   0.47000    0.008
 6501.00    0.52916   0.47683    0.008
 6502.00    0.53248   0.48049    0.008
 6503.00    0.52349   0.48281    0.008
 6504.00    0.53459   0.48529    0.008
 6505.00    0.55913   0.48701    0.008
 6506.00    0.57889   0.48502    0.008
 6507.00    0.59586   0.48041    0.008
 6508.00    0.57924   0.47933    0.008
 6509.00    0.54548   0.48299    0.008
 6510.00    0.51788   0.48597    0.008
 6511.00    0.49301   0.48563    0.008
 6512.00    0.50208   0.48462    0.008
 6513.00    0.52403   0.48130    0.008
 6514.00    0.55464   0.47387    0.008
 6515.00    0.58803   0.46756    0.008
 6516.00    0.58706   0.46575    0.008
 6517.00    0.57680   0.46510    0.008
 6518.00    0.54066   0.46793    0.008
 6519.00    0.49878   0.47678    0.008
 6520.00    0.49207   0.48321    0.008
 6521.00    0.49155   0.48363    0.008
 6522.00    0.52115   0.48267    0.008
 6523.00    0.55481   0.48398    0.008
 6524.00    0.55774   0.48356    0.008
 6525.00    0.55774   0.47678    0.008
 6526.00    0.53149   0.47085    0.008
 6527.00    0.50370   0.47327    0.008
 6528.00    0.47228   0.47937    0.000
 6529.00    0.44123   0.48153    0.000
 6530.00    0.47800   0.47758    0.000
 6531.00    0.51347   0.47112    0.000
 6532.00    0.51654   0.46843    0.000
 6533.00    0.51684   0.47230    0.000
 6534.00    0.48013   0.47870    0.000
 6535.00    0.44560   0.48066    0.000
 6536.00    0.43055   0.47746    0.000
 6537.00    0.41883   0.47661    0.000
 6538.00    0.42898   0.48069    0.000
 6539.00    0.44245   0.48331    0.000
 6540.00    0.47293   0.48011    0.000
 6541.00    0.50070   0.47376    0.000
 6542.00    0.51731   0.46862    0.000
 6543.00    0.52564   0.46452    0.000
 6544.00    0.50573   0.45668    0.000
 6545.00    0.49775   0.44755    0.000
 6546.00    0.52417   0.44865    0.000
 6547.00    0.54766   0.45738    0.000
 6548.00    0.56395   0.46192    0.000
 6549.00    0.57848   0.45913    0.000
 6550.00    0.58928   0.45312    0.000
 6551.00    0.58798   0.44903    0.000
 6552.00    0.56441   0.44493    0.000
 6553.00    0.53617   0.43691    0.000
 6554.00    0.50041   0.42850    0.000
 6555.00    0.47619   0.42570    0.000
 6556.00    0.46826   0.42758    0.000
 6557.00    0.46093   0.42651    0.000
 6558.00    0.45433   0.41893    0.000
 6559.00    0.45991   0.40164    0.000
 6560.00    0.47881   0.36127    0.000
 6561.00    0.49241   0.30144    0.000
 6562.00    0.50089   0.27890    0.000
 6563.00    0.48406   0.32544    0.000
 6564.00    0.44566   0.38536    0.000
 6565.00    0.41770   0.41655    0.000
 6566.00    0.39758   0.42909    0.000
 6567.00    0.44082   0.43135    0.000
 6568.00    0.52584   0.42833    0.000
 6569.00    0.56821   0.43040    0.000
 6570.00    0.58597   0.43564    0.000
 6571.00    0.57567   0.43514    0.000
 6572.00    0.55125   0.43073    0.000
 6573.00    0.52817   0.42874    0.000
 6574.00    0.50567   0.43289    0.000
 6575.00    0.46850   0.44460    0.000
 6576.00    0.42585   0.45577    0.000
 6577.00    0.45329   0.46046    0.000
 6578.00    0.50291   0.45894    0.000
 6579.00    0.52578   0.45357    0.000
 6580.00    0.54157   0.45010    0.000
 6581.00    0.52088   0.45340    0.000
 6582.00    0.49231   0.45886    0.000
 6583.00    0.48559   0.46087    0.000
 6584.00    0.48262   0.45920    0.000
 6585.00    0.52152   0.45653    0.000
 6586.00    0.56586   0.45893    0.000
 6587.00    0.50698   0.46481    0.000
 6588.00    0.43867   0.46837    0.000
 6589.00    0.39104   0.46812    0.000
 6590.00    0.34455   0.46005    0.000
 6591.00    0.39920   0.44198    0.000
 6592.00    0.45550   0.42762    0.000
 6593.00    0.46310   0.43314    0.000
 6594.00    0.47169   0.44962    0.000
 6595.00    0.50325   0.45834    0.000
 6596.00    0.53197   0.45737    0.000
 6597.00    0.52486   0.45405    0.000
 6598.00    0.51489   0.45576    0.000
 6599.00    0.48048   0.46303    0.000
 6600.00    0.45470   0.46907    0.000
 6601.00    0.48386   0.46944    0.000
 6602.00    0.50423   0.46565    0.000
 6603.00    0.48079   0.45982    0.000
 6604.00    0.46376   0.45505    0.000
 6605.00    0.47261   0.45360    0.000
 6606.00    0.46754   0.45185    0.000
 6607.00    0.41588   0.44677    0.000
 6608.00    0.38657   0.44352    0.000
 6609.00    0.42041   0.45074    0.008
 6610.00    0.44851   0.46236    0.008
 6611.00    0.46268   0.46574    0.008
 6612.00    0.47987   0.46180    0.008
 6613.00    0.50331   0.46061    0.008
 6614.00    0.51841   0.46553    0.008
 6615.00    0.51838   0.46828    0.008
 6616.00    0.50438   0.46625    0.008
 6617.00    0.46820   0.46510    0.008
 6618.00    0.44096   0.46695    0.008
 6619.00    0.42616   0.46922    0.008
 6620.00    0.43784   0.46966    0.008
 6621.00    0.48198   0.46688    0.008
 6622.00    0.50938   0.46040    0.008
 6623.00    0.51869   0.45255    0.008
 6624.00    0.49288   0.45014    0.008
 6625.00    0.43361   0.45517    0.008
 6626.00    0.42741   0.45919    0.008
 6627.00    0.46579   0.45938    0.008
 6628.00    0.48262   0.45854    0.008
 6629.00    0.48352   0.45701    0.008
 6630.00    0.48982   0.45425    0.008
 6631.00    0.49962   0.44810    0.008
 6632.00    0.49812   0.43966    0.008
 6633.00    0.49020   0.43671    0.008
 6634.00    0.47667   0.44395    0.008
 6635.00    0.46038   0.45394    0.008
 6636.00    0.45596   0.45921    0.008
 6637.00    0.45663   0.45900    0.008
 6638.00    0.47770   0.45587    0.008
 6639.00    0.50626   0.45510    0.008
 6640.00    0.52959   0.45802    0.008
 6641.00    0.55129   0.45562    0.008
 6642.00    0.57094   0.44659    0.008
 6643.00    0.59006   0.44431    0.008
 6644.00    0.56378   0.45128    0.008
 6645.00    0.52792   0.45598    0.008
 6646.00    0.49450   0.45512    0.008
 6647.00    0.46150   0.45486    0.008
 6648.00    0.43202   0.45666    0.008
 6649.00    0.40299   0.45665    0.008
 6650.00    0.42582   0.45417    0.008
 6651.00    0.45316   0.45238    0.008
 6652.00    0.42995   0.45240    0.008
 6653.00    0.40415   0.45314    0.008
 6654.00    0.47455   0.45382    0.008
 6655.00    0.54527   0.45294    0.009
 6656.00    0.51893   0.45212    0.008
 6657.00    0.49369   0.45300    0.008
 6658.00    0.49143   0.45287    0.008
 6659.00    0.48582   0.45041    0.008
 6660.00    0.43980   0.44696    0.008
 6661.00    0.40102   0.44098    0.008
 6662.00    0.42198   0.43376    0.008
 6663.00    0.43711   0.43450    0.008
 6664.00    0.41627   0.44120    0.008
 6665.00    0.40259   0.44356    0.008
 6666.00    0.42369   0.44294    0.008
 6667.00    0.44614   0.44463    0.008
 6668.00    0.47392   0.44920    0.008
 6669.00    0.48791   0.45348    0.008
 6670.00    0.45659   0.45513    0.008
 6671.00    0.43238   0.45495    0.008
 6672.00    0.42791   0.45486    0.008
 6673.00    0.43557   0.45523    0.008
 6674.00    0.47205   0.45492    0.008
 6675.00    0.49940   0.44823    0.008
 6676.00    0.50801   0.43282    0.008
 6677.00    0.51627   0.42214    0.009
 6678.00    0.52392   0.42873    0.009
 6679.00    0.53372   0.44044    0.009
 6680.00    0.54685   0.44417    0.009
 6681.00    0.55997   0.44503    0.009
 6682.00    0.57307   0.44726    0.009
 6683.00    0.54872   0.44957    0.009
 6684.00    0.47916   0.45028    0.009
 6685.00    0.44398   0.44949    0.009
 6686.00    0.44539   0.44790    0.008
 6687.00    0.44094   0.44689    0.008
 6688.00    0.43098   0.44788    0.008
 6689.00    0.44270   0.44919    0.009
 6690.00    0.47239   0.44929    0.009
 6691.00    0.47656   0.44884    0.009
 6692.00    0.46213   0.44866    0.009
 6693.00    0.47937   0.44720    0.009
 6694.00    0.51689   0.44153    0.009
 6695.00    0.52756   0.43452    0.009
 6696.00    0.52321   0.43339    0.000
 6697.00    0.51345   0.43732    0.000
 6698.00    0.50107   0.44239    0.000
 6699.00    0.50034   0.44734    0.000
 6700.00    0.50452   0.44902    0.000
 6701.00    0.50928   0.44644    0.000
 6702.00    0.51425   0.44130    0.000
 6703.00    0.53786   0.43743    0.000
 6704.00    0.56715   0.43857    0.000
 6705.00    0.51782   0.44254    0.000
 6706.00    0.44859   0.44465    0.000
 6707.00    0.40359   0.44480    0.000
 6708.00    0.36358   0.44388    0.000
 6709.00    0.46064   0.44183    0.000
 6710.00    0.57990   0.44108    0.000
 6711.00    0.59003   0.44031    0.000
 6712.00    0.58696   0.43685    0.000
 6713.00    0.59364   0.43268    0.000
 6714.00    0.60113   0.42818    0.000
 6715.00    0.54638   0.42183    0.000
 6716.00    0.48867   0.41622    0.000
 6717.00    0.44280   0.41914    0.000
 6718.00    0.39728   0.42990    0.000
 6719.00    0.36265   0.43670    0.000
 6720.00    0.33032   0.43630    0.000
 6721.00    0.34270   0.43567    0.000
 6722.00    0.36517   0.43872    0.000
 6723.00    0.50333   0.44043    0.000
 6724.00    0.62763   0.43724    0.000
 6725.00    0.64148   0.43366    0.000
 6726.00    0.65460   0.43464    0.000
 6727.00    0.66338   0.43797    0.000
 6728.00    0.66012   0.44009    0.000
 6729.00    0.59986   0.44162    0.000
 6730.00    0.56155   0.44189    0.000
 6731.00    0.60801   0.44020    0.000
 6732.00    0.61862   0.43805    0.000
 6733.00    0.51384   0.43811    0.000
 6734.00    0.44062   0.43991    0.000
 6735.00    0.45348   0.44063    0.000
 6736.00    0.44864   0.43736    0.000
 6737.00    0.40242   0.43200    0.000
 6738.00    0.39741   0.42996    0.000
 6739.00    0.47562   0.43245    0.000
 6740.00    0.52400   0.43454    0.000
 6741.00    0.51988   0.43222    0.000
 6742.00    0.49228   0.42962    0.000
 6743.00    0.42851   0.43124    0.000
 6744.00    0.39919   0.43349    0.000
 6745.00    0.41643   0.43251    0.000
 6746.00    0.40450   0.42998    0.000
 6747.00    0.35782   0.42713    0.000
 6748.00    0.38009   0.42460    0.000
 6749.00    0.47473   0.42431    0.000
 6750.00    0.48721   0.42702    0.000
 6751.00    0.42362   0.42759    0.000
 6752.00    0.35297   0.42681    0.000
 6753.00    0.27657   0.42990    0.011
 6754.00    0.21368   0.43329    0.011
 6755.00    0.16049   0.43482    0.011
 6756.00    0.27119   0.43692    0.012
 6757.00    0.48522   0.43959    0.012
 6758.00    0.52041   0.44162    0.012
 6759.00    0.45703   0.44210    0.011
 6760.00    0.47111   0.44086    0.011
 6761.00    0.52231   0.43925    0.011
 6762.00    0.61616   0.43962    0.011
 6763.00    0.72764   0.44005    0.011
 6764.00    0.71901   0.43740    0.011
 6765.00    0.66791   0.43144    0.011
 6766.00    0.56569   0.42607    0.011
 6767.00    0.44820   0.42669    0.011
 6768.00    0.46415   0.43099    0.011
 6769.00    0.51316   0.43132    0.011
 6770.00    0.50819   0.42853    0.011
 6771.00    0.49239   0.42958    0.011
 6772.00    0.46640   0.43487    0.010
 6773.00    0.43882   0.43993    0.010
 6774.00    0.40846   0.44242    0.010
 6775.00    0.37779   0.44269    0.010
 6776.00    0.41574   0.44175    0.010
 6777.00    0.45911   0.44195    0.010
 6778.00    0.50374   0.44366    0.010
 6779.00    0.54843   0.44288    0.010
 6780.00    0.58652   0.43839    0.010
 6781.00    0.62602   0.43110    0.011
 6782.00    0.73466   0.42357    0.011
 6783.00    0.83634   0.41947    0.011
 6784.00    0.81222   0.42012    0.011
 6785.00    0.78486   0.42330    0.011
 6786.00    0.72211   0.42801    0.011
 6787.00    0.65153   0.43258    0.011
 6788.00    0.52073   0.43347    0.011
 6789.00    0.40710   0.43289    0.010
 6790.00    0.39357   0.43338    0.010
 6791.00    0.39790   0.43224    0.010
 6792.00    0.48485   0.42833    0.010
 6793.00    0.55822   0.42621    0.010
 6794.00    0.58026   0.42711    0.010
 6795.00    0.59456   0.42826    0.010
 6796.00    0.58440   0.42975    0.010
 6797.00    0.56715   0.43069    0.010
 6798.00    0.53095   0.43124    0.010
 6799.00    0.51698   0.43256    0.010
 6800.00    0.55410   0.43420    0.010
 6801.00    0.55697   0.43458    0.010
 6802.00    0.49171   0.43254    0.010
 6803.00    0.45990   0.43091    0.010
 6804.00    0.48606   0.43176    0.010
 6805.00    0.53197   0.43140    0.010
 6806.00    0.60782   0.43040    0.010
 6807.00    0.62961   0.43137    0.010
 6808.00    0.57934   0.43056    0.009
 6809.00    0.54108   0.42873    0.010
 6810.00    0.51694   0.43019    0.010
 6811.00    0.47559   0.43201    0.010
 6812.00    0.41643   0.43050    0.010
 6813.00    0.42689   0.42672    0.010
 6814.00    0.50090   0.42517    0.010
 6815.00    0.52208   0.42920    0.010
 6816.00    0.50075   0.43395    0.010
 6817.00    0.50910   0.43390    0.010
 6818.00    0.53845   0.43014    0.010
 6819.00    0.53419   0.42714    0.010
 6820.00    0.50906   0.42885    0.010
 6821.00    0.51318   0.43333    0.010
 6822.00    0.53317   0.43634    0.010
 6823.00    0.49782   0.43698    0.010
 6824.00    0.43638   0.43641    0.009
 6825.00    0.37802   0.43472    0.009
 6826.00    0.32092   0.42975    0.009
 6827.00    0.28706   0.42435    0.009
 6828.00    0.26128   0.42488    0.009
 6829.00    0.30605   0.43031    0.010
 6830.00    0.37147   0.43372    0.010
 6831.00    0.38994   0.43270    0.010
 6832.00    0.39705   0.43143    0.010
 6833.00    0.44471   0.43310    0.010
 6834.00    0.50031   0.43505    0.010
 6835.00    0.51673   0.43372    0.010
 6836.00    0.52718   0.42994    0.010
 6837.00    0.41261   0.42536    0.011
 6838.00    0.28401   0.41985    0.011
 6839.00    0.29742   0.41415    0.011
 6840.00    0.32145   0.40948    0.011
 6841.00    0.40725   0.40900    0.011
 6842.00    0.49551   0.41443    0.010
 6843.00    0.45380   0.42262    0.010
 6844.00    0.41437   0.42879    0.010
 6845.00    0.50130   0.43059    0.010
 6846.00    0.58146   0.43025    0.010
 6847.00    0.54720   0.42979    0.010
 6848.00    0.51537   0.42881    0.009
 6849.00    0.50904   0.42794    0.010
 6850.00    0.50968   0.42831    0.010
 6851.00    0.56200   0.42922    0.010
 6852.00    0.60162   0.42775    0.010
 6853.00    0.56928   0.42070    0.009
 6854.00    0.54016   0.41342    0.009
 6855.00    0.52563   0.41380    0.010
 6856.00    0.51915   0.41776    0.010
 6857.00    0.54249   0.42004    0.010
 6858.00    0.55271   0.42138    0.010
 6859.00    0.52230   0.41918    0.010
 6860.00    0.48844   0.41442    0.010
 6861.00    0.44550   0.41536    0.010
 6862.00    0.40106   0.42319    0.010
 6863.00    0.35323   0.42967    0.010
 6864.00    0.33471   0.42934    0.010
 6865.00    0.37358   0.42408    0.010
 6866.00    0.39631   0.41735    0.010
 6867.00    0.39152   0.41399    0.010
 6868.00    0.40635   0.41741    0.010
 6869.00    0.45053   0.42186    0.010
 6870.00    0.45889   0.42093    0.010
 6871.00    0.42020   0.41765    0.010
 6872.00    0.41222   0.41809    0.009
 6873.00    0.43980   0.42042    0.009
 6874.00    0.42638   0.42087    0.009
 6875.00    0.37113   0.42201    0.009
 6876.00    0.38499   0.42555    0.009
 6877.00    0.46107   0.42855    0.009
 6878.00    0.48976   0.42840    0.009
 6879.00    0.48088   0.42562    0.010
 6880.00    0.47962   0.42025    0.010
 6881.00    0.48368   0.41498    0.010
 6882.00    0.47840   0.41513    0.010
 6883.00    0.46742   0.42047    0.010
 6884.00    0.44607   0.42340    0.010
 6885.00    0.41918   0.42299    0.010
 6886.00    0.43576   0.42532    0.010
 6887.00    0.47250   0.42883    0.010
 6888.00    0.44599   0.43068    0.010
 6889.00    0.39421   0.43202    0.010
 6890.00    0.37511   0.43238    0.010
 6891.00    0.36716   0.43097    0.010
 6892.00    0.34997   0.42955    0.009
 6893.00    0.33013   0.42845    0.009
 6894.00    0.38206   0.42643    0.009
 6895.00    0.45098   0.42593    0.009
 6896.00    0.46156   0.42823    0.010
 6897.00    0.46101   0.43017    0.010
 6898.00    0.42603   0.42898    0.010
 6899.00    0.38596   0.42697    0.010
 6900.00    0.35398   0.42809    0.010
 6901.00    0.32287   0.43060    0.010
 6902.00    0.28301   0.43097    0.010
 6903.00    0.24254   0.42947    0.010
 6904.00    0.30919   0.42865    0.010
 6905.00    0.37969   0.42997    0.010
 6906.00    0.34029   0.43237    0.010
 6907.00    0.30214   0.43349    0.010
 6908.00    0.31970   0.43350    0.010
 6909.00    0.33836   0.43229    0.010
 6910.00    0.37443   0.42963    0.010
 6911.00    0.40449   0.42691    0.010
 6912.00    0.37445   0.42312    0.010
 6913.00    0.35439   0.41938    0.009
 6914.00    0.40616   0.41960    0.010
 6915.00    0.45128   0.42124    0.010
 6916.00    0.45972   0.42172    0.010
 6917.00    0.45568   0.42404    0.010
 6918.00    0.39665   0.42754    0.010
 6919.00    0.34559   0.43027    0.010
 6920.00    0.32346   0.43205    0.010
 6921.00    0.32219   0.43120    0.010
 6922.00    0.38428   0.42608    0.010
 6923.00    0.43258   0.41842    0.010
 6924.00    0.44527   0.41416    0.010
 6925.00    0.44950   0.41638    0.010
 6926.00    0.43493   0.42238    0.010
 6927.00    0.41176   0.42644    0.010
 6928.00    0.37199   0.42718    0.010
 6929.00    0.39266   0.42695    0.010
 6930.00    0.51491   0.42561    0.010
 6931.00    0.55012   0.42223    0.010
 6932.00    0.45712   0.41924    0.010
 6933.00    0.44401   0.42157    0.010
 6934.00    0.53433   0.42601    0.010
 6935.00    0.52737   0.42661    0.010
 6936.00    0.40943   0.42507    0.010
 6937.00    0.34507   0.42483    0.010
 6938.00    0.33462   0.42697    0.010
 6939.00    0.33132   0.42997    0.010
 6940.00    0.33435   0.43075    0.010
 6941.00    0.36850   0.42751    0.010
 6942.00    0.42698   0.42220    0.010
 6943.00    0.43560   0.41592    0.010
 6944.00    0.40992   0.41220    0.010
 6945.00    0.42673   0.41616    0.010
 6946.00    0.46915   0.42359    0.010
 6947.00    0.45488   0.42805    0.010
 6948.00    0.41080   0.42913    0.010
 6949.00    0.40789   0.42608    0.010
 6950.00    0.42377   0.42028    0.010
 6951.00    0.40070   0.41736    0.010
 6952.00    0.36233   0.41733    0.010
 6953.00    0.36512   0.41796    0.010
 6954.00    0.38169   0.42037    0.010
 6955.00    0.38407   0.42437    0.010
 6956.00    0.38248   0.42701    0.010
 6957.00    0.40338   0.42695    0.010
 6958.00    0.42949   0.42626    0.010
 6959.00    0.46224   0.42638    0.010
 6960.00    0.49621   0.42768    0.010
 6961.00    0.51081   0.42888    0.010
 6962.00    0.52263   0.42941    0.010
 6963.00    0.45224   0.42881    0.010
 6964.00    0.37334   0.42601    0.010
 6965.00    0.43566   0.42465    0.010
 6966.00    0.50740   0.42835    0.010
 6967.00    0.47815   0.43275    0.010
 6968.00    0.44568   0.43264    0.010
 6969.00    0.45897   0.42913    0.010
 6970.00    0.46860   0.42648    0.010
 6971.00    0.36631   0.42817    0.010
 6972.00    0.27865   0.43079    0.010
 6973.00    0.40873   0.42832    0.010
 6974.00    0.52108   0.42234    0.010
 6975.00    0.46302   0.41579    0.010
 6976.00    0.41615   0.40691    0.010
 6977.00    0.44712   0.39699    0.010
 6978.00    0.47163   0.39655    0.010
 6979.00    0.46154   0.40835    0.010
 6980.00    0.44013   0.42072    0.010
 6981.00    0.37001   0.42760    0.010
 6982.00    0.31314   0.43095    0.010
 6983.00    0.30328   0.43158    0.010
 6984.00    0.29424   0.43072    0.010
 6985.00    0.28763   0.42964    0.010
 6986.00    0.30582   0.42816    0.010
 6987.00    0.38699   0.42488    0.010
 6988.00    0.43228   0.42145    0.010
 6989.00    0.39910   0.42219    0.010
 6990.00    0.36378   0.42632    0.010
 6991.00    0.32443   0.42942    0.010
 6992.00    0.31896   0.42891    0.010
 6993.00    0.36961   0.42644    0.010
 6994.00    0.38999   0.42592    0.010
 6995.00    0.36644   0.42748    0.010
 6996.00    0.36002   0.42748    0.010
 6997.00    0.37547   0.42303    0.010
 6998.00    0.14777   0.41592    0.010
 6999.00   -0.35340   0.41346    0.000
 7000.00   -0.27177   0.41840    0.000
 7001.00    0.38801   0.42302    0.035
 7002.00    0.65750   0.42052   -1.000
 7003.00    0.58553   0.41430   -1.000
 7004.00    0.53760   0.41141   -1.000
 7005.00    0.50821   0.41297   -1.000
 7006.00    0.49090   0.41668   -1.000
 7007.00    0.48178   0.42090   -1.000
 7008.00    0.51487   0.42381   -1.000
 7009.00    0.57303   0.42318   -1.000
 7010.00    0.59421   0.42075   -1.000
 7011.00    0.59625   0.42108   -1.000
 7012.00    0.61183   0.42330   -1.000
 7013.00    0.63349   0.42062   -1.000
 7014.00    0.62141   0.40939   -1.000
 7015.00    0.59631   0.39836   -1.000
 7016.00    0.59858   0.40144   -1.000
 7017.00    0.60984   0.41550   -1.000
 7018.00    0.53887   0.42601   -1.000
 7019.00    0.44528   0.42931   -1.000
 7020.00    0.17653   0.42794   -1.000
 7021.00   -0.13181   0.42116    0.000
 7022.00    0.15811   0.41136   -1.000
 7023.00    0.55612   0.40648   -1.000
 7024.00    0.64930   0.40966   -1.000
 7025.00    0.70026   0.41536   -1.000
 7026.00    0.72025   0.41823   -1.000
 7027.00    0.73716   0.41964   -1.000
 7028.00    0.65894   0.42162   -1.000
 7029.00    0.57475   0.42332   -1.000
 7030.00    0.61399   0.42326   -1.000
 7031.00    0.65651   0.42152   -1.000
 7032.00    0.64293   0.42007   -1.000
 7033.00    0.62851   0.41969   -1.000
 7034.00    0.59080   0.42126   -1.000
 7035.00    0.56133   0.42299   -1.000
 7036.00    0.64748   0.41769   -1.000
 7037.00    0.71935   0.40876   -1.000
 7038.00    0.65963   0.41132   -1.000
 7039.00    0.59467   0.42503   -1.000
 7040.00    0.49444   0.43606   -1.000
 7041.00    0.42409   0.43935   -1.000
 7042.00    0.50995   0.43703   -1.000
 7043.00    0.59625   0.43089   -1.000
 7044.00    0.68443   0.42623   -1.000
 7045.00    0.75851   0.42808   -1.000
 7046.00    0.78351   0.43357   -1.000
 7047.00    0.77406   0.43765   -1.000
 7048.00    0.66372   0.43802   -1.000
 7049.00    0.56641   0.43475   -1.000
 7050.00    0.50162   0.42780   -2.000
 7051.00    0.46189   0.41658   -2.000
 7052.00    0.47603   0.40518   -2.000
 7053.00    0.51270   0.39876   -2.000
 7054.00    0.59146   0.39833   -2.000
 7055.00    0.64875   0.40269   -2.000
 7056.00    0.67102   0.40701   -2.000
 7057.00    0.65077   0.40592   -2.000
 7058.00    0.56970   0.39909   -2.000
 7059.00    0.54106   0.39325   -2.000
 7060.00    0.57839   0.39397   -2.000
 7061.00    0.58907   0.39815   -2.000
 7062.00    0.57019   0.40199   -2.000
 7063.00    0.58357   0.40530   -2.000
 7064.00    0.62851   0.40483   -2.000
 7065.00    0.67509   0.39861   -2.000
 7066.00    0.72308   0.39075   -2.000
 7067.00    0.78116   0.38613   -2.000
 7068.00    0.84690   0.38954   -2.000
 7069.00    0.81937   0.39886   -2.000
 7070.00    0.72956   0.40526   -2.000
 7071.00    0.69130   0.40649   -2.000
 7072.00    0.68319   0.40656   -2.000
 7073.00    0.63213   0.40668   -2.000
 7074.00    0.55917   0.40598   -2.000
 7075.00    0.58004   0.40515   -2.000
 7076.00    0.64235   0.40569   -2.000
 7077.00    0.73167   0.40715   -2.000
 7078.00    0.83123   0.40841   -2.000
 7079.00    0.76884   0.40998   -2.000
 7080.00    0.65431   0.41007   -2.000
 7081.00    0.57443   0.40476   -2.000
 7082.00    0.50389   0.39425   -2.000
 7083.00    0.61444   0.38410   -2.000
 7084.00    0.76498   0.38169   -2.000
 7085.00    0.73102   0.38494   -2.000
 7086.00    0.66462   0.38431   -2.000
 7087.00    0.70835   0.38026   -2.000
 7088.00    0.76682   0.37754   -2.000
 7089.00    0.69387   0.37616   -2.000
 7090.00    0.60844   0.37718   -2.000
 7091.00    0.69444   0.37899   -2.000
 7092.00    0.79051   0.37884   -2.000
 7093.00    0.70698   0.37890   -2.000
 7094.00    0.62067   0.37903   -2.000
 7095.00    0.75786   0.37904   -2.000
 7096.00    0.88034   0.38010   -2.000
 7097.00    0.63712   0.38338   -2.000
 7098.00    0.42105   0.38790   -2.000
 7099.00    0.56554   0.38908   -2.000
 7100.00    0.68950   0.38726   -2.000
 7101.00    0.63143   0.38488   -2.000
 7102.00    0.58241   0.38529   -2.000
 7103.00    0.59247   0.38876   -2.000
 7104.00    0.60887   0.39118   -2.000
 7105.00    0.65759   0.38921   -2.000
 7106.00    0.66971   0.38603   -2.000
 7107.00    0.53119   0.38579   -2.000
 7108.00    0.45589   0.38603   -2.000
 7109.00    0.59612   0.38240   -2.000
 7110.00    0.70329   0.37754   -2.000
 7111.00    0.71548   0.37760   -2.000
 7112.00    0.70961   0.38186   -2.000
 7113.00    0.65940   0.38541   -2.000
 7114.00    0.61567   0.38667   -2.000
 7115.00    0.58565   0.38758   -2.000
 7116.00    0.59275   0.38795   -2.000
 7117.00    0.66806   0.38762   -2.000
 7118.00    0.74292   0.38730   -2.000
 7119.00    0.81706   0.38660   -2.000
 7120.00    0.84225   0.38456   -2.000
 7121.00    0.79844   0.38255   -2.000
 7122.00    0.78181   0.38469   -2.000
 7123.00    0.79890   0.38684   -2.000
 7124.00    0.80278   0.38306   -2.000
 7125.00    0.79222   0.37800   -2.000
 7126.00    0.72195   0.37741   -2.000
 7127.00    0.59410   0.37879   -2.000
 7128.00    0.51774   0.37638   -2.000
 7129.00    0.48517   0.36977   -2.000
 7130.00    0.53196   0.36692   -2.000
 7131.00    0.63817   0.37159   -2.000
 7132.00    0.65887   0.37826   -2.000
 7133.00    0.62329   0.38300   -2.000
 7134.00    0.65213   0.38493   -2.000
 7135.00    0.71806   0.38564   -2.000
 7136.00    0.69278   0.38667   -2.000
 7137.00    0.62173   0.38474   -2.000
 7138.00    0.61794   0.38109   -2.000
 7139.00    0.64336   0.38151   -2.000
 7140.00    0.66049   0.38487   -2.000
 7141.00    0.67453   0.38556   -2.000
 7142.00    0.63873   0.38468   -2.000
 7143.00    0.58718   0.38439   -2.000
 7144.00    0.56339   0.38396   -2.000
 7145.00    0.54692   0.38234   -2.000
 7146.00    0.47856   0.37589   -2.000
 7147.00    0.39901   0.36831   -2.000
 7148.00    0.46239   0.36990   -2.000
 7149.00    0.55020   0.37732   -2.000
 7150.00    0.65473   0.38296   -2.000
 7151.00    0.76143   0.38789   -2.000
 7152.00    0.75387   0.39115   -2.000
 7153.00    0.73593   0.38938   -2.000
 7154.00    0.68990   0.38581   -2.000
 7155.00    0.64232   0.38726   -2.000
 7156.00    0.67875   0.39157   -2.000
 7157.00    0.71606   0.39051   -2.000
 7158.00    0.67366   0.38561   -2.000
 7159.00    0.64733   0.38292   -2.000
 7160.00    0.98584   0.38438   -2.000
 7161.00    1.28291   0.38593   -2.000
 7162.00    1.05821   0.38059   -2.000
 7163.00    0.85343   0.36903   -2.000
 7164.00    0.81853   0.36342   -2.000
 7165.00    0.76966   0.37077   -2.000
 7166.00    0.63214   0.38251   -2.000
 7167.00    0.53464   0.38865   -2.000
 7168.00    0.63575   0.38832   -2.000
 7169.00    0.74905   0.38698   -2.000
 7170.00    0.91140   0.38875   -2.000
 7171.00    0.99984   0.39217   -2.000
 7172.00    0.84140   0.39365   -2.000
 7173.00    0.68284   0.39119   -2.000
 7174.00    0.52399   0.38560   -2.000
 7175.00    0.46826   0.38160   -2.000
 7176.00    0.66128   0.38430   -2.000
 7177.00    0.80623   0.38864   -2.000
 7178.00    0.85112   0.38493   -2.000
 7179.00    0.83605   0.37521   -2.000
 7180.00    0.71244   0.36981   -2.000
 7181.00    0.58697   0.37487   -2.000
 7182.00    0.45854   0.38496   -2.000
 7183.00    0.42383   0.38981   -2.000
 7184.00    0.51933   0.38725   -2.000
 7185.00    0.59398   0.37947   -2.000
 7186.00    0.64316   0.37014   -2.000
 7187.00    0.67364   0.36676   -2.000
 7188.00    0.68394   0.37011   -2.000
 7189.00    0.68487   0.37609   -2.000
 7190.00    0.67688   0.38065   -2.000
 7191.00    0.69005   0.37996   -2.000
 7192.00    0.72097   0.37770   -2.000
 7193.00    0.63426   0.37944   -2.000
 7194.00    0.46073   0.38326   -2.000
 7195.00    0.48429   0.38255   -2.000
 7196.00    0.63564   0.37947   -2.000
 7197.00    0.73390   0.38100   -2.000
 7198.00    0.80204   0.38502   -2.000
 7199.00    0.89956   0.38559   -2.000
 7200.00    1.01159   0.38220   -2.000
 7201.00    1.00126   0.37954   -2.000
 7202.00    0.93869   0.38306   -2.000
 7203.00    0.87162   0.38926   -2.000
 7204.00    0.80291   0.38841   -2.000
 7205.00    0.66341   0.37724   -2.000
 7206.00    0.50198   0.36496   -2.000
 7207.00    0.53935   0.36397   -2.000
 7208.00    0.62803   0.37257   -2.000
 7209.00    0.70609   0.38280   -2.000
 7210.00    0.78193   0.38947   -2.000
 7211.00    0.69199   0.38850   -2.000
 7212.00    0.57452   0.38330   -2.000
 7213.00    0.68811   0.37973   -2.000
 7214.00    0.83056   0.37946   -2.000
 7215.00    0.77538   0.38235   -2.000
 7216.00    0.70308   0.38726   -2.000
 7217.00    0.67819   0.39025   -2.000
 7218.00    0.65571   0.38874   -2.000
