###################################################################
## OUTPUT of StarlightChains_v04.for    [Cid@UFSC - 01/Apr/2007] ##
###################################################################

## Some input info
KUG0210-078._44_33.txt                   [arq_obs]
Base.CB07.vall.4m                        [arq_base]
Masks.EmLines.NEW.gm                     [arq_masks]
StCv04.C11.config                        [arq_config]
   66                                    [N_base]
    0                                    [N_YAV_components = # of components with extra extinction!]
    0                                    [i_FitPowerLaw (1/0 = Yes/No)]
-9.99                                    [alpha_PowerLaw]
CCM                                      [red_law_option]
 1.458241                                [q_norm = A(l_norm)/A(V)]

## (Re)Sampling Parameters
 3741.00                                 [l_ini (A)]
 7218.00                                 [l_fin (A)]
    1.00                                 [dl    (A)]     (OBS: dl_cushion =    50.00 A)

## Normalization info
 4020.00                                 [l_norm (A) - for base]
 4010.00                                 [llow_norm (A) - window for f_obs]
 4060.00                                 [lupp_norm (A) - window for f_obs]
9.002383E-18                             [fobs_norm (in input units)]

## S/N
 3691.00                                 [llow_SN (A) - window for S/N]
 7268.00                                 [lupp_SN (A) - window for S/N]
   3.847                                 [S/N in S/N window]
   3.421                                 [S/N in norm. window]
   0.014                                 [S/N_err in S/N window]
   0.012                                 [S/N_err in norm. window]
  1.0000                                 [fscale_chi2]

## etc...
    -2007834                             [idum_orig]
  2411                                   [NOl_eff]
  2385                                   [Nl_eff]
    26    NSIGMA                         [Ntot_cliped & clip_method]
  5729990                                [Nglobal_steps]
   7                                     [N_chains]
  22                                     [NEX0s_base = N_base in EX0s-fits]
 0   0   1       26   2.0   1.926E+03    [Clip-Bug, RC-Crash & Burn-In warning-flags, n_censored_weights, wei_nsig_threshold & wei_limit]
   295    292.608    290.771      1.837  [idt_all, wdt_TotTime, wdt_UsrTime & wdt_SysTime (sec)]

## Synthesis Results - Best model ##

 1.46354E-05                             [chi2/Nl_eff]
    22.05468                             [adev (%)]

   127.08569                             [sum-of-x (%)]
 2.98647E-18                             [Flux_tot (units of input spectrum!)]
 2.79136E-13                             [Mini_tot (???)]
 1.40849E-13                             [Mcor_tot (???)]

 299.65                                  [v0_min  (km/s)]
  69.01                                  [vd_min  (km/s)]
-1.0000                                  [AV_min  (mag)]
 0.0000                                  [YAV_min (mag)]

# j     x_j(%)      Mini_j(%)     Mcor_j(%)     age_j(yr)     Z_j      (L/M)_j    YAV?  Mstars   component_j        a/Fe...       SSP_chi2r SSP_adev(%)   SSP_AV   SSP_x(%)
  1      0.0000     0.0000E+00    0.0000E+00    1.000000E+06  0.00400  1.094E-02    0   1.0000   age020_m42            0.0000     1.8923E-05    27.3625   3.1314   104.1744
  2      0.0000     0.0000E+00    0.0000E+00    3.160000E+06  0.00400  4.007E-02    0   0.9999   age045_m42            0.0000     1.7867E-05    26.2412   2.3711   112.9256
  3      0.0000     0.0000E+00    0.0000E+00    5.010000E+06  0.00400  2.539E-02    0   0.9488   age055_m42            0.0000     1.8302E-05    26.7259   2.7082   109.4262
  4      0.0000     0.0000E+00    0.0000E+00    6.610000E+06  0.00400  2.620E-02    0   0.9220   age061_m42            0.0000     1.8014E-05    26.3025   2.3008   113.0917
  5      0.0000     0.0000E+00    0.0000E+00    1.000000E+07  0.00400  1.322E-02    0   0.8862   age070_m42            0.0000     1.9195E-05    28.0111   2.0554   114.1641
  6      0.0000     0.0000E+00    0.0000E+00    1.445000E+07  0.00400  7.883E-03    0   0.8571   age078_m42            0.0000     1.9299E-05    28.0832   2.3866   111.0073
  7      0.0000     0.0000E+00    0.0000E+00    2.512000E+07  0.00400  5.251E-03    0   0.8174   age090_m42            0.0000     1.9398E-05    28.2416   1.9284   114.7424
  8      6.4947     1.4984E-02    2.3314E-02    4.000000E+07  0.00400  3.649E-03    0   0.7851   age104_m42            0.0000     1.9048E-05    27.8620   1.6918   116.1513
  9      0.0000     0.0000E+00    0.0000E+00    5.500000E+07  0.00400  3.098E-03    0   0.7629   age110_m42            0.0000     1.8459E-05    26.8704   1.8234   117.0031
 10      0.0000     0.0000E+00    0.0000E+00    1.015200E+08  0.00400  2.228E-03    0   0.7207   age116_m42            0.0000     1.8193E-05    26.2105   1.8293   117.7905
 11      0.0000     0.0000E+00    0.0000E+00    2.861200E+08  0.00400  1.093E-03    0   0.6648   age125_m42            0.0000     1.8559E-05    26.6743   1.2602   121.3416
 12      4.3168     5.5089E-02    6.9490E-02    5.088000E+08  0.00400  6.597E-04    0   0.6365   age130_m42            0.0000     1.7957E-05    25.5343   1.2277   123.3441
 13      0.8482     3.3494E-02    3.8487E-02    1.434000E+09  0.00400  2.132E-04    0   0.5798   age139_m42            0.0000     1.6685E-05    24.7530   0.2401   126.7755
 14      0.0000     0.0000E+00    0.0000E+00    4.250000E+09  0.00400  5.895E-05    0   0.5377   age158_m42            0.0000     1.5716E-05    24.2468  -0.2133   122.3540
 15      0.0000     0.0000E+00    0.0000E+00    7.500000E+09  0.00400  3.510E-05    0   0.5212   age171_m42            0.0000     1.5407E-05    23.8215  -0.4152   122.0677
 16      4.7715     2.0035E+00    1.9988E+00    1.300000E+10  0.00400  2.005E-05    0   0.5034   age193_m42            0.0000     1.5261E-05    23.5018  -0.5894   121.7197
 17     10.2754     5.6725E+00    5.5838E+00    1.800000E+10  0.00400  1.525E-05    0   0.4967   age213_m42            0.0000     1.5319E-05    23.6637  -0.6083   121.0338
 18      0.0000     0.0000E+00    0.0000E+00    1.000000E+06  0.00800  1.238E-02    0   1.0000   age020_m52            0.0000     1.8923E-05    27.3640   3.1285   104.3569
 19      0.0000     0.0000E+00    0.0000E+00    3.160000E+06  0.00800  3.074E-02    0   0.9966   age045_m52            0.0000     1.8763E-05    27.1460   3.0462   105.5120
 20      0.0000     0.0000E+00    0.0000E+00    5.010000E+06  0.00800  2.668E-02    0   0.9443   age055_m52            0.0000     1.8480E-05    26.9172   2.7959   108.2205
 21      0.0000     0.0000E+00    0.0000E+00    6.610000E+06  0.00800  2.136E-02    0   0.9177   age061_m52            0.0000     1.8606E-05    27.8910   1.5557   115.5372
 22      0.0000     0.0000E+00    0.0000E+00    1.000000E+07  0.00800  1.215E-02    0   0.8827   age070_m52            0.0000     1.9753E-05    28.7366   2.2491   113.2753
 23      0.0000     0.0000E+00    0.0000E+00    1.445000E+07  0.00800  8.717E-03    0   0.8552   age078_m52            0.0000     1.9255E-05    28.0757   2.3510   112.6251
 24      0.0000     0.0000E+00    0.0000E+00    2.512000E+07  0.00800  5.592E-03    0   0.8162   age090_m52            0.0000     1.9474E-05    28.3473   1.9933   116.0516
 25      0.0000     0.0000E+00    0.0000E+00    4.000000E+07  0.00800  3.896E-03    0   0.7841   age104_m52            0.0000     1.9034E-05    27.7555   1.8892   117.6142
 26      0.0000     0.0000E+00    0.0000E+00    1.015200E+08  0.00800  2.148E-03    0   0.7226   age116_m52            0.0000     1.8422E-05    26.7169   1.8065   118.3146
 27      0.0000     0.0000E+00    0.0000E+00    2.861200E+08  0.00800  9.925E-04    0   0.6683   age125_m52            0.0000     1.8020E-05    25.5356   1.2926   124.4803
 28      0.0000     0.0000E+00    0.0000E+00    9.047900E+08  0.00800  3.141E-04    0   0.6138   age135_m52            0.0000     1.6725E-05    24.1566   0.4567   131.3678
 29      0.0000     0.0000E+00    0.0000E+00    1.434000E+09  0.00800  1.719E-04    0   0.5853   age139_m52            0.0000     1.6162E-05    24.4106  -0.1196   128.5638
 30      0.0000     0.0000E+00    0.0000E+00    2.500000E+09  0.00800  7.872E-05    0   0.5600   age150_m52            0.0000     1.5251E-05    23.2715  -0.4123   126.1826
 31      0.0000     0.0000E+00    0.0000E+00    4.250000E+09  0.00800  4.336E-05    0   0.5426   age158_m52            0.0000     1.5241E-05    23.3414  -0.4250   124.8826
 32      0.0000     0.0000E+00    0.0000E+00    6.250000E+09  0.00800  3.159E-05    0   0.5319   age166_m52            0.0000     1.4921E-05    22.5797  -0.6498   125.8188
 33     19.3570     1.1974E+01    1.2038E+01    1.300000E+10  0.00800  1.361E-05    0   0.5073   age193_m52            0.0000     1.4944E-05    22.6461  -1.0000   121.2687
 34      0.0000     0.0000E+00    0.0000E+00    1.800000E+10  0.00800  9.886E-06    0   0.4990   age213_m52            0.0000     1.5397E-05    22.9709  -1.0000   117.0634
 35      0.0000     0.0000E+00    0.0000E+00    1.000000E+06  0.02000  1.544E-02    0   1.0000   age020_m62            0.0000     1.8968E-05    27.3848   3.1255   104.5568
 36      0.0000     0.0000E+00    0.0000E+00    3.160000E+06  0.02000  3.762E-02    0   0.9858   age045_m62            0.0000     1.8867E-05    27.2185   3.0616   105.5973
 37      0.0000     0.0000E+00    0.0000E+00    5.010000E+06  0.02000  3.296E-02    0   0.9342   age055_m62            0.0000     1.8057E-05    26.3082   2.6570   111.2393
 38      0.0000     0.0000E+00    0.0000E+00    8.710000E+06  0.02000  1.154E-02    0   0.8861   age067_m62            0.0000     2.3535E-05    32.7477   1.7686   113.6437
 39      0.0000     0.0000E+00    0.0000E+00    1.445000E+07  0.02000  7.663E-03    0   0.8472   age078_m62            0.0000     2.0592E-05    29.8538   1.9120   115.1918
 40      0.0000     0.0000E+00    0.0000E+00    2.512000E+07  0.02000  4.532E-03    0   0.8099   age090_m62            0.0000     2.0801E-05    29.9788   1.9047   114.8636
 41      0.0000     0.0000E+00    0.0000E+00    5.500000E+07  0.02000  2.733E-03    0   0.7595   age110_m62            0.0000     1.9055E-05    27.8007   1.8773   116.5634
 42      0.0000     0.0000E+00    0.0000E+00    1.609000E+08  0.02000  1.369E-03    0   0.6985   age120_m62            0.0000     1.8429E-05    26.1903   1.6763   121.4863
 43      0.0000     0.0000E+00    0.0000E+00    2.861200E+08  0.02000  9.013E-04    0   0.6714   age125_m62            0.0000     1.8215E-05    25.2415   1.4036   126.0597
 44      0.0000     0.0000E+00    0.0000E+00    5.088000E+08  0.02000  5.028E-04    0   0.6449   age130_m62            0.0000     1.7242E-05    23.7411   0.9889   131.0597
 45      0.2593     8.9911E-03    1.1010E-02    9.047900E+08  0.02000  2.428E-04    0   0.6179   age135_m62            0.0000     1.6056E-05    23.4615   0.3901   130.8588
 46      0.0000     0.0000E+00    0.0000E+00    1.434000E+09  0.02000  1.263E-04    0   0.5908   age139_m62            0.0000     1.5579E-05    23.4275  -0.0588   129.1456
 47      0.0000     0.0000E+00    0.0000E+00    2.500000E+09  0.02000  5.985E-05    0   0.5673   age150_m62            0.0000     1.5040E-05    22.6184  -0.4442   128.2212
 48      5.1773     1.3325E+00    1.4440E+00    4.250000E+09  0.02000  3.271E-05    0   0.5468   age158_m62            0.0000     1.4678E-05    21.4485  -0.7826   128.5309
 49      0.0000     0.0000E+00    0.0000E+00    1.000000E+10  0.02000  1.360E-05    0   0.5167   age181_m62            0.0000     1.5049E-05    21.3548  -1.0000   123.7227
 50      0.0000     0.0000E+00    0.0000E+00    1.800000E+10  0.02000  7.124E-06    0   0.5013   age213_m62            0.0000     1.6641E-05    22.6973  -1.0000   115.3603
 51      7.0500     2.2898E-03    4.5371E-03    1.000000E+06  0.05000  2.592E-02    0   0.9998   age020_m72            0.0000     1.9161E-05    27.5483   3.1219   104.3932
 52      0.0000     0.0000E+00    0.0000E+00    3.160000E+06  0.05000  4.845E-02    0   0.9577   age045_m72            0.0000     1.8419E-05    26.7054   2.9312   107.5665
 53      0.0000     0.0000E+00    0.0000E+00    5.010000E+06  0.05000  3.072E-02    0   0.9147   age055_m72            0.0000     1.9918E-05    28.9278   2.4826   111.1043
 54      0.0000     0.0000E+00    0.0000E+00    6.610000E+06  0.05000  1.455E-02    0   0.8877   age061_m72            0.0000     2.6144E-05    34.8285   1.8248   113.6281
 55      0.0000     0.0000E+00    0.0000E+00    1.000000E+07  0.05000  9.074E-03    0   0.8524   age070_m72            0.0000     2.0260E-05    29.1053   2.6548   110.8740
 56      0.0000     0.0000E+00    0.0000E+00    2.512000E+07  0.05000  4.250E-03    0   0.7902   age090_m72            0.0000     1.9851E-05    28.6520   2.3474   113.6063
 57      0.0000     0.0000E+00    0.0000E+00    4.000000E+07  0.05000  3.087E-03    0   0.7618   age104_m72            0.0000     2.0050E-05    28.7931   2.1198   115.5941
 58      0.0000     0.0000E+00    0.0000E+00    1.015200E+08  0.05000  1.700E-03    0   0.7096   age116_m72            0.0000     1.8966E-05    26.9295   1.8316   120.3880
 59      0.0000     0.0000E+00    0.0000E+00    2.861200E+08  0.05000  7.384E-04    0   0.6633   age125_m72            0.0000     1.7778E-05    24.4440   1.2520   128.6369
 60      0.0000     0.0000E+00    0.0000E+00    5.088000E+08  0.05000  3.819E-04    0   0.6372   age130_m72            0.0000     1.6535E-05    23.3945   0.7322   131.9801
 61      0.0000     0.0000E+00    0.0000E+00    9.047900E+08  0.05000  1.676E-04    0   0.6110   age135_m72            0.0000     1.5300E-05    22.4860   0.0082   130.8629
 62      0.0000     0.0000E+00    0.0000E+00    1.434000E+09  0.05000  8.837E-05    0   0.5874   age139_m72            0.0000     1.5206E-05    22.4858  -0.4547   130.4851
 63      0.0000     0.0000E+00    0.0000E+00    2.500000E+09  0.05000  4.233E-05    0   0.5598   age150_m72            0.0000     1.4655E-05    21.1176  -0.7969   130.2018
 64     31.3543     1.8395E+01    1.9135E+01    6.250000E+09  0.05000  1.435E-05    0   0.5249   age166_m72            0.0000     1.5489E-05    22.0357  -1.0000   119.8533
 65     15.2295     1.9686E+01    1.9647E+01    1.300000E+10  0.05000  6.513E-06    0   0.5036   age193_m72            0.0000     1.8580E-05    24.2811  -1.0000   110.7552
 66     21.9517     4.0823E+01    4.0007E+01    1.800000E+10  0.05000  4.527E-06    0   0.4945   age213_m72            0.0000     2.1170E-05    25.9333  -1.0000   104.5415


## Synthesis Results - Average & Chains ##

# j      x_j: min, <> & last-chain-values for 1 ...  7 chains
  1      0.0000      1.1292      0.0571      0.0802      0.0000      0.0000      0.0439      0.0000      0.0000
  2      0.0000      0.8281      1.0020      0.2254      0.4742      0.0000      0.0000      0.0000      0.2014
  3      0.0000      1.1916      0.0000      0.0000      0.0279      0.0000      0.0000      0.4753      0.1701
  4      0.0000      0.9067      0.1998      0.0695      0.0000      0.0156      0.5014      0.0000      0.1532
  5      0.0000      1.0467      0.0000      0.0000      0.2336      0.5180      0.5262      0.5835      0.0494
  6      0.0000      0.9253      0.0000      0.3618      0.5789      0.0045      0.5645      0.7348      0.2438
  7      0.0000      1.2720      0.6816      0.4471      0.2842      0.0000      3.1395      0.0000      0.0000
  8      6.4947      1.2942      0.2888      0.8376      0.3513      0.5237      0.5180      0.7793      0.0000
  9      0.0000      0.8761      0.7112      0.0000      0.0000      0.0000      0.7051      0.3198      0.0378
 10      0.0000      0.9638      0.2895      0.0000      0.2235      0.1688      0.4066      0.4589      0.0000
 11      0.0000      0.7720      0.1933      0.7600      0.3365      0.5506      0.2685      0.0000      0.7751
 12      4.3168      0.8553      0.6371      0.0000      0.0000      0.5011      0.0000      0.3691      0.3204
 13      0.8482      1.1430      0.1826      0.0000      0.3055      0.6268      0.0746      0.9272      0.0919
 14      0.0000      0.7891      0.0000      0.3093      0.2725      0.0000      0.4416      0.0357      0.4091
 15      0.0000      0.8918      0.1334      0.8373      0.3706      0.2309      0.0000      2.1389      0.0977
 16      4.7715      1.3951      0.5069      0.0000      0.0000      0.4665      0.9366      1.4283      0.1308
 17     10.2754      7.4585     10.7084     10.7831     10.8515     11.2662     11.1208      9.6114     11.0115
 18      0.0000      1.1447      0.0000      0.2931      0.6451      0.0152      0.7073      1.2312      0.6316
 19      0.0000      0.9970      1.0029      0.1998      0.3845      0.1146      0.1566      0.0402      0.0000
 20      0.0000      0.7990      0.0000      0.0000      0.0000      0.0620      0.1248      0.0000      0.3161
 21      0.0000      0.7412      0.0000      0.0000      0.0000      0.0000      0.8982      0.8525      0.2062
 22      0.0000      0.7848      0.0858      0.6718      0.0000      0.0000      1.6983      0.0000      0.0000
 23      0.0000      1.1752      0.8469      0.5182      0.0000      0.0000      0.0000      0.0320      0.3204
 24      0.0000      1.1654      0.0000      0.0168      0.2479      0.0000      1.5639      0.3319      0.0000
 25      0.0000      0.8455      0.4502      0.5346      0.8266      0.1999      1.6996      0.4501      0.2547
 26      0.0000      0.8398      0.5554      0.0000      0.1276      0.3536      0.0000      0.5688      0.1197
 27      0.0000      0.7485      0.0000      0.7790      0.0644      0.1229      1.1219      0.1091      0.0000
 28      0.0000      1.2224      1.0344      0.0000      0.0000      0.0000      0.0000      0.2418      0.0949
 29      0.0000     50.4235     84.8691     91.1253     95.3144     93.8632     72.9246     81.0813     94.7558
 30      0.0000      0.7808      0.0000      0.0000      0.0000      0.0000      0.9060      0.6956      0.0106
 31      0.0000      0.9849      0.1491      0.0000      0.1154      0.0000      0.5399      0.6539      0.0000
 32      0.0000      1.0355      0.0993      0.1337      0.1431      0.2182      0.0000      1.1560      0.0000
 33     19.3570      0.6647      0.0648      0.5104      0.1208      1.0017      0.0360      0.3048      0.0000
 34      0.0000      1.3503      0.0000      0.7156      0.2689      0.0000      1.3782      0.2167      0.3511
 35      0.0000      0.8810      0.1049      0.4370      0.0000      0.0000      0.8072      0.0000      0.1022
 36      0.0000      1.1371      0.0000      0.0000      0.0000      0.4854      0.7790      0.5567      0.1867
 37      0.0000      1.0576      0.2750      0.0874      0.1197      0.2532      1.0501      0.5460      0.4764
 38      0.0000      0.8206      0.2308      0.0038      0.0000      0.0000      0.3042      0.0000      0.2362
 39      0.0000      0.7104      0.0000      0.6218      0.0059      0.0514      0.0000      0.0000      0.6026
 40      0.0000      0.9174      0.1079      0.0562      0.2073      0.1322      0.0000      0.9728      0.5434
 41      0.0000      0.8483      0.0000      0.0000      0.0000      0.0000      0.0000      0.0000      0.0000
 42      0.0000      0.9276      0.0000      0.0000      0.1678      0.1059      1.2263      0.6083      0.0000
 43      0.0000      1.0106      0.0000      0.2103      0.0000      0.0000      0.2489      0.0357      0.0179
 44      0.0000      1.0029      0.8025      0.3777      0.1655      0.0000      0.4295      1.1268      0.0779
 45      0.2593      0.9623      1.2844      0.5275      0.5565      0.5372      0.0000      0.0000      0.0218
 46      0.0000      0.8529      0.5323      0.2754      0.0000      0.0000      0.7936      0.1862      0.1371
 47      0.0000      1.2376      0.0000      0.0000      0.1795      0.0194      0.2611      0.0000      0.0980
 48      5.1773      0.9066      0.5921      0.3904      0.0000      0.7675      0.0000      0.6139      0.0727
 49      0.0000      0.8966      0.4093      0.2598      0.5046      0.0000      0.6986      1.0426      0.3325
 50      0.0000      1.1418      1.3335      0.2233      0.0000      0.2045      0.4560      1.4242      0.3865
 51      7.0500      0.8923      0.2457      0.1159      0.0000      0.3195      0.1114      0.7265      0.0000
 52      0.0000      0.7375      0.4504      0.4157      0.1674      0.1561      0.1223      0.0000      0.3726
 53      0.0000      1.4923      0.1450      0.5257      0.0922      0.0519      0.0000      0.0132      0.5421
 54      0.0000      1.1176      0.0000      0.7338      0.0000      0.0000      0.0000      0.9319      0.0000
 55      0.0000      0.7660      0.2042      0.5760      0.0000      0.0000      0.2900      0.4063      0.2585
 56      0.0000      0.9768      0.0619      0.2551      0.0000      0.2531      0.0000      1.1690      0.1416
 57      0.0000      0.9721      0.3305      0.1385      0.1514      0.2752      0.3704      0.0000      0.0000
 58      0.0000      0.8868      0.2784      0.3773      0.1784      0.0862      0.3287      0.0000      0.2963
 59      0.0000      1.0219      0.9307      0.0638      0.1798      0.0291      1.0300      0.0000      0.4214
 60      0.0000      1.5310      0.5859      0.0000      0.3688      0.0000      1.2835      1.1154      0.0000
 61      0.0000      0.9012      0.0000      0.2155      0.0000      0.2777      1.8672      0.0000      0.4281
 62      0.0000      1.5144      2.8038      1.6474      2.2749      1.6990      3.3891      1.3667      2.5246
 63      0.0000      1.2486      1.7893      0.2987      0.5545      0.2131      0.1616      0.7050      0.0000
 64     31.3543      0.8959      0.5699      0.2117      0.6966      0.9380      0.3879      0.0000      0.0000
 65     15.2295      0.9335      0.6917      0.0000      0.0000      1.1477      0.5007      0.5468      0.0736
 66     21.9517      2.3408      3.7339      3.5664      3.8738      3.6982      3.6549      3.4619      3.7894

# j      m_j: min, <> & last-chain-values for 1 ...  7 chains
  1  0.0000E+00  8.9453E-03  3.9669E-04  6.1895E-04  0.0000E+00  0.0000E+00  3.1371E-04  0.0000E+00  0.0000E+00
  2  0.0000E+00  1.7909E-03  1.9011E-03  4.7491E-04  9.8273E-04  0.0000E+00  0.0000E+00  0.0000E+00  4.2204E-04
  3  0.0000E+00  3.8591E-03  0.0000E+00  0.0000E+00  8.6653E-05  0.0000E+00  0.0000E+00  1.3555E-03  5.3397E-04
  4  0.0000E+00  2.7652E-03  5.3458E-04  2.0658E-04  0.0000E+00  4.1797E-05  1.3803E-03  0.0000E+00  4.5291E-04
  5  0.0000E+00  6.0809E-03  0.0000E+00  0.0000E+00  1.3005E-03  2.6367E-03  2.7594E-03  2.9851E-03  2.7793E-04
  6  0.0000E+00  8.7190E-03  0.0000E+00  3.3205E-03  5.2274E-03  3.7043E-05  4.8010E-03  6.0966E-03  2.2266E-03
  7  0.0000E+00  1.7159E-02  8.0678E-03  5.8760E-03  3.6745E-03  0.0000E+00  3.8229E-02  0.0000E+00  0.0000E+00
  8  2.3314E-02  2.4132E-02  4.7243E-03  1.5213E-02  6.2765E-03  8.5563E-03  8.7188E-03  1.2795E-02  0.0000E+00
  9  0.0000E+00  1.8697E-02  1.3316E-02  0.0000E+00  0.0000E+00  0.0000E+00  1.3583E-02  6.0103E-03  7.8108E-04
 10  0.0000E+00  2.7018E-02  7.1198E-03  0.0000E+00  6.0044E-03  4.1468E-03  1.0289E-02  1.1329E-02  0.0000E+00
 11  0.0000E+00  4.0693E-02  8.9382E-03  3.9022E-02  1.6995E-02  2.5430E-02  1.2776E-02  0.0000E+00  3.9601E-02
 12  6.9490E-02  7.1521E-02  4.6738E-02  0.0000E+00  0.0000E+00  3.6716E-02  0.0000E+00  2.7179E-02  2.5965E-02
 13  3.8487E-02  2.6938E-01  3.7753E-02  0.0000E+00  6.8996E-02  1.2945E-01  1.5867E-02  1.9242E-01  2.0992E-02
 14  0.0000E+00  6.2377E-01  0.0000E+00  2.3816E-01  2.0639E-01  0.0000E+00  3.1511E-01  2.4872E-02  3.1345E-01
 15  0.0000E+00  1.1476E+00  1.5060E-01  1.0496E+00  4.5699E-01  2.6036E-01  0.0000E+00  2.4238E+00  1.2191E-01
 16  1.9988E+00  3.0356E+00  9.6771E-01  0.0000E+00  0.0000E+00  8.8944E-01  1.8396E+00  2.7366E+00  2.7588E-01
 17  5.5838E+00  2.1053E+01  2.6519E+01  2.9649E+01  2.9351E+01  2.7865E+01  2.8334E+01  2.3890E+01  3.0125E+01
 18  0.0000E+00  8.0135E-03  0.0000E+00  1.9984E-03  4.3275E-03  9.3253E-05  4.4692E-03  7.5897E-03  4.2853E-03
 19  0.0000E+00  2.8011E-03  2.4723E-03  5.4676E-04  1.0353E-03  2.8205E-04  3.9724E-04  9.9518E-05  0.0000E+00
 20  0.0000E+00  2.4507E-03  0.0000E+00  0.0000E+00  0.0000E+00  1.6659E-04  3.4555E-04  0.0000E+00  9.3983E-04
 21  0.0000E+00  2.7597E-03  0.0000E+00  0.0000E+00  0.0000E+00  0.0000E+00  3.0188E-03  2.7951E-03  7.4423E-04
 22  0.0000E+00  4.9410E-03  4.7396E-04  4.1202E-03  0.0000E+00  0.0000E+00  9.6515E-03  0.0000E+00  0.0000E+00
 23  0.0000E+00  9.9919E-03  6.3173E-03  4.2921E-03  0.0000E+00  0.0000E+00  0.0000E+00  2.3939E-04  2.6399E-03
 24  0.0000E+00  1.4742E-02  0.0000E+00  2.0688E-04  3.0054E-03  0.0000E+00  1.7856E-02  3.6968E-03  0.0000E+00
 25  0.0000E+00  1.4746E-02  6.8886E-03  9.0831E-03  1.3815E-02  3.0551E-03  2.6758E-02  6.9126E-03  4.3061E-03
 26  0.0000E+00  2.4484E-02  1.4205E-02  0.0000E+00  3.5640E-03  9.0332E-03  0.0000E+00  1.4602E-02  3.3821E-03
 27  0.0000E+00  4.3680E-02  0.0000E+00  4.4279E-02  3.6034E-03  6.2850E-03  5.9092E-02  5.6064E-03  0.0000E+00
 28  0.0000E+00  2.0701E-01  1.5368E-01  0.0000E+00  0.0000E+00  0.0000E+00  0.0000E+00  3.6059E-02  1.5575E-02
 29  0.0000E+00  1.4879E+01  2.1971E+01  2.6193E+01  2.6951E+01  2.4269E+01  1.9423E+01  2.1068E+01  2.7100E+01
 30  0.0000E+00  4.8134E-01  0.0000E+00  0.0000E+00  0.0000E+00  0.0000E+00  5.0416E-01  3.7761E-01  6.3470E-03
 31  0.0000E+00  1.0681E+00  1.4189E-01  0.0000E+00  1.1991E-01  0.0000E+00  5.2849E-01  6.2442E-01  0.0000E+00
 32  0.0000E+00  1.5110E+00  1.2712E-01  1.9006E-01  2.0005E-01  2.7897E-01  0.0000E+00  1.4855E+00  0.0000E+00
 33  1.2038E+01  2.1471E+00  1.8365E-01  1.6060E+00  3.7400E-01  2.8352E+00  1.0485E-01  8.6692E-01  0.0000E+00
 34  0.0000E+00  5.9068E+00  0.0000E+00  3.0493E+00  1.1270E+00  0.0000E+00  5.4417E+00  8.3485E-01  1.4885E+00
 35  0.0000E+00  4.9447E-03  5.1667E-04  2.3891E-03  0.0000E+00  0.0000E+00  4.0894E-03  0.0000E+00  5.5587E-04
 36  0.0000E+00  2.5824E-03  0.0000E+00  0.0000E+00  0.0000E+00  9.6595E-04  1.5968E-03  1.1132E-03  4.1101E-04
 37  0.0000E+00  2.5979E-03  5.9255E-04  2.0918E-04  2.8172E-04  5.4506E-04  2.3282E-03  1.1810E-03  1.1342E-03
 38  0.0000E+00  5.4605E-03  1.3477E-03  2.4439E-05  0.0000E+00  0.0000E+00  1.8274E-03  0.0000E+00  1.5231E-03
 39  0.0000E+00  6.8065E-03  0.0000E+00  5.8033E-03  5.4238E-05  4.3125E-04  0.0000E+00  0.0000E+00  5.5958E-03
 40  0.0000E+00  1.4208E-02  1.4655E-03  8.4721E-04  3.0759E-03  1.7941E-03  0.0000E+00  1.3267E-02  8.1563E-03
 41  0.0000E+00  2.0431E-02  0.0000E+00  0.0000E+00  0.0000E+00  0.0000E+00  0.0000E+00  0.0000E+00  0.0000E+00
 42  0.0000E+00  4.1017E-02  0.0000E+00  0.0000E+00  7.1088E-03  4.1025E-03  4.8946E-02  2.3685E-02  0.0000E+00
 43  0.0000E+00  6.5244E-02  0.0000E+00  1.3224E-02  0.0000E+00  0.0000E+00  1.4502E-02  2.0309E-03  1.1185E-03
 44  0.0000E+00  1.1147E-01  7.8260E-02  4.0895E-02  1.7624E-02  0.0000E+00  4.3094E-02  1.1029E-01  8.3893E-03
 45  1.1010E-02  2.1223E-01  2.4852E-01  1.1333E-01  1.1762E-01  1.0381E-01  0.0000E+00  0.0000E+00  4.6556E-03
 46  0.0000E+00  3.4575E-01  1.8933E-01  1.0875E-01  0.0000E+00  0.0000E+00  2.9038E-01  6.6487E-02  5.3856E-02
 47  0.0000E+00  1.0166E+00  0.0000E+00  0.0000E+00  1.4133E-01  1.3939E-02  1.9360E-01  0.0000E+00  7.7991E-02
 48  1.4440E+00  1.3133E+00  7.5257E-01  5.5098E-01  0.0000E+00  9.7432E-01  0.0000E+00  7.8319E-01  1.0207E-01
 49  0.0000E+00  2.9520E+00  1.1823E+00  8.3309E-01  1.5920E+00  0.0000E+00  2.0762E+00  3.0228E+00  1.0612E+00
 50  0.0000E+00  6.9629E+00  7.1345E+00  1.3266E+00  0.0000E+00  1.0925E+00  2.5102E+00  7.6478E+00  2.2843E+00
 51  4.5371E-03  2.9828E-03  7.2052E-04  3.7749E-04  0.0000E+00  9.3576E-04  3.3611E-04  2.1386E-03  0.0000E+00
 52  0.0000E+00  1.2633E-03  6.7692E-04  6.9364E-04  2.7474E-04  2.3438E-04  1.8911E-04  0.0000E+00  6.1869E-04
 53  0.0000E+00  3.8508E-03  3.2828E-04  1.3215E-03  2.2806E-04  1.1746E-04  0.0000E+00  3.0024E-05  1.3559E-03
 54  0.0000E+00  5.9093E-03  0.0000E+00  3.7795E-03  0.0000E+00  0.0000E+00  0.0000E+00  4.3391E-03  0.0000E+00
 55  0.0000E+00  6.2361E-03  1.4587E-03  4.5680E-03  0.0000E+00  0.0000E+00  2.1307E-03  2.9127E-03  2.0394E-03
 56  0.0000E+00  1.5740E-02  8.7572E-04  4.0040E-03  0.0000E+00  3.5738E-03  0.0000E+00  1.6587E-02  2.2110E-03
 57  0.0000E+00  2.0790E-02  6.2005E-03  2.8860E-03  3.1027E-03  5.1579E-03  7.1506E-03  0.0000E+00  0.0000E+00
 58  0.0000E+00  3.2079E-02  8.8361E-03  1.3297E-02  6.1825E-03  2.7331E-03  1.0732E-02  0.0000E+00  1.0390E-02
 59  0.0000E+00  7.9552E-02  6.3569E-02  4.8365E-03  1.3416E-02  1.9848E-03  7.2377E-02  0.0000E+00  3.1794E-02
 60  0.0000E+00  2.2138E-01  7.4333E-02  0.0000E+00  5.1099E-02  0.0000E+00  1.6752E-01  1.4203E-01  0.0000E+00
 61  0.0000E+00  2.8474E-01  0.0000E+00  6.6308E-02  0.0000E+00  7.6864E-02  5.3248E-01  0.0000E+00  1.3110E-01
 62  0.0000E+00  8.7235E-01  1.4171E+00  9.2440E-01  1.2557E+00  8.5761E-01  1.7622E+00  6.9329E-01  1.4095E+00
 63  0.0000E+00  1.4310E+00  1.7991E+00  3.3350E-01  6.0897E-01  2.1402E-01  1.6716E-01  7.1147E-01  0.0000E+00
 64  1.9135E+01  2.8400E+00  1.5849E+00  6.5383E-01  2.1161E+00  2.6055E+00  1.1099E+00  0.0000E+00  0.0000E+00
 65  1.9647E+01  6.2557E+00  4.0668E+00  0.0000E+00  0.0000E+00  6.7386E+00  3.0287E+00  3.2268E+00  4.7787E-01
 66  4.0007E+01  2.2159E+01  3.1011E+01  3.2887E+01  3.5140E+01  3.0676E+01  3.1231E+01  2.8858E+01  3.4768E+01

# AV, chi2 & Mass for <> & i_chain = 1 ...  7 solutions
AV      -1.0000     -0.0666     -0.0942     -0.0678     -0.1132     -0.1410      0.0040     -0.0713     -0.0885
chi2 1.4635E-05  1.9138E-05  1.6131E-05  1.6251E-05  1.6129E-05  1.6089E-05  1.6375E-05  1.6214E-05  1.6195E-05
Mass 1.4085E-13  9.4985E-14  1.0433E-13  9.7356E-14  9.3116E-14  9.8095E-14  1.1570E-13  1.0719E-13  9.5163E-14
 299.65                                  [v0_min (km/s) before EX0s...]
  69.01                                  [vd_min (km/s) before EX0s...]


## Synthetic spectrum (Best Model) ##l_obs f_obs f_syn wei
 3478    [Nl_obs]
 3741.00   -0.17303   0.53131    0.000
 3742.00   -0.20893   0.62309    0.000
 3743.00    0.30490   0.71768    0.000
 3744.00    0.58582   0.77981    0.000
 3745.00    0.73104   0.78410    0.030
 3746.00    1.03811   0.73516    0.030
 3747.00    1.42737   0.66690    0.030
 3748.00    1.29572   0.60864    0.030
 3749.00    0.93501   0.56712    0.030
 3750.00    0.78613   0.53822    0.029
 3751.00    0.71722   0.50750    0.029
 3752.00    0.47667   0.47121    0.028
 3753.00    0.18111   0.46660    0.028
 3754.00    0.04736   0.52691    0.027
 3755.00   -0.04303   0.62717    0.000
 3756.00    0.79149   0.72073    0.027
 3757.00    1.82901   0.79637    0.027
 3758.00    1.88529   0.85620    0.026
 3759.00    1.77027   0.87257    0.026
 3760.00    1.11585   0.81531    0.028
 3761.00    0.38978   0.71064    0.032
 3762.00    0.23403   0.63562    0.028
 3763.00    0.13188   0.63613    0.024
 3764.00    0.36464   0.68314    0.024
 3765.00    0.61672   0.72146    0.024
 3766.00    0.57819   0.72608    0.024
 3767.00    0.53028   0.71327    0.024
 3768.00    0.18154   0.70981    0.024
 3769.00   -0.12885   0.70845    0.000
 3770.00    0.49221   0.69169    0.024
 3771.00    1.04764   0.68407    0.024
 3772.00    0.74290   0.70907    0.024
 3773.00    0.43663   0.74141    0.024
 3774.00    0.11691   0.76224    0.024
 3775.00   -0.08559   0.79175    0.000
 3776.00    0.47196   0.83426    0.024
 3777.00    0.80144   0.86215    0.025
 3778.00   -0.02345   0.86384    0.000
 3779.00   -0.64129   0.85883    0.000
 3780.00   -0.41171   0.86406    0.000
 3781.00   -0.21124   0.87691    0.000
 3782.00   -0.10953   0.89627    0.000
 3783.00    0.04834   0.92636    0.025
 3784.00    0.36680   0.95494    0.025
 3785.00    0.69816   0.96720    0.025
 3786.00    1.06106   0.97108    0.025
 3787.00    1.17784   0.97517    0.025
 3788.00    0.77593   0.95828    0.025
 3789.00    0.60579   0.89610    0.024
 3790.00    0.86022   0.81047    0.024
 3791.00    1.13464   0.74567    0.024
 3792.00    1.44109   0.71385    0.024
 3793.00    1.40416   0.70785    0.024
 3794.00    0.88489   0.72593    0.023
 3795.00    0.55613   0.75115    0.023
 3796.00    0.46285   0.74999    0.022
 3797.00    0.40784   0.71414    0.022
 3798.00    0.39452   0.67037    0.022
 3799.00    0.43021   0.64177    0.022
 3800.00    0.51301   0.61958    0.023
 3801.00    0.74807   0.58885    0.023
 3802.00    1.11217   0.57030    0.023
 3803.00    0.93432   0.59913    0.024
 3804.00    0.35207   0.67104    0.024
 3805.00    0.04504   0.74958    0.024
 3806.00   -0.08157   0.81333    0.000
 3807.00    0.20759   0.85806    0.023
 3808.00    0.73532   0.87381    0.023
 3809.00    0.93189   0.85359    0.023
 3810.00    0.96294   0.81444    0.022
 3811.00    0.54135   0.79475    0.022
 3812.00   -0.07597   0.81681    0.000
 3813.00   -0.21238   0.85994    0.000
 3814.00   -0.17044   0.88657    0.000
 3815.00    0.04907   0.87490    0.022
 3816.00    0.32440   0.82505    0.022
 3817.00    0.47132   0.75682    0.022
 3818.00    0.58455   0.69625    0.022
 3819.00    0.15739   0.66178    0.022
 3820.00   -0.38555   0.66255    0.000
 3821.00    0.07028   0.68119    0.021
 3822.00    0.69562   0.67371    0.022
 3823.00    0.45364   0.62668    0.021
 3824.00    0.10035   0.58624    0.021
 3825.00    0.18377   0.59483    0.021
 3826.00    0.30638   0.62833    0.022
 3827.00    0.24949   0.63113    0.021
 3828.00    0.18294   0.59198    0.021
 3829.00   -0.03665   0.54868    0.000
 3830.00   -0.25479   0.53114    0.000
 3831.00   -0.09187   0.53597    0.000
 3832.00    0.07642   0.54899    0.021
 3833.00    0.36422   0.56200    0.021
 3834.00    0.65707   0.56323    0.021
 3835.00    1.01259   0.53873    0.022
 3836.00    1.32501   0.49624    0.022
 3837.00    1.27306   0.46434    0.022
 3838.00    1.13271   0.46221    0.022
 3839.00    0.43620   0.48417    0.021
 3840.00   -0.07285   0.50548    0.000
 3841.00    0.34303   0.50608    0.022
 3842.00    0.65175   0.49440    0.022
 3843.00    0.53155   0.49366    0.022
 3844.00    0.39440   0.51882    0.022
 3845.00    0.20089   0.57477    0.022
 3846.00    0.10584   0.64755    0.022
 3847.00    0.28728   0.70634    0.000
 3848.00    0.35720   0.73473    0.000
 3849.00    0.15923   0.74223    0.000
 3850.00    0.18362   0.74643    0.000
 3851.00    0.66915   0.75050    0.000
 3852.00    0.92923   0.73938    0.000
 3853.00    0.78265   0.71202    0.000
 3854.00    0.62194   0.69820    0.000
 3855.00    0.43891   0.71515    0.000
 3856.00    0.38895   0.73728    0.000
 3857.00    0.52319   0.73640    0.000
 3858.00    0.68824   0.71530    0.000
 3859.00    0.89079   0.68912    0.000
 3860.00    0.92775   0.66670    0.000
 3861.00    0.78681   0.64524    0.000
 3862.00    0.80048   0.61444    0.000
 3863.00    0.96064   0.58432    0.000
 3864.00    1.10934   0.58911    0.000
 3865.00    1.24845   0.64289    0.000
 3866.00    1.24841   0.71385    0.000
 3867.00    1.14603   0.75670    0.000
 3868.00    1.02243   0.75830    0.000
 3869.00    0.88514   0.74083    0.000
 3870.00    0.80200   0.72802    0.000
 3871.00    0.74947   0.72228    0.000
 3872.00    0.76121   0.71258    0.000
 3873.00    0.80457   0.68997    0.000
 3874.00    0.58469   0.65549    0.000
 3875.00    0.25289   0.62449    0.000
 3876.00    0.19309   0.62146    0.000
 3877.00    0.23238   0.66004    0.000
 3878.00    0.35607   0.72114    0.000
 3879.00    0.50579   0.76043    0.000
 3880.00    0.40766   0.74771    0.000
 3881.00    0.24591   0.69629    0.019
 3882.00    0.50464   0.65291    0.019
 3883.00    0.85128   0.64825    0.020
 3884.00    0.47970   0.66023    0.020
 3885.00   -0.01032   0.65788    0.000
 3886.00    0.15779   0.65775    0.020
 3887.00    0.40740   0.68280    0.020
 3888.00    0.19934   0.69942    0.020
 3889.00   -0.04789   0.66504    0.000
 3890.00   -0.10257   0.60545    0.000
 3891.00   -0.14766   0.57461    0.000
 3892.00    0.08664   0.58409    0.020
 3893.00    0.32267   0.62451    0.020
 3894.00    0.37516   0.69348    0.019
 3895.00    0.42740   0.77342    0.019
 3896.00    0.47444   0.83072    0.019
 3897.00    0.53843   0.84615    0.019
 3898.00    0.80269   0.83009    0.019
 3899.00    1.03103   0.81379    0.018
 3900.00    0.96670   0.82102    0.018
 3901.00    0.86370   0.83744    0.017
 3902.00    0.52454   0.83486    0.016
 3903.00    0.26225   0.82240    0.016
 3904.00    0.36986   0.82888    0.016
 3905.00    0.55095   0.84797    0.016
 3906.00    1.01974   0.84928    0.016
 3907.00    1.27254   0.83039    0.017
 3908.00    0.82132   0.80656    0.017
 3909.00    0.48373   0.78508    0.017
 3910.00    0.45949   0.78717    0.017
 3911.00    0.57260   0.83135    0.017
 3912.00    1.01004   0.89430    0.018
 3913.00    1.22557   0.93966    0.018
 3914.00    0.98816   0.96215    0.018
 3915.00    0.76892   0.97728    0.018
 3916.00    0.58194   0.98799    0.019
 3917.00    0.55348   0.98633    0.019
 3918.00    0.77132   0.97403    0.019
 3919.00    1.03462   0.95587    0.019
 3920.00    1.35996   0.93199    0.019
 3921.00    1.27746   0.90510    0.019
 3922.00    0.70504   0.87159    0.019
 3923.00    0.41762   0.82338    0.019
 3924.00    0.43202   0.77103    0.019
 3925.00    0.63455   0.74013    0.019
 3926.00    1.01282   0.74142    0.020
 3927.00    1.15518   0.76089    0.020
 3928.00    1.10324   0.77419    0.020
 3929.00    0.95938   0.76103    0.020
 3930.00    0.74889   0.71786    0.020
 3931.00    0.55977   0.65625    0.019
 3932.00    0.38427   0.58998    0.019
 3933.00    0.54086   0.52931    0.019
 3934.00    0.88227   0.47803    0.019
 3935.00    1.05872   0.43540    0.019
 3936.00    1.15532   0.40221    0.020
 3937.00    0.98543   0.38153    0.019
 3938.00    0.70413   0.37815    0.019
 3939.00    0.73820   0.39837    0.019
 3940.00    0.88509   0.44430    0.019
 3941.00    0.82262   0.50845    0.019
 3942.00    0.69688   0.57852    0.018
 3943.00    0.76811   0.64149    0.018
 3944.00    0.88882   0.68466    0.019
 3945.00    1.00876   0.70270    0.019
 3946.00    1.12855   0.70075    0.019
 3947.00    1.04051   0.69264    0.019
 3948.00    0.91918   0.70581    0.019
 3949.00    0.72198   0.75858    0.018
 3950.00    0.51571   0.82252    0.018
 3951.00    0.50013   0.85578    0.018
 3952.00    0.50008   0.86641    0.018
 3953.00    0.64145   0.89096    0.018
 3954.00    0.78932   0.92883    0.018
 3955.00    0.68952   0.94563    0.018
 3956.00    0.58784   0.93569    0.018
 3957.00    0.55300   0.93505    0.018
 3958.00    0.53527   0.95318    0.018
 3959.00    0.84181   0.95175    0.018
 3960.00    1.11513   0.91939    0.000
 3961.00    1.01407   0.89363    0.000
 3962.00    0.90295   0.89137    0.000
 3963.00    0.71264   0.87737    0.000
 3964.00    0.54848   0.81328    0.000
 3965.00    0.53942   0.71422    0.000
 3966.00    0.47332   0.63406    0.000
 3967.00    0.13941   0.59454    0.000
 3968.00   -0.08918   0.56570    0.000
 3969.00    0.08580   0.51657    0.000
 3970.00    0.26945   0.44837    0.000
 3971.00    0.48077   0.38279    0.000
 3972.00    0.55537   0.34030    0.000
 3973.00    0.25968   0.33204    0.000
 3974.00    0.12533   0.36073    0.000
 3975.00    0.36564   0.41884    0.000
 3976.00    0.60062   0.49133    0.000
 3977.00    0.82493   0.56754    0.000
 3978.00    1.05313   0.64565    0.000
 3979.00    1.28814   0.72182    0.000
 3980.00    1.38318   0.78890    0.000
 3981.00    1.26392   0.85016    0.019
 3982.00    1.24500   0.91301    0.019
 3983.00    1.36101   0.97187    0.019
 3984.00    1.28306   1.00927    0.019
 3985.00    0.97541   1.01388    0.019
 3986.00    0.84308   0.99940    0.018
 3987.00    0.89382   0.99340    0.018
 3988.00    1.07497   1.00781    0.018
 3989.00    1.37624   1.03375    0.018
 3990.00    1.43995   1.05934    0.018
 3991.00    1.31078   1.08530    0.018
 3992.00    1.32224   1.10719    0.018
 3993.00    1.43418   1.10836    0.017
 3994.00    1.38287   1.09940    0.017
 3995.00    1.22922   1.10819    0.017
 3996.00    0.98456   1.13170    0.017
 3997.00    0.69003   1.14451    0.017
 3998.00    0.74378   1.13342    0.017
 3999.00    0.96344   1.10580    0.017
 4000.00    1.17368   1.07414    0.017
 4001.00    1.38005   1.05443    0.018
 4002.00    1.29126   1.07039    0.018
 4003.00    1.09880   1.12454    0.017
 4004.00    1.05467   1.18086    0.017
 4005.00    1.05448   1.21208    0.017
 4006.00    1.20988   1.22388    0.017
 4007.00    1.40349   1.20799    0.018
 4008.00    1.13490   1.14211    0.018
 4009.00    0.77440   1.05659    0.017
 4010.00    0.82603   1.02498    0.018
 4011.00    0.94170   1.06763    0.018
 4012.00    1.18170   1.13296    0.018
 4013.00    1.43601   1.17512    0.018
 4014.00    1.28147   1.19244    0.018
 4015.00    1.09532   1.20038    0.018
 4016.00    1.00000   1.20741    0.018
 4017.00    0.90850   1.21638    0.018
 4018.00    1.16233   1.22892    0.018
 4019.00    1.40877   1.24147    0.018
 4020.00    1.19318   1.24002    0.019
 4021.00    1.00109   1.22516    0.019
 4022.00    1.22357   1.22436    0.019
 4023.00    1.41465   1.24320    0.018
 4024.00    1.26787   1.25220    0.018
 4025.00    1.12154   1.24042    0.018
 4026.00    0.97864   1.22302    0.018
 4027.00    0.86662   1.20421    0.018
 4028.00    0.93275   1.18350    0.018
 4029.00    0.92911   1.18070    0.018
 4030.00    0.60572   1.21122    0.018
 4031.00    0.46202   1.25723    0.018
 4032.00    0.99234   1.27771    0.018
 4033.00    1.34051   1.23448    0.018
 4034.00    1.11762   1.13350    0.017
 4035.00    0.97921   1.03310    0.017
 4036.00    1.06556   0.97770    0.017
 4037.00    1.08894   0.96634    0.017
 4038.00    0.96856   0.99451    0.017
 4039.00    0.87489   1.06557    0.017
 4040.00    0.83402   1.16620    0.017
 4041.00    0.95071   1.25877    0.018
 4042.00    1.33884   1.30436    0.018
 4043.00    1.39525   1.29482    0.017
 4044.00    0.95128   1.25899    0.017
 4045.00    0.55557   1.23477    0.017
 4046.00    0.22383   1.22146    0.017
 4047.00    0.27018   1.16903    0.017
 4048.00    0.75796   1.05034    0.017
 4049.00    1.02265   0.92546    0.017
 4050.00    1.05764   0.89304    0.017
 4051.00    1.00075   0.97714    0.017
 4052.00    0.86043   1.10394    0.017
 4053.00    0.78783   1.20015    0.017
 4054.00    0.76943   1.25154    0.017
 4055.00    0.84179   1.26521    0.017
 4056.00    0.97806   1.24686    0.017
 4057.00    1.04220   1.20962    0.017
 4058.00    1.06178   1.16876    0.017
 4059.00    1.04410   1.13618    0.017
 4060.00    1.00632   1.11263    0.017
 4061.00    1.11165   1.08939    0.017
 4062.00    1.28407   1.07943    0.017
 4063.00    1.24226   1.10609    0.017
 4064.00    1.11391   1.14933    0.017
 4065.00    1.17426   1.14933    0.017
 4066.00    1.29967   1.07556    0.018
 4067.00    1.16306   0.97878    0.018
 4068.00    0.95036   0.94668    0.017
 4069.00    1.02287   0.99489    0.017
 4070.00    1.16387   1.05772    0.018
 4071.00    1.26257   1.09995    0.018
 4072.00    1.35306   1.14341    0.018
 4073.00    1.39193   1.17918    0.018
 4074.00    1.42301   1.15843    0.018
 4075.00    1.41455   1.08957    0.018
 4076.00    1.40170   1.05625    0.018
 4077.00    1.23471   1.09743    0.018
 4078.00    1.05644   1.14722    0.017
 4079.00    1.02392   1.13243    0.018
 4080.00    0.99698   1.06001    0.018
 4081.00    0.94290   0.99598    0.018
 4082.00    0.90122   0.99850    0.018
 4083.00    1.33289   1.07170    0.018
 4084.00    1.73940   1.17288    0.018
 4085.00    1.73122   1.24697    0.018
 4086.00    1.69046   1.25974    0.018
 4087.00    1.31454   1.22418    0.018
 4088.00    0.99487   1.18545    0.018
 4089.00    1.08791   1.17835    0.018
 4090.00    1.15502   1.21257    0.018
 4091.00    1.07663   1.27506    0.018
 4092.00    1.01025   1.33206    0.000
 4093.00    0.99765   1.35219    0.000
 4094.00    1.00052   1.33360    0.000
 4095.00    1.06020   1.29812    0.000
 4096.00    1.05127   1.26969    0.000
 4097.00    0.83132   1.25744    0.000
 4098.00    0.74271   1.23893    0.000
 4099.00    0.99735   1.18754    0.000
 4100.00    1.10737   1.12192    0.000
 4101.00    0.89260   1.08040    0.000
 4102.00    0.76463   1.06351    0.000
 4103.00    0.80555   1.03673    0.000
 4104.00    0.80156   0.97765    0.000
 4105.00    0.72139   0.91332    0.000
 4106.00    0.75134   0.89757    0.000
 4107.00    0.94497   0.94474    0.000
 4108.00    1.13618   1.02199    0.000
 4109.00    1.32421   1.09882    0.000
 4110.00    1.37286   1.15944    0.000
 4111.00    1.26106   1.18948    0.000
 4112.00    1.14237   1.18585    0.000
 4113.00    1.01669   1.16152    0.017
 4114.00    1.05904   1.13543    0.017
 4115.00    1.25183   1.12478    0.017
 4116.00    1.25488   1.13920    0.017
 4117.00    1.10822   1.17344    0.016
 4118.00    1.04716   1.20881    0.016
 4119.00    1.04551   1.23143    0.017
 4120.00    0.90222   1.23802    0.016
 4121.00    0.67274   1.22121    0.016
 4122.00    0.59467   1.18090    0.016
 4123.00    0.59704   1.14610    0.015
 4124.00    0.89946   1.14207    0.015
 4125.00    1.34022   1.15397    0.016
 4126.00    1.26331   1.16002    0.016
 4127.00    0.98085   1.16818    0.016
 4128.00    0.92939   1.19155    0.016
 4129.00    0.95612   1.21505    0.016
 4130.00    1.16344   1.21316    0.016
 4131.00    1.42216   1.18651    0.017
 4132.00    1.42411   1.15739    0.017
 4133.00    1.36578   1.13733    0.017
 4134.00    1.22581   1.11511    0.017
 4135.00    1.07042   1.07609    0.017
 4136.00    0.82472   1.03054    0.017
 4137.00    0.56583   1.01010    0.017
 4138.00    0.73543   1.03524    0.017
 4139.00    0.95057   1.09738    0.017
 4140.00    1.10312   1.16316    0.017
 4141.00    1.25135   1.20371    0.017
 4142.00    1.24639   1.22211    0.017
 4143.00    1.23614   1.23163    0.018
 4144.00    1.22376   1.22417    0.018
 4145.00    1.21777   1.17596    0.018
 4146.00    1.42273   1.07999    0.018
 4147.00    1.61868   0.98077    0.018
 4148.00    1.67527   0.95013    0.018
 4149.00    1.70403   1.00460    0.018
 4150.00    1.45842   1.08664    0.018
 4151.00    1.23949   1.13767    0.017
 4152.00    1.20989   1.14445    0.018
 4153.00    1.17874   1.12321    0.018
 4154.00    1.13914   1.09890    0.018
 4155.00    1.15864   1.08763    0.018
 4156.00    1.43652   1.08471    0.018
 4157.00    1.50536   1.07790    0.018
 4158.00    0.82233   1.06639    0.017
 4159.00    0.40726   1.05816    0.017
 4160.00    0.80083   1.05978    0.017
 4161.00    1.19039   1.07772    0.017
 4162.00    1.56965   1.11495    0.018
 4163.00    1.75495   1.15770    0.018
 4164.00    1.51178   1.18715    0.017
 4165.00    1.38336   1.20586    0.017
 4166.00    1.47472   1.22525    0.018
 4167.00    1.40332   1.23565    0.018
 4168.00    1.05989   1.22111    0.017
 4169.00    0.96589   1.18810    0.017
 4170.00    1.23727   1.15165    0.017
 4171.00    1.33918   1.12342    0.017
 4172.00    1.22282   1.11985    0.017
 4173.00    1.14487   1.14121    0.018
 4174.00    1.11051   1.15205    0.018
 4175.00    1.10443   1.11719    0.018
 4176.00    1.12664   1.04896    0.018
 4177.00    1.15639   0.99820    0.018
 4178.00    1.19278   0.99676    0.018
 4179.00    1.14320   1.02605    0.017
 4180.00    1.02676   1.04946    0.017
 4181.00    0.88185   1.05543    0.017
 4182.00    0.71749   1.06098    0.017
 4183.00    0.82086   1.07977    0.017
 4184.00    1.08472   1.09753    0.017
 4185.00    1.14808   1.09590    0.017
 4186.00    1.10657   1.08733    0.017
 4187.00    1.15600   1.09949    0.017
 4188.00    1.24668   1.13490    0.017
 4189.00    1.30490   1.16064    0.017
 4190.00    1.35045   1.14185    0.017
 4191.00    1.12141   1.09287    0.017
 4192.00    0.80117   1.07065    0.017
 4193.00    0.85202   1.09565    0.017
 4194.00    1.00629   1.12831    0.017
 4195.00    1.01434   1.14343    0.017
 4196.00    0.98885   1.16161    0.017
 4197.00    0.92286   1.18871    0.017
 4198.00    0.84943   1.18848    0.017
 4199.00    0.86237   1.14070    0.017
 4200.00    0.88752   1.07386    0.017
 4201.00    1.07069   1.02208    0.016
 4202.00    1.26997   0.99535    0.016
 4203.00    1.37792   0.99293    0.016
 4204.00    1.47992   1.00424    0.016
 4205.00    1.27246   1.01032    0.016
 4206.00    1.05605   1.01451    0.016
 4207.00    1.19586   1.03864    0.016
 4208.00    1.33150   1.08210    0.016
 4209.00    1.34452   1.12691    0.016
 4210.00    1.35567   1.16737    0.017
 4211.00    1.33962   1.20238    0.016
 4212.00    1.31164   1.22111    0.016
 4213.00    1.17099   1.21491    0.017
 4214.00    1.05920   1.19661    0.017
 4215.00    1.14590   1.19139    0.017
 4216.00    1.24718   1.19852    0.016
 4217.00    1.42599   1.18604    0.016
 4218.00    1.49238   1.13529    0.017
 4219.00    1.07865   1.07591    0.016
 4220.00    0.73975   1.06676    0.016
 4221.00    0.66448   1.13032    0.016
 4222.00    0.71741   1.22097    0.016
 4223.00    1.14999   1.28379    0.016
 4224.00    1.35067   1.30828    0.017
 4225.00    0.96615   1.29952    0.017
 4226.00    0.74863   1.25070    0.016
 4227.00    0.89397   1.16122    0.016
 4228.00    1.13882   1.04282    0.016
 4229.00    1.57132   0.90808    0.016
 4230.00    1.62980   0.79031    0.016
 4231.00    1.07250   0.75596    0.016
 4232.00    0.76705   0.84231    0.016
 4233.00    0.82513   0.99839    0.016
 4234.00    0.93277   1.13626    0.016
 4235.00    1.10335   1.20871    0.016
 4236.00    1.25078   1.21229    0.016
 4237.00    1.37233   1.17396    0.016
 4238.00    1.37399   1.13521    0.016
 4239.00    1.25734   1.10999    0.016
 4240.00    1.01727   1.09187    0.016
 4241.00    0.66981   1.09001    0.016
 4242.00    0.62818   1.10866    0.016
 4243.00    0.82103   1.13410    0.016
 4244.00    0.97744   1.16482    0.017
 4245.00    1.10930   1.20418    0.017
 4246.00    1.13640   1.24131    0.017
 4247.00    1.10167   1.27470    0.017
 4248.00    1.22554   1.31334    0.018
 4249.00    1.43108   1.33722    0.018
 4250.00    1.31085   1.31234    0.018
 4251.00    1.04527   1.24471    0.018
 4252.00    1.05161   1.17055    0.018
 4253.00    1.16221   1.10977    0.018
 4254.00    0.92714   1.06925    0.017
 4255.00    0.57941   1.06603    0.017
 4256.00    0.69986   1.09597    0.017
 4257.00    0.94812   1.11119    0.017
 4258.00    1.26495   1.08927    0.017
 4259.00    1.59716   1.07897    0.018
 4260.00    1.60008   1.12412    0.018
 4261.00    1.54410   1.18670    0.018
 4262.00    1.50368   1.19272    0.018
 4263.00    1.46538   1.12841    0.018
 4264.00    1.30583   1.05391    0.018
 4265.00    1.13443   1.04041    0.018
 4266.00    1.18445   1.10938    0.017
 4267.00    1.24800   1.21656    0.017
 4268.00    1.21262   1.30092    0.017
 4269.00    1.17476   1.34153    0.017
 4270.00    1.17584   1.34378    0.017
 4271.00    1.17165   1.30938    0.017
 4272.00    1.02804   1.24695    0.017
 4273.00    0.89231   1.16932    0.017
 4274.00    0.86499   1.07375    0.017
 4275.00    0.85190   0.97020    0.017
 4276.00    0.96799   0.90450    0.017
 4277.00    1.09732   0.90235    0.017
 4278.00    1.31485   0.93528    0.017
 4279.00    1.49600   0.98440    0.017
 4280.00    1.48884   1.06602    0.017
 4281.00    1.44129   1.16968    0.017
 4282.00    1.22512   1.24416   -2.000
 4283.00    0.98606   1.25151   -2.000
 4284.00    0.66800   1.20693   -2.000
 4285.00    0.42406   1.16421   -2.000
 4286.00    0.39554   1.15695   -2.000
 4287.00    0.51075   1.17201   -2.000
 4288.00    0.98245   1.17886   -2.000
 4289.00    1.29674   1.16209   -2.000
 4290.00    1.27453   1.13566   -2.000
 4291.00    1.21447   1.11538   -2.000
 4292.00    1.08415   1.08269   -2.000
 4293.00    0.99875   1.02023   -2.000
 4294.00    0.98622   0.96472   -2.000
 4295.00    0.82213   0.97123   -2.000
 4296.00    0.44243   1.03791   -2.000
 4297.00    0.28635   1.10594   -2.000
 4298.00    0.41015   1.13001    0.017
 4299.00    0.58390   1.12077    0.017
 4300.00    0.81273   1.10168    0.017
 4301.00    0.92876   1.06357    0.017
 4302.00    0.93504   0.99089    0.017
 4303.00    0.92664   0.89972    0.017
 4304.00    0.90565   0.83485    0.016
 4305.00    0.92273   0.82388    0.017
 4306.00    0.96859   0.84614    0.017
 4307.00    0.98111   0.87035    0.017
 4308.00    0.97149   0.88700    0.016
 4309.00    1.09400   0.88781    0.016
 4310.00    1.29335   0.86146    0.016
 4311.00    1.36301   0.81211    0.016
 4312.00    1.36694   0.76569    0.016
 4313.00    1.25339   0.75729    0.016
 4314.00    1.08828   0.79960    0.016
 4315.00    1.05290   0.87299    0.016
 4316.00    1.06637   0.95186    0.016
 4317.00    1.19828   1.02472    0.016
 4318.00    1.36806   1.09891    0.016
 4319.00    1.44493   1.19809    0.016
 4320.00    1.49697   1.32566    0.016
 4321.00    1.38342   1.43435    0.017
 4322.00    1.23363   1.47729    0.017
 4323.00    0.97774   1.46157    0.016
 4324.00    0.70341   1.42015    0.016
 4325.00    1.00410   1.37057    0.016
 4326.00    1.38086   1.30747    0.017
 4327.00    1.40913   1.20976    0.017
 4328.00    1.40485   1.07664    0.017
 4329.00    1.24223   0.95859    0.016
 4330.00    1.07055   0.93150    0.000
 4331.00    1.07180   1.02859    0.000
 4332.00    1.07632   1.19270    0.000
 4333.00    0.99524   1.32132    0.000
 4334.00    0.91983   1.36611    0.000
 4335.00    0.98061   1.36317    0.000
 4336.00    1.04838   1.36555    0.000
 4337.00    1.20719   1.38571    0.000
 4338.00    1.36551   1.41074    0.000
 4339.00    1.51964   1.41948    0.000
 4340.00    1.64381   1.37528    0.000
 4341.00    1.57442   1.26048    0.000
 4342.00    1.49019   1.11756    0.000
 4343.00    1.33101   1.00543    0.000
 4344.00    1.23710   0.95136    0.000
 4345.00    1.40959   0.97009    0.000
 4346.00    1.56515   1.05382    0.000
 4347.00    1.66344   1.14980    0.000
 4348.00    1.65834   1.21728    0.000
 4349.00    1.35822   1.26502    0.000
 4350.00    1.21076   1.30314    0.000
 4351.00    1.43552   1.33136    0.017
 4352.00    1.47471   1.36398    0.017
 4353.00    1.12358   1.39376    0.017
 4354.00    1.05456   1.36717    0.017
 4355.00    1.50127   1.26311    0.017
 4356.00    1.74541   1.15568    0.017
 4357.00    1.66589   1.13121    0.017
 4358.00    1.67127   1.18378    0.017
 4359.00    1.79566   1.25318    0.017
 4360.00    1.74940   1.31020    0.017
 4361.00    1.49258   1.34616    0.017
 4362.00    1.47163   1.34363    0.017
 4363.00    1.70722   1.31308    0.017
 4364.00    1.71984   1.30433    0.017
 4365.00    1.51858   1.34063    0.017
 4366.00    1.37616   1.38922    0.017
 4367.00    1.28351   1.42050    0.018
 4368.00    1.12410   1.44486    0.018
 4369.00    0.91494   1.46562    0.017
 4370.00    1.04115   1.45244    0.017
 4371.00    1.38681   1.39488    0.018
 4372.00    1.33971   1.33367    0.018
 4373.00    1.06768   1.30853    0.017
 4374.00    0.95158   1.31360    0.017
 4375.00    0.91327   1.32306    0.017
 4376.00    1.00143   1.31708    0.017
 4377.00    1.14416   1.27933    0.017
 4378.00    1.25112   1.21340    0.017
 4379.00    1.34483   1.16120    0.018
 4380.00    1.54064   1.17101    0.018
 4381.00    1.76848   1.24179    0.018
 4382.00    1.36211   1.31843    0.018
 4383.00    0.78983   1.34869    0.018
 4384.00    0.92731   1.32389    0.017
 4385.00    1.21641   1.25425    0.017
 4386.00    1.37097   1.13451    0.017
 4387.00    1.50277   0.98021    0.017
 4388.00    1.45661   0.87162    0.017
 4389.00    1.38771   0.88748    0.017
 4390.00    1.05823   1.00541    0.017
 4391.00    0.70549   1.12578    0.017
 4392.00    1.04689   1.18313    0.017
 4393.00    1.42526   1.18745    0.017
 4394.00    1.10743   1.17818    0.017
 4395.00    0.78322   1.18533    0.017
 4396.00    1.04725   1.21373    0.017
 4397.00    1.29778   1.24050    0.017
 4398.00    1.25165   1.24524    0.017
 4399.00    1.19544   1.24686    0.017
 4400.00    1.01472   1.28316    0.017
 4401.00    0.87703   1.34758    0.018
 4402.00    1.10131   1.38499    0.018
 4403.00    1.30648   1.36031    0.018
 4404.00    1.39187   1.29887    0.019
 4405.00    1.37147   1.25887    0.019
 4406.00    0.83071   1.25741    0.020
 4407.00    0.36153   1.23555    0.022
 4408.00    0.17815   1.15026    0.024
 4409.00    0.20361   1.06140    0.027
 4410.00    0.92166   1.04678    0.027
 4411.00    1.28509   1.09034    0.027
 4412.00    0.65502   1.13896    0.027
 4413.00    0.38613   1.19528    0.025
 4414.00    0.98293   1.27918    0.020
 4415.00    1.31548   1.36780    0.018
 4416.00    1.10111   1.42140    0.018
 4417.00    1.05252   1.41389    0.018
 4418.00    1.30236   1.33836    0.018
 4419.00    1.38666   1.23716    0.017
 4420.00    1.21036   1.18852    0.017
 4421.00    1.16032   1.22299    0.017
 4422.00    1.28476   1.30468    0.018
 4423.00    1.43595   1.38435    0.018
 4424.00    1.61968   1.42439    0.018
 4425.00    1.70493   1.40531    0.018
 4426.00    1.68457   1.34591    0.018
 4427.00    1.63426   1.29771    0.018
 4428.00    1.55562   1.29153    0.018
 4429.00    1.17116   1.30772    0.017
 4430.00    0.53167   1.31783    0.017
 4431.00    0.51776   1.32278    0.017
 4432.00    0.96313   1.33274    0.017
 4433.00    1.14150   1.33590    0.018
 4434.00    1.14774   1.32032    0.018
 4435.00    1.34460   1.30853    0.018
 4436.00    1.64897   1.31537    0.018
 4437.00    1.49748   1.30777    0.018
 4438.00    1.12219   1.25800    0.018
 4439.00    1.25796   1.19860    0.018
 4440.00    1.61059   1.19231    0.018
 4441.00    1.38387   1.26081    0.018
 4442.00    0.94661   1.36278    0.018
 4443.00    0.81682   1.43610    0.018
 4444.00    0.78157   1.44116    0.017
 4445.00    1.08652   1.38078    0.017
 4446.00    1.47856   1.29876    0.018
 4447.00    1.51094   1.25208    0.017
 4448.00    1.46836   1.27321    0.017
 4449.00    1.33808   1.34609    0.017
 4450.00    1.19339   1.41650    0.018
 4451.00    1.37209   1.44617    0.017
 4452.00    1.59067   1.44774    0.017
 4453.00    1.51180   1.44242    0.017
 4454.00    1.40764   1.42935    0.017
 4455.00    1.33821   1.41262    0.017
 4456.00    1.27049   1.39650    0.017
 4457.00    1.36993   1.36163    0.017
 4458.00    1.46803   1.29327    0.017
 4459.00    1.31457   1.21779    0.017
 4460.00    1.16279   1.17981    0.017
 4461.00    1.04509   1.18535    0.000
 4462.00    0.94543   1.19930    0.000
 4463.00    1.05783   1.19709    0.000
 4464.00    1.19723   1.18271    0.000
 4465.00    1.55559   1.16783    0.000
 4466.00    1.81433   1.17342    0.000
 4467.00    1.46679   1.22111    0.000
 4468.00    1.18892   1.29008    0.000
 4469.00    1.24527   1.33343    0.000
 4470.00    1.34998   1.34084    0.000
 4471.00    1.64354   1.33420    0.000
 4472.00    1.84689   1.32338    0.000
 4473.00    1.75687   1.30732    0.000
 4474.00    1.65962   1.30008    0.000
 4475.00    1.54245   1.32019    0.000
 4476.00    1.47117   1.36686    0.000
 4477.00    1.50804   1.42237    0.000
 4478.00    1.52785   1.46411    0.000
 4479.00    1.51293   1.48232    0.000
 4480.00    1.44421   1.49443    0.000
 4481.00    1.28013   1.51769    0.000
 4482.00    1.17532   1.53073    0.016
 4483.00    1.16246   1.49548    0.016
 4484.00    1.27773   1.41199    0.017
 4485.00    1.56749   1.32652    0.017
 4486.00    1.67969   1.29061    0.017
 4487.00    1.57899   1.32392    0.017
 4488.00    1.49951   1.40340    0.017
 4489.00    1.44246   1.48325    0.017
 4490.00    1.63182   1.52831    0.017
 4491.00    2.05094   1.52318    0.017
 4492.00    1.93357   1.47019    0.017
 4493.00    1.37516   1.39721    0.016
 4494.00    1.30436   1.35048    0.016
 4495.00    1.58639   1.35774    0.016
 4496.00    1.71435   1.39682    0.016
 4497.00    1.74446   1.41349    0.016
 4498.00    1.68589   1.37945    0.016
 4499.00    1.57806   1.32552    0.017
 4500.00    1.40877   1.30405    0.017
 4501.00    1.20978   1.33453    0.016
 4502.00    1.07880   1.39666    0.016
 4503.00    0.97618   1.45332    0.017
 4504.00    1.32472   1.47555    0.017
 4505.00    1.83426   1.46678    0.017
 4506.00    1.87301   1.46822    0.016
 4507.00    1.76981   1.51394    0.016
 4508.00    1.73960   1.58066    0.016
 4509.00    1.72766   1.61753    0.016
 4510.00    1.75001   1.60806    0.016
 4511.00    1.77934   1.57516    0.016
 4512.00    1.70190   1.54938    0.016
 4513.00    1.60743   1.54572    0.016
 4514.00    1.62267   1.55668    0.017
 4515.00    1.65095   1.55941    0.017
 4516.00    1.57570   1.53571    0.017
 4517.00    1.49208   1.49178    0.016
 4518.00    1.69282   1.45271    0.016
 4519.00    1.90649   1.43773    0.016
 4520.00    1.85994   1.44311    0.016
 4521.00    1.80795   1.44783    0.017
 4522.00    1.64132   1.44492    0.017
 4523.00    1.49205   1.45470    0.016
 4524.00    1.66866   1.48806    0.017
 4525.00    1.82393   1.52035    0.017
 4526.00    1.74000   1.51846    0.016
 4527.00    1.66297   1.48118    0.016
 4528.00    1.63995   1.43592    0.016
 4529.00    1.58895   1.39297    0.016
 4530.00    1.37257   1.33906    0.016
 4531.00    1.20084   1.27486    0.016
 4532.00    1.23807   1.22124    0.016
 4533.00    1.35498   1.19798    0.016
 4534.00    1.77637   1.20987    0.017
 4535.00    2.01802   1.24555    0.017
 4536.00    1.68651   1.28422    0.016
 4537.00    1.41553   1.29998    0.016
 4538.00    1.30814   1.27986    0.016
 4539.00    1.24023   1.25348    0.016
 4540.00    1.26377   1.27478    0.016
 4541.00    1.30304   1.35774    0.016
 4542.00    1.37381   1.44700    0.016
 4543.00    1.39662   1.47789    0.016
 4544.00    1.33571   1.44946    0.016
 4545.00    1.29699   1.41089    0.016
 4546.00    1.29218   1.40277    0.016
 4547.00    1.22538   1.42033    0.016
 4548.00    1.07537   1.42747    0.016
 4549.00    1.09220   1.40997    0.016
 4550.00    1.30628   1.39212    0.000
 4551.00    1.43591   1.39010    0.000
 4552.00    1.47752   1.38710    0.000
 4553.00    1.50999   1.37029    0.000
 4554.00    1.53408   1.35830    0.000
 4555.00    1.64170   1.36888    0.000
 4556.00    1.81702   1.38249    0.000
 4557.00    1.69378   1.37314    0.000
 4558.00    1.35761   1.34867    0.000
 4559.00    1.23860   1.33701    0.000
 4560.00    1.25548   1.36085    0.000
 4561.00    1.36658   1.41967    0.000
 4562.00    1.52922   1.48436    0.000
 4563.00    1.52770   1.52388    0.000
 4564.00    1.44815   1.53394    0.000
 4565.00    1.36911   1.52966    0.000
 4566.00    1.29027   1.51754    0.000
 4567.00    1.24729   1.48555    0.000
 4568.00    1.21687   1.43172    0.000
 4569.00    1.28719   1.38780    0.000
 4570.00    1.38728   1.39087    0.000
 4571.00    1.61071   1.44233    0.000
 4572.00    1.86436   1.50377    0.000
 4573.00    1.66161   1.53163    0.000
 4574.00    1.36840   1.51250    0.000
 4575.00    1.30441   1.46528    0.000
 4576.00    1.27591   1.43195    0.000
 4577.00    1.28064   1.44721    0.000
 4578.00    1.28917   1.49091    0.000
 4579.00    1.34006   1.51577    0.000
 4580.00    1.39421   1.51427    0.000
 4581.00    1.39783   1.50279    0.000
 4582.00    1.39936   1.47821    0.000
 4583.00    1.38121   1.43124    0.000
 4584.00    1.36594   1.37556    0.000
 4585.00    1.48176   1.34356    0.000
 4586.00    1.59312   1.35185    0.000
 4587.00    1.62655   1.37971    0.000
 4588.00    1.65058   1.39364    0.000
 4589.00    1.57405   1.38656    0.000
 4590.00    1.47957   1.37950    0.000
 4591.00    1.24936   1.39703    0.000
 4592.00    1.04714   1.44331    0.000
 4593.00    1.00579   1.49127    0.000
 4594.00    0.93423   1.50663    0.000
 4595.00    0.72466   1.48073    0.000
 4596.00    0.62785   1.43542    0.000
 4597.00    0.95283   1.39939    0.000
 4598.00    1.22358   1.38137    0.000
 4599.00    1.32471   1.37242    0.000
 4600.00    1.38792   1.36871    0.000
 4601.00    1.35046   1.37405    0.000
 4602.00    1.36925   1.38699    0.000
 4603.00    1.51623   1.39892    0.000
 4604.00    1.66322   1.39961    0.000
 4605.00    1.81023   1.39060    0.000
 4606.00    1.86408   1.38860    0.000
 4607.00    1.75775   1.39702    0.000
 4608.00    1.63387   1.40124    0.000
 4609.00    1.48359   1.39757    0.000
 4610.00    1.44776   1.40175    0.000
 4611.00    1.56340   1.43384    0.000
 4612.00    1.56030   1.49400    0.000
 4613.00    1.41882   1.55424    0.000
 4614.00    1.39141   1.57959    0.000
 4615.00    1.48124   1.56120    0.000
 4616.00    1.44204   1.52260    0.000
 4617.00    1.28588   1.49290    0.000
 4618.00    1.18271   1.48690    0.000
 4619.00    1.12188   1.50259    0.000
 4620.00    1.12834   1.52334    0.000
 4621.00    1.18209   1.53491    0.000
 4622.00    1.16183   1.53502    0.000
 4623.00    1.09595   1.52449    0.000
 4624.00    1.14588   1.51533    0.000
 4625.00    1.25817   1.52249    0.000
 4626.00    1.48212   1.53628    0.000
 4627.00    1.75828   1.53921    0.000
 4628.00    1.76562   1.53277    0.000
 4629.00    1.66458   1.52211    0.000
 4630.00    1.54555   1.50944    0.000
 4631.00    1.42034   1.50283    0.000
 4632.00    1.51967   1.50289    0.000
 4633.00    1.68403   1.50009    0.000
 4634.00    1.49109   1.49821    0.000
 4635.00    1.21256   1.50835    0.000
 4636.00    1.30792   1.51753    0.000
 4637.00    1.47548   1.50311    0.000
 4638.00    1.34497   1.47293    0.000
 4639.00    1.16973   1.45154    0.000
 4640.00    1.38072   1.44049    0.000
 4641.00    1.63422   1.42382    0.000
 4642.00    1.77294   1.39690    0.000
 4643.00    1.90331   1.37165    0.000
 4644.00    1.63334   1.36317    0.000
 4645.00    1.34824   1.37993    0.000
 4646.00    1.43293   1.41249    0.000
 4647.00    1.51934   1.43222    0.000
 4648.00    1.59965   1.41926    0.000
 4649.00    1.68873   1.37736    0.000
 4650.00    1.92121   1.32042    0.000
 4651.00    2.11266   1.27077    0.000
 4652.00    1.88431   1.25603    0.000
 4653.00    1.64580   1.28419    0.000
 4654.00    1.33298   1.33651    0.000
 4655.00    1.11824   1.38847    0.000
 4656.00    1.45186   1.42522    0.000
 4657.00    1.76675   1.43872    0.000
 4658.00    1.99810   1.42363    0.000
 4659.00    2.12516   1.38860    0.000
 4660.00    1.87017   1.36287    0.000
 4661.00    1.58895   1.37447    0.000
 4662.00    1.22728   1.42773    0.000
 4663.00    0.99575   1.49931    0.000
 4664.00    1.10360   1.55059    0.000
 4665.00    1.24918   1.55436    0.000
 4666.00    1.47932   1.51388    0.000
 4667.00    1.62422   1.45701    0.000
 4668.00    1.60357   1.41074    0.000
 4669.00    1.51630   1.37503    0.000
 4670.00    1.31621   1.32517    0.000
 4671.00    1.29921   1.25414    0.000
 4672.00    1.55388   1.20029    0.000
 4673.00    1.71146   1.20818    0.000
 4674.00    1.74240   1.27409    0.000
 4675.00    1.68805   1.35231    0.000
 4676.00    1.53568   1.40135    0.000
 4677.00    1.44102   1.41188    0.000
 4678.00    1.40483   1.40411    0.000
 4679.00    1.40180   1.40586    0.000
 4680.00    1.42840   1.42614    0.000
 4681.00    1.49499   1.44577    0.000
 4682.00    1.59306   1.43895    0.000
 4683.00    1.57435   1.40411    0.000
 4684.00    1.47474   1.36287    0.000
 4685.00    1.37750   1.33540    0.000
 4686.00    1.28169   1.33169    0.000
 4687.00    1.39501   1.35271    0.000
 4688.00    1.61921   1.38524    0.000
 4689.00    1.75299   1.40858    0.000
 4690.00    1.84517   1.41345    0.000
 4691.00    1.76884   1.40491    0.000
 4692.00    1.62576   1.39291    0.000
 4693.00    1.58325   1.38600    0.000
 4694.00    1.57469   1.38403    0.000
 4695.00    1.50963   1.38033    0.000
 4696.00    1.42853   1.37680    0.000
 4697.00    1.31755   1.38334    0.000
 4698.00    1.19958   1.40350    0.000
 4699.00    1.52266   1.43160    0.000
 4700.00    1.92870   1.45409    0.000
 4701.00    1.67242   1.45072    0.000
 4702.00    1.31981   1.41316    0.000
 4703.00    1.51358   1.36306    0.000
 4704.00    1.76511   1.33156    0.000
 4705.00    1.64763   1.32227    0.000
 4706.00    1.50481   1.31569    0.000
 4707.00    1.56410   1.30666    0.000
 4708.00    1.63026   1.31124    0.000
 4709.00    1.57497   1.33396    0.000
 4710.00    1.51635   1.35280    0.000
 4711.00    1.35556   1.34715    0.000
 4712.00    1.21044   1.32476    0.000
 4713.00    1.30577   1.31089    0.000
 4714.00    1.39860   1.32367    0.000
 4715.00    1.46696   1.36023    0.000
 4716.00    1.53283   1.39542    0.000
 4717.00    1.58118   1.40076    0.000
 4718.00    1.58847   1.37614    0.000
 4719.00    1.37243   1.35469    0.000
 4720.00    1.17419   1.36792    0.000
 4721.00    1.05361   1.41248    0.000
 4722.00    0.99171   1.46089    0.000
 4723.00    1.14032   1.49653    0.000
 4724.00    1.32245   1.51879    0.000
 4725.00    1.60546   1.52510    0.000
 4726.00    1.74766   1.51417    0.000
 4727.00    1.52907   1.49992    0.000
 4728.00    1.41314   1.50072    0.000
 4729.00    1.52351   1.51226    0.000
 4730.00    1.53458   1.50396    0.000
 4731.00    1.35580   1.45254    0.000
 4732.00    1.23109   1.37434    0.000
 4733.00    1.19657   1.31210    0.000
 4734.00    1.23650   1.29178    0.000
 4735.00    1.38528   1.30667    0.000
 4736.00    1.50186   1.33802    0.000
 4737.00    1.57703   1.37169    0.000
 4738.00    1.62401   1.39859    0.000
 4739.00    1.63902   1.41237    0.000
 4740.00    1.70051   1.40984    0.000
 4741.00    1.80842   1.40098    0.000
 4742.00    1.79773   1.40800    0.000
 4743.00    1.68252   1.43355    0.000
 4744.00    1.64807   1.45097    0.000
 4745.00    1.67631   1.44635    0.000
 4746.00    1.55600   1.43831    0.000
 4747.00    1.33429   1.44387    0.000
 4748.00    1.23073   1.45536    0.000
 4749.00    1.19786   1.46145    0.000
 4750.00    1.31879   1.46761    0.000
 4751.00    1.52000   1.48128    0.000
 4752.00    1.58752   1.49469    0.000
 4753.00    1.59452   1.49903    0.000
 4754.00    1.51414   1.49709    0.000
 4755.00    1.39974   1.49041    0.000
 4756.00    1.39112   1.47371    0.000
 4757.00    1.41754   1.44753    0.000
 4758.00    1.39149   1.42172    0.000
 4759.00    1.35086   1.40512    0.000
 4760.00    1.42244   1.39977    0.000
 4761.00    1.51969   1.40316    0.016
 4762.00    1.36921   1.41270    0.016
 4763.00    1.17336   1.42646    0.016
 4764.00    1.16728   1.43723    0.016
 4765.00    1.18792   1.43086    0.016
 4766.00    1.56071   1.40122    0.016
 4767.00    1.96923   1.36193    0.016
 4768.00    1.66703   1.32926    0.015
 4769.00    1.31888   1.30432    0.015
 4770.00    1.20880   1.28687    0.015
 4771.00    1.10680   1.28907    0.015
 4772.00    1.43959   1.31981    0.015
 4773.00    1.75361   1.36821    0.015
 4774.00    1.52331   1.40925    0.015
 4775.00    1.31482   1.42237    0.015
 4776.00    1.42136   1.41169    0.015
 4777.00    1.54063   1.40572    0.015
 4778.00    1.77966   1.42473    0.015
 4779.00    1.93266   1.45666    0.015
 4780.00    1.49663   1.47816    0.015
 4781.00    1.16358   1.48548    0.015
 4782.00    1.37595   1.48727    0.015
 4783.00    1.54798   1.48359    0.015
 4784.00    1.54819   1.47151    0.014
 4785.00    1.56427   1.45375    0.014
 4786.00    1.63613   1.43040    0.014
 4787.00    1.70655   1.40190    0.014
 4788.00    1.77273   1.38010    0.014
 4789.00    1.76416   1.37350    0.014
 4790.00    1.56733   1.37163    0.014
 4791.00    1.48769   1.36599    0.014
 4792.00    1.66217   1.36338    0.014
 4793.00    1.71385   1.36634    0.014
 4794.00    1.53440   1.37059    0.014
 4795.00    1.41677   1.37997    0.015
 4796.00    1.40073   1.40218    0.015
 4797.00    1.43932   1.43934    0.015
 4798.00    1.55665   1.48578    0.015
 4799.00    1.54145   1.52507    0.015
 4800.00    1.35830   1.53736    0.015
 4801.00    1.22716   1.51670    0.015
 4802.00    1.15411   1.47447    0.015
 4803.00    1.18549   1.42986    0.015
 4804.00    1.31975   1.40381    0.015
 4805.00    1.54078   1.41123    0.015
 4806.00    1.83720   1.44693    0.015
 4807.00    1.88713   1.48336    0.015
 4808.00    1.74843   1.49232    0.015
 4809.00    1.57387   1.47007    0.015
 4810.00    1.37519   1.43604    0.015
 4811.00    1.47502   1.40797    0.021
 4812.00    1.75076   1.39107    0.085
 4813.00    1.79988   1.38897   -1.000
 4814.00    1.73256   1.40312   -1.000
 4815.00    1.62992   1.42333   -1.000
 4816.00    1.51156   1.43635   -1.000
 4817.00    1.38198   1.43996   -1.000
 4818.00    1.24812   1.44125   -1.000
 4819.00    1.26615   1.44708   -1.000
 4820.00    1.33358   1.46004   -1.000
 4821.00    1.28580   1.47857   -1.000
 4822.00    1.20667   1.49813   -1.000
 4823.00    1.27324   1.51373    0.036
 4824.00    1.37236   1.52036    0.016
 4825.00    1.46704   1.51207    0.015
 4826.00    1.56093   1.48315    0.015
 4827.00    1.25223   1.43569    0.015
 4828.00    0.88868   1.39182    0.014
 4829.00    1.13015   1.38141    0.015
 4830.00    1.43039   1.40531    0.015
 4831.00    1.47918   1.43183    0.015
 4832.00    1.51273   1.43659    0.015
 4833.00    1.45346   1.42555    0.015
 4834.00    1.39301   1.41450    0.015
 4835.00    1.56098   1.40332    0.015
 4836.00    1.71485   1.38697    0.015
 4837.00    1.50036   1.37835    0.015
 4838.00    1.31674   1.39262    0.015
 4839.00    1.55437   1.41996    0.015
 4840.00    1.75358   1.43872    0.015
 4841.00    1.60558   1.44167    0.015
 4842.00    1.45211   1.43129    0.015
 4843.00    1.26241   1.40828    0.015
 4844.00    1.10771   1.38063    0.015
 4845.00    1.13355   1.36473    0.015
 4846.00    1.19038   1.36454    0.015
 4847.00    1.37615   1.36889    0.015
 4848.00    1.52602   1.37650    0.000
 4849.00    1.55230   1.39779    0.000
 4850.00    1.55727   1.42666    0.000
 4851.00    1.50044   1.43786    0.000
 4852.00    1.39887   1.41927    0.000
 4853.00    1.18662   1.39079    0.000
 4854.00    1.17363   1.38144    0.000
 4855.00    1.58580   1.39369    0.000
 4856.00    1.73487   1.40641    0.000
 4857.00    1.39642   1.40262    0.000
 4858.00    1.20576   1.37527    0.000
 4859.00    1.25433   1.32784    0.000
 4860.00    1.36812   1.28545    0.000
 4861.00    1.57453   1.27371    0.000
 4862.00    1.64004   1.27808    0.000
 4863.00    1.52955   1.25459    0.000
 4864.00    1.46594   1.18226    0.000
 4865.00    1.45395   1.09113    0.000
 4866.00    1.42389   1.04098    0.000
 4867.00    1.37627   1.06446    0.000
 4868.00    1.42134   1.13486    0.000
 4869.00    1.54579   1.20587    0.000
 4870.00    1.57378   1.25879    0.000
 4871.00    1.52902   1.29486    0.000
 4872.00    1.43856   1.31475    0.000
 4873.00    1.31781   1.31728    0.000
 4874.00    1.36177   1.29583    0.000
 4875.00    1.50133   1.24740    0.015
 4876.00    1.49131   1.19921    0.015
 4877.00    1.40563   1.19262    0.016
 4878.00    1.53419   1.23026    0.016
 4879.00    1.75656   1.27616    0.016
 4880.00    1.66415   1.30756    0.016
 4881.00    1.45342   1.33075    0.015
 4882.00    1.48298   1.35649    0.015
 4883.00    1.58919   1.38677    0.016
 4884.00    1.43579   1.40925    0.016
 4885.00    1.21319   1.40485    0.016
 4886.00    1.24728   1.37894    0.016
 4887.00    1.33737   1.35899    0.016
 4888.00    1.37029   1.35011    0.016
 4889.00    1.39329   1.33103    0.016
 4890.00    1.40067   1.29765    0.016
 4891.00    1.40599   1.27305    0.016
 4892.00    1.61847   1.27081    0.016
 4893.00    1.85020   1.27382    0.016
 4894.00    1.91567   1.25661    0.016
 4895.00    1.97171   1.22311    0.015
 4896.00    1.74941   1.21587    0.016
 4897.00    1.52358   1.26879    0.016
 4898.00    1.60612   1.36332    0.016
 4899.00    1.69129   1.45259    0.016
 4900.00    1.83880   1.50753    0.016
 4901.00    1.95825   1.52683    0.015
 4902.00    1.71498   1.52049    0.015
 4903.00    1.48942   1.49535    0.015
 4904.00    1.41789   1.45993    0.015
 4905.00    1.38683   1.43120    0.015
 4906.00    1.61614   1.41656    0.015
 4907.00    1.78724   1.40584    0.015
 4908.00    1.66560   1.39812    0.015
 4909.00    1.52281   1.40993    0.015
 4910.00    1.29392   1.44272    0.015
 4911.00    1.12113   1.46818    0.015
 4912.00    1.13770   1.45832    0.015
 4913.00    1.14244   1.41392    0.015
 4914.00    1.11353   1.35987    0.015
 4915.00    1.19657   1.32606    0.015
 4916.00    1.55201   1.32807    0.015
 4917.00    1.78288   1.35756    0.015
 4918.00    1.75226   1.39549    0.015
 4919.00    1.69642   1.42994    0.015
 4920.00    1.59456   1.45028    0.015
 4921.00    1.47300   1.43652    0.015
 4922.00    1.32001   1.37266    0.014
 4923.00    1.26274   1.27100    0.014
 4924.00    1.33942   1.17507    0.014
 4925.00    1.27431   1.13310    0.014
 4926.00    1.03457   1.16069    0.014
 4927.00    0.98374   1.22517    0.014
 4928.00    1.13799   1.27791    0.014
 4929.00    1.34590   1.30543    0.014
 4930.00    1.60519   1.33181    0.014
 4931.00    1.66015   1.37321    0.014
 4932.00    1.54256   1.41989    0.014
 4933.00    1.47552   1.45953    0.014
 4934.00    1.44605   1.48676    0.014
 4935.00    1.48296   1.49590    0.014
 4936.00    1.56323   1.48025    0.014
 4937.00    1.55960   1.43781    0.014
 4938.00    1.50801   1.38651    0.014
 4939.00    1.45673   1.35921    0.014
 4940.00    1.40560   1.35975    0.000
 4941.00    1.40089   1.35147    0.000
 4942.00    1.41617   1.31013    0.000
 4943.00    1.44114   1.26239    0.000
 4944.00    1.46970   1.25643    0.000
 4945.00    1.61754   1.30569    0.000
 4946.00    1.80271   1.37675    0.000
 4947.00    1.87677   1.43272    0.000
 4948.00    1.92184   1.46290    0.000
 4949.00    1.61688   1.46910    0.000
 4950.00    1.23738   1.45850    0.000
 4951.00    1.39125   1.45013    0.000
 4952.00    1.63499   1.45832    0.000
 4953.00    1.65361   1.47640    0.000
 4954.00    1.64359   1.49198    0.000
 4955.00    1.67757   1.50160    0.000
 4956.00    1.71546   1.50238    0.000
 4957.00    1.62952   1.48885    0.000
 4958.00    1.53705   1.46317    0.000
 4959.00    1.54152   1.42911    0.000
 4960.00    1.54537   1.37585    0.000
 4961.00    1.35586   1.29424    0.000
 4962.00    1.19270   1.21823    0.000
 4963.00    1.60252   1.20972    0.000
 4964.00    1.97717   1.27824    0.000
 4965.00    1.92010   1.36380    0.000
 4966.00    1.85608   1.41356    0.000
 4967.00    1.73390   1.42613    0.000
 4968.00    1.62255   1.41742    0.000
 4969.00    1.57881   1.38976    0.000
 4970.00    1.55068   1.34899    0.000
 4971.00    1.59919   1.31651    0.000
 4972.00    1.60768   1.30639    0.000
 4973.00    1.45690   1.31386    0.000
 4974.00    1.34010   1.32978    0.000
 4975.00    1.33570   1.35044    0.000
 4976.00    1.35242   1.37566    0.000
 4977.00    1.42816   1.40255    0.000
 4978.00    1.43448   1.42454    0.000
 4979.00    1.27479   1.43575    0.000
 4980.00    1.22877   1.43209    0.000
 4981.00    1.41755   1.41284    0.000
 4982.00    1.51779   1.38120    0.000
 4983.00    1.45896   1.34486    0.000
 4984.00    1.48031   1.31305    0.000
 4985.00    1.62763   1.28169    0.000
 4986.00    1.61999   1.23632    0.000
 4987.00    1.39858   1.18261    0.000
 4988.00    1.34409   1.15156    0.000
 4989.00    1.49225   1.16297    0.000
 4990.00    1.56307   1.20705    0.000
 4991.00    1.55112   1.26427    0.000
 4992.00    1.41039   1.31631    0.000
 4993.00    1.14805   1.34511    0.000
 4994.00    1.05336   1.34558    0.000
 4995.00    1.09822   1.33211    0.000
 4996.00    1.16586   1.32439    0.000
 4997.00    1.25020   1.32843    0.000
 4998.00    1.28852   1.33425    0.000
 4999.00    1.29722   1.33815    0.000
 5000.00    1.25699   1.34637    0.000
 5001.00    1.18921   1.35432    0.000
 5002.00    1.15012   1.34908    0.000
 5003.00    1.12509   1.32413    0.000
 5004.00    1.46760   1.28467    0.000
 5005.00    1.96575   1.24845    0.000
 5006.00    1.99064   1.23091    0.000
 5007.00    1.84393   1.22963    0.000
 5008.00    1.80161   1.22865    0.000
 5009.00    1.79131   1.21198    0.000
 5010.00    1.71276   1.18127    0.000
 5011.00    1.61677   1.16405    0.000
 5012.00    1.51571   1.18734    0.000
 5013.00    1.41359   1.23998    0.000
 5014.00    1.40807   1.28126    0.000
 5015.00    1.41836   1.28402    0.000
 5016.00    1.42660   1.24971    0.000
 5017.00    1.43458   1.19580    0.000
 5018.00    1.53324   1.14800    0.000
 5019.00    1.63956   1.12919    0.000
 5020.00    1.71664   1.14362    0.000
 5021.00    1.79229   1.17136    0.000
 5022.00    1.58378   1.18963    0.000
 5023.00    1.37465   1.19869    0.000
 5024.00    1.39579   1.21016    0.000
 5025.00    1.41369   1.22084    0.000
 5026.00    1.36668   1.22073    0.000
 5027.00    1.31781   1.21707    0.000
 5028.00    1.24732   1.22794    0.000
 5029.00    1.18585   1.25279    0.014
 5030.00    1.19726   1.27064    0.014
 5031.00    1.22966   1.26775    0.014
 5032.00    1.38936   1.25394    0.014
 5033.00    1.53430   1.25374    0.014
 5034.00    1.60864   1.27788    0.014
 5035.00    1.67054   1.31306    0.014
 5036.00    1.68400   1.34666    0.014
 5037.00    1.66064   1.37550    0.015
 5038.00    1.51786   1.38830    0.014
 5039.00    1.40177   1.36728    0.014
 5040.00    1.35892   1.31576    0.014
 5041.00    1.41772   1.26568    0.014
 5042.00    1.71554   1.23906    0.014
 5043.00    1.93585   1.21687    0.014
 5044.00    1.99862   1.17118    0.014
 5045.00    1.90398   1.11223    0.014
 5046.00    1.53080   1.08516    0.014
 5047.00    1.24876   1.12338    0.014
 5048.00    1.10778   1.21088    0.014
 5049.00    1.12697   1.30219    0.015
 5050.00    1.36391   1.36637    0.014
 5051.00    1.39890   1.39022    0.014
 5052.00    1.19217   1.36731    0.014
 5053.00    1.20017   1.31053    0.014
 5054.00    1.43479   1.25427    0.014
 5055.00    1.46814   1.22541    0.014
 5056.00    1.31413   1.22524    0.014
 5057.00    1.36294   1.24494    0.015
 5058.00    1.57818   1.27912    0.015
 5059.00    1.63110   1.31876    0.015
 5060.00    1.56677   1.34981    0.014
 5061.00    1.43874   1.36589    0.014
 5062.00    1.27033   1.37297    0.015
 5063.00    1.27449   1.37907    0.015
 5064.00    1.37431   1.38724    0.015
 5065.00    1.33672   1.39835    0.015
 5066.00    1.23289   1.40795    0.015
 5067.00    1.26802   1.40028    0.015
 5068.00    1.36102   1.36096    0.014
 5069.00    1.51166   1.30045    0.015
 5070.00    1.68283   1.25281    0.015
 5071.00    1.71076   1.23939    0.015
 5072.00    1.69562   1.24706    0.015
 5073.00    1.63139   1.25681    0.015
 5074.00    1.55491   1.26891    0.015
 5075.00    1.40850   1.28242    0.015
 5076.00    1.24792   1.28421    0.014
 5077.00    1.13055   1.27455    0.015
 5078.00    1.02006   1.27132    0.015
 5079.00    1.15961   1.27915    0.014
 5080.00    1.32874   1.28511    0.014
 5081.00    1.32308   1.28334    0.014
 5082.00    1.30337   1.27150    0.014
 5083.00    1.32211   1.23693    0.014
 5084.00    1.34257   1.18054    0.014
 5085.00    1.29351   1.13591    0.014
 5086.00    1.24777   1.13214    0.014
 5087.00    1.40882   1.15823    0.014
 5088.00    1.56550   1.18884    0.014
 5089.00    1.64099   1.21817    0.014
 5090.00    1.70237   1.24891    0.014
 5091.00    1.60642   1.27423    0.013
 5092.00    1.51238   1.28790    0.013
 5093.00    1.43318   1.29515    0.013
 5094.00    1.38518   1.30315    0.014
 5095.00    1.52108   1.31288    0.014
 5096.00    1.60271   1.32493    0.014
 5097.00    1.43106   1.34114    0.014
 5098.00    1.27842   1.35530    0.014
 5099.00    1.19826   1.35373    0.014
 5100.00    1.16639   1.32980    0.013
 5101.00    1.28810   1.28910    0.013
 5102.00    1.37549   1.24093    0.013
 5103.00    1.37035   1.19707    0.013
 5104.00    1.34135   1.17727    0.014
 5105.00    1.25719   1.19594    0.014
 5106.00    1.18944   1.23927    0.014
 5107.00    1.15453   1.27400    0.014
 5108.00    1.11088   1.28162    0.013
 5109.00    1.05198   1.26971    0.013
 5110.00    1.05946   1.25212    0.013
 5111.00    1.16819   1.23293    0.013
 5112.00    1.26008   1.21261    0.013
 5113.00    1.32941   1.19667    0.014
 5114.00    1.38269   1.19046    0.014
 5115.00    1.41701   1.19632    0.014
 5116.00    1.46034   1.21615    0.014
 5117.00    1.51303   1.24517    0.014
 5118.00    1.50857   1.27224    0.014
 5119.00    1.45168   1.29253    0.014
 5120.00    1.43192   1.30958    0.014
 5121.00    1.44221   1.32738    0.014
 5122.00    1.29405   1.34445    0.014
 5123.00    1.03309   1.35231    0.014
 5124.00    1.00662   1.34239    0.014
 5125.00    1.12662   1.31465    0.014
 5126.00    1.26396   1.27529    0.014
 5127.00    1.41076   1.22974    0.014
 5128.00    1.45846   1.18509    0.014
 5129.00    1.45914   1.15493    0.014
 5130.00    1.56974   1.14819    0.014
 5131.00    1.72532   1.15622    0.014
 5132.00    1.73028   1.16314    0.014
 5133.00    1.68258   1.16463    0.014
 5134.00    1.50221   1.16875    0.014
 5135.00    1.28271   1.18390    0.014
 5136.00    1.19468   1.20896    0.014
 5137.00    1.13877   1.23424    0.014
 5138.00    1.19064   1.25352    0.014
 5139.00    1.26380   1.26904    0.014
 5140.00    1.24310   1.27867    0.014
 5141.00    1.20793   1.27048    0.014
 5142.00    1.30378   1.24067    0.014
 5143.00    1.41455   1.20477    0.015
 5144.00    1.31789   1.18450    0.014
 5145.00    1.20540   1.18617    0.014
 5146.00    1.18965   1.19267    0.014
 5147.00    1.17787   1.18779    0.014
 5148.00    1.28204   1.18085    0.014
 5149.00    1.38142   1.18408    0.014
 5150.00    1.23886   1.18721    0.014
 5151.00    1.09888   1.17920    0.014
 5152.00    1.00370   1.16940    0.014
 5153.00    0.94093   1.17120    0.014
 5154.00    1.22287   1.18109    0.014
 5155.00    1.44934   1.18378    0.014
 5156.00    1.25836   1.17319    0.014
 5157.00    1.10088   1.15917    0.014
 5158.00    1.13528   1.15476    0.014
 5159.00    1.18371   1.16694    0.014
 5160.00    1.29601   1.19645    0.014
 5161.00    1.38591   1.23671    0.014
 5162.00    1.39226   1.27463    0.014
 5163.00    1.37799   1.29849    0.014
 5164.00    1.29934   1.30628    0.014
 5165.00    1.22827   1.30273    0.014
 5166.00    1.17724   1.28863    0.014
 5167.00    1.13304   1.26203    0.014
 5168.00    1.10436   1.22371    0.014
 5169.00    1.04377   1.16849    0.013
 5170.00    0.92037   1.08531    0.013
 5171.00    0.90343   0.98133    0.013
 5172.00    1.06920   0.89421    0.014
 5173.00    1.25127   0.86526    0.014
 5174.00    1.45785   0.89439    0.014
 5175.00    1.47034   0.92936    0.014
 5176.00    1.22647   0.91771    0.014
 5177.00    1.11389   0.87241    0.013
 5178.00    1.15404   0.86242    0.013
 5179.00    1.18460   0.92820    0.013
 5180.00    1.20533   1.03560    0.013
 5181.00    1.11328   1.12544    0.013
 5182.00    0.91917   1.17486    0.013
 5183.00    0.85920   1.19287    0.013
 5184.00    0.90621   1.18673    0.013
 5185.00    0.98473   1.15216    0.013
 5186.00    1.08537   1.08196    0.013
 5187.00    1.22899   0.98181    0.013
 5188.00    1.39905   0.89007    0.013
 5189.00    1.42445   0.86651    0.014
 5190.00    1.37211   0.93517    0.000
 5191.00    1.26524   1.05203    0.000
 5192.00    1.13293   1.15107    0.000
 5193.00    1.17680   1.20570    0.000
 5194.00    1.29154   1.22678    0.000
 5195.00    1.22310   1.22019    0.000
 5196.00    1.09179   1.18189    0.000
 5197.00    1.09190   1.13147    0.000
 5198.00    1.12997   1.10651    0.000
 5199.00    1.16860   1.11705    0.000
 5200.00    1.20736   1.14286    0.000
 5201.00    1.18970   1.17080    0.000
 5202.00    1.16119   1.20216    0.000
 5203.00    1.19067   1.23474    0.000
 5204.00    1.22882   1.26045    0.000
 5205.00    1.01067   1.27238    0.000
 5206.00    0.76446   1.26759    0.000
 5207.00    1.01306   1.24635    0.000
 5208.00    1.29739   1.20789    0.000
 5209.00    1.41896   1.15198    0.000
 5210.00    1.53445   1.09084    0.000
 5211.00    1.46063   1.04593    0.014
 5212.00    1.38287   1.02505    0.014
 5213.00    1.19346   1.02204    0.014
 5214.00    1.01552   1.03900    0.014
 5215.00    1.02353   1.08423    0.014
 5216.00    1.03945   1.15192    0.014
 5217.00    1.13587   1.22023    0.014
 5218.00    1.25562   1.26434    0.014
 5219.00    1.54515   1.27042    0.014
 5220.00    1.74951   1.24670    0.015
 5221.00    1.47940   1.22149    0.014
 5222.00    1.26702   1.22116    0.014
 5223.00    1.31147   1.24850    0.014
 5224.00    1.32481   1.28548    0.014
 5225.00    1.22448   1.31332    0.014
 5226.00    1.16079   1.32322    0.014
 5227.00    1.20926   1.31062    0.014
 5228.00    1.25999   1.27128    0.014
 5229.00    1.31660   1.20728    0.014
 5230.00    1.31310   1.13257    0.013
 5231.00    1.17515   1.07350    0.014
 5232.00    1.07821   1.06123    0.014
 5233.00    1.06076   1.10744    0.013
 5234.00    1.13164   1.18514    0.013
 5235.00    1.35181   1.24930    0.013
 5236.00    1.53262   1.27323    0.013
 5237.00    1.65515   1.25847    0.013
 5238.00    1.58348   1.22827    0.013
 5239.00    1.25897   1.21378    0.013
 5240.00    1.14684   1.23133    0.013
 5241.00    1.27830   1.27252    0.013
 5242.00    1.28606   1.31504    0.013
 5243.00    1.16871   1.34032    0.013
 5244.00    1.16216   1.34568    0.013
 5245.00    1.25445   1.34160    0.013
 5246.00    1.31045   1.33779    0.013
 5247.00    1.33792   1.33706    0.013
 5248.00    1.39885   1.34068    0.014
 5249.00    1.48292   1.34589    0.013
 5250.00    1.44132   1.33745    0.013
 5251.00    1.32354   1.30193    0.013
 5252.00    1.29202   1.25313    0.013
 5253.00    1.30614   1.21917    0.013
 5254.00    1.35551   1.20581    0.014
 5255.00    1.42105   1.20051    0.014
 5256.00    1.45290   1.20241    0.014
 5257.00    1.47142   1.21698    0.014
 5258.00    1.29361   1.23419    0.014
 5259.00    1.04967   1.24075    0.014
 5260.00    1.04813   1.24538    0.014
 5261.00    1.11519   1.26985    0.014
 5262.00    1.06736   1.31561    0.014
 5263.00    0.99270   1.35711    0.014
 5264.00    1.00095   1.36821    0.014
 5265.00    1.02474   1.34093    0.014
 5266.00    0.98411   1.28215    0.015
 5267.00    0.93414   1.20589    0.015
 5268.00    0.96415   1.12890    0.015
 5269.00    1.00257   1.06603    0.015
 5270.00    1.20375   1.02822    0.015
 5271.00    1.41602   1.02141    0.015
 5272.00    1.48569   1.03430    0.015
 5273.00    1.55058   1.03406    0.015
 5274.00    1.33119   1.00599    0.015
 5275.00    1.12512   0.98783    0.014
 5276.00    1.35562   1.02367    0.014
 5277.00    1.55369   1.09953    0.014
 5278.00    1.25792   1.16443    0.014
 5279.00    1.00556   1.19390    0.014
 5280.00    1.17655   1.20516    0.014
 5281.00    1.31006   1.22867    0.014
 5282.00    1.17957   1.27491    0.014
 5283.00    1.09247   1.32242    0.014
 5284.00    1.24068   1.34089    0.014
 5285.00    1.40698   1.32183    0.014
 5286.00    1.65197   1.28109    0.014
 5287.00    1.80641   1.24066    0.014
 5288.00    1.63691   1.21847    0.014
 5289.00    1.52310   1.22909    0.014
 5290.00    1.57661   1.27569    0.014
 5291.00    1.58286   1.33728    0.013
 5292.00    1.46829   1.38172    0.013
 5293.00    1.38093   1.39738    0.013
 5294.00    1.35340   1.39921    0.013
 5295.00    1.34763   1.40286    0.013
 5296.00    1.38339   1.40638    0.013
 5297.00    1.39851   1.40037    0.013
 5298.00    1.37928   1.38409    0.013
 5299.00    1.38840   1.36177    0.013
 5300.00    1.43890   1.32860    0.013
 5301.00    1.44761   1.27601    0.013
 5302.00    1.40270   1.21484    0.013
 5303.00    1.35082   1.17757    0.013
 5304.00    1.29108   1.18433    0.013
 5305.00    1.30638   1.21798    0.013
 5306.00    1.39651   1.24921    0.013
 5307.00    1.43907   1.27442    0.013
 5308.00    1.43980   1.30844    0.013
 5309.00    1.45878   1.35212    0.013
 5310.00    1.49190   1.38707    0.013
 5311.00    1.42554   1.39844    0.013
 5312.00    1.29141   1.39224    0.013
 5313.00    1.22555   1.38781    0.013
 5314.00    1.20044   1.39552    0.013
 5315.00    1.23410   1.40740    0.013
 5316.00    1.29839   1.41057    0.014
 5317.00    1.39759   1.40198    0.013
 5318.00    1.51255   1.38769    0.013
 5319.00    1.33439   1.37354    0.013
 5320.00    1.04234   1.36008    0.013
 5321.00    1.13797   1.34678    0.013
 5322.00    1.36175   1.33750    0.013
 5323.00    1.33603   1.33566    0.013
 5324.00    1.24112   1.33774    0.013
 5325.00    1.18085   1.33751    0.013
 5326.00    1.12849   1.33091    0.013
 5327.00    1.38060   1.31407    0.013
 5328.00    1.68829   1.28589    0.014
 5329.00    1.42092   1.25481    0.014
 5330.00    1.07289   1.22913    0.014
 5331.00    1.09774   1.19708    0.014
 5332.00    1.16021   1.14059    0.014
 5333.00    1.20045   1.07865    0.014
 5334.00    1.23926   1.06360    0.014
 5335.00    1.24350   1.11636    0.013
 5336.00    1.24658   1.19784    0.013
 5337.00    1.20059   1.25944    0.013
 5338.00    1.16038   1.29318    0.013
 5339.00    1.28538   1.31799    0.013
 5340.00    1.39396   1.34114    0.013
 5341.00    1.26713   1.35340    0.013
 5342.00    1.14761   1.34835    0.013
 5343.00    1.09657   1.32627    0.013
 5344.00    1.07089   1.28810    0.013
 5345.00    1.21808   1.24507    0.013
 5346.00    1.32855   1.22391    0.013
 5347.00    1.24512   1.24066    0.013
 5348.00    1.17844   1.27791    0.013
 5349.00    1.18291   1.30431    0.013
 5350.00    1.21118   1.30721    0.013
 5351.00    1.32287   1.29631    0.013
 5352.00    1.40378   1.28356    0.013
 5353.00    1.39394   1.27147    0.013
 5354.00    1.39765   1.26446    0.013
 5355.00    1.43541   1.27491    0.012
 5356.00    1.49802   1.30585    0.012
 5357.00    1.61441   1.34270    0.012
 5358.00    1.65051   1.37216    0.012
 5359.00    1.53579   1.39578    0.012
 5360.00    1.39370   1.41797    0.012
 5361.00    1.20674   1.43525    0.013
 5362.00    1.14433   1.44331    0.013
 5363.00    1.26106   1.44321    0.013
 5364.00    1.40828   1.43644    0.013
 5365.00    1.59407   1.42120    0.013
 5366.00    1.57730   1.39685    0.013
 5367.00    1.33470   1.36907    0.013
 5368.00    1.22349   1.34531   -2.000
 5369.00    1.24147   1.32676   -2.000
 5370.00    1.27124   1.31140   -2.000
 5371.00    1.31125   1.30022   -2.000
 5372.00    1.28259   1.29191   -2.000
 5373.00    1.20147   1.27661   -2.000
 5374.00    1.22053   1.24306   -2.000
 5375.00    1.30686   1.19529   -2.000
 5376.00    1.32498   1.16116   -2.000
 5377.00    1.30298   1.17256   -2.000
 5378.00    1.28392   1.23119   -2.000
 5379.00    1.26639   1.30393   -2.000
 5380.00    1.22312   1.35508   -2.000
 5381.00    1.16842   1.37366   -2.000
 5382.00    1.15373   1.37220   -2.000
 5383.00    1.15432   1.36823    0.013
 5384.00    1.26297   1.36700    0.013
 5385.00    1.40667   1.36200    0.013
 5386.00    1.26085   1.34920    0.013
 5387.00    1.03643   1.33308    0.013
 5388.00    1.12997   1.32214    0.013
 5389.00    1.29434   1.32323    0.012
 5390.00    1.26871   1.33474    0.012
 5391.00    1.20933   1.34557    0.013
 5392.00    1.27292   1.34536    0.013
 5393.00    1.35320   1.33168    0.012
 5394.00    1.43245   1.30807    0.012
 5395.00    1.51159   1.28182    0.012
 5396.00    1.37340   1.26136    0.012
 5397.00    1.22213   1.25037    0.012
 5398.00    1.19063   1.24579    0.012
 5399.00    1.16261   1.24090    0.012
 5400.00    1.19707   1.22753    0.012
 5401.00    1.23014   1.20259    0.012
 5402.00    1.22771   1.17979    0.012
 5403.00    1.23424   1.18240    0.012
 5404.00    1.36227   1.21346    0.012
 5405.00    1.47108   1.25023    0.012
 5406.00    1.40699   1.27284    0.012
 5407.00    1.34645   1.27527    0.012
 5408.00    1.30947   1.25186    0.012
 5409.00    1.26008   1.20177    0.012
 5410.00    1.14691   1.14626    0.012
 5411.00    1.05830   1.11857    0.012
 5412.00    1.07170   1.13061    0.012
 5413.00    1.12722   1.15993    0.014
 5414.00    1.32743   1.17811    0.032
 5415.00    1.50149   1.18596   -1.000
 5416.00    1.59987   1.20584   -1.000
 5417.00    1.66313   1.24433   -1.000
 5418.00    1.63962   1.28264   -1.000
 5419.00    1.62038   1.30452   -1.000
 5420.00    1.61025   1.31562   -1.000
 5421.00    1.59647   1.32963   -1.000
 5422.00    1.57594   1.34659   -1.000
 5423.00    1.53308   1.35382   -1.000
 5424.00    1.45412   1.34427   -1.000
 5425.00    1.34122   1.32609    0.060
 5426.00    1.18022   1.31289    0.018
 5427.00    1.15777   1.30729    0.013
 5428.00    1.30810   1.29997    0.013
 5429.00    1.34723   1.28961    0.013
 5430.00    1.26411   1.29127    0.013
 5431.00    1.20303   1.31183    0.012
 5432.00    1.16332   1.32965    0.012
 5433.00    1.09403   1.31500    0.012
 5434.00    0.99946   1.26867    0.012
 5435.00    0.98503   1.22684    0.012
 5436.00    1.03093   1.21685    0.012
 5437.00    1.10585   1.22382    0.012
 5438.00    1.19997   1.21896    0.012
 5439.00    1.27864   1.20046    0.012
 5440.00    1.34835   1.18934    0.012
 5441.00    1.40550   1.20244    0.012
 5442.00    1.45630   1.24069    0.012
 5443.00    1.53008   1.29285    0.012
 5444.00    1.61388   1.34294    0.012
 5445.00    1.53995   1.37829    0.012
 5446.00    1.40686   1.39555    0.012
 5447.00    1.39547   1.39810    0.012
 5448.00    1.42280   1.38685    0.012
 5449.00    1.50580   1.35578    0.012
 5450.00    1.60361   1.30112    0.012
 5451.00    1.48598   1.23676    0.012
 5452.00    1.32149   1.19504    0.012
 5453.00    1.25055   1.20063    0.012
 5454.00    1.19577   1.24364    0.012
 5455.00    1.20628   1.28959    0.012
 5456.00    1.22534   1.31303    0.012
 5457.00    1.27759   1.30987    0.012
 5458.00    1.33290   1.28489    0.012
 5459.00    1.29910   1.24387    0.012
 5460.00    1.26028   1.20210    0.012
 5461.00    1.34466   1.18641    0.012
 5462.00    1.43279   1.21220    0.012
 5463.00    1.62484   1.26205    0.012
 5464.00    1.80453   1.30105    0.012
 5465.00    1.69422   1.30900    0.012
 5466.00    1.58359   1.29012    0.012
 5467.00    1.46872   1.26063    0.012
 5468.00    1.36385   1.23828    0.012
 5469.00    1.34546   1.23626    0.012
 5470.00    1.31511   1.25313    0.012
 5471.00    1.20816   1.27396    0.012
 5472.00    1.11217   1.28765    0.012
 5473.00    1.07119   1.29323    0.012
 5474.00    1.04192   1.29069    0.012
 5475.00    1.06025   1.28041    0.012
 5476.00    1.09919   1.26782    0.012
 5477.00    1.20750   1.25666    0.012
 5478.00    1.30717   1.24398   -2.000
 5479.00    1.38231   1.22660   -2.000
 5480.00    1.42146   1.20312   -2.000
 5481.00    1.37326   1.17547   -2.000
 5482.00    1.33044   1.15886   -2.000
 5483.00    1.29887   1.17156   -2.000
 5484.00    1.15639   1.20441   -2.000
 5485.00    0.81193   1.22496   -2.000
 5486.00    0.73585   1.21957   -2.000
 5487.00    1.08696   1.20944   -2.000
 5488.00    1.12415   1.21985   -2.000
 5489.00    0.72283   1.25115   -2.000
 5490.00    0.67251   1.28228   -2.000
 5491.00    1.05370   1.29199   -2.000
 5492.00    1.37870   1.27777   -2.000
 5493.00    1.64281   1.25784   -2.000
 5494.00    1.69321   1.25101   -2.000
 5495.00    1.53932   1.25866   -2.000
 5496.00    1.48799   1.27071   -2.000
 5497.00    1.52310   1.27830   -2.000
 5498.00    1.52208   1.27809   -2.000
 5499.00    1.49424   1.27394   -2.000
 5500.00    1.39029   1.27141   -2.000
 5501.00    1.23673   1.26842   -2.000
 5502.00    1.22417   1.26276    0.011
 5503.00    1.29205   1.26288    0.011
 5504.00    1.30434   1.27367    0.011
 5505.00    1.28902   1.28126    0.011
 5506.00    1.23263   1.27151    0.012
 5507.00    1.15860   1.25212    0.012
 5508.00    1.15806   1.24004    0.012
 5509.00    1.18460   1.23729    0.012
 5510.00    1.14958   1.23266    0.012
 5511.00    1.09535   1.22244    0.012
 5512.00    1.17223   1.21861    0.012
 5513.00    1.28322   1.23060    0.012
 5514.00    1.41164   1.24812    0.012
 5515.00    1.54376   1.25261    0.012
 5516.00    1.51673   1.23710    0.012
 5517.00    1.46299   1.20995    0.012
 5518.00    1.42313   1.18748    0.012
 5519.00    1.38503   1.18210    0.012
 5520.00    1.31440   1.19442    0.012
 5521.00    1.24090   1.21770    0.012
 5522.00    1.25894   1.24669    0.012
 5523.00    1.28176   1.27769    0.012
 5524.00    1.22939   1.30336    0.012
 5525.00    1.17751   1.31592    0.011
 5526.00    1.26940   1.31591    0.012
 5527.00    1.35545   1.31107    0.012
 5528.00    1.31583   1.30657    0.012
 5529.00    1.26467   1.30047    0.011
 5530.00    1.07283   1.28719    0.011
 5531.00    0.91129   1.26302    0.011
 5532.00    1.00235   1.23107    0.011
 5533.00    1.09364   1.20484    0.012
 5534.00    1.18639   1.20176    0.011
 5535.00    1.26538   1.22467    0.011
 5536.00    1.27705   1.25529    0.011
 5537.00    1.28976   1.27327    0.011
 5538.00    1.30663   1.27401    0.011
 5539.00    1.33056   1.26514    0.013
 5540.00    1.37780   1.25603    0.030
 5541.00    1.41579   1.25315   -1.000
 5542.00    1.42801   1.25746   -1.000
 5543.00    1.41594   1.26630   -1.000
 5544.00    1.34592   1.27909   -1.000
 5545.00    1.31234   1.29522   -1.000
 5546.00    1.35389   1.30784   -1.000
 5547.00    1.36723   1.30826    0.062
 5548.00    1.33000   1.29696    0.016
 5549.00    1.32528   1.28398    0.011
 5550.00    1.37156   1.27740    0.011
 5551.00    1.37948   1.27842    0.011
 5552.00    1.33462   1.28744    0.011
 5553.00    1.28515   1.30451    0.011
 5554.00    1.23012   1.32366    0.011
 5555.00    1.17045   1.33603    0.011
 5556.00    1.10585   1.33737    0.011
 5557.00    1.14398   1.32815    0.011
 5558.00    1.27892   1.31154    0.011
 5559.00    1.31873   1.29433    0.011
 5560.00    1.27950   1.28435    0.011
 5561.00    1.21223   1.28327    0.011
 5562.00    1.12445   1.28560    0.011
 5563.00    1.02586   1.28679    0.011
 5564.00    0.92032   1.28689    0.011
 5565.00    0.96795   1.28556    0.012
 5566.00    1.10164   1.27975    0.012
 5567.00    1.21138   1.26870    0.012
 5568.00    1.30941   1.25682    0.011
 5569.00    1.36090   1.24864    0.011
 5570.00    1.39274   1.24302    0.012
 5571.00    1.30583   1.23692    0.011
 5572.00    1.17596   1.23161    0.011
 5573.00    1.14250   1.22944    0.011
 5574.00    1.13854   1.23019    0.011
 5575.00    1.11361   1.23378    0.011
 5576.00    1.08335   1.23846    0.011
 5577.00    1.09198   1.23883    0.011
 5578.00    1.10867   1.23590    0.011
 5579.00    1.11025   1.23933    0.011
 5580.00    1.10936   1.25135    0.011
 5581.00    1.12387   1.26359    0.011
 5582.00    1.14026   1.27123    0.011
 5583.00    1.16564   1.27609    0.011
 5584.00    1.19178   1.27975    0.011
 5585.00    1.16590   1.28181    0.011
 5586.00    1.13751   1.28053    0.011
 5587.00    1.18929   1.27492    0.011
 5588.00    1.24304   1.26624    0.011
 5589.00    1.34283   1.25322    0.011
 5590.00    1.43813   1.22988    0.011
 5591.00    1.44428   1.19341    0.011
 5592.00    1.44374   1.15201    0.011
 5593.00    1.36560   1.12147    0.011
 5594.00    1.28671   1.11381    0.011
 5595.00    1.20192   1.12894    0.012
 5596.00    1.11966   1.15539    0.012
 5597.00    1.05272   1.17847    0.012
 5598.00    1.00293   1.19110    0.011
 5599.00    1.03492   1.19912    0.012
 5600.00    1.07577   1.21365    0.012
 5601.00    1.15099   1.23478    0.012
 5602.00    1.20472   1.24682    0.012
 5603.00    1.18890   1.23744    0.012
 5604.00    1.21040   1.21378    0.012
 5605.00    1.33413   1.19045    0.012
 5606.00    1.39827   1.17296    0.012
 5607.00    1.32255   1.16305    0.012
 5608.00    1.29543   1.16831    0.012
 5609.00    1.36689   1.19548    0.012
 5610.00    1.41254   1.23841    0.012
 5611.00    1.41260   1.28023    0.011
 5612.00    1.33350   1.30710    0.011
 5613.00    1.13208   1.31668    0.011
 5614.00    0.99983   1.31562    0.011
 5615.00    0.96145   1.31281    0.011
 5616.00    0.96516   1.31329    0.011
 5617.00    1.01917   1.31347    0.011
 5618.00    1.04009   1.30049    0.011
 5619.00    1.02616   1.26289    0.011
 5620.00    1.08139   1.20906    0.011
 5621.00    1.20090   1.16890    0.011
 5622.00    1.26973   1.16465    0.011
 5623.00    1.29705   1.18670    0.011
 5624.00    1.28130   1.21021    0.011
 5625.00    1.23450   1.22505    0.011
 5626.00    1.22220   1.23585    0.011
 5627.00    1.23175   1.24225    0.011
 5628.00    1.28662   1.23439    0.011
 5629.00    1.36658   1.20971    0.011
 5630.00    1.38891   1.18439    0.011
 5631.00    1.38353   1.17872    0.011
 5632.00    1.31370   1.19582    0.011
 5633.00    1.21709   1.22342    0.011
 5634.00    1.24802   1.25063    0.011
 5635.00    1.32426   1.27289    0.011
 5636.00    1.32172   1.28694    0.011
 5637.00    1.29553   1.29036    0.011
 5638.00    1.28870   1.28390    0.011
 5639.00    1.28669   1.27064    0.011
 5640.00    1.24381   1.25376    0.011
 5641.00    1.19268   1.23609    0.011
 5642.00    1.19723   1.22155    0.011
 5643.00    1.21060   1.21458    0.011
 5644.00    1.19816   1.21534    0.011
 5645.00    1.18268   1.21729    0.011
 5646.00    1.26417   1.21478    0.011
 5647.00    1.35340   1.21082    0.011
 5648.00    1.30046   1.21198    0.011
 5649.00    1.24119   1.21933    0.011
 5650.00    1.27516   1.22928    0.011
 5651.00    1.30914   1.23892    0.011
 5652.00    1.29196   1.24644    0.011
 5653.00    1.27580   1.24978    0.011
 5654.00    1.27834   1.24874    0.011
 5655.00    1.28612   1.24781    0.011
 5656.00    1.35185   1.25246    0.011
 5657.00    1.39833   1.26126    0.011
 5658.00    1.29554   1.26522    0.011
 5659.00    1.19292   1.25789    0.011
 5660.00    1.09134   1.24314    0.011
 5661.00    1.01296   1.22706    0.011
 5662.00    1.04246   1.20666    0.010
 5663.00    1.07314   1.17893    0.010
 5664.00    1.10827   1.15665    0.010
 5665.00    1.12715   1.15545    0.010
 5666.00    1.09448   1.16984    0.010
 5667.00    1.07067   1.18272    0.010
 5668.00    1.07070   1.19144    0.010
 5669.00    1.06686   1.20545    0.011
 5670.00    1.05412   1.22504    0.010
 5671.00    1.09503   1.23836    0.010
 5672.00    1.24307   1.23764    0.010
 5673.00    1.34783   1.22837    0.010
 5674.00    1.37733   1.22173    0.011
 5675.00    1.41055   1.22369    0.011
 5676.00    1.44945   1.23431    0.011
 5677.00    1.41648   1.25188    0.011
 5678.00    1.28739   1.27211    0.011
 5679.00    1.17674   1.28730    0.011
 5680.00    1.08784   1.29305    0.011
 5681.00    1.07100   1.29318    0.011
 5682.00    1.12903   1.29275    0.011
 5683.00    1.12589   1.29068    0.011
 5684.00    1.06672   1.28404    0.011
 5685.00    1.04532   1.27331    0.011
 5686.00    1.05443   1.25925    0.011
 5687.00    1.07539   1.24200    0.011
 5688.00    1.10478   1.22670    0.011
 5689.00    1.15198   1.22109    0.011
 5690.00    1.21028   1.22402    0.011
 5691.00    1.23793   1.22470    0.011
 5692.00    1.24887   1.21698    0.011
 5693.00    1.20936   1.20800    0.011
 5694.00    1.14598   1.20953    0.011
 5695.00    1.11161   1.22506    0.011
 5696.00    1.08910   1.24818    0.010
 5697.00    1.04545   1.26980    0.010
 5698.00    0.99445   1.28353    0.011
 5699.00    0.99169   1.28723    0.011
 5700.00    1.00311   1.28361    0.010
 5701.00    1.07118   1.27692    0.010
 5702.00    1.15305   1.26760    0.010
 5703.00    1.22831   1.25352    0.010
 5704.00    1.30228   1.23584    0.010
 5705.00    1.25243   1.21818    0.010
 5706.00    1.18355   1.20283    0.010
 5707.00    1.17824   1.19289    0.010
 5708.00    1.18012   1.19292    0.010
 5709.00    1.26308   1.20117    0.011
 5710.00    1.35219   1.20668    0.011
 5711.00    1.20177   1.19911    0.011
 5712.00    1.04161   1.17858    0.010
 5713.00    0.94250   1.15367    0.010
 5714.00    0.85065   1.13399    0.011
 5715.00    1.03950   1.12556    0.011
 5716.00    1.21777   1.12947    0.011
 5717.00    1.21441   1.14432    0.011
 5718.00    1.21625   1.16940    0.011
 5719.00    1.27307   1.20104    0.011
 5720.00    1.32575   1.23058    0.011
 5721.00    1.34741   1.25098    0.011
 5722.00    1.35251   1.26187    0.011
 5723.00    1.26302   1.26739    0.011
 5724.00    1.17325   1.27251    0.011
 5725.00    1.08221   1.28012    0.011
 5726.00    1.03326   1.29017    0.011
 5727.00    1.14093   1.30092    0.011
 5728.00    1.22355   1.30953    0.011
 5729.00    1.22821   1.31220    0.011
 5730.00    1.24545   1.30602    0.011
 5731.00    1.29590   1.29113    0.011
 5732.00    1.34248   1.27321    0.011
 5733.00    1.38027   1.26219    0.011
 5734.00    1.38967   1.26263    0.011
 5735.00    1.34324   1.26671    0.011
 5736.00    1.28843   1.26460    0.011
 5737.00    1.21926   1.25908    0.010
 5738.00    1.16362   1.26105    0.010
 5739.00    1.12827   1.27293    0.010
 5740.00    1.10719   1.28568    0.000
 5741.00    1.10493   1.29052    0.000
 5742.00    1.15494   1.28715    0.000
 5743.00    1.26564   1.28107    0.000
 5744.00    1.34219   1.27699    0.000
 5745.00    1.38375   1.27540    0.000
 5746.00    1.41603   1.27404    0.000
 5747.00    1.43994   1.27143    0.000
 5748.00    1.42788   1.26959    0.000
 5749.00    1.38718   1.27281    0.000
 5750.00    1.35059   1.28150    0.000
 5751.00    1.31687   1.28814    0.000
 5752.00    1.31177   1.28375    0.000
 5753.00    1.32424   1.27002    0.000
 5754.00    1.28928   1.25984    0.000
 5755.00    1.22888   1.26154    0.000
 5756.00    1.17023   1.26678    0.000
 5757.00    1.11238   1.26015    0.000
 5758.00    1.10148   1.23865    0.000
 5759.00    1.10943   1.21715    0.000
 5760.00    1.07777   1.21426    0.000
 5761.00    1.03254   1.23440    0.000
 5762.00    1.15511   1.26429    0.000
 5763.00    1.32603   1.28533    0.000
 5764.00    1.39403   1.28687    0.000
 5765.00    1.43753   1.26939    0.000
 5766.00    1.34902   1.24139    0.000
 5767.00    1.23518   1.21580    0.000
 5768.00    1.22790   1.20609    0.000
 5769.00    1.23649   1.21901    0.000
 5770.00    1.21477   1.24802    0.000
 5771.00    1.18976   1.27746    0.000
 5772.00    1.13166   1.29582    0.000
 5773.00    1.07118   1.30190    0.000
 5774.00    1.16407   1.29985    0.000
 5775.00    1.26261   1.29339    0.000
 5776.00    1.33879   1.28474    0.000
 5777.00    1.41167   1.27560    0.000
 5778.00    1.36986   1.26769    0.000
 5779.00    1.32460   1.26248    0.000
 5780.00    1.22395   1.26105    0.000
 5781.00    1.13851   1.26392    0.000
 5782.00    1.20707   1.26894    0.000
 5783.00    1.27763   1.26961    0.000
 5784.00    1.36272   1.25786    0.000
 5785.00    1.43089   1.23015    0.000
 5786.00    1.40505   1.19282    0.000
 5787.00    1.37048   1.16046    0.000
 5788.00    1.29718   1.14368    0.000
 5789.00    1.24400   1.14003    0.000
 5790.00    1.26412   1.14206    0.000
 5791.00    1.27729   1.15050   -2.000
 5792.00    1.26926   1.17057   -2.000
 5793.00    1.27635   1.19881   -2.000
 5794.00    1.32271   1.22286   -2.000
 5795.00    1.32869   1.23347   -2.000
 5796.00    1.24453   1.23305   -2.000
 5797.00    1.18118   1.23256   -2.000
 5798.00    1.15809   1.24079   -2.000
 5799.00    1.14637   1.25657   -2.000
 5800.00    1.15382   1.27111   -2.000
 5801.00    1.19029   1.27528   -2.000
 5802.00    1.26964   1.26674   -2.000
 5803.00    1.30335   1.25460   -2.000
 5804.00    1.27774   1.25369   -2.000
 5805.00    1.24111   1.26968   -2.000
 5806.00    1.19187   1.29286   -2.000
 5807.00    1.22683   1.30827   -2.000
 5808.00    1.34682   1.30751   -2.000
 5809.00    1.38342   1.29214   -2.000
 5810.00    1.34576   1.27157   -2.000
 5811.00    1.36730   1.25698    0.000
 5812.00    1.43530   1.25342    0.000
 5813.00    1.40524   1.25803    0.000
 5814.00    1.30750   1.26557    0.000
 5815.00    1.25578   1.27325    0.000
 5816.00    1.23189   1.27993    0.000
 5817.00    1.23515   1.28382    0.000
 5818.00    1.25275   1.28265    0.000
 5819.00    1.28790   1.27481    0.000
 5820.00    1.33110   1.26104    0.000
 5821.00    1.42500   1.24694    0.000
 5822.00    1.53891   1.24209    0.000
 5823.00    1.52972   1.25217    0.000
 5824.00    1.47915   1.27238    0.000
 5825.00    1.36628   1.29144    0.000
 5826.00    1.23583   1.30146    0.000
 5827.00    1.24864   1.30202    0.000
 5828.00    1.29479   1.29744    0.000
 5829.00    1.34462   1.29300    0.000
 5830.00    1.39514   1.29182    0.000
 5831.00    1.42732   1.29334    0.000
 5832.00    1.45685   1.29525    0.000
 5833.00    1.43796   1.29676    0.000
 5834.00    1.41401   1.29868    0.000
 5835.00    1.38451   1.30071    0.000
 5836.00    1.35464   1.30098    0.000
 5837.00    1.35654   1.29821    0.000
 5838.00    1.35949   1.29262    0.000
 5839.00    1.37675   1.28509    0.000
 5840.00    1.39494   1.27793    0.000
 5841.00    1.44208   1.27429    0.000
 5842.00    1.48372   1.27430    0.000
 5843.00    1.44222   1.27483    0.000
 5844.00    1.39779   1.27551    0.000
 5845.00    1.32487   1.28022    0.000
 5846.00    1.25481   1.29041    0.000
 5847.00    1.20489   1.30151    0.000
 5848.00    1.17149   1.30752    0.000
 5849.00    1.22733   1.30576    0.000
 5850.00    1.29053   1.29675    0.000
 5851.00    1.38561   1.28273    0.000
 5852.00    1.44143   1.26747    0.000
 5853.00    1.35718   1.25571    0.000
 5854.00    1.27954   1.25044    0.000
 5855.00    1.22170   1.24967    0.000
 5856.00    1.20340   1.24692    0.000
 5857.00    1.28602   1.23678    0.000
 5858.00    1.31664   1.22089    0.000
 5859.00    1.23309   1.20709    0.000
 5860.00    1.16952   1.20011    0.000
 5861.00    1.14398   1.19467    0.000
 5862.00    1.15842   1.18312    0.000
 5863.00    1.23933   1.16879    0.000
 5864.00    1.29891   1.16436    0.000
 5865.00    1.32744   1.17603    0.000
 5866.00    1.29329   1.19574    0.000
 5867.00    1.17886   1.21117    0.000
 5868.00    1.11090   1.21817    0.000
 5869.00    1.09540   1.22075    0.000
 5870.00    1.09959   1.22215    0.000
 5871.00    1.12336   1.22111    0.000
 5872.00    1.15859   1.21825    0.000
 5873.00    1.20387   1.21975    0.000
 5874.00    1.24840   1.23006    0.000
 5875.00    1.29234   1.24477    0.000
 5876.00    1.28544   1.25487    0.000
 5877.00    1.24395   1.25588    0.000
 5878.00    1.15401   1.25076    0.000
 5879.00    1.03517   1.24580    0.000
 5880.00    0.98982   1.24426    0.000
 5881.00    0.98267   1.24362    0.000
 5882.00    1.04494   1.23926    0.000
 5883.00    1.13852   1.22951    0.000
 5884.00    1.18092   1.21610    0.000
 5885.00    1.20349   1.20243    0.000
 5886.00    1.14948   1.19302    0.000
 5887.00    1.07022   1.19061    0.000
 5888.00    0.98389   1.19231    0.000
 5889.00    0.89559   1.19231    0.000
 5890.00    0.91199   1.18816    0.000
 5891.00    0.95220   1.17806    0.000
 5892.00    1.01373   1.15176    0.000
 5893.00    1.07915   1.09316    0.000
 5894.00    1.07061   1.00043    0.000
 5895.00    1.05174   0.90325    0.000
 5896.00    1.15115   0.84964    0.000
 5897.00    1.26243   0.86324    0.000
 5898.00    1.27172   0.91684    0.000
 5899.00    1.27453   0.95715    0.000
 5900.00    1.30562   0.95433    0.000
 5901.00    1.33747   0.92456    0.011
 5902.00    1.34494   0.91156    0.010
 5903.00    1.35208   0.94465    0.010
 5904.00    1.34990   1.01194    0.010
 5905.00    1.34333   1.07980    0.010
 5906.00    1.27436   1.12941    0.010
 5907.00    1.20862   1.16147    0.010
 5908.00    1.17293   1.18056    0.010
 5909.00    1.14075   1.18961    0.010
 5910.00    1.13243   1.19168    0.010
 5911.00    1.12556   1.19059    0.010
 5912.00    1.12635   1.19092    0.010
 5913.00    1.13886   1.19558    0.010
 5914.00    1.20102   1.20300    0.010
 5915.00    1.24593   1.20961    0.010
 5916.00    1.23055   1.21366    0.010
 5917.00    1.21266   1.21360    0.010
 5918.00    1.18742   1.20605    0.010
 5919.00    1.19081   1.19001    0.010
 5920.00    1.26601   1.17191    0.010
 5921.00    1.30708   1.16179    0.010
 5922.00    1.27448   1.16438    0.010
 5923.00    1.26675   1.17632    0.010
 5924.00    1.30565   1.19086    0.010
 5925.00    1.30363   1.20222    0.010
 5926.00    1.23463   1.20765    0.010
 5927.00    1.16057   1.20754    0.010
 5928.00    1.07925   1.20530    0.010
 5929.00    1.04193   1.20567    0.010
 5930.00    1.06018   1.21017    0.010
 5931.00    1.08445   1.21556    0.010
 5932.00    1.11540   1.21707    0.010
 5933.00    1.11060   1.21161    0.010
 5934.00    1.07068   1.20024    0.010
 5935.00    1.04559   1.18931    0.010
 5936.00    1.03331   1.18660    0.010
 5937.00    1.07422   1.19370    0.010
 5938.00    1.15568   1.20251    0.010
 5939.00    1.16026   1.20316    0.010
 5940.00    1.11332   1.19630    0.010
 5941.00    1.10432   1.19215    0.010
 5942.00    1.11760   1.19750    0.010
 5943.00    1.15784   1.20864    0.010
 5944.00    1.21188   1.21721    0.009
 5945.00    1.20528   1.21767    0.009
 5946.00    1.17180   1.20941    0.009
 5947.00    1.10027   1.19804    0.009
 5948.00    1.01424   1.19282    0.010
 5949.00    0.95378   1.19819    0.010
 5950.00    0.90160   1.21020    0.010
 5951.00    0.94009   1.22097    0.010
 5952.00    1.00314   1.22348    0.010
 5953.00    1.09318   1.21518    0.010
 5954.00    1.18920   1.20112    0.010
 5955.00    1.24315   1.19100    0.010
 5956.00    1.28965   1.18935    0.010
 5957.00    1.26625   1.19059    0.010
 5958.00    1.23340   1.18821    0.010
 5959.00    1.20156   1.18468    0.010
 5960.00    1.16982   1.18510    0.010
 5961.00    1.22070   1.18669    0.010
 5962.00    1.27650   1.18432    0.010
 5963.00    1.27404   1.18102    0.010
 5964.00    1.26983   1.18437    0.010
 5965.00    1.22611   1.19648    0.010
 5966.00    1.18509   1.21255    0.010
 5967.00    1.21269   1.22599    0.010
 5968.00    1.23970   1.23273    0.010
 5969.00    1.25869   1.23217    0.010
 5970.00    1.27082   1.22637    0.010
 5971.00    1.22158   1.21919    0.010
 5972.00    1.18010   1.21591    0.010
 5973.00    1.18972   1.21979    0.010
 5974.00    1.20578   1.22842    0.009
 5975.00    1.25483   1.23721    0.010
 5976.00    1.28074   1.24370    0.010
 5977.00    1.21086   1.24688    0.009
 5978.00    1.14664   1.24569    0.009
 5979.00    1.10181   1.23912    0.009
 5980.00    1.05997   1.22634    0.010
 5981.00    1.02678   1.20855    0.009
 5982.00    1.02141   1.19113    0.009
 5983.00    1.08462   1.18137    0.009
 5984.00    1.14911   1.18294    0.010
 5985.00    1.21632   1.19332    0.010
 5986.00    1.25898   1.20485    0.010
 5987.00    1.25633   1.20807    0.010
 5988.00    1.24280   1.19794    0.010
 5989.00    1.21172   1.17872    0.010
 5990.00    1.18804   1.16243    0.010
 5991.00    1.17482   1.15999    0.010
 5992.00    1.14822   1.17084    0.010
 5993.00    1.10496   1.18574    0.010
 5994.00    1.12300   1.19814    0.010
 5995.00    1.20830   1.20610    0.010
 5996.00    1.25186   1.20900    0.010
 5997.00    1.25502   1.20892    0.010
 5998.00    1.19857   1.21137    0.010
 5999.00    1.09126   1.21881    0.010
 6000.00    1.05619   1.22546    0.010
 6001.00    1.07541   1.22367    0.010
 6002.00    1.09054   1.21227    0.010
 6003.00    1.10296   1.19774    0.009
 6004.00    1.11851   1.18883    0.009
 6005.00    1.13586   1.18896    0.009
 6006.00    1.18365   1.19359    0.009
 6007.00    1.24678   1.19550    0.009
 6008.00    1.30369   1.19224    0.009
 6009.00    1.35790   1.18826    0.010
 6010.00    1.35590   1.18703    0.010
 6011.00    1.33286   1.18391    0.010
 6012.00    1.25125   1.17345    0.010
 6013.00    1.15103   1.15922    0.010
 6014.00    1.10046   1.15255    0.010
 6015.00    1.06305   1.16156    0.010
 6016.00    1.06680   1.17929    0.010
 6017.00    1.07948   1.18994    0.010
 6018.00    1.06892   1.18670    0.010
 6019.00    1.05437   1.17706    0.010
 6020.00    1.11131   1.17125    0.010
 6021.00    1.17760   1.17034    0.010
 6022.00    1.22387   1.16967    0.010
 6023.00    1.26831   1.16817    0.010
 6024.00    1.25480   1.16643    0.010
 6025.00    1.23807   1.16284    0.010
 6026.00    1.26096   1.15810    0.010
 6027.00    1.28444   1.15654    0.010
 6028.00    1.28151   1.16048    0.010
 6029.00    1.27957   1.16837    0.009
 6030.00    1.30053   1.17806    0.010
 6031.00    1.32037   1.18830    0.010
 6032.00    1.32578   1.19717    0.010
 6033.00    1.33460   1.20443    0.010
 6034.00    1.37274   1.21205    0.009
 6035.00    1.40494   1.21946    0.009
 6036.00    1.39917   1.22436    0.009
 6037.00    1.37956   1.22727    0.009
 6038.00    1.29073   1.23055    0.009
 6039.00    1.21116   1.23435    0.009
 6040.00    1.16907   1.23702    0.009
 6041.00    1.14654   1.23805    0.009
 6042.00    1.18972   1.23804    0.010
 6043.00    1.21485   1.23695    0.010
 6044.00    1.18882   1.23389    0.010
 6045.00    1.16376   1.22874    0.010
 6046.00    1.14104   1.22356    0.010
 6047.00    1.11151   1.22129    0.010
 6048.00    1.06778   1.22374    0.010
 6049.00    1.04731   1.23071    0.010
 6050.00    1.06912   1.23934    0.010
 6051.00    1.11399   1.24621    0.010
 6052.00    1.19553   1.24987    0.010
 6053.00    1.25801   1.25045    0.010
 6054.00    1.29393   1.24907    0.010
 6055.00    1.28774   1.24779    0.010
 6056.00    1.22987   1.24739    0.010
 6057.00    1.16587   1.24539    0.010
 6058.00    1.09524   1.23914    0.010
 6059.00    1.05898   1.22928    0.010
 6060.00    1.05551   1.21863    0.010
 6061.00    1.09157   1.20929    0.010
 6062.00    1.16089   1.20318    0.009
 6063.00    1.19279   1.20284    0.009
 6064.00    1.19696   1.20890    0.009
 6065.00    1.16420   1.21817    0.009
 6066.00    1.10740   1.22489    0.009
 6067.00    1.09319   1.22416    0.009
 6068.00    1.10321   1.21443    0.009
 6069.00    1.12781   1.19788    0.009
 6070.00    1.15962   1.18031    0.009
 6071.00    1.18083   1.17152    0.009
 6072.00    1.19749   1.18010    0.009
 6073.00    1.20593   1.20349    0.010
 6074.00    1.21135   1.22902    0.010
 6075.00    1.16667   1.24635    0.010
 6076.00    1.10639   1.25442    0.009
 6077.00    1.09692   1.25761    0.009
 6078.00    1.10064   1.25927    0.009
 6079.00    1.16143   1.25971    0.010
 6080.00    1.23430   1.25758    0.010
 6081.00    1.28012   1.25122    0.010
 6082.00    1.32141   1.23972    0.010
 6083.00    1.34150   1.22408    0.010
 6084.00    1.35891   1.20819    0.010
 6085.00    1.30660   1.19680    0.010
 6086.00    1.24819   1.19006    0.010
 6087.00    1.25773   1.18450    0.010
 6088.00    1.27078   1.18009    0.010
 6089.00    1.21420   1.17951    0.009
 6090.00    1.15644   1.18229    0.009
 6091.00    1.10471   1.18593    0.009
 6092.00    1.05673   1.18999    0.009
 6093.00    1.08878   1.19412    0.009
 6094.00    1.12142   1.19482    0.009
 6095.00    1.16116   1.18883    0.009
 6096.00    1.19179   1.17901    0.009
 6097.00    1.14693   1.17223    0.009
 6098.00    1.10786   1.17250    0.009
 6099.00    1.10472   1.17975    0.009
 6100.00    1.11565   1.19156    0.009
 6101.00    1.19507   1.20281    0.009
 6102.00    1.26499   1.20870    0.009
 6103.00    1.29727   1.20983    0.009
 6104.00    1.31709   1.21017    0.010
 6105.00    1.29589   1.20936    0.010
 6106.00    1.27529   1.19960    0.010
 6107.00    1.25634   1.17421    0.010
 6108.00    1.23857   1.14195    0.010
 6109.00    1.22361   1.12492    0.010
 6110.00    1.19809   1.13493    0.010
 6111.00    1.15086   1.16101    0.010
 6112.00    1.11332   1.18386    0.010
 6113.00    1.09315   1.19495    0.010
 6114.00    1.08602   1.19924    0.010
 6115.00    1.09934   1.20276    0.009
 6116.00    1.11583   1.20505    0.009
 6117.00    1.13669   1.20529    0.009
 6118.00    1.12682   1.20712    0.009
 6119.00    1.07978   1.21289    0.009
 6120.00    1.03527   1.21869    0.009
 6121.00    0.99344   1.21866    0.009
 6122.00    0.96717   1.21291    0.009
 6123.00    0.95553   1.20582    0.009
 6124.00    0.95719   1.19717    0.009
 6125.00    0.96990   1.18205    0.009
 6126.00    0.98589   1.15853    0.009
 6127.00    1.00427   1.13342    0.009
 6128.00    1.05908   1.12098    0.009
 6129.00    1.13725   1.12993    0.009
 6130.00    1.15786   1.15217    0.009
 6131.00    1.14620   1.17132    0.009
 6132.00    1.12863   1.17814    0.010
 6133.00    1.10820   1.17546    0.010
 6134.00    1.13616   1.17254    0.010
 6135.00    1.18453   1.17663    0.010
 6136.00    1.18882   1.18780    0.010
 6137.00    1.17721   1.20027    0.010
 6138.00    1.15381   1.20674    0.010
 6139.00    1.12682   1.20036    0.010
 6140.00    1.09667   1.17585    0.010
 6141.00    1.06571   1.13384    0.010
 6142.00    1.06585   1.08744    0.010
 6143.00    1.07241   1.06103    0.010
 6144.00    1.07382   1.07069    0.010
 6145.00    1.07438   1.10629    0.009
 6146.00    1.05467   1.14092    0.009
 6147.00    1.03250   1.15882    0.009
 6148.00    1.07628   1.16693    0.009
 6149.00    1.12556   1.17826    0.009
 6150.00    1.14967   1.19433    0.009
 6151.00    1.17258   1.20689    0.009
 6152.00    1.17194   1.20906    0.009
 6153.00    1.17112   1.20061    0.009
 6154.00    1.17988   1.18612    0.009
 6155.00    1.18681   1.17188    0.009
 6156.00    1.15774   1.16385    0.009
 6157.00    1.13131   1.16455    0.009
 6158.00    1.13526   1.17047    0.009
 6159.00    1.13318   1.17399    0.010
 6160.00    1.08290   1.17115    0.010
 6161.00    1.02978   1.16517    0.010
 6162.00    0.95958   1.16048    0.010
 6163.00    0.90317   1.15674    0.010
 6164.00    0.91230   1.14831    0.010
 6165.00    0.92952   1.12679    0.010
 6166.00    0.97810   1.08757    0.010
 6167.00    1.01392   1.03925    0.010
 6168.00    1.00852   1.00252    0.010
 6169.00    1.01668   0.99485    0.010
 6170.00    1.06186   1.01588    0.010
 6171.00    1.10458   1.04959    0.010
 6172.00    1.14154   1.07834    0.009
 6173.00    1.15983   1.09079    0.009
 6174.00    1.14030   1.08410    0.009
 6175.00    1.11060   1.06798    0.009
 6176.00    1.06299   1.06020    0.009
 6177.00    1.04341   1.07021    0.009
 6178.00    1.06705   1.09115    0.009
 6179.00    1.10587   1.11014    0.009
 6180.00    1.16525   1.12074    0.009
 6181.00    1.20465   1.12426    0.009
 6182.00    1.22022   1.12528    0.009
 6183.00    1.24389   1.12796    0.009
 6184.00    1.27607   1.13324    0.009
 6185.00    1.28389   1.13916    0.009
 6186.00    1.26911   1.14456    0.009
 6187.00    1.23582   1.14992    0.010
 6188.00    1.18738   1.15498    0.010
 6189.00    1.13538   1.15782    0.010
 6190.00    1.08081   1.15567    0.010
 6191.00    1.07880   1.14670    0.010
 6192.00    1.10998   1.13223    0.010
 6193.00    1.16334   1.11625    0.010
 6194.00    1.22895   1.10177    0.010
 6195.00    1.32478   1.08726    0.010
 6196.00    1.43513   1.07008   -2.000
 6197.00    1.66892   1.05575   -2.000
 6198.00    1.95389   1.05578   -2.000
 6199.00    1.90599   1.07399   -2.000
 6200.00    1.74010   1.10178   -2.000
 6201.00    1.19018   1.12666   -2.000
 6202.00    0.52532   1.14130   -2.000
 6203.00    0.19676   1.14373   -2.000
 6204.00   -0.04825   1.13449   -2.000
 6205.00    0.21769   1.11907   -2.000
 6206.00    0.58653   1.10856   -2.000
 6207.00    0.87490   1.11123   -2.000
 6208.00    1.15058   1.12493    0.009
 6209.00    1.14257   1.14008    0.009
 6210.00    1.10130   1.14949    0.009
 6211.00    1.05053   1.15305    0.009
 6212.00    0.99900   1.15413    0.009
 6213.00    0.98822   1.15459    0.009
 6214.00    0.97924   1.15372    0.009
 6215.00    0.98833   1.14974    0.009
 6216.00    0.99728   1.14132    0.009
 6217.00    0.99045   1.12727    0.009
 6218.00    0.98447   1.10639    0.009
 6219.00    0.99408   1.08073    0.009
 6220.00    1.00530   1.05716    0.009
 6221.00    1.03424   1.04395    0.010
 6222.00    1.06205   1.04476    0.010
 6223.00    1.08111   1.05412    0.010
 6224.00    1.10492   1.06169    0.010
 6225.00    1.15652   1.06232    0.010
 6226.00    1.19552   1.05993    0.010
 6227.00    1.17608   1.06163    0.009
 6228.00    1.14841   1.06937    0.009
 6229.00    1.08957   1.07867    0.009
 6230.00    1.04721   1.08554    0.009
 6231.00    1.05699   1.08997    0.009
 6232.00    1.06556   1.09280    0.009
 6233.00    1.07088   1.09186    0.009
 6234.00    1.05720   1.08185    0.009
 6235.00    0.99978   1.06055    0.009
 6236.00    0.95153   1.03507    0.009
 6237.00    0.92158   1.01889    0.009
 6238.00    0.91059   1.02200    0.009
 6239.00    0.93251   1.04421    0.009
 6240.00    0.95322   1.07520    0.009
 6241.00    0.97211   1.10143    0.009
 6242.00    0.99831   1.11366    0.009
 6243.00    1.03429   1.10965    0.009
 6244.00    1.07141   1.09381    0.009
 6245.00    1.10985   1.07426    0.009
 6246.00    1.10222   1.05834    0.009
 6247.00    1.04682   1.04786    0.009
 6248.00    1.00977   1.03998    0.009
 6249.00    0.98952   1.03299    0.010
 6250.00    0.95301   1.02849    0.009
 6251.00    0.90339   1.03017    0.009
 6252.00    0.88327   1.04083    0.009
 6253.00    0.88405   1.05879    0.009
 6254.00    0.92327   1.07825    0.009
 6255.00    0.98641   1.09135    0.009
 6256.00    1.03101   1.09100    0.009
 6257.00    1.06553   1.07619    0.009
 6258.00    1.15397   1.05404    0.009
 6259.00    1.26789   1.03436    0.009
 6260.00    1.32199   1.02253    0.010
 6261.00    1.35173   1.01616    0.011
 6262.00    1.28910   1.00892    0.011
 6263.00    1.19434   0.99931    0.012
 6264.00    1.00171   0.99392    0.011
 6265.00    0.78037   1.00075    0.011
 6266.00    0.67935   1.02087    0.010
 6267.00    0.60757   1.04824    0.010
 6268.00    0.69657   1.07403    0.009
 6269.00    0.81713   1.09056    0.009
 6270.00    0.92658   1.09514    0.009
 6271.00    1.03434   1.09145    0.009
 6272.00    1.11399   1.08694    0.009
 6273.00    1.19048   1.08641    0.009
 6274.00    1.16232   1.08827    0.009
 6275.00    1.12628   1.08890    0.009
 6276.00    1.06780   1.08884    0.009
 6277.00    1.00841   1.09156    0.009
 6278.00    1.01225   1.09758    0.009
 6279.00    1.01771   1.10366    0.009
 6280.00    1.06998   1.10710    0.000
 6281.00    1.12047   1.10786    0.000
 6282.00    1.14078   1.10724    0.000
 6283.00    1.15911   1.10535    0.000
 6284.00    1.15654   1.10021    0.000
 6285.00    1.14700   1.09079    0.000
 6286.00    1.08548   1.08029    0.000
 6287.00    1.03174   1.07450    0.000
 6288.00    1.02220   1.07746    0.000
 6289.00    1.02059   1.08763    0.000
 6290.00    1.05489   1.09930    0.000
 6291.00    1.08747   1.10888    0.000
 6292.00    1.11366   1.11721    0.000
 6293.00    1.12794   1.12615    0.000
 6294.00    1.10527   1.13460    0.000
 6295.00    1.07223   1.13810    0.000
 6296.00    1.01185   1.13373    0.000
 6297.00    0.98860   1.12347    0.000
 6298.00    1.04942   1.11283    0.000
 6299.00    1.10620   1.10631    0.000
 6300.00    1.15505   1.10292    0.000
 6301.00    1.18076   1.09775    0.000
 6302.00    1.16692   1.08816    0.000
 6303.00    1.15338   1.07733    0.000
 6304.00    1.14032   1.07108    0.000
 6305.00    1.09488   1.07035    0.000
 6306.00    1.00683   1.06992    0.000
 6307.00    0.97481   1.06638    0.000
 6308.00    1.00772   1.06328    0.000
 6309.00    1.04007   1.06639    0.000
 6310.00    1.07186   1.07653    0.000
 6311.00    1.08499   1.08992    0.000
 6312.00    1.08131   1.10365    0.000
 6313.00    1.07922   1.11693    0.000
 6314.00    1.07837   1.12720    0.000
 6315.00    1.06193   1.12963    0.000
 6316.00    1.03457   1.12270    0.000
 6317.00    1.04793   1.11100    0.000
 6318.00    1.08625   1.10029    0.000
 6319.00    1.08674   1.09200    0.000
 6320.00    1.06698   1.08412    0.000
 6321.00    1.00516   1.07515    0.009
 6322.00    0.92380   1.06570    0.009
 6323.00    0.88290   1.05769    0.009
 6324.00    0.85822   1.05295    0.009
 6325.00    0.87066   1.05401    0.009
 6326.00    0.89579   1.06291    0.009
 6327.00    0.90831   1.07675    0.009
 6328.00    0.91720   1.09000    0.009
 6329.00    0.93968   1.10089    0.009
 6330.00    0.96538   1.11079    0.009
 6331.00    0.98401   1.11923    0.009
 6332.00    1.00129   1.12420    0.009
 6333.00    1.04546   1.12590    0.009
 6334.00    1.09362   1.12614    0.009
 6335.00    1.10843   1.12608    0.009
 6336.00    1.11963   1.12613    0.009
 6337.00    1.08320   1.12669    0.009
 6338.00    1.04337   1.12773    0.009
 6339.00    1.01455   1.12515    0.009
 6340.00    0.98614   1.11313    0.009
 6341.00    0.99957   1.09267    0.009
 6342.00    1.01236   1.07368    0.008
 6343.00    0.99649   1.06693    0.009
 6344.00    0.98068   1.07457    0.009
 6345.00    0.96580   1.08953    0.009
 6346.00    0.94967   1.10332    0.009
 6347.00    0.92108   1.11069    0.009
 6348.00    0.89482   1.10855    0.009
 6349.00    0.88542   1.09829    0.009
 6350.00    0.86959   1.08748    0.009
 6351.00    0.81824   1.08442    0.009
 6352.00    0.76794   1.09142    0.009
 6353.00    0.72236   1.10372    0.009
 6354.00    0.69705   1.11537    0.009
 6355.00    0.74544   1.12402    0.009
 6356.00    0.79370   1.12927    0.009
 6357.00    0.84157   1.13071    0.009
 6358.00    0.88614   1.12743    0.009
 6359.00    0.92221   1.11850    0.009
 6360.00    0.94798   1.10526    0.009
 6361.00    0.95086   1.09189    0.009
 6362.00    0.94311   1.08162    0.009
 6363.00    0.91487   1.07294    0.009
 6364.00    0.88747   1.06173    0.009
 6365.00    0.86146   1.04762    0.009
 6366.00    0.87436   1.03507    0.009
 6367.00    0.94468   1.02719    0.009
 6368.00    1.01268   1.02397    0.009
 6369.00    1.07769   1.02640    0.009
 6370.00    1.10821   1.03626    0.009
 6371.00    1.09930   1.05239    0.009
 6372.00    1.09612   1.07117    0.009
 6373.00    1.09872   1.08916    0.009
 6374.00    1.10777   1.10378    0.009
 6375.00    1.12256   1.11332    0.009
 6376.00    1.12088   1.11830    0.009
 6377.00    1.10630   1.12241    0.009
 6378.00    1.06721   1.12893    0.009
 6379.00    1.01123   1.13663    0.009
 6380.00    0.99145   1.14163    0.009
 6381.00    0.99353   1.14208    0.009
 6382.00    0.98877   1.13899    0.009
 6383.00    0.98040   1.13334    0.009
 6384.00    0.98142   1.12520    0.009
 6385.00    0.98672   1.11612    0.009
 6386.00    0.98179   1.10998    0.009
 6387.00    0.97283   1.10907    0.009
 6388.00    0.93600   1.11182    0.008
 6389.00    0.88982   1.11534    0.008
 6390.00    0.88437   1.11766    0.009
 6391.00    0.89039   1.11935    0.009
 6392.00    0.91364   1.12258    0.009
 6393.00    0.94090   1.12733    0.009
 6394.00    0.97453   1.13113    0.009
 6395.00    1.00935   1.13203    0.009
 6396.00    0.98067   1.12863    0.009
 6397.00    0.94286   1.11830    0.010
 6398.00    0.89433   1.10060    0.009
 6399.00    0.84469   1.08189    0.009
 6400.00    0.90019   1.07351    0.009
 6401.00    0.96275   1.08239    0.009
 6402.00    1.01986   1.10171    0.009
 6403.00    1.07678   1.11536    0.009
 6404.00    1.07713   1.11240    0.009
 6405.00    1.07676   1.09505    0.009
 6406.00    1.05437   1.07676    0.009
 6407.00    1.03231   1.07365    0.009
 6408.00    1.01542   1.09117    0.009
 6409.00    0.99921   1.11672    0.009
 6410.00    0.98959   1.13406    0.009
 6411.00    0.97847   1.13754    0.008
 6412.00    0.95694   1.12949    0.008
 6413.00    0.93969   1.11620    0.008
 6414.00    0.94545   1.10486    0.008
 6415.00    0.95307   1.09975    0.009
 6416.00    0.96871   1.09958    0.009
 6417.00    0.99343   1.09851    0.009
 6418.00    1.05048   1.09517    0.009
 6419.00    1.09722   1.09505    0.009
 6420.00    1.11313   1.10038    0.009
 6421.00    1.10905   1.10787    0.009
 6422.00    1.05410   1.11434    0.009
 6423.00    0.99986   1.11645    0.009
 6424.00    0.94718   1.11055    0.009
 6425.00    0.91180   1.09688    0.009
 6426.00    0.90929   1.08151    0.009
 6427.00    0.90310   1.07402    0.009
 6428.00    0.89082   1.08119    0.009
 6429.00    0.89140   1.10024    0.009
 6430.00    0.91068   1.12034    0.009
 6431.00    0.94915   1.13314    0.009
 6432.00    1.01217   1.13932    0.009
 6433.00    1.04741   1.14175    0.009
 6434.00    1.05135   1.13824    0.009
 6435.00    1.04740   1.12488    0.009
 6436.00    1.03559   1.10380    0.009
 6437.00    1.01902   1.08500    0.009
 6438.00    0.99826   1.07989    0.009
 6439.00    0.98057   1.09080    0.009
 6440.00    0.96525   1.10867    0.009
 6441.00    0.98736   1.12262    0.009
 6442.00    1.03489   1.12612    0.009
 6443.00    1.06072   1.11777    0.009
 6444.00    1.07365   1.10224    0.009
 6445.00    1.09882   1.08983    0.009
 6446.00    1.13033   1.09162    0.009
 6447.00    1.07702   1.10909    0.009
 6448.00    0.98556   1.13124    0.009
 6449.00    0.90531   1.14729    0.009
 6450.00    0.82941   1.15532    0.009
 6451.00    0.80824   1.15813    0.009
 6452.00    0.80508   1.15618    0.009
 6453.00    0.82683   1.14481    0.009
 6454.00    0.85545   1.11933    0.009
 6455.00    0.89509   1.08382    0.009
 6456.00    0.93721   1.05360    0.009
 6457.00    0.92615   1.04592    0.009
 6458.00    0.90544   1.06279    0.009
 6459.00    0.90234   1.08821    0.009
 6460.00    0.90169   1.10538    0.009
 6461.00    0.92218   1.10958    0.009
 6462.00    0.94479   1.10824    0.009
 6463.00    0.96719   1.11237    0.009
 6464.00    0.98958   1.12481    0.008
 6465.00    1.00924   1.13743    0.009
 6466.00    1.02861   1.13923    0.009
 6467.00    0.97987   1.12529    0.009
 6468.00    0.93209   1.10102    0.009
 6469.00    0.91101   1.08077    0.009
 6470.00    0.89552   1.07815    0.009
 6471.00    0.95909   1.09305    0.009
 6472.00    1.01401   1.11362    0.010
 6473.00    0.98891   1.12928    0.009
 6474.00    0.95873   1.13562    0.009
 6475.00    0.89425   1.13275    0.009
 6476.00    0.84379   1.12432    0.009
 6477.00    0.86690   1.11603    0.009
 6478.00    0.89665   1.11227    0.009
 6479.00    0.95444   1.11374    0.009
 6480.00    0.99035   1.11677    0.009
 6481.00    0.94996   1.11781    0.009
 6482.00    0.91641   1.11834    0.009
 6483.00    0.90295   1.12110    0.008
 6484.00    0.92019   1.12424    0.008
 6485.00    1.01421   1.12315    0.008
 6486.00    1.10390   1.11493    0.009
 6487.00    1.18427   1.09988    0.009
 6488.00    1.22440   1.08289    0.009
 6489.00    1.18928   1.07274    0.009
 6490.00    1.13122   1.07501    0.009
 6491.00    1.03571   1.08682    0.009
 6492.00    0.96691   1.10059    0.009
 6493.00    0.93640   1.11054    0.009
 6494.00    0.93692   1.11432    0.009
 6495.00    0.97656   1.11127    0.009
 6496.00    1.02896   1.10136    0.009
 6497.00    1.09553   1.08482    0.009
 6498.00    1.12475   1.06068    0.009
 6499.00    1.11737   1.02724    0.009
 6500.00    1.06856   0.98752    0.009
 6501.00    0.98396   0.95323    0.009
 6502.00    0.91295   0.93743    0.009
 6503.00    0.85230   0.94277    0.009
 6504.00    0.87191   0.96210    0.009
 6505.00    0.94522   0.98652    0.008
 6506.00    0.99381   1.01152    0.009
 6507.00    1.02791   1.03616    0.009
 6508.00    1.01985   1.05846    0.009
 6509.00    0.99024   1.07638    0.009
 6510.00    0.97404   1.08978    0.008
 6511.00    0.96376   1.09925    0.008
 6512.00    0.96796   1.10480    0.008
 6513.00    0.97767   1.10574    0.009
 6514.00    0.97291   1.10284    0.009
 6515.00    0.96349   1.09969    0.009
 6516.00    0.91082   1.09992    0.009
 6517.00    0.84648   1.10349    0.009
 6518.00    0.87273   1.10711    0.009
 6519.00    0.91904   1.10781    0.009
 6520.00    0.95442   1.10443    0.009
 6521.00    0.98787   1.09702    0.009
 6522.00    0.99351   1.08732    0.009
 6523.00    0.99542   1.07833    0.009
 6524.00    0.98793   1.07280    0.009
 6525.00    0.97954   1.07320    0.009
 6526.00    1.05037   1.08073    0.009
 6527.00    1.12588   1.09242    0.009
 6528.00    1.11765   1.10308    0.000
 6529.00    1.10704   1.10966    0.000
 6530.00    1.05474   1.11186    0.000
 6531.00    1.00481   1.11010    0.000
 6532.00    1.01453   1.10448    0.000
 6533.00    1.02302   1.09740    0.000
 6534.00    1.01490   1.09363    0.000
 6535.00    1.00322   1.09506    0.000
 6536.00    0.95979   1.09823    0.000
 6537.00    0.92335   1.09823    0.000
 6538.00    0.93277   1.09392    0.000
 6539.00    0.93479   1.08948    0.000
 6540.00    0.89899   1.09014    0.000
 6541.00    0.86354   1.09651    0.000
 6542.00    0.82955   1.10424    0.000
 6543.00    0.81936   1.10931    0.000
 6544.00    0.89054   1.11225    0.000
 6545.00    0.95583   1.11559    0.000
 6546.00    1.00418   1.11881    0.000
 6547.00    1.04740   1.11838    0.000
 6548.00    1.07802   1.11223    0.000
 6549.00    1.08316   1.10134    0.000
 6550.00    1.03428   1.08779    0.000
 6551.00    0.98392   1.07328    0.000
 6552.00    0.93079   1.06049    0.000
 6553.00    0.91047   1.05453    0.000
 6554.00    0.94294   1.05778    0.000
 6555.00    0.98716   1.06588    0.000
 6556.00    1.04798   1.07176    0.000
 6557.00    1.18664   1.07114    0.000
 6558.00    1.42202   1.06448    0.000
 6559.00    1.66993   1.05416    0.000
 6560.00    1.93158   1.04198    0.000
 6561.00    2.06465   1.03063    0.000
 6562.00    2.07349   1.02385    0.000
 6563.00    1.96197   1.02306    0.000
 6564.00    1.74793   1.02412    0.000
 6565.00    1.49550   1.01800    0.000
 6566.00    1.21429   0.99446    0.000
 6567.00    1.05292   0.94769    0.000
 6568.00    0.97054   0.88578    0.000
 6569.00    0.92326   0.83743    0.000
 6570.00    0.89624   0.83444    0.000
 6571.00    0.84254   0.87887    0.000
 6572.00    0.77544   0.94357    0.000
 6573.00    0.79436   0.99900    0.000
 6574.00    0.85072   1.03025    0.000
 6575.00    0.87716   1.03958    0.000
 6576.00    0.89243   1.03822    0.000
 6577.00    0.94003   1.03405    0.000
 6578.00    0.99788   1.02818    0.000
 6579.00    1.12731   1.02060    0.000
 6580.00    1.27566   1.01456    0.000
 6581.00    1.37517   1.01553    0.000
 6582.00    1.46413   1.02700    0.000
 6583.00    1.45242   1.04549    0.000
 6584.00    1.42344   1.06242    0.000
 6585.00    1.36683   1.07078    0.000
 6586.00    1.30663   1.06937    0.000
 6587.00    1.17636   1.06335    0.000
 6588.00    1.03970   1.06004    0.000
 6589.00    0.96465   1.06215    0.000
 6590.00    0.89300   1.06688    0.000
 6591.00    0.92566   1.07066    0.000
 6592.00    0.96026   1.07265    0.000
 6593.00    0.96664   1.07544    0.000
 6594.00    0.97235   1.08044    0.000
 6595.00    0.96254   1.08441    0.000
 6596.00    0.94904   1.08223    0.000
 6597.00    0.88867   1.06938    0.000
 6598.00    0.83168   1.04618    0.000
 6599.00    0.80372   1.02163    0.000
 6600.00    0.77600   1.00908    0.000
 6601.00    0.74981   1.01383    0.000
 6602.00    0.73331   1.02855    0.000
 6603.00    0.76501   1.04238    0.000
 6604.00    0.79762   1.05027    0.000
 6605.00    0.83387   1.05524    0.000
 6606.00    0.87205   1.06253    0.000
 6607.00    0.91669   1.07215    0.000
 6608.00    0.94866   1.07944    0.000
 6609.00    0.94479   1.08043    0.009
 6610.00    0.92834   1.07461    0.009
 6611.00    0.88150   1.06462    0.009
 6612.00    0.85289   1.05364    0.009
 6613.00    0.86234   1.04308    0.009
 6614.00    0.85959   1.03375    0.009
 6615.00    0.83473   1.02854    0.009
 6616.00    0.81418   1.03198    0.009
 6617.00    0.80047   1.04403    0.009
 6618.00    0.82537   1.05802    0.008
 6619.00    0.90401   1.06746    0.008
 6620.00    0.95035   1.07194    0.008
 6621.00    0.95713   1.07530    0.008
 6622.00    0.93361   1.07890    0.008
 6623.00    0.87739   1.08142    0.008
 6624.00    0.85607   1.08257    0.008
 6625.00    0.86799   1.08362    0.008
 6626.00    0.86813   1.08531    0.008
 6627.00    0.85836   1.08601    0.009
 6628.00    0.82773   1.08254    0.009
 6629.00    0.78168   1.07310    0.009
 6630.00    0.75103   1.05974    0.009
 6631.00    0.73040   1.04842    0.009
 6632.00    0.74337   1.04459    0.009
 6633.00    0.77544   1.04750    0.009
 6634.00    0.81689   1.05234    0.009
 6635.00    0.86298   1.05461    0.009
 6636.00    0.88995   1.05228    0.009
 6637.00    0.90874   1.04565    0.009
 6638.00    0.89287   1.03564    0.009
 6639.00    0.86430   1.02448    0.009
 6640.00    0.89393   1.01725    0.008
 6641.00    0.94163   1.01874    0.008
 6642.00    0.96018   1.02851    0.008
 6643.00    0.97119   1.04108    0.008
 6644.00    0.94214   1.05027    0.008
 6645.00    0.90465   1.05346    0.008
 6646.00    0.88506   1.05274    0.008
 6647.00    0.86844   1.05093    0.008
 6648.00    0.89819   1.04740    0.008
 6649.00    0.93375   1.04100    0.009
 6650.00    0.96731   1.03509    0.009
 6651.00    1.00069   1.03403    0.009
 6652.00    0.94608   1.03781    0.009
 6653.00    0.88696   1.04298    0.009
 6654.00    0.87651   1.04684    0.009
 6655.00    0.86803   1.04915    0.009
 6656.00    0.93805   1.05008    0.009
 6657.00    1.00505   1.04929    0.009
 6658.00    1.00842   1.04710    0.009
 6659.00    1.00744   1.04494    0.009
 6660.00    0.95416   1.04408    0.009
 6661.00    0.90279   1.04459    0.009
 6662.00    0.86718   1.04521    0.008
 6663.00    0.83823   1.04517    0.008
 6664.00    0.85032   1.04450    0.008
 6665.00    0.87159   1.04255    0.008
 6666.00    0.93740   1.03830    0.008
 6667.00    0.99406   1.03100    0.008
 6668.00    1.01457   1.02078    0.008
 6669.00    1.02447   1.00978    0.008
 6670.00    0.99951   1.00257    0.009
 6671.00    0.97890   1.00174    0.009
 6672.00    0.97033   1.00569    0.009
 6673.00    0.96563   1.01155    0.009
 6674.00    0.97014   1.01799    0.009
 6675.00    0.96752   1.02582    0.009
 6676.00    0.95023   1.03503    0.009
 6677.00    0.94013   1.04345    0.009
 6678.00    0.94288   1.04888    0.009
 6679.00    0.93933   1.05092    0.009
 6680.00    0.92595   1.05008    0.009
 6681.00    0.91350   1.04564    0.009
 6682.00    0.90231   1.03523    0.009
 6683.00    0.91033   1.01818    0.009
 6684.00    0.94152   1.00031    0.009
 6685.00    0.95486   0.99116    0.008
 6686.00    0.94917   0.99441    0.008
 6687.00    0.95534   1.00545    0.008
 6688.00    0.97264   1.01730    0.008
 6689.00    0.95406   1.02610    0.008
 6690.00    0.90578   1.03208    0.008
 6691.00    0.85319   1.03594    0.008
 6692.00    0.79745   1.03750    0.008
 6693.00    0.78453   1.03694    0.008
 6694.00    0.79901   1.03550    0.008
 6695.00    0.81658   1.03492    0.009
 6696.00    0.83586   1.03571    0.000
 6697.00    0.88263   1.03711    0.000
 6698.00    0.94278   1.03776    0.000
 6699.00    0.99411   1.03636    0.000
 6700.00    1.04175   1.03193    0.000
 6701.00    1.07676   1.02385    0.000
 6702.00    1.10722   1.01366    0.000
 6703.00    1.11397   1.00561    0.000
 6704.00    1.11350   1.00362    0.000
 6705.00    1.04299   1.00882    0.000
 6706.00    0.95475   1.01814    0.000
 6707.00    0.93374   1.02608    0.000
 6708.00    0.92656   1.02858    0.000
 6709.00    0.90435   1.02500    0.000
 6710.00    0.87970   1.01866    0.000
 6711.00    0.87203   1.01436    0.000
 6712.00    0.86641   1.01443    0.000
 6713.00    0.98680   1.01762    0.000
 6714.00    1.11764   1.02097    0.000
 6715.00    1.17955   1.02204    0.000
 6716.00    1.23820   1.02033    0.000
 6717.00    1.14072   1.01705    0.000
 6718.00    1.04264   1.01277    0.000
 6719.00    1.03488   1.00699    0.000
 6720.00    1.02921   0.99877    0.000
 6721.00    1.06429   0.98759    0.000
 6722.00    1.09116   0.97516    0.000
 6723.00    1.02387   0.96536    0.000
 6724.00    0.96103   0.96295    0.000
 6725.00    0.93366   0.96982    0.000
 6726.00    0.91845   0.98234    0.000
 6727.00    0.97618   0.99456    0.000
 6728.00    1.03118   1.00285    0.000
 6729.00    1.07329   1.00780    0.000
 6730.00    1.10098   1.01061    0.000
 6731.00    1.07296   1.01092    0.000
 6732.00    1.04043   1.00886    0.000
 6733.00    0.99333   1.00673    0.000
 6734.00    0.94761   1.00724    0.000
 6735.00    0.90566   1.01089    0.000
 6736.00    0.87431   1.01564    0.000
 6737.00    0.86773   1.01883    0.000
 6738.00    0.85358   1.01920    0.000
 6739.00    0.82414   1.01722    0.000
 6740.00    0.83007   1.01477    0.000
 6741.00    0.89822   1.01344    0.000
 6742.00    0.93975   1.01276    0.000
 6743.00    0.94030   1.01039    0.000
 6744.00    0.90238   1.00528    0.000
 6745.00    0.81242   0.99927    0.000
 6746.00    0.76009   0.99544    0.000
 6747.00    0.75256   0.99462    0.000
 6748.00    0.77291   0.99481    0.000
 6749.00    0.82252   0.99446    0.000
 6750.00    0.83415   0.99406    0.000
 6751.00    0.81064   0.99442    0.000
 6752.00    0.79123   0.99483    0.000
 6753.00    0.77518   0.99354    0.009
 6754.00    0.77597   0.99002    0.009
 6755.00    0.78885   0.98573    0.010
 6756.00    0.74999   0.98244    0.010
 6757.00    0.67850   0.98117    0.009
 6758.00    0.71666   0.98147    0.010
 6759.00    0.81526   0.98313    0.010
 6760.00    0.92891   0.98631    0.010
 6761.00    1.04978   0.99140    0.011
 6762.00    1.03993   0.99907    0.011
 6763.00    0.97602   1.00800    0.011
 6764.00    0.91606   1.01641    0.011
 6765.00    0.85750   1.02295    0.011
 6766.00    0.89054   1.02646    0.010
 6767.00    0.95092   1.02678    0.010
 6768.00    1.01711   1.02508    0.010
 6769.00    1.08474   1.02273    0.010
 6770.00    1.06717   1.01999    0.009
 6771.00    1.03251   1.01582    0.009
 6772.00    1.01975   1.00882    0.009
 6773.00    1.01043   0.99991    0.009
 6774.00    0.96443   0.99252    0.009
 6775.00    0.91415   0.98910    0.009
 6776.00    0.80085   0.98911    0.009
 6777.00    0.68259   0.99079    0.009
 6778.00    0.73053   0.99382    0.009
 6779.00    0.78571   0.99964    0.009
 6780.00    0.79579   1.00859    0.010
 6781.00    0.80577   1.01827    0.010
 6782.00    0.83329   1.02569    0.010
 6783.00    0.86181   1.02989    0.010
 6784.00    0.90833   1.03182    0.010
 6785.00    0.94887   1.03237    0.010
 6786.00    0.92413   1.03092    0.010
 6787.00    0.89805   1.02550    0.010
 6788.00    0.86173   1.01451    0.009
 6789.00    0.84078   0.99939    0.009
 6790.00    0.90942   0.98446    0.009
 6791.00    0.96965   0.97466    0.010
 6792.00    0.99099   0.97292    0.009
 6793.00    1.00097   0.97858    0.009
 6794.00    0.96797   0.98777    0.009
 6795.00    0.93501   0.99619    0.009
 6796.00    0.90219   1.00150    0.009
 6797.00    0.89042   1.00331    0.009
 6798.00    0.93503   1.00230    0.009
 6799.00    0.97981   0.99909    0.009
 6800.00    1.02497   0.99470    0.009
 6801.00    1.03378   0.99108    0.009
 6802.00    0.97030   0.99025    0.009
 6803.00    0.92106   0.99240    0.010
 6804.00    0.89648   0.99613    0.010
 6805.00    0.87259   1.00031    0.010
 6806.00    0.84971   1.00412    0.009
 6807.00    0.83093   1.00716    0.009
 6808.00    0.81760   1.00893    0.009
 6809.00    0.84500   1.00872    0.009
 6810.00    0.92020   1.00689    0.009
 6811.00    0.98190   1.00444    0.009
 6812.00    1.02960   1.00230    0.009
 6813.00    1.03910   1.00093    0.009
 6814.00    1.01372   0.99995    0.009
 6815.00    0.96430   0.99911    0.009
 6816.00    0.89553   0.99872    0.009
 6817.00    0.85443   0.99881    0.009
 6818.00    0.83290   0.99920    0.009
 6819.00    0.84708   0.99906    0.009
 6820.00    0.88343   0.99739    0.009
 6821.00    0.88593   0.99540    0.009
 6822.00    0.87006   0.99573    0.009
 6823.00    0.85161   0.99916    0.009
 6824.00    0.83196   1.00336    0.009
 6825.00    0.85649   1.00498    0.009
 6826.00    0.89899   1.00373    0.009
 6827.00    0.92116   1.00275    0.009
 6828.00    0.93626   1.00492    0.009
 6829.00    0.94786   1.01013    0.009
 6830.00    0.95844   1.01560    0.009
 6831.00    0.95775   1.01834    0.009
 6832.00    0.95433   1.01681    0.009
 6833.00    0.88085   1.01123    0.009
 6834.00    0.79366   1.00377    0.009
 6835.00    0.78859   0.99807    0.009
 6836.00    0.79604   0.99703    0.009
 6837.00    0.80785   1.00042    0.009
 6838.00    0.82014   1.00515    0.009
 6839.00    0.81595   1.00866    0.009
 6840.00    0.81052   1.01083    0.009
 6841.00    0.86868   1.01229    0.009
 6842.00    0.92935   1.01228    0.009
 6843.00    0.93727   1.00893    0.009
 6844.00    0.94693   1.00105    0.009
 6845.00    1.04053   0.98937    0.009
 6846.00    1.12308   0.97589    0.009
 6847.00    1.01894   0.96366    0.009
 6848.00    0.92253   0.95654    0.009
 6849.00    0.90687   0.95733    0.009
 6850.00    0.89100   0.96597    0.009
 6851.00    0.87359   0.97884    0.009
 6852.00    0.86561   0.99103    0.009
 6853.00    0.91107   0.99940    0.009
 6854.00    0.94608   1.00353    0.009
 6855.00    0.93390   1.00465    0.009
 6856.00    0.91834   1.00408    0.009
 6857.00    0.89025   1.00264    0.009
 6858.00    0.86605   1.00056    0.009
 6859.00    0.85388   0.99665    0.009
 6860.00    0.84959   0.98945    0.009
 6861.00    0.86601   0.97978    0.009
 6862.00    0.88936   0.97105    0.009
 6863.00    0.92837   0.96688    0.009
 6864.00    0.94733   0.96775    0.009
 6865.00    0.92702   0.97004    0.009
 6866.00    0.91028   0.97017    0.010
 6867.00    0.89960   0.96799    0.009
 6868.00    0.87839   0.96697    0.009
 6869.00    0.84144   0.97111    0.010
 6870.00    0.79303   0.98016    0.010
 6871.00    0.72956   0.98872    0.009
 6872.00    0.71593   0.99084    0.009
 6873.00    0.75999   0.98546    0.009
 6874.00    0.81930   0.97706    0.009
 6875.00    0.89417   0.97134    0.009
 6876.00    0.93449   0.97072    0.009
 6877.00    0.94371   0.97297    0.009
 6878.00    0.94074   0.97436    0.009
 6879.00    0.92809   0.97403    0.009
 6880.00    0.95253   0.97400    0.009
 6881.00    1.00284   0.97601    0.009
 6882.00    0.99318   0.98002    0.009
 6883.00    0.94683   0.98534    0.009
 6884.00    0.89456   0.99093    0.009
 6885.00    0.83912   0.99471    0.009
 6886.00    0.80915   0.99428    0.009
 6887.00    0.79101   0.98903    0.009
 6888.00    0.78435   0.98130    0.009
 6889.00    0.78228   0.97526    0.009
 6890.00    0.80937   0.97403    0.009
 6891.00    0.84641   0.97763    0.009
 6892.00    0.86720   0.98371    0.009
 6893.00    0.88335   0.99016    0.009
 6894.00    0.88175   0.99666    0.009
 6895.00    0.87595   1.00332    0.009
 6896.00    0.79054   1.00921    0.009
 6897.00    0.68996   1.01306    0.008
 6898.00    0.73102   1.01427    0.009
 6899.00    0.79301   1.01290    0.009
 6900.00    0.88268   1.00974    0.009
 6901.00    0.97534   1.00621    0.009
 6902.00    0.90978   1.00347    0.009
 6903.00    0.83304   1.00224    0.009
 6904.00    0.80871   1.00247    0.009
 6905.00    0.78625   1.00309    0.009
 6906.00    0.82138   1.00320    0.009
 6907.00    0.85665   1.00339    0.009
 6908.00    0.89033   1.00495    0.009
 6909.00    0.91964   1.00778    0.009
 6910.00    0.87974   1.01011    0.009
 6911.00    0.83507   1.01113    0.009
 6912.00    0.74258   1.01204    0.009
 6913.00    0.66769   1.01407    0.009
 6914.00    0.71930   1.01702    0.009
 6915.00    0.77092   1.01918    0.009
 6916.00    0.82262   1.01907    0.009
 6917.00    0.86652   1.01614    0.009
 6918.00    0.87611   1.01031    0.009
 6919.00    0.88608   1.00227    0.009
 6920.00    0.89741   0.99414    0.009
 6921.00    0.89933   0.98822    0.009
 6922.00    0.87262   0.98610    0.009
 6923.00    0.84520   0.98778    0.009
 6924.00    0.81592   0.99182    0.009
 6925.00    0.80087   0.99757    0.009
 6926.00    0.81745   1.00420    0.009
 6927.00    0.84832   1.00988    0.009
 6928.00    0.90671   1.01205    0.009
 6929.00    0.92694   1.00841    0.009
 6930.00    0.88303   0.99922    0.009
 6931.00    0.84993   0.98790    0.009
 6932.00    0.83277   0.97998    0.009
 6933.00    0.81838   0.97911    0.009
 6934.00    0.80760   0.98457    0.009
 6935.00    0.82267   0.99229    0.009
 6936.00    0.86725   0.99805    0.009
 6937.00    0.89899   0.99976    0.009
 6938.00    0.91781   0.99756    0.009
 6939.00    0.94061   0.99373    0.009
 6940.00    0.96692   0.99122    0.009
 6941.00    0.93108   0.99211    0.009
 6942.00    0.84665   0.99567    0.009
 6943.00    0.80487   0.99933    0.009
 6944.00    0.79241   1.00195    0.009
 6945.00    0.76589   1.00440    0.009
 6946.00    0.73089   1.00744    0.009
 6947.00    0.71896   1.00979    0.009
 6948.00    0.71917   1.00877    0.009
 6949.00    0.74581   1.00249    0.009
 6950.00    0.78453   0.99217    0.009
 6951.00    0.78586   0.98226    0.009
 6952.00    0.77251   0.97763    0.009
 6953.00    0.78485   0.98070    0.009
 6954.00    0.80578   0.98913    0.009
 6955.00    0.88732   0.99729    0.009
 6956.00    0.98590   1.00076    0.009
 6957.00    0.91831   0.99846    0.009
 6958.00    0.81226   0.99221    0.009
 6959.00    0.74686   0.98577    0.009
 6960.00    0.68900   0.98227    0.009
 6961.00    0.74537   0.98292    0.009
 6962.00    0.81808   0.98746    0.009
 6963.00    0.87025   0.99402    0.009
 6964.00    0.92029   1.00004    0.009
 6965.00    0.86539   1.00408    0.009
 6966.00    0.80349   1.00655    0.009
 6967.00    0.76889   1.00852    0.009
 6968.00    0.73519   1.01074    0.009
 6969.00    0.77586   1.01285    0.009
 6970.00    0.81652   1.01380    0.009
 6971.00    0.85671   1.01310    0.009
 6972.00    0.89291   1.01156    0.009
 6973.00    0.86977   1.01131    0.009
 6974.00    0.85226   1.01369    0.009
 6975.00    0.88874   1.01703    0.009
 6976.00    0.92142   1.01814    0.009
 6977.00    0.92764   1.01627    0.009
 6978.00    0.93086   1.01351    0.009
 6979.00    0.91795   1.01204    0.009
 6980.00    0.90811   1.01080    0.009
 6981.00    0.91151   1.00579    0.009
 6982.00    0.91493   0.99443    0.009
 6983.00    0.91843   0.97738    0.009
 6984.00    0.91656   0.95865    0.009
 6985.00    0.89867   0.94473    0.009
 6986.00    0.89762   0.94254    0.009
 6987.00    0.93933   0.95433    0.010
 6988.00    0.96040   0.97460    0.010
 6989.00    0.93634   0.99508    0.010
 6990.00    0.90391   1.01026    0.010
 6991.00    0.85563   1.01845    0.010
 6992.00    0.81154   1.02087    0.009
 6993.00    0.77440   1.01927    0.009
 6994.00    0.78286   1.01491    0.009
 6995.00    0.85752   1.00924    0.009
 6996.00    0.89205   1.00452    0.009
 6997.00    0.87536   1.00337    0.009
 6998.00    0.86271   1.00625    0.009
 6999.00    0.85461   1.01060    0.009
 7000.00    0.82926   1.01338    0.009
 7001.00    0.78679   1.01360    0.009
 7002.00    0.76884   1.01252    0.009
 7003.00    0.77232   1.01092    0.009
 7004.00    0.76184   1.00743    0.009
 7005.00    0.74062   1.00094    0.009
 7006.00    0.71417   0.99295    0.010
 7007.00    0.68420   0.98758    0.010
 7008.00    0.66207   0.98739    0.010
 7009.00    0.64460   0.99010    0.010
 7010.00    0.64466   0.99114    0.010
 7011.00    0.65381   0.98876    0.010
 7012.00    0.79175   0.98557    0.010
 7013.00    0.98752   0.98507    0.010
 7014.00    0.97487   0.98832    0.010
 7015.00    0.88178   0.99364    0.009
 7016.00    0.86663   0.99834    0.009
 7017.00    0.87706   1.00064    0.010
 7018.00    0.79705   1.00046    0.009
 7019.00    0.69217   0.99862    0.009
 7020.00    0.78310   0.99384    0.009
 7021.00    0.91829   0.98403    0.009
 7022.00    0.89856   0.97052    0.009
 7023.00    0.85085   0.96014    0.010
 7024.00    0.78272   0.96094    0.010
 7025.00    0.71177   0.97397    0.010
 7026.00    0.76790   0.99137    0.010
 7027.00    0.83663   1.00387    0.010
 7028.00    0.79796   1.00627    0.010
 7029.00    0.75256   0.99916    0.010
 7030.00    0.79826   0.98768    0.010
 7031.00    0.84609   0.97883    0.011
 7032.00    0.77369   0.97717    0.010
 7033.00    0.70861   0.98228    0.010
 7034.00    0.84457   0.99015    0.010
 7035.00    0.96827   0.99738    0.010
 7036.00    0.91992   1.00258    0.010
 7037.00    0.86942   1.00556    0.010
 7038.00    0.79910   1.00642    0.010
 7039.00    0.74111   1.00567    0.009
 7040.00    0.76621   1.00465    0.009
 7041.00    0.79655   1.00433    0.009
 7042.00    0.85429   1.00374    0.010
 7043.00    0.92582   1.00078    0.010
 7044.00    1.05542   0.99481    0.010
 7045.00    1.14360   0.98998    0.010
 7046.00    1.08772   0.99327    0.011
 7047.00    1.03653   1.00678    0.010
 7048.00    0.99909   1.02460    0.010
 7049.00    0.94172   1.03813    0.010
 7050.00    0.83457   1.04235   -2.000
 7051.00    0.76308   1.03900   -2.000
 7052.00    0.76831   1.03421   -2.000
 7053.00    0.80370   1.03371   -2.000
 7054.00    0.89540   1.03830   -2.000
 7055.00    0.92285   1.04430   -2.000
 7056.00    0.84551   1.04624   -2.000
 7057.00    0.81295   1.03990   -2.000
 7058.00    0.84445   1.02437   -2.000
 7059.00    0.91080   1.00208   -2.000
 7060.00    1.02100   0.97903   -2.000
 7061.00    1.04958   0.96204   -2.000
 7062.00    0.98766   0.95456   -2.000
 7063.00    0.96446   0.95503   -2.000
 7064.00    0.97914   0.95748   -2.000
 7065.00    0.97212   0.95616   -2.000
 7066.00    0.94638   0.94968   -2.000
 7067.00    0.92481   0.94165   -2.000
 7068.00    0.90641   0.93714   -2.000
 7069.00    0.88472   0.93817   -2.000
 7070.00    0.86085   0.94261   -2.000
 7071.00    1.00277   0.94630   -2.000
 7072.00    1.24164   0.94519   -2.000
 7073.00    1.16395   0.93830   -2.000
 7074.00    0.92489   0.92902   -2.000
 7075.00    0.77503   0.92321   -2.000
 7076.00    0.66455   0.92575   -2.000
 7077.00    0.70660   0.93639   -2.000
 7078.00    0.80649   0.94994   -2.000
 7079.00    0.80526   0.96080   -2.000
 7080.00    0.77145   0.96660   -2.000
 7081.00    0.83892   0.96825   -2.000
 7082.00    0.93366   0.96797   -2.000
 7083.00    0.87548   0.96780   -2.000
 7084.00    0.78355   0.96887   -2.000
 7085.00    0.77096   0.97141   -2.000
 7086.00    0.77231   0.97427   -2.000
 7087.00    0.83589   0.97519   -2.000
 7088.00    0.90781   0.97102   -2.000
 7089.00    0.91505   0.95943   -2.000
 7090.00    0.91614   0.94177   -2.000
 7091.00    1.01644   0.92317   -2.000
 7092.00    1.12256   0.90939   -2.000
 7093.00    1.00807   0.90239   -2.000
 7094.00    0.88939   0.89907   -2.000
 7095.00    0.94011   0.89587   -2.000
 7096.00    0.98490   0.89185   -2.000
 7097.00    0.88241   0.88833   -2.000
 7098.00    0.78364   0.88688   -2.000
 7099.00    0.73437   0.88742   -2.000
 7100.00    0.69152   0.88868   -2.000
 7101.00    0.70547   0.89022   -2.000
 7102.00    0.71888   0.89200   -2.000
 7103.00    0.72876   0.89485   -2.000
 7104.00    0.75331   0.89942   -2.000
 7105.00    0.85261   0.90535   -2.000
 7106.00    0.92885   0.91118   -2.000
 7107.00    0.91023   0.91448   -2.000
 7108.00    0.88963   0.91445   -2.000
 7109.00    0.86228   0.91255   -2.000
 7110.00    0.88504   0.91167   -2.000
 7111.00    1.05175   0.91307   -2.000
 7112.00    1.10816   0.91521   -2.000
 7113.00    0.89395   0.91560   -2.000
 7114.00    0.73003   0.91364   -2.000
 7115.00    0.67254   0.91033   -2.000
 7116.00    0.69399   0.90644   -2.000
 7117.00    0.86059   0.90213   -2.000
 7118.00    0.94770   0.89868   -2.000
 7119.00    0.90711   0.89833   -2.000
 7120.00    0.86307   0.90202   -2.000
 7121.00    0.81416   0.90819   -2.000
 7122.00    0.79033   0.91412   -2.000
 7123.00    0.79762   0.91805   -2.000
 7124.00    0.91097   0.91943   -2.000
 7125.00    1.14030   0.91863   -2.000
 7126.00    1.06388   0.91625   -2.000
 7127.00    0.69262   0.91291   -2.000
 7128.00    0.58087   0.90952   -2.000
 7129.00    0.68980   0.90683   -2.000
 7130.00    0.69025   0.90493   -2.000
 7131.00    0.60948   0.90232   -2.000
 7132.00    0.66305   0.89738   -2.000
 7133.00    0.80502   0.89065   -2.000
 7134.00    0.87869   0.88397   -2.000
 7135.00    0.91302   0.87811   -2.000
 7136.00    0.93626   0.87214   -2.000
 7137.00    0.95394   0.86625   -2.000
 7138.00    0.92907   0.86326   -2.000
 7139.00    0.88574   0.86615   -2.000
 7140.00    0.82806   0.87464   -2.000
 7141.00    0.76503   0.88535   -2.000
 7142.00    0.83924   0.89455   -2.000
 7143.00    0.95680   0.90024   -2.000
 7144.00    1.01478   0.90215   -2.000
 7145.00    1.05705   0.90096   -2.000
 7146.00    1.05397   0.89870   -2.000
 7147.00    1.04111   0.89795   -2.000
 7148.00    0.88764   0.89969   -2.000
 7149.00    0.71013   0.90240   -2.000
 7150.00    0.78866   0.90385   -2.000
 7151.00    0.90032   0.90293   -2.000
 7152.00    0.90570   0.89933   -2.000
 7153.00    0.90143   0.89292   -2.000
 7154.00    0.88886   0.88456   -2.000
 7155.00    0.87583   0.87736   -2.000
 7156.00    0.80117   0.87538   -2.000
 7157.00    0.72590   0.88035   -2.000
 7158.00    0.71214   0.89046   -2.000
 7159.00    0.70908   0.90187   -2.000
 7160.00    0.94868   0.91082   -2.000
 7161.00    1.18441   0.91557   -2.000
 7162.00    1.37139   0.91726   -2.000
 7163.00    1.51793   0.91841   -2.000
 7164.00    1.31945   0.91979   -2.000
 7165.00    1.10915   0.91969   -2.000
 7166.00    0.82389   0.91697   -2.000
 7167.00    0.60226   0.91278   -2.000
 7168.00    0.69658   0.90853   -2.000
 7169.00    0.81136   0.90318   -2.000
 7170.00    1.00853   0.89465   -2.000
 7171.00    1.14030   0.88426   -2.000
 7172.00    1.05356   0.87760   -2.000
 7173.00    0.96417   0.87973   -2.000
 7174.00    0.86736   0.88992   -2.000
 7175.00    0.82730   0.90241   -2.000
 7176.00    0.92416   0.91187   -2.000
 7177.00    0.97894   0.91742   -2.000
 7178.00    0.94610   0.92120   -2.000
 7179.00    0.95580   0.92446   -2.000
 7180.00    1.04252   0.92597   -2.000
 7181.00    1.05237   0.92405   -2.000
 7182.00    0.94051   0.91924   -2.000
 7183.00    0.88099   0.91434   -2.000
 7184.00    0.89417   0.91137   -2.000
 7185.00    0.85734   0.90901   -2.000
 7186.00    0.75936   0.90404   -2.000
 7187.00    0.71044   0.89630   -2.000
 7188.00    0.71440   0.89053   -2.000
 7189.00    0.72037   0.89197   -2.000
 7190.00    0.72825   0.90022   -2.000
 7191.00    0.77178   0.90867   -2.000
 7192.00    0.84521   0.91009   -2.000
 7193.00    0.83880   0.90233   -2.000
 7194.00    0.77345   0.88951   -2.000
 7195.00    0.77560   0.87864   -2.000
 7196.00    0.82150   0.87479   -2.000
 7197.00    0.79704   0.87807   -2.000
 7198.00    0.73268   0.88446   -2.000
 7199.00    0.79534   0.88988   -2.000
 7200.00    0.92073   0.89325   -2.000
 7201.00    0.95438   0.89584   -2.000
 7202.00    0.94886   0.89830   -2.000
 7203.00    0.84139   0.89983   -2.000
 7204.00    0.69661   0.90011   -2.000
 7205.00    0.57429   0.90015   -2.000
 7206.00    0.45894   0.90087   -2.000
 7207.00    0.60742   0.90171   -2.000
 7208.00    0.82401   0.90226   -2.000
 7209.00    0.77169   0.90360   -2.000
 7210.00    0.66282   0.90648   -2.000
 7211.00    0.71674   0.90864   -2.000
 7212.00    0.79769   0.90553   -2.000
 7213.00    0.76073   0.89513   -2.000
 7214.00    0.70903   0.88180   -2.000
 7215.00    0.73179   0.87358   -2.000
 7216.00    0.76100   0.87599   -2.000
 7217.00    0.82703   0.88730   -2.000
 7218.00    0.89493   0.90031   -2.000
