###################################################################
## OUTPUT of StarlightChains_v04.for    [Cid@UFSC - 01/Apr/2007] ##
###################################################################

## Some input info
KUG0210-078._48_49.txt                   [arq_obs]
Base.CB07.vall.4m                        [arq_base]
Masks.EmLines.NEW.gm                     [arq_masks]
StCv04.C11.config                        [arq_config]
   66                                    [N_base]
    0                                    [N_YAV_components = # of components with extra extinction!]
    0                                    [i_FitPowerLaw (1/0 = Yes/No)]
-9.99                                    [alpha_PowerLaw]
CCM                                      [red_law_option]
 1.458241                                [q_norm = A(l_norm)/A(V)]

## (Re)Sampling Parameters
 3741.00                                 [l_ini (A)]
 7218.00                                 [l_fin (A)]
    1.00                                 [dl    (A)]     (OBS: dl_cushion =    50.00 A)

## Normalization info
 4020.00                                 [l_norm (A) - for base]
 4010.00                                 [llow_norm (A) - window for f_obs]
 4060.00                                 [lupp_norm (A) - window for f_obs]
9.428730E-18                             [fobs_norm (in input units)]

## S/N
 3691.00                                 [llow_SN (A) - window for S/N]
 7268.00                                 [lupp_SN (A) - window for S/N]
   2.273                                 [S/N in S/N window]
   3.038                                 [S/N in norm. window]
   0.008                                 [S/N_err in S/N window]
   0.011                                 [S/N_err in norm. window]
  1.0000                                 [fscale_chi2]

## etc...
    -2007936                             [idum_orig]
  2401                                   [NOl_eff]
  2114                                   [Nl_eff]
   287    NSIGMA                         [Ntot_cliped & clip_method]
  1223600                                [Nglobal_steps]
   7                                     [N_chains]
  37                                     [NEX0s_base = N_base in EX0s-fits]
 0   0   1      287   2.0   7.132E+03    [Clip-Bug, RC-Crash & Burn-In warning-flags, n_censored_weights, wei_nsig_threshold & wei_limit]
    24     23.719     23.217      0.502  [idt_all, wdt_TotTime, wdt_UsrTime & wdt_SysTime (sec)]

## Synthesis Results - Best model ##

 1.03760E-05                             [chi2/Nl_eff]
    20.16878                             [adev (%)]

   107.47558                             [sum-of-x (%)]
 4.18349E-18                             [Flux_tot (units of input spectrum!)]
 4.81028E-14                             [Mini_tot (???)]
 2.62089E-14                             [Mcor_tot (???)]

 -79.83                                  [v0_min  (km/s)]
   0.36                                  [vd_min  (km/s)]
-0.6587                                  [AV_min  (mag)]
 0.0000                                  [YAV_min (mag)]

# j     x_j(%)      Mini_j(%)     Mcor_j(%)     age_j(yr)     Z_j      (L/M)_j    YAV?  Mstars   component_j        a/Fe...       SSP_chi2r SSP_adev(%)   SSP_AV   SSP_x(%)
  1      0.0000     0.0000E+00    0.0000E+00    1.000000E+06  0.00400  1.094E-02    0   1.0000   age020_m42            0.0000     1.0538E-05    18.8478   2.0385    97.8486
  2      0.0000     0.0000E+00    0.0000E+00    3.160000E+06  0.00400  4.007E-02    0   0.9999   age045_m42            0.0000     1.0428E-05    19.3680   1.3895   101.3321
  3      0.0000     0.0000E+00    0.0000E+00    5.010000E+06  0.00400  2.539E-02    0   0.9488   age055_m42            0.0000     1.0472E-05    19.1221   1.6754   100.2670
  4      3.5119     1.0847E-02    1.8355E-02    6.610000E+06  0.00400  2.620E-02    0   0.9220   age061_m42            0.0000     1.0438E-05    19.4696   1.3237   101.2982
  5      0.0000     0.0000E+00    0.0000E+00    1.000000E+07  0.00400  1.322E-02    0   0.8862   age070_m42            0.0000     1.0586E-05    20.4745   1.0550   103.4385
  6      0.0000     0.0000E+00    0.0000E+00    1.445000E+07  0.00400  7.883E-03    0   0.8571   age078_m42            0.0000     1.0593E-05    20.1478   1.3643   101.4981
  7      0.0000     0.0000E+00    0.0000E+00    2.512000E+07  0.00400  5.251E-03    0   0.8174   age090_m42            0.0000     1.0615E-05    20.7434   0.9386   103.5680
  8      0.0000     0.0000E+00    0.0000E+00    4.000000E+07  0.00400  3.649E-03    0   0.7851   age104_m42            0.0000     1.0599E-05    20.7628   0.7238   103.8367
  9      1.9961     5.2138E-02    7.3003E-02    5.500000E+07  0.00400  3.098E-03    0   0.7629   age110_m42            0.0000     1.0512E-05    20.3926   0.8824   103.4164
 10      0.0234     8.5054E-04    1.1251E-03    1.015200E+08  0.00400  2.228E-03    0   0.7207   age116_m42            0.0000     1.0456E-05    20.1492   0.9025   103.3733
 11      0.0000     0.0000E+00    0.0000E+00    2.861200E+08  0.00400  1.093E-03    0   0.6648   age125_m42            0.0000     1.0534E-05    21.0625   0.3599   105.3575
 12      0.8777     1.0766E-01    1.2576E-01    5.088000E+08  0.00400  6.597E-04    0   0.6365   age130_m42            0.0000     1.0428E-05    20.6513   0.3571   105.7218
 13     30.7833     1.1684E+01    1.2433E+01    1.434000E+09  0.00400  2.132E-04    0   0.5798   age139_m42            0.0000     1.0330E-05    20.4758  -0.5829   106.2415
 14      0.0000     0.0000E+00    0.0000E+00    4.250000E+09  0.00400  5.895E-05    0   0.5377   age158_m42            0.0000     1.0349E-05    20.0167  -1.0000   101.5685
 15      0.2025     4.6681E-01    4.4655E-01    7.500000E+09  0.00400  3.510E-05    0   0.5212   age171_m42            0.0000     1.0591E-05    22.4536  -1.0000    96.6486
 16      0.8142     3.2860E+00    3.0360E+00    1.300000E+10  0.00400  2.005E-05    0   0.5034   age193_m42            0.0000     1.1033E-05    25.2597  -1.0000    92.3791
 17      0.9853     5.2284E+00    4.7664E+00    1.800000E+10  0.00400  1.525E-05    0   0.4967   age213_m42            0.0000     1.1078E-05    25.7689  -1.0000    91.5208
 18      0.0000     0.0000E+00    0.0000E+00    1.000000E+06  0.00800  1.238E-02    0   1.0000   age020_m52            0.0000     1.0529E-05    18.8164   2.0303    98.1859
 19      0.0150     3.9484E-05    7.2220E-05    3.160000E+06  0.00800  3.074E-02    0   0.9966   age045_m52            0.0000     1.0503E-05    18.7779   1.9586    98.8757
 20      0.0000     0.0000E+00    0.0000E+00    5.010000E+06  0.00800  2.668E-02    0   0.9443   age055_m52            0.0000     1.0484E-05    19.0151   1.7486    99.7554
 21      0.0000     0.0000E+00    0.0000E+00    6.610000E+06  0.00800  2.136E-02    0   0.9177   age061_m52            0.0000     1.0545E-05    20.2267   0.5516   104.7489
 22      0.0000     0.0000E+00    0.0000E+00    1.000000E+07  0.00800  1.215E-02    0   0.8827   age070_m52            0.0000     1.0639E-05    20.7495   1.2277   103.5549
 23      0.0000     0.0000E+00    0.0000E+00    1.445000E+07  0.00800  8.717E-03    0   0.8552   age078_m52            0.0000     1.0556E-05    20.2668   1.3378   102.5819
 24      0.0000     0.0000E+00    0.0000E+00    2.512000E+07  0.00800  5.592E-03    0   0.8162   age090_m52            0.0000     1.0602E-05    20.9706   1.0103   104.4545
 25      0.0000     0.0000E+00    0.0000E+00    4.000000E+07  0.00800  3.896E-03    0   0.7841   age104_m52            0.0000     1.0584E-05    20.9063   0.9350   104.5480
 26      0.3688     1.3895E-02    1.8429E-02    1.015200E+08  0.00800  2.148E-03    0   0.7226   age116_m52            0.0000     1.0514E-05    20.4943   0.8824   103.7602
 27      9.3127     7.5928E-01    9.3132E-01    2.861200E+08  0.00800  9.925E-04    0   0.6683   age125_m52            0.0000     1.0445E-05    20.6459   0.4248   106.5481
 28      0.0000     0.0000E+00    0.0000E+00    9.047900E+08  0.00800  3.141E-04    0   0.6138   age135_m52            0.0000     1.0380E-05    20.4222  -0.3366   108.7390
 29      0.0000     0.0000E+00    0.0000E+00    1.434000E+09  0.00800  1.719E-04    0   0.5853   age139_m52            0.0000     1.0337E-05    20.2783  -0.9361   107.0837
 30      0.3461     3.5582E-01    3.6571E-01    2.500000E+09  0.00800  7.872E-05    0   0.5600   age150_m52            0.0000     1.0568E-05    22.1645  -1.0000    99.5968
 31      6.6604     1.2430E+01    1.2379E+01    4.250000E+09  0.00800  4.336E-05    0   0.5426   age158_m52            0.0000     1.0619E-05    22.3120  -1.0000    98.2975
 32      0.0000     0.0000E+00    0.0000E+00    6.250000E+09  0.00800  3.159E-05    0   0.5319   age166_m52            0.0000     1.1172E-05    25.4816  -1.0000    93.4298
 33      0.0000     0.0000E+00    0.0000E+00    1.300000E+10  0.00800  1.361E-05    0   0.5073   age193_m52            0.0000     1.3565E-05    34.2416  -1.0000    81.5301
 34      0.1974     1.6155E+00    1.4795E+00    1.800000E+10  0.00800  9.886E-06    0   0.4990   age213_m52            0.0000     1.4391E-05    35.9253  -1.0000    78.3828
 35      0.0000     0.0000E+00    0.0000E+00    1.000000E+06  0.02000  1.544E-02    0   1.0000   age020_m62            0.0000     1.0526E-05    18.7817   2.0199    98.6235
 36      0.0000     0.0000E+00    0.0000E+00    3.160000E+06  0.02000  3.762E-02    0   0.9858   age045_m62            0.0000     1.0463E-05    18.6898   1.9586    99.5447
 37      0.0000     0.0000E+00    0.0000E+00    5.010000E+06  0.02000  3.296E-02    0   0.9342   age055_m62            0.0000     1.0410E-05    19.0272   1.6430   101.1018
 38      0.0004     2.6618E-06    4.3289E-06    8.710000E+06  0.02000  1.154E-02    0   0.8861   age067_m62            0.0000     1.1015E-05    23.2349   0.6732   107.7936
 39      0.0000     0.0000E+00    0.0000E+00    1.445000E+07  0.02000  7.663E-03    0   0.8472   age078_m62            0.0000     1.0706E-05    21.6403   0.8833   105.7515
 40      0.0000     0.0000E+00    0.0000E+00    2.512000E+07  0.02000  4.532E-03    0   0.8099   age090_m62            0.0000     1.0785E-05    21.9474   0.8861   105.0536
 41      0.0806     2.3853E-03    3.3250E-03    5.500000E+07  0.02000  2.733E-03    0   0.7595   age110_m62            0.0000     1.0561E-05    20.7929   0.9084   104.2081
 42      0.0723     4.2738E-03    5.4790E-03    1.609000E+08  0.02000  1.369E-03    0   0.6985   age120_m62            0.0000     1.0444E-05    20.5250   0.7673   105.8972
 43      9.8953     8.8842E-01    1.0948E+00    2.861200E+08  0.02000  9.013E-04    0   0.6714   age125_m62            0.0000     1.0391E-05    20.5027   0.5344   108.0192
 44      0.0000     0.0000E+00    0.0000E+00    5.088000E+08  0.02000  5.028E-04    0   0.6449   age130_m62            0.0000     1.0331E-05    20.0736   0.1744   109.6091
 45     16.4785     5.4920E+00    6.2283E+00    9.047900E+08  0.02000  2.428E-04    0   0.6179   age135_m62            0.0000     1.0329E-05    19.8296  -0.3982   107.9051
 46      0.0000     0.0000E+00    0.0000E+00    1.434000E+09  0.02000  1.263E-04    0   0.5908   age139_m62            0.0000     1.0418E-05    19.6182  -0.8491   106.3107
 47      0.4138     5.5943E-01    5.8248E-01    2.500000E+09  0.02000  5.985E-05    0   0.5673   age150_m62            0.0000     1.0708E-05    22.0330  -1.0000   100.0744
 48      0.0000     0.0000E+00    0.0000E+00    4.250000E+09  0.02000  3.271E-05    0   0.5468   age158_m62            0.0000     1.1667E-05    26.8905  -1.0000    91.8909
 49      4.3044     2.5611E+01    2.4288E+01    1.000000E+10  0.02000  1.360E-05    0   0.5167   age181_m62            0.0000     1.3670E-05    33.0738  -1.0000    82.8058
 50      0.0000     0.0000E+00    0.0000E+00    1.800000E+10  0.02000  7.124E-06    0   0.5013   age213_m62            0.0000     1.5419E-05    36.6291  -1.0000    76.8782
 51      0.0000     0.0000E+00    0.0000E+00    1.000000E+06  0.05000  2.592E-02    0   0.9998   age020_m72            0.0000     1.0556E-05    18.7900   2.0007    99.1306
 52      0.0000     0.0000E+00    0.0000E+00    3.160000E+06  0.05000  4.845E-02    0   0.9577   age045_m72            0.0000     1.0437E-05    18.6981   1.8663    99.7816
 53      0.0000     0.0000E+00    0.0000E+00    5.010000E+06  0.05000  3.072E-02    0   0.9147   age055_m72            0.0000     1.0614E-05    20.6031   1.4287   102.8783
 54      1.3675     7.6053E-03    1.2391E-02    6.610000E+06  0.05000  1.455E-02    0   0.8877   age061_m72            0.0000     1.1474E-05    25.1854   0.7001   109.1871
 55      0.0000     0.0000E+00    0.0000E+00    1.000000E+07  0.05000  9.074E-03    0   0.8524   age070_m72            0.0000     1.0693E-05    21.0132   1.6009   102.5367
 56      0.0000     0.0000E+00    0.0000E+00    2.512000E+07  0.05000  4.250E-03    0   0.7902   age090_m72            0.0000     1.0697E-05    21.2084   1.3474   102.8564
 57      0.1445     3.7884E-03    5.2969E-03    4.000000E+07  0.05000  3.087E-03    0   0.7618   age104_m72            0.0000     1.0729E-05    21.6427   1.1354   103.9933
 58      0.0000     0.0000E+00    0.0000E+00    1.015200E+08  0.05000  1.700E-03    0   0.7096   age116_m72            0.0000     1.0556E-05    21.0033   0.9135   105.4234
 59      0.0000     0.0000E+00    0.0000E+00    2.861200E+08  0.05000  7.384E-04    0   0.6633   age125_m72            0.0000     1.0324E-05    20.3161   0.4124   108.7178
 60      0.0000     0.0000E+00    0.0000E+00    5.088000E+08  0.05000  3.819E-04    0   0.6372   age130_m72            0.0000     1.0255E-05    19.7679  -0.0701   109.5748
 61      0.0000     0.0000E+00    0.0000E+00    9.047900E+08  0.05000  1.676E-04    0   0.6110   age135_m72            0.0000     1.0439E-05    19.1956  -0.7709   107.1393
 62     16.4405     1.5055E+01    1.6230E+01    1.434000E+09  0.05000  8.837E-05    0   0.5874   age139_m72            0.0000     1.0756E-05    22.0205  -1.0000   101.2110
 63      0.0000     0.0000E+00    0.0000E+00    2.500000E+09  0.05000  4.233E-05    0   0.5598   age150_m72            0.0000     1.1774E-05    26.8021  -1.0000    92.5965
 64      1.5854     8.9401E+00    8.6127E+00    6.250000E+09  0.05000  1.435E-05    0   0.5249   age166_m72            0.0000     1.4469E-05    34.8537  -1.0000    80.0552
 65      0.5976     7.4252E+00    6.8630E+00    1.300000E+10  0.05000  6.513E-06    0   0.5036   age193_m72            0.0000     1.7212E-05    39.4920  -1.0000    73.6588
 66      0.0000     0.0000E+00    0.0000E+00    1.800000E+10  0.05000  4.527E-06    0   0.4945   age213_m72            0.0000     1.9037E-05    41.9296  -1.0000    69.3935


## Synthesis Results - Average & Chains ##

# j      x_j: min, <> & last-chain-values for 1 ...  7 chains
  1      0.0000      1.4812      1.7165      0.8982      3.5414      0.6370      0.0000      0.0000      0.8387
  2      0.0000      1.2356      0.3548      0.0000      0.0000      0.0000      1.3692      1.6938      7.0584
  3      0.0000      1.3002      2.1078      3.0711      1.5383      0.0348      2.2178      2.4151      0.0000
  4      3.5119      1.4062      1.3937      0.6794      2.0386      1.6135      0.0000      2.3345      1.3867
  5      0.0000      1.3363      0.0000      0.1695      0.2454      1.1818      4.8590      2.1511      0.2825
  6      0.0000      0.9605      0.0000      0.8902      0.9122      0.0000      2.0071      1.5316      0.0000
  7      0.0000      1.7650      0.7700      0.0000      0.5454      0.0000      3.4004      0.8188      6.8259
  8      0.0000      1.4071      0.0000      0.2953      1.9773      0.0727      2.0673      0.9116      0.0000
  9      1.9961      1.5366      1.1236      1.2562      1.6627      1.2545      0.7565      0.4473      0.0000
 10      0.0234      0.8351      0.1529      2.4392      0.0000      1.7016      2.3143      1.3921      2.1198
 11      0.0000      1.1417      0.0000      2.7291      2.7490      0.0000      0.1859      0.1450      0.0000
 12      0.8777      1.3421      1.6131      0.2311      0.0000      1.5822      0.0000      3.1711      0.7788
 13     30.7833      0.9351      1.2192      0.0000      3.4928      1.6437      0.8782      0.7790      3.7309
 14      0.0000      1.0509      0.0000      3.1046      0.3638      2.2810      1.0614      0.2249      0.6488
 15      0.2025      1.1108      0.8352      2.4984      1.5553      1.7982      2.8338      1.1015      0.1424
 16      0.8142      3.4170      3.6793      1.3987      2.4321      7.5734      3.3710      0.0000      5.6897
 17      0.9853      2.3223      2.6584      2.1639      9.8797      0.8645      1.3321      1.5030      4.4247
 18      0.0000      1.0340      1.0619      3.9363      0.0000      0.4392      0.0000      0.0000      0.0000
 19      0.0150      1.2960      0.0000      0.3237      0.4698      3.5845      1.9572      0.6172      0.0000
 20      0.0000      1.3200      0.1104      0.0000      2.8962      0.8770      0.0000      0.1975      1.2274
 21      0.0000      1.2522      0.5978      0.5464      2.2069      0.0000      2.1749      0.4443      1.8426
 22      0.0000      0.9168      0.2418      4.4691      0.1551      0.0000      0.0000      0.0000      0.4920
 23      0.0000      1.1726      0.7963      0.6704      0.0000      6.2442      0.1179      0.6003      0.3542
 24      0.0000      1.0539      1.5579      0.0000      0.0000      0.0085      1.4703      0.5065      2.7833
 25      0.0000      1.2773      0.0788      0.0000      1.0745      0.9765      1.2683      0.0000      0.0000
 26      0.3688      1.5199      0.0000      5.6853      2.3920      4.0679      3.1407      2.5512      0.9021
 27      9.3127      1.2044      0.4621      0.8221      0.6571      1.9236      0.6584      0.6575      1.3072
 28      0.0000      1.6664      0.9277      3.3598      1.1367      0.0000      2.7602      1.3688      4.1746
 29      0.0000      0.9482      0.3929      0.0000      3.9303      0.0000      1.8776      0.8349      2.2788
 30      0.3461      1.0993      0.0000      1.4584      2.2230      4.8616      0.0361      1.3667      3.7668
 31      6.6604      0.9864      2.0468      1.9416      0.0000      2.2494      0.4987      0.7335      0.0000
 32      0.0000      1.1951      2.7615      0.0000      6.6993      0.1822      2.4445      4.0524      6.1436
 33      0.0000      2.4537      4.6001      1.8609      2.9423      2.0024      0.7932      0.0000      3.2917
 34      0.1974      4.7198      8.6550      0.0000      0.7058      4.2825      3.6380      5.3126      1.4689
 35      0.0000      1.0260      0.0245      0.8105      0.4273      0.0000      0.5422      1.4711      0.8724
 36      0.0000      2.0838      1.3903      6.0338      4.1693      0.2419      1.1001      3.7627      1.7219
 37      0.0000      1.3854      0.0000      1.0664      2.0198      0.0000      1.1468      3.2686      0.6316
 38      0.0004      2.1488      4.7598      0.6444      2.0416      2.9081      0.0000      3.8498      0.0495
 39      0.0000      1.6476      0.0000      0.0000      0.4569      0.0000      0.1836      6.1865      5.5925
 40      0.0000      1.6533      1.8455      2.6539      0.0000      0.5092      0.6842      3.3149      0.3470
 41      0.0806      1.1738      0.0000      0.8556      0.0000      1.8981      0.0000      1.8302      0.5187
 42      0.0723      1.2204      0.2659      1.6781      0.7063      1.3277      1.1651      2.1975      0.1757
 43      9.8953      1.2210      2.3901      0.0000      5.5863      1.4116      2.0409      1.5127      0.1965
 44      0.0000      1.6510      2.9901      3.8103      1.0641      0.8849      2.0614      2.9012      2.0562
 45     16.4785      1.4381      0.7422      0.0000      1.3610      7.3188      1.6915      5.7886      0.0000
 46      0.0000      1.6137      1.3118      1.0189      0.4072      0.0000      3.6719      1.4781      2.4367
 47      0.4138      0.9233      0.9003      2.4843      0.0000      1.5250      0.4500      0.8753      0.2820
 48      0.0000      1.2391      0.6280      1.8432      0.8749      0.0000      2.6612      0.9371      2.7138
 49      4.3044      2.8758      3.7050      3.4888      0.5939      6.8685      5.9094      0.8003      0.1225
 50      0.0000      1.2046      1.9328      4.0284      3.0824      0.0000      0.0000      2.3579      0.3746
 51      0.0000     15.4105     22.8582      4.3157      6.0601      8.7318     12.7185     10.7729      1.4767
 52      0.0000      2.2140      4.8623      0.2317      1.2210      1.2160      1.7542      4.1025      0.0711
 53      0.0000      2.1417      1.9206      3.4958      0.6155      0.0000      1.8626      1.1183      0.8403
 54      1.3675      3.1442      4.8795      0.6080      1.6384      1.6022      1.0860      2.5888      2.4531
 55      0.0000      2.7517      0.0000      1.4659      1.2155      5.7905      0.1768      0.0517      0.7460
 56      0.0000      1.0294      0.4244      0.0000      0.4628      0.0000      0.0000      0.0000      4.0602
 57      0.1445      1.4300      2.4257      2.1651      0.7711      0.6189      2.5940      0.0000      0.9521
 58      0.0000      0.8541      0.8527      4.3162      0.0000      0.0000      0.8432      0.0000      4.3855
 59      0.0000      1.1460      0.0000      0.0000      2.5634      0.0000      1.6157      0.6376      0.0000
 60      0.0000      1.2746      0.0193      0.0000      0.0000      0.3241      1.7222      0.1295      2.3584
 61      0.0000      1.1699      0.5470      1.5310      0.0000      0.0105      2.3624      1.1453      1.0831
 62     16.4405      1.3486      2.2849      6.2539      4.6767      4.7989      1.8872      0.1093      1.0747
 63      0.0000      1.0081      0.3054      3.8907      4.7374      0.2657      0.7636      0.0000      4.1989
 64      1.5854      1.1688      0.0078      0.4724      0.7270      2.7338      2.8211      2.6593      0.0000
 65      0.5976      1.6020      3.1588      2.5050      1.2324      4.0446      2.3395      4.2880      4.7602
 66      0.0000      1.2846      3.1631      5.4319      0.5703      0.0000      3.1239      4.0553      0.1543

# j      m_j: min, <> & last-chain-values for 1 ...  7 chains
  1  0.0000E+00  1.1768E-02  8.6911E-03  4.8994E-03  2.5694E-02  4.2173E-03  0.0000E+00  0.0000E+00  6.3589E-03
  2  0.0000E+00  2.6799E-03  4.9036E-04  0.0000E+00  0.0000E+00  0.0000E+00  2.4028E-03  2.7011E-03  1.4610E-02
  3  0.0000E+00  4.2232E-03  4.3629E-03  6.8483E-03  4.5628E-03  9.4227E-05  5.8286E-03  5.7675E-03  0.0000E+00
  4  1.8355E-02  4.3013E-03  2.7167E-03  1.4267E-03  5.6944E-03  4.1123E-03  0.0000E+00  5.2502E-03  4.0477E-03
  5  0.0000E+00  7.7859E-03  0.0000E+00  6.7821E-04  1.3059E-03  5.7375E-03  2.2907E-02  9.2153E-03  1.5706E-03
  6  0.0000E+00  9.0767E-03  0.0000E+00  5.7759E-03  7.8721E-03  0.0000E+00  1.5347E-02  1.0642E-02  0.0000E+00
  7  0.0000E+00  2.3880E-02  6.6391E-03  0.0000E+00  6.7393E-03  0.0000E+00  3.7226E-02  8.1456E-03  8.8135E-02
  8  0.0000E+00  2.6314E-02  0.0000E+00  3.7910E-03  3.3767E-02  1.1322E-03  3.1280E-02  1.2535E-02  0.0000E+00
  9  7.3003E-02  3.2889E-02  1.5326E-02  1.8459E-02  3.2500E-02  2.2374E-02  1.3101E-02  7.0392E-03  0.0000E+00
 10  1.1251E-03  2.3479E-02  2.7397E-03  4.7083E-02  0.0000E+00  3.9863E-02  5.2648E-02  2.8777E-02  5.6877E-02
 11  0.0000E+00  6.0357E-02  0.0000E+00  9.9052E-02  1.3272E-01  0.0000E+00  7.9529E-03  5.6368E-03  0.0000E+00
 12  1.2576E-01  1.1255E-01  8.6212E-02  1.3307E-02  0.0000E+00  1.1056E-01  0.0000E+00  1.9553E-01  6.2324E-02
 13  1.2433E+01  2.2104E-01  1.8366E-01  0.0000E+00  7.5395E-01  3.2374E-01  1.6797E-01  1.3538E-01  8.4158E-01
 14  0.0000E+00  8.3312E-01  0.0000E+00  1.6898E+00  2.6337E-01  1.5068E+00  6.8084E-01  1.3112E-01  4.9088E-01
 15  4.4655E-01  1.4336E+00  6.8695E-01  2.2138E+00  1.8331E+00  1.9339E+00  2.9593E+00  1.0452E+00  1.7541E-01
 16  3.0360E+00  7.4567E+00  5.1170E+00  2.0956E+00  4.8468E+00  1.3771E+01  5.9521E+00  0.0000E+00  1.1849E+01
 17  4.7664E+00  6.5742E+00  4.7961E+00  4.2058E+00  2.5541E+01  2.0392E+00  3.0512E+00  3.1284E+00  1.1954E+01
 18  0.0000E+00  7.2592E-03  4.7514E-03  1.8973E-02  0.0000E+00  2.5693E-03  0.0000E+00  0.0000E+00  0.0000E+00
 19  7.2220E-05  3.6520E-03  0.0000E+00  6.2617E-04  1.2089E-03  8.4165E-03  4.4625E-03  1.2789E-03  0.0000E+00
 20  0.0000E+00  4.0609E-03  2.1649E-04  0.0000E+00  8.1364E-03  2.2481E-03  0.0000E+00  4.4678E-04  3.6034E-03
 21  0.0000E+00  4.6759E-03  1.4227E-03  1.4007E-03  7.5261E-03  0.0000E+00  6.5714E-03  1.2200E-03  6.5664E-03
 22  0.0000E+00  5.7894E-03  9.7322E-04  1.9375E-02  8.9416E-04  0.0000E+00  0.0000E+00  0.0000E+00  2.9646E-03
 23  0.0000E+00  9.9987E-03  4.3275E-03  3.9246E-03  0.0000E+00  4.4367E-02  8.1314E-04  3.7635E-03  2.8827E-03
 24  0.0000E+00  1.3370E-02  1.2596E-02  0.0000E+00  0.0000E+00  8.9360E-05  1.5093E-02  4.7249E-03  3.3697E-02
 25  0.0000E+00  2.2344E-02  8.7846E-04  0.0000E+00  1.7165E-02  1.4234E-02  1.7951E-02  0.0000E+00  0.0000E+00
 26  1.8429E-02  4.4442E-02  0.0000E+00  1.1413E-01  6.3870E-02  9.9110E-02  7.4305E-02  5.4847E-02  2.5173E-02
 27  9.3132E-01  7.0487E-02  1.7234E-02  3.3034E-02  3.5117E-02  9.3806E-02  3.1178E-02  2.8295E-02  7.3010E-02
 28  0.0000E+00  2.8303E-01  1.0041E-01  3.9179E-01  1.7631E-01  0.0000E+00  3.7933E-01  1.7094E-01  6.7666E-01
 29  0.0000E+00  2.8061E-01  7.4099E-02  0.0000E+00  1.0622E+00  0.0000E+00  4.4960E-01  1.8166E-01  6.4358E-01
 30  3.6571E-01  6.7971E-01  0.0000E+00  6.1909E-01  1.2552E+00  2.5048E+00  1.8084E-02  6.2133E-01  2.2226E+00
 31  1.2379E+01  1.0729E+00  1.4188E+00  1.4499E+00  0.0000E+00  2.0387E+00  4.3887E-01  5.8657E-01  0.0000E+00
 32  0.0000E+00  1.7490E+00  2.5755E+00  0.0000E+00  8.9534E+00  2.2223E-01  2.8946E+00  4.3606E+00  8.5802E+00
 33  0.0000E+00  7.9492E+00  9.4977E+00  4.1392E+00  8.7049E+00  5.4055E+00  2.0792E+00  0.0000E+00  1.0177E+01
 34  1.4795E+00  2.0707E+01  2.4199E+01  0.0000E+00  2.8277E+00  1.5655E+01  1.2914E+01  1.7137E+01  6.1497E+00
 35  0.0000E+00  5.7755E-03  8.7795E-05  3.1325E-03  2.1966E-03  0.0000E+00  2.4696E-03  6.0891E-03  4.6865E-03
 36  0.0000E+00  4.7459E-03  2.0180E-03  9.4349E-03  8.6718E-03  4.5912E-04  2.0273E-03  6.3011E-03  3.7426E-03
 37  0.0000E+00  3.4129E-03  0.0000E+00  1.8036E-03  4.5440E-03  0.0000E+00  2.2860E-03  5.9206E-03  1.4848E-03
 38  4.3289E-06  1.4341E-02  2.0245E-02  2.9525E-03  1.2443E-02  1.6172E-02  0.0000E+00  1.8891E-02  3.1501E-04
 39  0.0000E+00  1.5833E-02  0.0000E+00  0.0000E+00  4.0092E-03  0.0000E+00  1.4279E-03  4.3710E-02  5.1285E-02
 40  0.0000E+00  2.5681E-02  1.8269E-02  2.8301E-02  0.0000E+00  6.5910E-03  8.5995E-03  3.7858E-02  5.1436E-03
 41  3.3250E-03  2.8353E-02  0.0000E+00  1.4189E-02  0.0000E+00  3.8203E-02  0.0000E+00  3.2504E-02  1.1955E-02
 42  5.4790E-03  5.4120E-02  7.5136E-03  5.1092E-02  2.8603E-02  4.9061E-02  4.1808E-02  7.1653E-02  7.4372E-03
 43  1.0948E+00  7.9056E-02  9.8621E-02  0.0000E+00  3.3030E-01  7.6156E-02  1.0692E-01  7.2014E-02  1.2143E-02
 44  0.0000E+00  1.8405E-01  2.1244E-01  2.9163E-01  1.0833E-01  8.2204E-02  1.8594E-01  2.3780E-01  2.1876E-01
 45  6.2283E+00  3.1811E-01  1.0463E-01  0.0000E+00  2.7492E-01  1.3489E+00  3.0274E-01  9.4144E-01  0.0000E+00
 46  0.0000E+00  6.5609E-01  3.3990E-01  2.8441E-01  1.5118E-01  0.0000E+00  1.2080E+00  4.4187E-01  9.4543E-01
 47  5.8248E-01  7.6065E-01  4.7269E-01  1.4052E+00  0.0000E+00  1.0469E+00  2.9998E-01  5.3019E-01  2.2168E-01
 48  0.0000E+00  1.8004E+00  5.8155E-01  1.8386E+00  1.1609E+00  0.0000E+00  3.1285E+00  1.0011E+00  3.7628E+00
 49  2.4288E+01  9.4964E+00  7.7972E+00  7.9096E+00  1.7911E+00  1.8899E+01  1.5789E+01  1.9431E+00  3.8589E-01
 50  0.0000E+00  7.3677E+00  7.5336E+00  1.6915E+01  1.7216E+01  0.0000E+00  0.0000E+00  1.0604E+01  2.1864E+00
 51  0.0000E+00  5.1665E-02  4.8839E-02  9.9335E-03  1.8554E-02  2.4393E-02  3.4501E-02  2.6556E-02  4.7246E-03
 52  0.0000E+00  3.8039E-03  5.3238E-03  2.7331E-04  1.9157E-03  1.7408E-03  2.4385E-03  5.1825E-03  1.1664E-04
 53  0.0000E+00  5.5428E-03  3.1678E-03  6.2113E-03  1.4548E-03  0.0000E+00  3.9003E-03  2.1279E-03  2.0754E-03
 54  1.2391E-02  1.6673E-02  1.6490E-02  2.2134E-03  7.9341E-03  7.0795E-03  4.6595E-03  1.0094E-02  1.2414E-02
 55  0.0000E+00  2.2468E-02  0.0000E+00  8.2174E-03  9.0632E-03  3.9395E-02  1.1683E-03  3.1038E-04  5.8128E-03
 56  0.0000E+00  1.6635E-02  4.3707E-03  0.0000E+00  6.8295E-03  0.0000E+00  0.0000E+00  0.0000E+00  6.2616E-02
 57  5.2969E-03  3.0673E-02  3.3157E-02  3.1883E-02  1.5104E-02  1.1061E-02  4.5020E-02  0.0000E+00  1.9488E-02
 58  0.0000E+00  3.0988E-02  1.9715E-02  1.0751E-01  0.0000E+00  0.0000E+00  2.4751E-02  0.0000E+00  1.5184E-01
 59  0.0000E+00  8.9476E-02  0.0000E+00  0.0000E+00  1.8278E-01  0.0000E+00  1.0207E-01  3.6602E-02  0.0000E+00
 60  0.0000E+00  1.8484E-01  1.7881E-03  0.0000E+00  0.0000E+00  3.9167E-02  2.0208E-01  1.3807E-02  3.2639E-01
 61  0.0000E+00  3.7071E-01  1.1047E-01  3.3305E-01  0.0000E+00  2.7594E-03  6.0567E-01  2.6684E-01  3.2750E-01
 62  1.6230E+01  7.7912E-01  8.4128E-01  2.4806E+00  2.4674E+00  2.3102E+00  8.8221E-01  4.6442E-02  5.9254E-01
 63  0.0000E+00  1.1587E+00  2.2374E-01  3.0704E+00  4.9728E+00  2.5450E-01  7.1017E-01  0.0000E+00  4.6059E+00
 64  8.6127E+00  3.7160E+00  1.5903E-02  1.0312E+00  2.1107E+00  7.2421E+00  7.2572E+00  6.2164E+00  0.0000E+00
 65  6.8630E+00  1.0766E+01  1.3529E+01  1.1558E+01  7.5637E+00  2.2650E+01  1.2722E+01  2.1189E+01  3.0530E+01
 66  0.0000E+00  1.2197E+01  1.9139E+01  3.5407E+01  4.9450E+00  0.0000E+00  2.3998E+01  2.8309E+01  1.3981E+00

# AV, chi2 & Mass for <> & i_chain = 1 ...  7 solutions
AV      -0.6587     -0.7438     -0.6752     -0.7232     -0.6200     -0.6618     -0.6283     -0.5497     -0.6270
chi2 1.0376E-05  1.1569E-05  1.0723E-05  1.0690E-05  1.0570E-05  1.0568E-05  1.0642E-05  1.0729E-05  1.0575E-05
Mass 2.6209E-14  3.9948E-14  6.8731E-14  5.9818E-14  5.1659E-14  5.3524E-14  5.7653E-14  7.0509E-14  4.8970E-14
 -79.83                                  [v0_min (km/s) before EX0s...]
   0.36                                  [vd_min (km/s) before EX0s...]


## Synthetic spectrum (Best Model) ##l_obs f_obs f_syn wei
 3478    [Nl_obs]
 3741.00    3.58021   0.67962    0.000
 3742.00    2.32357   0.64009    0.000
 3743.00   -0.14587   0.61039    0.000
 3744.00   -0.47734   0.57292    0.000
 3745.00    0.43687   0.52992   -1.000
 3746.00    0.39161   0.49515   -1.000
 3747.00   -0.14086   0.43013    0.000
 3748.00    0.22610   0.36295   -1.000
 3749.00    0.98858   0.36646   -1.000
 3750.00    1.83311   0.44469   -1.000
 3751.00    2.70863   0.53499   -1.000
 3752.00    2.51434   0.60400   -1.000
 3753.00    1.97721   0.67358   -1.000
 3754.00    1.17413   0.73149   -1.000
 3755.00    0.29979   0.73544   -1.000
 3756.00    0.31471   0.67436   -1.000
 3757.00    0.52481   0.60963   -1.000
 3758.00    0.52048   0.60935   -1.000
 3759.00    0.47872   0.64857   -1.000
 3760.00    0.84168   0.67774   -1.000
 3761.00    1.25840   0.68991   -1.000
 3762.00    1.30349   0.68222   -1.000
 3763.00    1.31367   0.67121   -1.000
 3764.00    0.17001   0.66863   -1.000
 3765.00   -1.04021   0.63114    0.000
 3766.00   -0.90971   0.57589    0.000
 3767.00   -0.75080   0.55215    0.000
 3768.00   -1.00576   0.52757    0.000
 3769.00   -1.25212   0.48280    0.000
 3770.00   -1.28946   0.48640    0.000
 3771.00   -1.28160   0.55469    0.000
 3772.00   -0.68142   0.62174    0.000
 3773.00   -0.04846   0.65523    0.000
 3774.00    0.87221   0.67660   -1.000
 3775.00    1.74914   0.70882   -1.000
 3776.00    2.34251   0.74637   -1.000
 3777.00    2.73200   0.77465   -1.000
 3778.00    2.08958   0.80854   -1.000
 3779.00    1.53188   0.84671   -1.000
 3780.00    1.32091   0.86044   -1.000
 3781.00    1.55216   0.85710   -1.000
 3782.00    3.28331   0.86527   -1.000
 3783.00    4.12206   0.88072   -1.000
 3784.00    2.40849   0.85218   -1.000
 3785.00    1.01605   0.78203   -1.000
 3786.00    0.40820   0.73767   -1.000
 3787.00    0.13106   0.72182   -1.000
 3788.00    0.55099   0.70574   -1.000
 3789.00    0.95291   0.69998   -1.000
 3790.00    1.32185   0.70910   -1.000
 3791.00    1.39137   0.69706   -1.000
 3792.00    0.98155   0.64709   -1.000
 3793.00    0.58785   0.58557   -1.000
 3794.00    0.21678   0.53843   -1.000
 3795.00    0.10740   0.49641   -1.000
 3796.00    0.32149   0.43552   -1.000
 3797.00    0.60133   0.39529   -1.000
 3798.00    0.95282   0.43225   -1.000
 3799.00    1.48703   0.52302   -1.000
 3800.00    2.19685   0.60469   -1.000
 3801.00    1.99021   0.66800   -1.000
 3802.00    1.00700   0.73012   -1.000
 3803.00    0.35314   0.76872   -1.000
 3804.00   -0.05496   0.77355    0.000
 3805.00    0.34774   0.75747   -1.000
 3806.00    1.28195   0.75224   -1.000
 3807.00    2.01097   0.78937   -1.000
 3808.00    2.62226   0.84596   -1.000
 3809.00    1.75183   0.88162   -1.000
 3810.00    0.14082   0.88577   -1.000
 3811.00    0.01177   0.85419   -1.000
 3812.00    0.52357   0.79951   -1.000
 3813.00    0.61421   0.76223   -1.000
 3814.00    0.54866   0.74752   -1.000
 3815.00    0.89960   0.75892   -1.000
 3816.00    1.38147   0.80350   -1.000
 3817.00    1.24336   0.82559   -1.000
 3818.00    0.94261   0.78082   -1.000
 3819.00    0.75791   0.71821   -1.000
 3820.00    0.59806   0.72005   -1.000
 3821.00    0.46037   0.76935   -1.000
 3822.00    0.32644   0.77387   -1.000
 3823.00    0.24089   0.71366   -1.000
 3824.00    0.16155   0.65885   -1.000
 3825.00    1.12773   0.63982   -1.000
 3826.00    2.18776   0.63265   -1.000
 3827.00    2.11344   0.61974   -1.000
 3828.00    1.97815   0.60551   -1.000
 3829.00    1.24495   0.59421   -1.000
 3830.00    0.51428   0.55816   -1.000
 3831.00    1.00735   0.48800   -1.000
 3832.00    1.49622   0.42520   -1.000
 3833.00    1.89158   0.38502   -1.000
 3834.00    2.20792   0.37120   -1.000
 3835.00    1.54167   0.39554   -1.000
 3836.00    0.88462   0.43095   -1.000
 3837.00    0.30538   0.45678   -1.000
 3838.00   -0.12505   0.48901    0.000
 3839.00    0.38067   0.52950   -1.000
 3840.00    1.07395   0.58544   -1.000
 3841.00    2.69265   0.66247   -1.000
 3842.00    3.79552   0.71954   -1.000
 3843.00    2.83345   0.74757   -1.000
 3844.00    1.80305   0.76212   -1.000
 3845.00    0.54550   0.77652   -1.000
 3846.00   -0.20707   0.80596    0.000
 3847.00    0.45841   0.82361    0.000
 3848.00    0.90622   0.80322    0.000
 3849.00    0.83121   0.78777    0.000
 3850.00    0.92144   0.82182    0.000
 3851.00    1.35436   0.86000    0.000
 3852.00    1.46958   0.86243    0.000
 3853.00    1.01178   0.84816    0.000
 3854.00    0.79451   0.82777    0.000
 3855.00    0.95658   0.81101    0.000
 3856.00    1.34364   0.82026    0.000
 3857.00    2.04216   0.81195    0.000
 3858.00    1.72386   0.77337    0.000
 3859.00    0.16658   0.77059    0.000
 3860.00   -0.64332   0.82195    0.000
 3861.00   -0.65040   0.87401    0.000
 3862.00   -0.23993   0.89556    0.000
 3863.00    0.56618   0.89164    0.000
 3864.00    0.79060   0.87416    0.000
 3865.00    0.52907   0.86446    0.000
 3866.00    0.50256   0.86941    0.000
 3867.00    0.64889   0.87646    0.000
 3868.00    0.67638   0.87217    0.000
 3869.00    0.62710   0.84452    0.000
 3870.00    0.52473   0.80154    0.000
 3871.00    0.39236   0.76175    0.000
 3872.00    0.71372   0.76443    0.000
 3873.00    1.25827   0.80972    0.000
 3874.00    1.10719   0.84529    0.000
 3875.00    0.66030   0.83547    0.000
 3876.00    0.45298   0.77887    0.000
 3877.00    0.33291   0.71368    0.000
 3878.00    0.09782   0.71124    0.000
 3879.00   -0.17274   0.74325    0.000
 3880.00   -0.09171   0.72553    0.000
 3881.00    0.07959   0.68043   -1.000
 3882.00    0.20532   0.66650   -1.000
 3883.00    0.32152   0.66165   -1.000
 3884.00    0.31085   0.60473   -1.000
 3885.00    0.27926   0.52138   -1.000
 3886.00    0.41922   0.46882   -1.000
 3887.00    0.58043   0.43305   -1.000
 3888.00    0.47380   0.41771   -1.000
 3889.00    0.34425   0.46546   -1.000
 3890.00   -0.11931   0.55213    0.000
 3891.00   -0.59951   0.62457    0.000
 3892.00   -0.21140   0.66290    0.000
 3893.00    0.19523   0.67742   -1.000
 3894.00    0.87988   0.68652   -1.000
 3895.00    1.50563   0.71728   -1.000
 3896.00    0.92683   0.75882   -1.000
 3897.00    0.42283   0.76813   -1.000
 3898.00    0.80350   0.75883   -1.000
 3899.00    1.12396   0.77415   -1.000
 3900.00    0.95398   0.81883   -1.000
 3901.00    0.73365   0.83606   -1.000
 3902.00    0.20579   0.82318   -1.000
 3903.00   -0.20057   0.82129    0.000
 3904.00   -0.02220   0.80510    0.000
 3905.00    0.20409   0.79550   -1.000
 3906.00    0.61803   0.83862   -1.000
 3907.00    0.89847   0.89680   -1.000
 3908.00    0.74376   0.92925   -1.000
 3909.00    0.69447   0.93924   -1.000
 3910.00    0.93586   0.94961   -1.000
 3911.00    1.25701   0.95218   -1.000
 3912.00    1.76649   0.92982   -1.000
 3913.00    1.84843   0.91475   -1.000
 3914.00    1.05783   0.92083   -1.000
 3915.00    0.52587   0.91390   -1.000
 3916.00    0.45330   0.90268   -1.000
 3917.00    0.56908   0.89260   -1.000
 3918.00    0.97755   0.87073   -1.000
 3919.00    1.16622   0.84556   -1.000
 3920.00    1.05499   0.83715   -1.000
 3921.00    0.61858   0.84861   -1.000
 3922.00   -0.20846   0.86192    0.000
 3923.00   -0.26963   0.87097    0.000
 3924.00    0.48034   0.85732   -1.000
 3925.00    1.06191   0.82233   -1.000
 3926.00    1.48619   0.78124   -1.000
 3927.00    1.52334   0.73376   -1.000
 3928.00    1.24168   0.68741   -1.000
 3929.00    1.21797   0.64275   -1.000
 3930.00    1.38126   0.59082   -1.000
 3931.00    1.17585   0.51731   -1.000
 3932.00    0.73580   0.43905   -1.000
 3933.00    0.45422   0.42360   -1.000
 3934.00    0.26084   0.49257   -1.000
 3935.00    0.55406   0.58708   -1.000
 3936.00    1.08283   0.66069   -1.000
 3937.00    0.71621   0.71549   -1.000
 3938.00   -0.02477   0.76543    0.000
 3939.00   -0.00570   0.80263    0.000
 3940.00    0.28525   0.81359   -1.000
 3941.00    0.55276   0.81115   -1.000
 3942.00    0.81318   0.79717   -1.000
 3943.00    0.90410   0.78934   -1.000
 3944.00    0.95244   0.82733   -1.000
 3945.00    1.41415   0.87964   -1.000
 3946.00    1.96016   0.88274   -1.000
 3947.00    1.89915   0.85839   -1.000
 3948.00    1.74095   0.86201   -1.000
 3949.00    1.48720   0.88946   -1.000
 3950.00    1.22204   0.89650   -1.000
 3951.00    1.12044   0.87161   -1.000
 3952.00    1.03215   0.86629   -1.000
 3953.00    1.12025   0.89329   -1.000
 3954.00    1.21645   0.88616   -1.000
 3955.00    1.38838   0.83616   -1.000
 3956.00    1.54871   0.80930   -1.000
 3957.00    1.05273   0.82190   -1.000
 3958.00    0.60804   0.82829   -1.000
 3959.00    1.13517   0.78440   -1.000
 3960.00    1.57546   0.70004    0.000
 3961.00    1.03713   0.63639    0.000
 3962.00    0.51065   0.61013    0.000
 3963.00    0.07727   0.58000    0.000
 3964.00   -0.14472   0.52437    0.000
 3965.00    0.88758   0.44623    0.000
 3966.00    1.56882   0.35961    0.000
 3967.00    0.60168   0.28656    0.000
 3968.00    0.00121   0.25364    0.000
 3969.00    0.80593   0.27454    0.000
 3970.00    1.42938   0.33941    0.000
 3971.00    1.47346   0.41820    0.000
 3972.00    1.09947   0.48812    0.000
 3973.00   -0.40676   0.55528    0.000
 3974.00   -2.04897   0.62259    0.000
 3975.00   -4.00693   0.67391    0.000
 3976.00   -4.31713   0.71642    0.000
 3977.00   -1.31770   0.76667    0.000
 3978.00    1.09784   0.81727    0.000
 3979.00    2.49206   0.85176    0.000
 3980.00    2.88612   0.85441    0.000
 3981.00    1.74898   0.84275   -1.000
 3982.00    0.99756   0.84918   -1.000
 3983.00    0.76485   0.87183   -1.000
 3984.00    0.81904   0.89638   -1.000
 3985.00    1.21298   0.90822   -1.000
 3986.00    1.24551   0.92215   -1.000
 3987.00    0.90065   0.95016   -1.000
 3988.00    0.60558   0.95478   -1.000
 3989.00    0.35636   0.94423   -1.000
 3990.00    0.60823   0.95839   -1.000
 3991.00    1.26694   0.98471   -1.000
 3992.00    1.51896   0.99799   -1.000
 3993.00    1.48041   0.98838   -1.000
 3994.00    1.21636   0.96937   -1.000
 3995.00    0.81092   0.94772   -1.000
 3996.00    0.63266   0.92637   -1.000
 3997.00    0.57889   0.93200   -1.000
 3998.00    0.73950   0.97900   -1.000
 3999.00    1.00222   1.01807   -1.000
 4000.00    1.23118   1.02168   -1.000
 4001.00    1.44626   1.02496   -1.000
 4002.00    1.29061   1.03052   -1.000
 4003.00    1.00474   0.99164   -1.000
 4004.00    0.82785   0.92278   -1.000
 4005.00    0.68325   0.91017   -1.000
 4006.00    0.75341   0.96332   -1.000
 4007.00    0.87632   1.01026   -1.000
 4008.00    0.82605   1.02276   -1.000
 4009.00    0.74133   1.02505   -1.000
 4010.00    0.90325   1.02914   -1.000
 4011.00    1.10349   1.02606   -1.000
 4012.00    1.32079   1.02571   -1.000
 4013.00    1.54004   1.03123   -1.000
 4014.00    1.73166   1.04462   -1.000
 4015.00    1.92113   1.04913   -1.000
 4016.00    1.59932   1.03179   -1.000
 4017.00    1.25597   1.03411   -1.000
 4018.00    0.55931   1.06499   -1.000
 4019.00   -0.11244   1.07336    0.000
 4020.00    0.44859   1.05407   -1.000
 4021.00    0.97992   1.04063   -1.000
 4022.00    0.98769   1.03150   -1.000
 4023.00    0.99001   1.00958   -1.000
 4024.00    0.93371   1.00427   -1.000
 4025.00    0.92632   1.03600   -1.000
 4026.00    1.29020   1.06954   -1.000
 4027.00    1.55882   1.07780   -1.000
 4028.00    1.27797   1.04799   -1.000
 4029.00    1.04022   0.98048   -1.000
 4030.00    1.00000   0.93067   -1.000
 4031.00    0.97245   0.92402   -1.000
 4032.00    0.99243   0.93033   -1.000
 4033.00    1.01479   0.94896   -1.000
 4034.00    1.04464   0.98431   -1.000
 4035.00    0.94688   1.03399   -1.000
 4036.00    0.50961   1.08161   -1.000
 4037.00    0.22367   1.10080   -1.000
 4038.00    0.28330   1.08599   -1.000
 4039.00    0.43165   1.05400   -1.000
 4040.00    0.75542   1.03977   -1.000
 4041.00    0.92237   1.05509   -1.000
 4042.00    0.81916   1.04535   -1.000
 4043.00    0.83249   0.96978   -1.000
 4044.00    1.02165   0.87851   -1.000
 4045.00    1.08993   0.86920   -1.000
 4046.00    0.99800   0.95434   -1.000
 4047.00    1.01191   1.02705   -1.000
 4048.00    1.14942   1.04742   -1.000
 4049.00    1.29172   1.05923   -1.000
 4050.00    1.43897   1.06142   -1.000
 4051.00    1.53402   1.04040   -1.000
 4052.00    1.58167   1.01368   -1.000
 4053.00    1.44243   0.99181   -1.000
 4054.00    1.15361   0.98365   -1.000
 4055.00    0.82283   0.98694   -1.000
 4056.00    0.46251   0.97265   -1.000
 4057.00    0.58398   0.95968   -1.000
 4058.00    1.00305   0.98676   -1.000
 4059.00    1.08900   1.02862   -1.000
 4060.00    0.99520   1.03139   -1.000
 4061.00    1.20067   0.97213   -1.000
 4062.00    1.54638   0.89428   -1.000
 4063.00    1.61409   0.88690   -1.000
 4064.00    1.56947   0.94699   -1.000
 4065.00    1.26866   0.97421   -1.000
 4066.00    0.87952   0.96649   -1.000
 4067.00    0.97525   0.99177   -1.000
 4068.00    1.21178   1.03230   -1.000
 4069.00    1.12435   1.01217   -1.000
 4070.00    0.95911   0.94102   -1.000
 4071.00    1.02354   0.91881   -1.000
 4072.00    1.13247   0.96969   -1.000
 4073.00    1.70244   1.00416   -1.000
 4074.00    2.34188   0.97549   -1.000
 4075.00    1.84400   0.90839   -1.000
 4076.00    1.22032   0.85103   -1.000
 4077.00    1.17990   0.85530   -1.000
 4078.00    1.18220   0.91412   -1.000
 4079.00    0.76658   0.97882   -1.000
 4080.00    0.33496   1.01699   -1.000
 4081.00    0.86376   1.00800   -1.000
 4082.00    1.38507   0.96924   -1.000
 4083.00    1.42316   0.93930   -1.000
 4084.00    1.43442   0.93067   -1.000
 4085.00    1.00339   0.94408   -1.000
 4086.00    0.62588   0.97651   -1.000
 4087.00    0.79910   1.00243   -1.000
 4088.00    0.96576   0.99887   -1.000
 4089.00    1.08432   0.97411   -1.000
 4090.00    1.10693   0.94573   -1.000
 4091.00    0.59122   0.91964   -1.000
 4092.00    0.18295   0.90971    0.000
 4093.00    0.25548   0.89701    0.000
 4094.00    0.29825   0.84574    0.000
 4095.00    0.23174   0.78685    0.000
 4096.00    0.16427   0.75274    0.000
 4097.00    0.09387   0.72697    0.000
 4098.00    0.13740   0.68383    0.000
 4099.00    0.47871   0.60614    0.000
 4100.00    0.67865   0.52012    0.000
 4101.00    0.56110   0.50622    0.000
 4102.00    0.63686   0.57552    0.000
 4103.00    1.08878   0.65922    0.000
 4104.00    1.31361   0.72837    0.000
 4105.00    1.15312   0.78291    0.000
 4106.00    0.89049   0.81298    0.000
 4107.00    0.47605   0.82576    0.000
 4108.00    0.39950   0.82931    0.000
 4109.00    0.76445   0.83258    0.000
 4110.00    0.90216   0.84756    0.000
 4111.00    0.77834   0.87380    0.000
 4112.00    0.44437   0.90735    0.000
 4113.00   -0.10291   0.93627    0.000
 4114.00    0.09167   0.95520    0.033
 4115.00    0.95046   0.97061    0.109
 4116.00    1.19324   0.96626   -1.000
 4117.00    0.95001   0.93232   -1.000
 4118.00    0.71260   0.91225   -1.000
 4119.00    0.47923   0.93177   -1.000
 4120.00    0.51638   0.94897   -1.000
 4121.00    0.71815   0.94452   -1.000
 4122.00    0.93717   0.94712    0.074
 4123.00    1.16535   0.97188    0.029
 4124.00    1.45401   0.99290    0.025
 4125.00    1.77056   0.98329    0.025
 4126.00    1.78479   0.95506    0.025
 4127.00    1.67897   0.93374    0.024
 4128.00    1.24199   0.93523    0.024
 4129.00    0.69293   0.93826    0.023
 4130.00    0.37580   0.91775    0.023
 4131.00    0.12465   0.88789    0.023
 4132.00    0.36371   0.88857    0.023
 4133.00    0.71787   0.91669    0.022
 4134.00    0.72782   0.96075    0.023
 4135.00    0.67282   0.99925    0.023
 4136.00    0.72332   1.00671    0.023
 4137.00    0.78923   1.01582    0.023
 4138.00    0.26862   1.03325    0.023
 4139.00   -0.31431   1.03560    0.000
 4140.00    0.11006   1.01028    0.023
 4141.00    0.60412   0.94425    0.023
 4142.00    0.66441   0.87161    0.023
 4143.00    0.70974   0.86969    0.023
 4144.00   -0.06763   0.93316    0.000
 4145.00   -0.80573   0.98315    0.000
 4146.00   -0.19256   0.99775    0.000
 4147.00    0.40841   0.99259    0.023
 4148.00    0.82069   0.97379    0.023
 4149.00    1.18658   0.96262    0.024
 4150.00    1.09530   0.97035    0.024
 4151.00    0.96361   0.97311    0.024
 4152.00    0.54496   0.96040    0.023
 4153.00    0.24638   0.94063    0.023
 4154.00    0.60318   0.93583    0.023
 4155.00    0.90476   0.94101    0.023
 4156.00    0.96501   0.95075    0.023
 4157.00    1.05650   0.97590    0.023
 4158.00    1.26036   0.99876    0.023
 4159.00    1.41924   1.00257    0.022
 4160.00    1.44234   0.99865    0.023
 4161.00    1.32260   1.01231    0.023
 4162.00    0.83603   1.02437    0.023
 4163.00    0.53026   1.01621    0.023
 4164.00    0.62389   1.00759    0.023
 4165.00    0.95736   0.99396    0.024
 4166.00    1.75023   0.97131    0.024
 4167.00    1.98979   0.97224    0.024
 4168.00    1.30457   0.99630    0.023
 4169.00    0.93823   0.99567    0.023
 4170.00    1.03898   0.94930    0.023
 4171.00    1.02427   0.88631    0.023
 4172.00    0.86085   0.86200    0.023
 4173.00    0.61219   0.88910    0.023
 4174.00    0.26680   0.92649    0.023
 4175.00   -0.01295   0.93894    0.000
 4176.00   -0.22699   0.92429    0.000
 4177.00    0.12237   0.91400    0.023
 4178.00    0.96906   0.93660    0.023
 4179.00    1.19424   0.96720    0.023
 4180.00    0.93605   0.96332    0.022
 4181.00    0.57823   0.94276    0.022
 4182.00    0.15229   0.94532    0.022
 4183.00    0.32738   0.96724    0.022
 4184.00    0.86274   0.98762    0.023
 4185.00    1.22903   0.97089    0.023
 4186.00    1.50691   0.92502    0.023
 4187.00    1.55512   0.92254    0.023
 4188.00    1.49917   0.96419    0.022
 4189.00    1.44681   0.98232    0.022
 4190.00    1.39585   0.97104    0.022
 4191.00    1.42131   0.98509    0.022
 4192.00    1.47215   1.02189    0.022
 4193.00    1.20725   1.01916    0.022
 4194.00    0.85434   0.97374    0.022
 4195.00    0.68780   0.93656    0.022
 4196.00    0.56403   0.91633    0.022
 4197.00    0.89124   0.89119    0.022
 4198.00    1.30133   0.89012    0.022
 4199.00    1.12485   0.91572    0.022
 4200.00    0.86543   0.91547    0.021
 4201.00    0.86165   0.90330    0.021
 4202.00    0.88394   0.92033    0.021
 4203.00    1.08236   0.94195    0.021
 4204.00    1.29226   0.95401    0.020
 4205.00    1.13958   0.97389    0.020
 4206.00    0.97572   0.99477    0.020
 4207.00    0.78673   1.00372    0.020
 4208.00    0.59723   0.99246    0.020
 4209.00    0.39291   0.97799    0.020
 4210.00    0.23025   0.98853    0.020
 4211.00    0.67409   1.00902    0.020
 4212.00    1.09197   1.00521    0.020
 4213.00    1.26426   0.96654    0.021
 4214.00    1.39137   0.91069    0.021
 4215.00    1.20796   0.90079    0.021
 4216.00    1.02562   0.95561    0.021
 4217.00    0.84894   1.00403    0.021
 4218.00    0.69937   1.01601    0.021
 4219.00    0.66561   1.02110    0.021
 4220.00    0.72047   1.02245    0.021
 4221.00    1.08761   0.99668    0.021
 4222.00    1.29879   0.95283    0.021
 4223.00    1.04810   0.90072    0.021
 4224.00    0.79910   0.82862    0.021
 4225.00    0.55437   0.75337    0.021
 4226.00    0.44729   0.74811    0.021
 4227.00    0.63934   0.84399    0.021
 4228.00    0.73863   0.94710    0.021
 4229.00    0.66301   0.99482    0.021
 4230.00    0.64401   1.00436    0.020
 4231.00    0.71823   0.97239    0.020
 4232.00    0.65150   0.92699    0.020
 4233.00    0.38127   0.92305    0.020
 4234.00    0.15586   0.92785    0.020
 4235.00   -0.01265   0.91452    0.000
 4236.00    0.11779   0.92198    0.019
 4237.00    0.58271   0.93559    0.019
 4238.00    0.75529   0.93660    0.020
 4239.00    0.63938   0.95091    0.020
 4240.00    0.74735   0.97902    0.020
 4241.00    1.05015   0.98791    0.020
 4242.00    0.99767   0.99182    0.020
 4243.00    0.67282   1.01654    0.020
 4244.00    0.68347   1.02056    0.021
 4245.00    0.92023   0.98053    0.021
 4246.00    1.02797   0.93866    0.021
 4247.00    1.05955   0.92772    0.021
 4248.00    0.78174   0.92030    0.021
 4249.00    0.34464   0.89639    0.021
 4250.00    0.36991   0.90528    0.021
 4251.00    0.60148   0.94660    0.021
 4252.00    0.54713   0.94946    0.021
 4253.00    0.38316   0.91561    0.021
 4254.00    0.81324   0.91244    0.021
 4255.00    1.43691   0.95701    0.020
 4256.00    1.40178   0.99004    0.020
 4257.00    1.18682   0.96532    0.020
 4258.00    0.99785   0.91130    0.020
 4259.00    0.81472   0.87039    0.020
 4260.00    0.65972   0.87785    0.020
 4261.00    0.50975   0.93810    0.020
 4262.00    0.49976   0.99591    0.020
 4263.00    0.50892   1.01911    0.020
 4264.00    0.33890   1.02701    0.020
 4265.00    0.15137   1.02441    0.020
 4266.00    0.14896   0.99688    0.019
 4267.00    0.15787   0.96528    0.019
 4268.00    0.38535   0.94070    0.019
 4269.00    0.61852   0.89350    0.019
 4270.00    0.81155   0.82728    0.019
 4271.00    1.00987   0.80902    0.019
 4272.00    1.34808   0.84327    0.020
 4273.00    1.64126   0.85865    0.020
 4274.00    1.31552   0.87053    0.020
 4275.00    0.97947   0.92048    0.019
 4276.00    0.54974   0.97393    0.019
 4277.00    0.22834   0.99430    0.019
 4278.00    0.62852   0.97603    0.019
 4279.00    1.01151   0.93982    0.020
 4280.00    1.30546   0.92574    0.020
 4281.00    1.55830   0.92861    0.020
 4282.00    1.63949   0.93510   -2.000
 4283.00    1.79280   0.93950   -2.000
 4284.00    2.19502   0.92440   -2.000
 4285.00    2.37111   0.91033   -2.000
 4286.00    1.88990   0.90854   -2.000
 4287.00    1.38749   0.88380   -2.000
 4288.00    0.83249   0.82633   -2.000
 4289.00    0.51531   0.79585   -2.000
 4290.00    0.70658   0.83599   -2.000
 4291.00    0.85930   0.90173   -2.000
 4292.00    0.94046   0.92600   -2.000
 4293.00    1.01404   0.90392   -2.000
 4294.00    1.07533   0.89102   -2.000
 4295.00    0.86463   0.89122   -2.000
 4296.00    0.26700   0.87176   -2.000
 4297.00    0.07857   0.82655   -2.000
 4298.00    0.40230   0.76287    0.019
 4299.00    0.68978   0.73314    0.019
 4300.00    0.93730   0.75168    0.020
 4301.00    0.75502   0.76483    0.020
 4302.00    0.15457   0.77434    0.020
 4303.00    0.19230   0.79876    0.020
 4304.00    0.77757   0.80664    0.020
 4305.00    1.15307   0.78942    0.020
 4306.00    1.37004   0.75518    0.020
 4307.00    1.25904   0.72340    0.020
 4308.00    0.93025   0.73396    0.020
 4309.00    1.06893   0.77855    0.019
 4310.00    1.47944   0.81898    0.019
 4311.00    1.48660   0.83778    0.019
 4312.00    1.28934   0.84132    0.019
 4313.00    1.24752   0.84762    0.019
 4314.00    1.27391   0.89215    0.019
 4315.00    1.17250   0.97063    0.019
 4316.00    1.02294   1.01403    0.019
 4317.00    0.76783   1.00675    0.019
 4318.00    0.47897   0.98545    0.019
 4319.00    0.77841   0.96155    0.019
 4320.00    1.23507   0.93979    0.019
 4321.00    1.28073   0.92567    0.019
 4322.00    1.23645   0.88151    0.019
 4323.00    1.19505   0.80257    0.020
 4324.00    1.15416   0.73538    0.020
 4325.00    0.97859   0.73738    0.020
 4326.00    0.78521   0.81894    0.020
 4327.00    0.86298   0.90218    0.020
 4328.00    0.96609   0.92255    0.020
 4329.00    0.80828   0.89464    0.019
 4330.00    0.63554   0.87434    0.000
 4331.00    0.81421   0.87654    0.000
 4332.00    0.99963   0.87378    0.000
 4333.00    1.02135   0.86646    0.000
 4334.00    1.04550   0.85538    0.000
 4335.00    1.12806   0.80296    0.000
 4336.00    1.21888   0.70258    0.000
 4337.00    1.41724   0.61184    0.000
 4338.00    1.55498   0.54751    0.000
 4339.00    1.16314   0.50101    0.000
 4340.00    0.82757   0.52827    0.000
 4341.00    0.85556   0.62244    0.000
 4342.00    0.92097   0.69279    0.000
 4343.00    1.17517   0.73011    0.000
 4344.00    1.38336   0.77717    0.000
 4345.00    1.40377   0.81482    0.000
 4346.00    1.33498   0.83432    0.000
 4347.00    0.96444   0.86785    0.000
 4348.00    0.65714   0.90072    0.000
 4349.00    0.53025   0.87508    0.000
 4350.00    0.40057   0.79734    0.000
 4351.00    0.26407   0.76271    0.053
 4352.00    0.23937   0.81010   -1.000
 4353.00    0.44984   0.86717   -1.000
 4354.00    0.70654   0.89573   -1.000
 4355.00    1.04772   0.92405   -1.000
 4356.00    1.20163   0.94277   -1.000
 4357.00    1.05632   0.92527   -1.000
 4358.00    0.89222   0.90183    0.086
 4359.00    0.70179   0.91927    0.025
 4360.00    0.54648   0.96070    0.018
 4361.00    0.43451   0.97988    0.018
 4362.00    0.47758   0.98167    0.018
 4363.00    0.68927   0.99788    0.018
 4364.00    0.84629   1.01415    0.018
 4365.00    0.95087   0.99316    0.018
 4366.00    0.90223   0.94667    0.018
 4367.00    0.72398   0.92377    0.018
 4368.00    0.83413   0.93269    0.018
 4369.00    1.15909   0.94276    0.018
 4370.00    1.13739   0.95096    0.018
 4371.00    0.88886   0.95480    0.018
 4372.00    0.79390   0.92751    0.018
 4373.00    0.78689   0.87499    0.018
 4374.00    1.13972   0.85416    0.018
 4375.00    1.67205   0.89464    0.018
 4376.00    1.32740   0.95671    0.018
 4377.00    0.60431   0.98737    0.018
 4378.00    0.54821   0.97993    0.018
 4379.00    0.73891   0.96314    0.017
 4380.00    0.92031   0.94124    0.017
 4381.00    1.09880   0.87349    0.018
 4382.00    0.86244   0.76839    0.017
 4383.00    0.51753   0.72257    0.017
 4384.00    0.81249   0.77991    0.017
 4385.00    1.24412   0.86930    0.018
 4386.00    1.50955   0.91210    0.018
 4387.00    1.74687   0.91427    0.017
 4388.00    1.65849   0.90908    0.017
 4389.00    1.52850   0.90195    0.017
 4390.00    1.37505   0.90906    0.018
 4391.00    1.21951   0.93493    0.018
 4392.00    1.24698   0.94083    0.018
 4393.00    1.28419   0.91157    0.018
 4394.00    1.04330   0.89616    0.018
 4395.00    0.79791   0.93700    0.018
 4396.00    0.62919   0.98788    0.017
 4397.00    0.47222   0.98771    0.017
 4398.00    0.57332   0.94564    0.017
 4399.00    0.68652   0.90256    0.017
 4400.00    0.94901   0.90736    0.017
 4401.00    1.16186   0.94763    0.018
 4402.00    0.95712   0.93486    0.018
 4403.00    0.79794   0.86333    0.018
 4404.00    0.92437   0.83682    0.018
 4405.00    1.03333   0.87941    0.018
 4406.00    1.05637   0.90400    0.018
 4407.00    1.07380   0.89527    0.018
 4408.00    1.06886   0.91586    0.018
 4409.00    1.11531   0.96469    0.018
 4410.00    1.33220   0.99690    0.018
 4411.00    1.48819   1.00973    0.018
 4412.00    1.47352   0.99570    0.018
 4413.00    1.42916   0.93267    0.018
 4414.00    1.31360   0.87003    0.018
 4415.00    1.20215   0.87073    0.017
 4416.00    1.09916   0.90727    0.018
 4417.00    1.11452   0.94838    0.018
 4418.00    1.34292   0.99290    0.018
 4419.00    1.46500   1.00935    0.018
 4420.00    1.41972   0.98095    0.018
 4421.00    1.35071   0.94046    0.018
 4422.00    1.24890   0.93227    0.018
 4423.00    1.27535   0.95127    0.017
 4424.00    1.45779   0.95782    0.017
 4425.00    1.55298   0.94972    0.017
 4426.00    1.55462   0.94877    0.018
 4427.00    1.43254   0.96149    0.018
 4428.00    1.19345   0.96089    0.018
 4429.00    1.10331   0.93778    0.018
 4430.00    1.13736   0.93952    0.018
 4431.00    1.06050   0.95890    0.018
 4432.00    0.90220   0.94196    0.018
 4433.00    0.92890   0.89488    0.018
 4434.00    1.07486   0.86721    0.018
 4435.00    1.22210   0.89529    0.018
 4436.00    1.37005   0.95854    0.018
 4437.00    1.26107   1.00703    0.018
 4438.00    1.02594   1.02206    0.018
 4439.00    0.98079   0.99817    0.018
 4440.00    1.01625   0.94665    0.018
 4441.00    1.14407   0.89689    0.018
 4442.00    1.30545   0.87864    0.018
 4443.00    1.20724   0.91076    0.018
 4444.00    1.02922   0.97044    0.018
 4445.00    1.05580   0.99925    0.018
 4446.00    1.13476   0.98950    0.018
 4447.00    1.13322   0.98749    0.018
 4448.00    1.11489   0.98668    0.018
 4449.00    0.98887   0.96855    0.018
 4450.00    0.84514   0.96459    0.017
 4451.00    0.97157   0.97279    0.017
 4452.00    1.13131   0.95147    0.018
 4453.00    1.11390   0.89796    0.018
 4454.00    1.08142   0.85885    0.017
 4455.00    1.09968   0.87008    0.017
 4456.00    1.12045   0.89653    0.017
 4457.00    1.23459   0.89891    0.017
 4458.00    1.34631   0.89110    0.017
 4459.00    1.21335   0.88682    0.017
 4460.00    1.09272   0.87443    0.017
 4461.00    1.22197   0.87971    0.000
 4462.00    1.33809   0.92264    0.000
 4463.00    1.29996   0.95082    0.000
 4464.00    1.25884   0.94650    0.000
 4465.00    1.19356   0.94020    0.000
 4466.00    1.14104   0.93515    0.000
 4467.00    1.16619   0.91883    0.000
 4468.00    1.17496   0.90162    0.000
 4469.00    1.10518   0.90921    0.000
 4470.00    1.06832   0.93562    0.000
 4471.00    1.16000   0.96579    0.000
 4472.00    1.19955   0.99430    0.000
 4473.00    1.06960   1.00700    0.000
 4474.00    0.97370   1.00017    0.000
 4475.00    0.97148   1.00263    0.000
 4476.00    1.04107   1.02307    0.000
 4477.00    1.27986   1.02361    0.000
 4478.00    1.37294   0.97982    0.000
 4479.00    1.16925   0.91204    0.000
 4480.00    1.05807   0.86635    0.000
 4481.00    1.11090   0.87886    0.000
 4482.00    1.17394   0.93764    0.016
 4483.00    1.25284   0.99146    0.016
 4484.00    1.31135   1.01842    0.016
 4485.00    1.34212   1.02416    0.016
 4486.00    1.22248   1.00406    0.016
 4487.00    0.92252   0.95915    0.016
 4488.00    0.76896   0.91994    0.016
 4489.00    0.77020   0.91820    0.016
 4490.00    0.88802   0.94959    0.016
 4491.00    1.11457   0.97917    0.016
 4492.00    1.24782   0.97355    0.016
 4493.00    1.30439   0.93838    0.016
 4494.00    1.32123   0.91937    0.016
 4495.00    1.30932   0.93099    0.016
 4496.00    1.19710   0.95934    0.016
 4497.00    1.02115   0.99026    0.016
 4498.00    0.89187   1.00238    0.016
 4499.00    0.78852   0.98453    0.016
 4500.00    0.86350   0.95945    0.016
 4501.00    1.02464   0.97662    0.016
 4502.00    1.13301   1.02842    0.016
 4503.00    1.21937   1.05760    0.016
 4504.00    1.26144   1.05256    0.016
 4505.00    1.28769   1.03273    0.016
 4506.00    1.32215   1.01034    0.016
 4507.00    1.35909   0.99967    0.016
 4508.00    1.23365   1.01034    0.016
 4509.00    1.06753   1.02809    0.015
 4510.00    1.02719   1.02781    0.015
 4511.00    1.01242   1.00671    0.015
 4512.00    1.15022   0.98406    0.015
 4513.00    1.31235   0.96810    0.015
 4514.00    1.10377   0.96525    0.015
 4515.00    0.85114   0.97496    0.015
 4516.00    0.81711   0.97368    0.015
 4517.00    0.80077   0.96571    0.015
 4518.00    0.88701   0.97594    0.015
 4519.00    0.97791   0.99441    0.015
 4520.00    1.13215   0.99833    0.015
 4521.00    1.28386   0.97322    0.015
 4522.00    1.26664   0.94978    0.015
 4523.00    1.24982   0.94913    0.015
 4524.00    1.24031   0.93782    0.015
 4525.00    1.22508   0.91024    0.015
 4526.00    1.14563   0.88330    0.015
 4527.00    1.07261   0.86491    0.015
 4528.00    1.04992   0.86506    0.015
 4529.00    1.05283   0.88329    0.015
 4530.00    1.20707   0.90574    0.015
 4531.00    1.31735   0.91895    0.015
 4532.00    1.22181   0.89804    0.015
 4533.00    1.12999   0.86254    0.016
 4534.00    1.05233   0.86136    0.015
 4535.00    1.05603   0.91203    0.015
 4536.00    1.31915   0.98097    0.015
 4537.00    1.48549   1.00625    0.015
 4538.00    1.39030   0.98503    0.015
 4539.00    1.24779   0.95458    0.015
 4540.00    0.99561   0.94330    0.015
 4541.00    0.85828   0.96011    0.015
 4542.00    0.95115   0.97393    0.015
 4543.00    1.04389   0.95720    0.015
 4544.00    1.13642   0.93830    0.015
 4545.00    1.07953   0.94397    0.015
 4546.00    0.79433   0.94850    0.015
 4547.00    0.77703   0.92357    0.015
 4548.00    1.11939   0.88721    0.015
 4549.00    1.27985   0.89381    0.015
 4550.00    1.22530   0.93217    0.000
 4551.00    1.17835   0.94049    0.000
 4552.00    1.13932   0.91980    0.000
 4553.00    1.07539   0.89681    0.000
 4554.00    0.98857   0.89201    0.000
 4555.00    0.98320   0.92087    0.000
 4556.00    1.04383   0.96313    0.000
 4557.00    1.05225   0.98355    0.000
 4558.00    1.02343   0.98679    0.000
 4559.00    0.95338   0.99114    0.000
 4560.00    0.85753   0.99636    0.000
 4561.00    0.94128   0.98715    0.000
 4562.00    1.12325   0.95169    0.000
 4563.00    1.09720   0.91797    0.000
 4564.00    0.97225   0.91687    0.000
 4565.00    0.94752   0.94766    0.000
 4566.00    0.96389   0.98716    0.000
 4567.00    1.02812   1.00465    0.000
 4568.00    1.10911   0.99841    0.000
 4569.00    0.99031   0.97157    0.000
 4570.00    0.81248   0.93040    0.000
 4571.00    0.89277   0.92730    0.000
 4572.00    1.03630   0.97057    0.000
 4573.00    1.02948   0.99383    0.000
 4574.00    0.99287   0.98555    0.000
 4575.00    1.14856   0.97989    0.000
 4576.00    1.33403   0.97851    0.000
 4577.00    1.04333   0.96539    0.000
 4578.00    0.69814   0.93514    0.000
 4579.00    0.84828   0.90819    0.000
 4580.00    1.03645   0.90528    0.000
 4581.00    1.11615   0.91590    0.000
 4582.00    1.19134   0.91653    0.000
 4583.00    1.02906   0.91286    0.000
 4584.00    0.86879   0.91633    0.000
 4585.00    0.88301   0.92438    0.000
 4586.00    0.89966   0.94376    0.000
 4587.00    0.95872   0.96639    0.000
 4588.00    1.00540   0.97570    0.000
 4589.00    0.91948   0.96567    0.000
 4590.00    0.87233   0.94145    0.000
 4591.00    1.11815   0.92432    0.000
 4592.00    1.30278   0.92670    0.000
 4593.00    1.13566   0.93259    0.000
 4594.00    1.00405   0.93035    0.000
 4595.00    1.03465   0.93168    0.000
 4596.00    1.04855   0.93826    0.000
 4597.00    0.99994   0.94537    0.000
 4598.00    0.95671   0.94638    0.000
 4599.00    0.93032   0.93184    0.000
 4600.00    0.94647   0.92522    0.000
 4601.00    1.07556   0.93616    0.000
 4602.00    1.17179   0.94311    0.000
 4603.00    1.19318   0.94190    0.000
 4604.00    1.12799   0.93742    0.000
 4605.00    0.89201   0.94418    0.000
 4606.00    0.75236   0.96632    0.000
 4607.00    0.77833   0.99452    0.000
 4608.00    0.79720   1.00978    0.000
 4609.00    0.80535   0.99888    0.000
 4610.00    0.86648   0.97785    0.000
 4611.00    0.99771   0.96463    0.000
 4612.00    1.07511   0.95964    0.000
 4613.00    1.08978   0.96752    0.000
 4614.00    1.04845   0.97625    0.000
 4615.00    0.94958   0.97139    0.000
 4616.00    0.90285   0.97033    0.000
 4617.00    0.90339   0.96395    0.000
 4618.00    0.90964   0.94946    0.000
 4619.00    0.92047   0.95778    0.000
 4620.00    0.89544   0.97951    0.000
 4621.00    0.84521   0.98404    0.000
 4622.00    0.88212   0.98139    0.000
 4623.00    0.97276   0.97888    0.000
 4624.00    0.99280   0.96813    0.000
 4625.00    0.97482   0.96281    0.000
 4626.00    0.91872   0.96825    0.000
 4627.00    0.84478   0.96178    0.000
 4628.00    0.87422   0.94658    0.000
 4629.00    0.94534   0.95532    0.000
 4630.00    1.11516   0.97869    0.000
 4631.00    1.31895   0.97396    0.000
 4632.00    1.16899   0.94761    0.000
 4633.00    0.91657   0.93611    0.000
 4634.00    0.87988   0.94050    0.000
 4635.00    0.89487   0.94085    0.000
 4636.00    0.91516   0.92928    0.000
 4637.00    0.93646   0.91848    0.000
 4638.00    0.82072   0.91611    0.000
 4639.00    0.68441   0.92253    0.000
 4640.00    0.67994   0.94307    0.000
 4641.00    0.68998   0.95698    0.000
 4642.00    0.80027   0.94971    0.000
 4643.00    0.91785   0.93449    0.000
 4644.00    0.90575   0.91118    0.000
 4645.00    0.88874   0.87866    0.000
 4646.00    0.94308   0.86442    0.000
 4647.00    0.99480   0.87864    0.000
 4648.00    0.93656   0.90610    0.000
 4649.00    0.88389   0.93053    0.000
 4650.00    0.92217   0.94196    0.000
 4651.00    0.96194   0.94703    0.000
 4652.00    1.01683   0.94376    0.000
 4653.00    1.06738   0.92090    0.000
 4654.00    1.08624   0.89974    0.000
 4655.00    1.09323   0.89931    0.000
 4656.00    1.03384   0.92156    0.000
 4657.00    0.97434   0.96224    0.000
 4658.00    0.91437   0.99379    0.000
 4659.00    0.84869   0.99644    0.000
 4660.00    0.76209   0.97429    0.000
 4661.00    0.71138   0.94479    0.000
 4662.00    0.77078   0.92520    0.000
 4663.00    0.82233   0.92179    0.000
 4664.00    0.85343   0.91079    0.000
 4665.00    0.85004   0.86747    0.000
 4666.00    0.76935   0.82263    0.000
 4667.00    0.76600   0.82422    0.000
 4668.00    0.91283   0.86325    0.000
 4669.00    0.94857   0.90373    0.000
 4670.00    0.79614   0.92903    0.000
 4671.00    0.71425   0.93179    0.000
 4672.00    0.73701   0.92263    0.000
 4673.00    0.82144   0.92257    0.000
 4674.00    0.98630   0.93718    0.000
 4675.00    1.04817   0.95476    0.000
 4676.00    0.99170   0.95125    0.000
 4677.00    0.91644   0.92624    0.000
 4678.00    0.82213   0.90492    0.000
 4679.00    0.86352   0.89551    0.000
 4680.00    1.02619   0.89291    0.000
 4681.00    1.11055   0.90207    0.000
 4682.00    1.13324   0.92226    0.000
 4683.00    1.16930   0.93430    0.000
 4684.00    1.21463   0.93329    0.000
 4685.00    1.19368   0.92968    0.000
 4686.00    1.13248   0.92399    0.000
 4687.00    1.01813   0.92061    0.000
 4688.00    0.87560   0.92210    0.000
 4689.00    0.89915   0.91755    0.000
 4690.00    0.99913   0.90945    0.000
 4691.00    0.97987   0.91326    0.000
 4692.00    0.91335   0.92459    0.000
 4693.00    1.09514   0.93590    0.000
 4694.00    1.36076   0.94876    0.000
 4695.00    1.21106   0.95279    0.000
 4696.00    0.94348   0.93275    0.000
 4697.00    0.80431   0.89923    0.000
 4698.00    0.69520   0.88524    0.000
 4699.00    0.73072   0.89292    0.000
 4700.00    0.79345   0.89082    0.000
 4701.00    1.03875   0.87221    0.000
 4702.00    1.31060   0.86402    0.000
 4703.00    1.13208   0.88493    0.000
 4704.00    0.90594   0.90788    0.000
 4705.00    1.06801   0.90347    0.000
 4706.00    1.25673   0.88180    0.000
 4707.00    1.21413   0.86821    0.000
 4708.00    1.16366   0.87260    0.000
 4709.00    1.05085   0.89593    0.000
 4710.00    0.93906   0.92435    0.000
 4711.00    0.86347   0.92972    0.000
 4712.00    0.79489   0.91014    0.000
 4713.00    0.83379   0.88878    0.000
 4714.00    0.87670   0.89361    0.000
 4715.00    0.95884   0.92237    0.000
 4716.00    1.01670   0.94273    0.000
 4717.00    0.90283   0.94934    0.000
 4718.00    0.79878   0.95687    0.000
 4719.00    0.74819   0.96167    0.000
 4720.00    0.71156   0.95444    0.000
 4721.00    0.73580   0.94276    0.000
 4722.00    0.76783   0.94389    0.000
 4723.00    0.82783   0.95871    0.000
 4724.00    0.86609   0.96431    0.000
 4725.00    0.83894   0.94141    0.000
 4726.00    0.81735   0.89780    0.000
 4727.00    0.81001   0.86917    0.000
 4728.00    0.85376   0.86796    0.000
 4729.00    1.01013   0.87435    0.000
 4730.00    1.13979   0.88244    0.000
 4731.00    1.21842   0.89843    0.000
 4732.00    1.27227   0.91250    0.000
 4733.00    1.28480   0.91996    0.000
 4734.00    1.21567   0.91847    0.000
 4735.00    1.02712   0.90129    0.000
 4736.00    0.98530   0.89675    0.000
 4737.00    1.13211   0.92025    0.000
 4738.00    1.16985   0.93294    0.000
 4739.00    1.08401   0.92155    0.000
 4740.00    1.01712   0.91306    0.000
 4741.00    0.96913   0.92120    0.000
 4742.00    0.88167   0.93286    0.000
 4743.00    0.75942   0.93170    0.000
 4744.00    0.77387   0.92732    0.000
 4745.00    0.89446   0.93524    0.000
 4746.00    1.03319   0.94245    0.000
 4747.00    1.18429   0.93911    0.000
 4748.00    1.17149   0.93831    0.000
 4749.00    1.06065   0.94123    0.000
 4750.00    1.00491   0.93536    0.000
 4751.00    0.97794   0.92012    0.000
 4752.00    0.94278   0.90706    0.000
 4753.00    0.90391   0.89950    0.000
 4754.00    0.84348   0.89716    0.000
 4755.00    0.77464   0.89779    0.000
 4756.00    0.89233   0.90248    0.000
 4757.00    1.07183   0.91152    0.000
 4758.00    1.03909   0.92080    0.000
 4759.00    0.94734   0.92030    0.000
 4760.00    0.95339   0.89823    0.000
 4761.00    0.98181   0.86915    0.013
 4762.00    1.01206   0.85704    0.013
 4763.00    1.04264   0.85376    0.013
 4764.00    1.02251   0.84677    0.013
 4765.00    0.99522   0.84795    0.013
 4766.00    0.87539   0.86543    0.013
 4767.00    0.74617   0.88855    0.013
 4768.00    0.77920   0.90723    0.013
 4769.00    0.82271   0.90923    0.013
 4770.00    0.76953   0.89202    0.013
 4771.00    0.71390   0.88308    0.013
 4772.00    0.89868   0.89917    0.013
 4773.00    1.07956   0.92183    0.013
 4774.00    1.14757   0.92678    0.013
 4775.00    1.20064   0.92171    0.013
 4776.00    1.03769   0.92522    0.013
 4777.00    0.89125   0.92418    0.013
 4778.00    0.90006   0.91186    0.013
 4779.00    0.89951   0.90525    0.013
 4780.00    0.83483   0.90551    0.013
 4781.00    0.79598   0.89464    0.012
 4782.00    0.89389   0.88025    0.012
 4783.00    0.97165   0.88447    0.012
 4784.00    0.96358   0.88908    0.012
 4785.00    0.95260   0.87641    0.012
 4786.00    0.93137   0.87385    0.012
 4787.00    0.90863   0.88024    0.012
 4788.00    0.88139   0.87765    0.012
 4789.00    0.82618   0.88073    0.012
 4790.00    0.70055   0.89186    0.012
 4791.00    0.65226   0.90372    0.012
 4792.00    0.77172   0.92319    0.012
 4793.00    0.84493   0.94370    0.012
 4794.00    0.83109   0.94854    0.012
 4795.00    0.85695   0.93631    0.012
 4796.00    0.94805   0.91669    0.013
 4797.00    0.99433   0.89491    0.013
 4798.00    0.97603   0.88009    0.013
 4799.00    0.98006   0.88430    0.013
 4800.00    1.01239   0.90561    0.013
 4801.00    1.00116   0.92576    0.013
 4802.00    0.94128   0.92560    0.013
 4803.00    0.91965   0.90541    0.013
 4804.00    0.93570   0.88688    0.013
 4805.00    1.00233   0.88417    0.013
 4806.00    1.11290   0.88264    0.013
 4807.00    1.06199   0.88092    0.013
 4808.00    0.88751   0.88906    0.013
 4809.00    0.80895   0.89753    0.012
 4810.00    0.79491   0.89862    0.012
 4811.00    0.86781   0.89725    0.012
 4812.00    0.99194   0.89853    0.013
 4813.00    1.00908   0.90300    0.013
 4814.00    0.97125   0.90909    0.012
 4815.00    1.02861   0.91603    0.013
 4816.00    1.12836   0.92182    0.013
 4817.00    1.07214   0.92575    0.013
 4818.00    0.95627   0.92819    0.013
 4819.00    0.97464   0.92471    0.013
 4820.00    1.03666   0.91380    0.013
 4821.00    1.04303   0.88791    0.013
 4822.00    1.03425   0.85276    0.013
 4823.00    1.11172   0.84688    0.013
 4824.00    1.20847   0.87502    0.013
 4825.00    1.07574   0.89648    0.013
 4826.00    0.90211   0.89406    0.012
 4827.00    0.87202   0.88174    0.012
 4828.00    0.86148   0.87671    0.013
 4829.00    0.87943   0.87713    0.012
 4830.00    0.90016   0.86682    0.012
 4831.00    0.82539   0.85709    0.012
 4832.00    0.74482   0.86736    0.013
 4833.00    0.69367   0.88225    0.012
 4834.00    0.64408   0.88347    0.012
 4835.00    0.73497   0.87876    0.012
 4836.00    0.82160   0.87704    0.012
 4837.00    0.79675   0.86631    0.012
 4838.00    0.78126   0.84658    0.012
 4839.00    0.89362   0.83825    0.012
 4840.00    0.99206   0.84501    0.012
 4841.00    0.96461   0.84615    0.012
 4842.00    0.93174   0.83923    0.012
 4843.00    0.86290   0.84628    0.012
 4844.00    0.81179   0.86248    0.012
 4845.00    0.85216   0.86244    0.012
 4846.00    0.87558   0.84034    0.012
 4847.00    0.82845   0.81417    0.012
 4848.00    0.80613   0.81061    0.000
 4849.00    0.86919   0.82386    0.000
 4850.00    0.91046   0.82474    0.000
 4851.00    0.88851   0.81356    0.000
 4852.00    0.88645   0.79616    0.000
 4853.00    0.93366   0.75943    0.000
 4854.00    0.96546   0.71974    0.000
 4855.00    0.96438   0.71217    0.000
 4856.00    1.01339   0.72005    0.000
 4857.00    1.15521   0.69652    0.000
 4858.00    1.22896   0.62969    0.000
 4859.00    1.19251   0.54396    0.000
 4860.00    1.10102   0.49767    0.000
 4861.00    0.93136   0.53743    0.000
 4862.00    0.82836   0.61532    0.000
 4863.00    0.80861   0.66703    0.000
 4864.00    0.79304   0.70192    0.000
 4865.00    0.78205   0.73274    0.000
 4866.00    0.77716   0.75235    0.000
 4867.00    0.77820   0.76474    0.000
 4868.00    0.83851   0.76877    0.000
 4869.00    0.94957   0.74574    0.000
 4870.00    1.07353   0.71349    0.000
 4871.00    1.20723   0.72135    0.000
 4872.00    1.10909   0.76256    0.000
 4873.00    0.85729   0.78981    0.000
 4874.00    0.75694   0.79662    0.000
 4875.00    0.74451   0.80359    0.012
 4876.00    0.76257   0.81393    0.012
 4877.00    0.79605   0.82909    0.012
 4878.00    0.87350   0.85247    0.012
 4879.00    0.97022   0.85602    0.012
 4880.00    0.89116   0.83485    0.012
 4881.00    0.74603   0.82639    0.012
 4882.00    0.63890   0.83232    0.012
 4883.00    0.54388   0.82446    0.012
 4884.00    0.56261   0.80562    0.012
 4885.00    0.61165   0.79939    0.012
 4886.00    0.66887   0.80993    0.012
 4887.00    0.72788   0.81870    0.012
 4888.00    0.68732   0.80799    0.012
 4889.00    0.62951   0.77782    0.012
 4890.00    0.66151   0.76410    0.012
 4891.00    0.70535   0.80332    0.012
 4892.00    0.84783   0.86112    0.012
 4893.00    0.99947   0.89719    0.012
 4894.00    0.87430   0.91322    0.012
 4895.00    0.73344   0.91507    0.012
 4896.00    0.73512   0.91025    0.012
 4897.00    0.74121   0.89838    0.013
 4898.00    0.87387   0.87555    0.013
 4899.00    1.00084   0.86219    0.013
 4900.00    0.99281   0.86844    0.012
 4901.00    0.97666   0.86697    0.012
 4902.00    0.85538   0.85432    0.012
 4903.00    0.74713   0.86035    0.012
 4904.00    0.75215   0.88740    0.012
 4905.00    0.76923   0.90472    0.012
 4906.00    0.86395   0.89520    0.012
 4907.00    0.92288   0.86985    0.012
 4908.00    0.80182   0.84021    0.012
 4909.00    0.70120   0.82053    0.012
 4910.00    0.68377   0.82815    0.012
 4911.00    0.67387   0.85217    0.012
 4912.00    0.68938   0.87003    0.012
 4913.00    0.70127   0.88357    0.012
 4914.00    0.70285   0.89687    0.012
 4915.00    0.70679   0.89279    0.012
 4916.00    0.71647   0.85757    0.012
 4917.00    0.72184   0.80096    0.012
 4918.00    0.71816   0.75141    0.012
 4919.00    0.72634   0.73633    0.012
 4920.00    0.75614   0.76323    0.012
 4921.00    0.73318   0.80283    0.012
 4922.00    0.62607   0.81414    0.012
 4923.00    0.62612   0.80904    0.012
 4924.00    0.77614   0.82668    0.012
 4925.00    0.87406   0.86125    0.012
 4926.00    0.90781   0.88186    0.012
 4927.00    0.92952   0.89288    0.012
 4928.00    0.93816   0.90323    0.012
 4929.00    0.86793   0.90392    0.012
 4930.00    0.72217   0.89490    0.012
 4931.00    0.72724   0.86942    0.012
 4932.00    0.85965   0.83158    0.012
 4933.00    0.84084   0.82356    0.012
 4934.00    0.70959   0.84854    0.012
 4935.00    0.69413   0.85472    0.012
 4936.00    0.75430   0.82486    0.012
 4937.00    0.86344   0.79149    0.012
 4938.00    1.00059   0.79306    0.012
 4939.00    1.00869   0.83314    0.012
 4940.00    0.95255   0.87134    0.000
 4941.00    0.94684   0.88506    0.000
 4942.00    0.96284   0.89264    0.000
 4943.00    0.95350   0.89372    0.000
 4944.00    0.93479   0.87964    0.000
 4945.00    0.92202   0.87174    0.000
 4946.00    0.91112   0.88302    0.000
 4947.00    0.86460   0.89523    0.000
 4948.00    0.80880   0.89783    0.000
 4949.00    0.80338   0.89978    0.000
 4950.00    0.80868   0.90088    0.000
 4951.00    0.86274   0.89162    0.000
 4952.00    0.92502   0.87921    0.000
 4953.00    0.94327   0.87261    0.000
 4954.00    0.95592   0.85585    0.000
 4955.00    0.92982   0.80548    0.000
 4956.00    0.90028   0.75013    0.000
 4957.00    0.91153   0.76238    0.000
 4958.00    0.92494   0.82961    0.000
 4959.00    0.93004   0.87270    0.000
 4960.00    0.93445   0.87609    0.000
 4961.00    0.89664   0.87142    0.000
 4962.00    0.86071   0.87094    0.000
 4963.00    0.86562   0.85832    0.000
 4964.00    0.86582   0.83421    0.000
 4965.00    0.80813   0.82229    0.000
 4966.00    0.76087   0.82432    0.000
 4967.00    0.80096   0.82744    0.000
 4968.00    0.82837   0.83176    0.000
 4969.00    0.77671   0.83874    0.000
 4970.00    0.72897   0.85033    0.000
 4971.00    0.70046   0.86295    0.000
 4972.00    0.68727   0.87068    0.000
 4973.00    0.73511   0.87570    0.000
 4974.00    0.78842   0.87435    0.000
 4975.00    0.85985   0.86644    0.000
 4976.00    0.90488   0.85248    0.000
 4977.00    0.87611   0.83364    0.000
 4978.00    0.84612   0.82280    0.000
 4979.00    0.81321   0.81445    0.000
 4980.00    0.77238   0.78614    0.000
 4981.00    0.71523   0.74832    0.000
 4982.00    0.68029   0.73665    0.000
 4983.00    0.68523   0.75567    0.000
 4984.00    0.72795   0.78367    0.000
 4985.00    0.83000   0.81478    0.000
 4986.00    0.94200   0.84195    0.000
 4987.00    1.06772   0.84691    0.000
 4988.00    1.11861   0.83405    0.000
 4989.00    1.07865   0.82009    0.000
 4990.00    0.97436   0.81743    0.000
 4991.00    0.80123   0.82608    0.000
 4992.00    0.81416   0.82674    0.000
 4993.00    1.00275   0.82599    0.000
 4994.00    0.96767   0.83808    0.000
 4995.00    0.74640   0.84586    0.000
 4996.00    0.69029   0.84208    0.000
 4997.00    0.75520   0.82720    0.000
 4998.00    0.79602   0.80144    0.000
 4999.00    0.82135   0.78202    0.000
 5000.00    0.77025   0.77869    0.000
 5001.00    0.67612   0.78590    0.000
 5002.00    0.73315   0.79416    0.000
 5003.00    0.86424   0.78587    0.000
 5004.00    0.89523   0.75801    0.000
 5005.00    0.88384   0.74322    0.000
 5006.00    0.83045   0.76777    0.000
 5007.00    0.76184   0.80687    0.000
 5008.00    0.82493   0.82310    0.000
 5009.00    0.92841   0.81433    0.000
 5010.00    0.87430   0.79099    0.000
 5011.00    0.77996   0.75993    0.000
 5012.00    0.71596   0.73755    0.000
 5013.00    0.65826   0.73633    0.000
 5014.00    0.77892   0.75528    0.000
 5015.00    0.92877   0.76918    0.000
 5016.00    0.83699   0.75869    0.000
 5017.00    0.71555   0.74896    0.000
 5018.00    0.76576   0.76384    0.000
 5019.00    0.83049   0.78283    0.000
 5020.00    0.72607   0.78142    0.000
 5021.00    0.61337   0.77394    0.000
 5022.00    0.62181   0.78558    0.000
 5023.00    0.63389   0.80543    0.000
 5024.00    0.75441   0.81162    0.000
 5025.00    0.87264   0.80085    0.000
 5026.00    0.94521   0.78428    0.000
 5027.00    0.99999   0.78803    0.000
 5028.00    0.84687   0.80863    0.000
 5029.00    0.72171   0.81998    0.012
 5030.00    0.82228   0.82806    0.012
 5031.00    0.90497   0.84386    0.012
 5032.00    0.87930   0.85265    0.012
 5033.00    0.84861   0.83414    0.011
 5034.00    0.79396   0.79579    0.011
 5035.00    0.78176   0.77703    0.011
 5036.00    0.93489   0.78636    0.012
 5037.00    0.99480   0.78289    0.012
 5038.00    0.75238   0.74966    0.012
 5039.00    0.57400   0.70767    0.011
 5040.00    0.57142   0.69568    0.011
 5041.00    0.61407   0.73742    0.011
 5042.00    0.76308   0.79425    0.012
 5043.00    0.85221   0.82815    0.012
 5044.00    0.81964   0.84817    0.011
 5045.00    0.78465   0.85392    0.011
 5046.00    0.74537   0.83217    0.011
 5047.00    0.77187   0.79528    0.011
 5048.00    0.90016   0.77207    0.011
 5049.00    0.91758   0.76916    0.011
 5050.00    0.78426   0.77286    0.011
 5051.00    0.68681   0.78359    0.011
 5052.00    0.63229   0.80534    0.011
 5053.00    0.64383   0.82385    0.011
 5054.00    0.72508   0.82886    0.011
 5055.00    0.76433   0.82769    0.011
 5056.00    0.76446   0.83143    0.011
 5057.00    0.76806   0.83802    0.011
 5058.00    0.77451   0.84053    0.011
 5059.00    0.70544   0.84536    0.011
 5060.00    0.58182   0.85264    0.011
 5061.00    0.65785   0.84917    0.011
 5062.00    0.86048   0.82310    0.011
 5063.00    0.78714   0.78426    0.011
 5064.00    0.56082   0.76888    0.011
 5065.00    0.61126   0.78285    0.011
 5066.00    0.79514   0.78981    0.012
 5067.00    0.89563   0.78578    0.012
 5068.00    0.96139   0.79468    0.011
 5069.00    0.89078   0.80692    0.012
 5070.00    0.77161   0.79694    0.012
 5071.00    0.72898   0.78202    0.012
 5072.00    0.70938   0.78887    0.011
 5073.00    0.80662   0.79848    0.011
 5074.00    0.93304   0.79469    0.012
 5075.00    0.91190   0.79523    0.012
 5076.00    0.86084   0.79835    0.011
 5077.00    0.88063   0.77460    0.011
 5078.00    0.91167   0.73195    0.011
 5079.00    0.86614   0.71908    0.011
 5080.00    0.81155   0.74052    0.011
 5081.00    0.79652   0.75796    0.011
 5082.00    0.78467   0.76276    0.011
 5083.00    0.73594   0.77561    0.011
 5084.00    0.68555   0.79464    0.011
 5085.00    0.75723   0.80162    0.011
 5086.00    0.82831   0.79852    0.011
 5087.00    0.79798   0.80001    0.011
 5088.00    0.76803   0.80533    0.011
 5089.00    0.74527   0.80668    0.011
 5090.00    0.73348   0.81044    0.011
 5091.00    0.84392   0.82263    0.011
 5092.00    0.92871   0.83221    0.011
 5093.00    0.81373   0.82676    0.011
 5094.00    0.71270   0.80911    0.011
 5095.00    0.69388   0.78801    0.011
 5096.00    0.69393   0.76465    0.011
 5097.00    0.78205   0.74078    0.011
 5098.00    0.86672   0.73479    0.011
 5099.00    0.93819   0.75887    0.011
 5100.00    0.95052   0.78921    0.011
 5101.00    0.77475   0.80035    0.011
 5102.00    0.66249   0.79478    0.011
 5103.00    0.72148   0.78692    0.011
 5104.00    0.77827   0.78158    0.011
 5105.00    0.82995   0.77109    0.011
 5106.00    0.83442   0.75758    0.011
 5107.00    0.74441   0.75510    0.011
 5108.00    0.70816   0.75692    0.011
 5109.00    0.76560   0.75900    0.011
 5110.00    0.84709   0.77404    0.011
 5111.00    0.96526   0.79089    0.011
 5112.00    1.02082   0.79781    0.011
 5113.00    0.99245   0.80213    0.011
 5114.00    0.92616   0.80587    0.011
 5115.00    0.81511   0.81264    0.012
 5116.00    0.69028   0.82255    0.012
 5117.00    0.55111   0.82378    0.011
 5118.00    0.52990   0.81316    0.011
 5119.00    0.61695   0.79747    0.011
 5120.00    0.70854   0.78198    0.011
 5121.00    0.80380   0.76326    0.011
 5122.00    0.88695   0.74093    0.011
 5123.00    0.96147   0.73141    0.011
 5124.00    0.98612   0.73914    0.011
 5125.00    0.97961   0.74726    0.011
 5126.00    0.98195   0.74744    0.011
 5127.00    0.98912   0.74366    0.011
 5128.00    0.97251   0.74280    0.011
 5129.00    0.94460   0.75245    0.011
 5130.00    0.83011   0.76746    0.011
 5131.00    0.68018   0.77386    0.011
 5132.00    0.65501   0.77466    0.011
 5133.00    0.67347   0.78398    0.011
 5134.00    0.66079   0.79390    0.011
 5135.00    0.63894   0.78279    0.011
 5136.00    0.60100   0.75972    0.011
 5137.00    0.55914   0.74086    0.011
 5138.00    0.59816   0.73586    0.011
 5139.00    0.65315   0.75235    0.011
 5140.00    0.78048   0.75754    0.011
 5141.00    0.91897   0.74003    0.011
 5142.00    0.77528   0.74152    0.011
 5143.00    0.59944   0.75883    0.012
 5144.00    0.67476   0.75685    0.012
 5145.00    0.76924   0.74291    0.012
 5146.00    0.75007   0.73854    0.012
 5147.00    0.72622   0.74791    0.012
 5148.00    0.67329   0.75829    0.011
 5149.00    0.62410   0.75326    0.011
 5150.00    0.74279   0.74045    0.011
 5151.00    0.85349   0.73328    0.011
 5152.00    0.82575   0.73023    0.011
 5153.00    0.80155   0.73527    0.011
 5154.00    0.81508   0.75422    0.011
 5155.00    0.82835   0.77786    0.011
 5156.00    0.83973   0.79461    0.011
 5157.00    0.84870   0.79859    0.011
 5158.00    0.84390   0.79640    0.011
 5159.00    0.83717   0.79566    0.011
 5160.00    0.82163   0.78622    0.011
 5161.00    0.80882   0.77032    0.011
 5162.00    0.80616   0.76245    0.011
 5163.00    0.81326   0.74579    0.011
 5164.00    0.85077   0.69797    0.011
 5165.00    0.87995   0.63078    0.011
 5166.00    0.88707   0.58250    0.011
 5167.00    0.87069   0.58810    0.011
 5168.00    0.80091   0.63578    0.011
 5169.00    0.78592   0.66323    0.011
 5170.00    0.87882   0.62718    0.011
 5171.00    0.87338   0.57753    0.011
 5172.00    0.69918   0.59680    0.011
 5173.00    0.61358   0.67380    0.011
 5174.00    0.66116   0.73306    0.011
 5175.00    0.71998   0.75158    0.011
 5176.00    0.79367   0.75704    0.011
 5177.00    0.79350   0.76009    0.011
 5178.00    0.70740   0.75412    0.011
 5179.00    0.72859   0.73740    0.011
 5180.00    0.85986   0.70071    0.011
 5181.00    0.92819   0.63323    0.011
 5182.00    0.93957   0.57309    0.011
 5183.00    0.91736   0.58794    0.011
 5184.00    0.86836   0.66585    0.011
 5185.00    0.84660   0.73011    0.011
 5186.00    0.84396   0.74923    0.011
 5187.00    0.75479   0.74832    0.011
 5188.00    0.61237   0.75713    0.011
 5189.00    0.63188   0.75601    0.011
 5190.00    0.73843   0.71982    0.000
 5191.00    0.78387   0.69164    0.000
 5192.00    0.80077   0.70565    0.000
 5193.00    0.75118   0.72494    0.000
 5194.00    0.67483   0.72694    0.000
 5195.00    0.73573   0.73340    0.000
 5196.00    0.84373   0.74781    0.000
 5197.00    0.88145   0.76156    0.000
 5198.00    0.89887   0.77395    0.000
 5199.00    0.81077   0.77772    0.000
 5200.00    0.69747   0.77066    0.000
 5201.00    0.64151   0.75969    0.000
 5202.00    0.59659   0.74189    0.000
 5203.00    0.69985   0.70855    0.000
 5204.00    0.82527   0.67886    0.000
 5205.00    0.77928   0.67547    0.000
 5206.00    0.71453   0.67806    0.000
 5207.00    0.75876   0.67244    0.000
 5208.00    0.81086   0.68340    0.000
 5209.00    0.83155   0.71403    0.000
 5210.00    0.85107   0.74809    0.000
 5211.00    0.78481   0.77750    0.011
 5212.00    0.71944   0.78905    0.011
 5213.00    0.70120   0.77425    0.011
 5214.00    0.69243   0.74670    0.011
 5215.00    0.83738   0.73478    0.011
 5216.00    0.95741   0.74854    0.011
 5217.00    0.82371   0.77341    0.011
 5218.00    0.70712   0.79158    0.011
 5219.00    0.71493   0.79967    0.011
 5220.00    0.72075   0.80142    0.011
 5221.00    0.71543   0.79276    0.011
 5222.00    0.70827   0.77020    0.011
 5223.00    0.69300   0.73659    0.011
 5224.00    0.69007   0.69472    0.011
 5225.00    0.73226   0.65936    0.011
 5226.00    0.78653   0.66623    0.011
 5227.00    0.87777   0.71784    0.011
 5228.00    0.91635   0.76299    0.011
 5229.00    0.81793   0.77994    0.011
 5230.00    0.77257   0.77620    0.011
 5231.00    0.84587   0.75050    0.011
 5232.00    0.90944   0.72694    0.011
 5233.00    0.95414   0.72972    0.011
 5234.00    0.95883   0.75096    0.011
 5235.00    0.89588   0.77699    0.011
 5236.00    0.85515   0.79376    0.011
 5237.00    0.84733   0.79653    0.011
 5238.00    0.81868   0.79356    0.011
 5239.00    0.76290   0.79309    0.011
 5240.00    0.73963   0.79357    0.011
 5241.00    0.75363   0.78970    0.011
 5242.00    0.72027   0.79170    0.011
 5243.00    0.63898   0.80282    0.011
 5244.00    0.66304   0.79805    0.011
 5245.00    0.78108   0.76759    0.011
 5246.00    0.83327   0.74498    0.011
 5247.00    0.83371   0.74801    0.011
 5248.00    0.78203   0.74774    0.011
 5249.00    0.69432   0.73750    0.011
 5250.00    0.72901   0.74320    0.011
 5251.00    0.83790   0.76064    0.011
 5252.00    0.81115   0.76465    0.011
 5253.00    0.71260   0.75262    0.011
 5254.00    0.75106   0.75030    0.011
 5255.00    0.85241   0.77477    0.011
 5256.00    0.83011   0.80382    0.011
 5257.00    0.75893   0.81480    0.011
 5258.00    0.78834   0.80711    0.011
 5259.00    0.85165   0.78395    0.011
 5260.00    0.82137   0.74855    0.011
 5261.00    0.76462   0.71048    0.011
 5262.00    0.72741   0.68046    0.011
 5263.00    0.69477   0.65913    0.011
 5264.00    0.77307   0.64871    0.011
 5265.00    0.87218   0.66331    0.011
 5266.00    0.87875   0.68953    0.011
 5267.00    0.87191   0.67445    0.011
 5268.00    0.82560   0.62759    0.012
 5269.00    0.77514   0.62943    0.012
 5270.00    0.77941   0.68701    0.012
 5271.00    0.78741   0.73011    0.012
 5272.00    0.78272   0.73593    0.012
 5273.00    0.77760   0.72612    0.012
 5274.00    0.69885   0.71950    0.011
 5275.00    0.62366   0.74014    0.011
 5276.00    0.66533   0.78020    0.011
 5277.00    0.70892   0.80033    0.011
 5278.00    0.78187   0.79078    0.011
 5279.00    0.84145   0.76898    0.011
 5280.00    0.77055   0.74931    0.011
 5281.00    0.71245   0.73345    0.011
 5282.00    0.74448   0.72409    0.011
 5283.00    0.79075   0.73934    0.011
 5284.00    0.91420   0.77993    0.011
 5285.00    0.97014   0.81106    0.011
 5286.00    0.73267   0.81424    0.011
 5287.00    0.56514   0.80697    0.011
 5288.00    0.64791   0.80828    0.011
 5289.00    0.73744   0.81521    0.011
 5290.00    0.84730   0.81451    0.011
 5291.00    0.92256   0.80503    0.011
 5292.00    0.90936   0.79769    0.011
 5293.00    0.87674   0.79470    0.011
 5294.00    0.80145   0.78003    0.011
 5295.00    0.73215   0.74447    0.011
 5296.00    0.67432   0.70939    0.011
 5297.00    0.67383   0.70872    0.011
 5298.00    0.76880   0.73834    0.011
 5299.00    0.84785   0.75748    0.011
 5300.00    0.90366   0.75598    0.011
 5301.00    0.87582   0.76119    0.011
 5302.00    0.74062   0.78352    0.011
 5303.00    0.65524   0.80567    0.011
 5304.00    0.62619   0.80991    0.011
 5305.00    0.64434   0.79824    0.011
 5306.00    0.70955   0.78860    0.011
 5307.00    0.74117   0.79427    0.011
 5308.00    0.74323   0.80678    0.011
 5309.00    0.76086   0.81148    0.011
 5310.00    0.79054   0.80719    0.011
 5311.00    0.82287   0.79947    0.011
 5312.00    0.85699   0.79292    0.011
 5313.00    0.81670   0.78843    0.011
 5314.00    0.73196   0.77740    0.011
 5315.00    0.73109   0.76297    0.011
 5316.00    0.77390   0.76401    0.011
 5317.00    0.69537   0.77685    0.011
 5318.00    0.56202   0.78314    0.011
 5319.00    0.57456   0.78251    0.011
 5320.00    0.64377   0.77954    0.011
 5321.00    0.73270   0.76852    0.011
 5322.00    0.82815   0.74644    0.011
 5323.00    0.86712   0.73192    0.011
 5324.00    0.89044   0.73609    0.011
 5325.00    0.91665   0.72318    0.011
 5326.00    0.94351   0.67084    0.011
 5327.00    0.94129   0.63419    0.011
 5328.00    0.93375   0.66644    0.011
 5329.00    0.84434   0.72831    0.011
 5330.00    0.74344   0.76016    0.011
 5331.00    0.81759   0.76141    0.011
 5332.00    0.90941   0.76402    0.011
 5333.00    0.80569   0.77778    0.011
 5334.00    0.68942   0.78427    0.011
 5335.00    0.74631   0.77735    0.011
 5336.00    0.80807   0.77024    0.011
 5337.00    0.75642   0.76149    0.011
 5338.00    0.70597   0.73705    0.011
 5339.00    0.68972   0.71410    0.011
 5340.00    0.67573   0.72444    0.011
 5341.00    0.69413   0.75546    0.011
 5342.00    0.71196   0.77362    0.011
 5343.00    0.72446   0.77150    0.011
 5344.00    0.75036   0.75985    0.011
 5345.00    0.86767   0.75524    0.011
 5346.00    0.96067   0.75489    0.011
 5347.00    0.92530   0.74494    0.011
 5348.00    0.88390   0.74050    0.011
 5349.00    0.81687   0.75809    0.011
 5350.00    0.76250   0.78106    0.011
 5351.00    0.75248   0.78921    0.011
 5352.00    0.76290   0.79115    0.011
 5353.00    0.83359   0.80162    0.011
 5354.00    0.90377   0.81278    0.011
 5355.00    0.97267   0.81552    0.011
 5356.00    1.02999   0.81483    0.011
 5357.00    1.06225   0.81444    0.011
 5358.00    1.02970   0.81180    0.010
 5359.00    0.87542   0.80151    0.010
 5360.00    0.77536   0.78383    0.010
 5361.00    0.76424   0.76958    0.010
 5362.00    0.82281   0.76344    0.010
 5363.00    0.98163   0.75729    0.010
 5364.00    1.02097   0.75248    0.010
 5365.00    0.90917   0.75422    0.010
 5366.00    0.79437   0.75542    0.010
 5367.00    0.67624   0.74721    0.010
 5368.00    0.68448   0.72172   -2.000
 5369.00    0.81696   0.68949   -2.000
 5370.00    0.87008   0.68396   -2.000
 5371.00    0.85436   0.71819   -2.000
 5372.00    0.88650   0.76256   -2.000
 5373.00    0.95520   0.78786   -2.000
 5374.00    0.98500   0.79366   -2.000
 5375.00    0.98867   0.78832   -2.000
 5376.00    0.99831   0.78393   -2.000
 5377.00    1.01148   0.78484   -2.000
 5378.00    0.97564   0.78110   -2.000
 5379.00    0.91468   0.77146   -2.000
 5380.00    0.87724   0.76406   -2.000
 5381.00    0.85025   0.75805   -2.000
 5382.00    0.76781   0.75622   -2.000
 5383.00    0.66420   0.76705    0.011
 5384.00    0.73548   0.78004    0.011
 5385.00    0.86349   0.78238    0.011
 5386.00    0.91045   0.77762    0.011
 5387.00    0.93540   0.76794    0.011
 5388.00    0.81266   0.75418    0.011
 5389.00    0.65702   0.74413    0.010
 5390.00    0.67334   0.74040    0.010
 5391.00    0.72020   0.73814    0.010
 5392.00    0.72077   0.73718    0.010
 5393.00    0.71507   0.73780    0.010
 5394.00    0.69916   0.72819    0.010
 5395.00    0.68227   0.70356    0.010
 5396.00    0.72988   0.69508    0.010
 5397.00    0.78137   0.71957    0.010
 5398.00    0.77837   0.74329    0.010
 5399.00    0.77391   0.74834    0.010
 5400.00    0.76424   0.75146    0.010
 5401.00    0.75519   0.74941    0.010
 5402.00    0.76210   0.72361    0.010
 5403.00    0.76656   0.68547    0.010
 5404.00    0.73783   0.66642    0.010
 5405.00    0.72019   0.68151    0.010
 5406.00    0.80235   0.71081    0.010
 5407.00    0.87028   0.71929    0.010
 5408.00    0.84412   0.70534    0.010
 5409.00    0.82388   0.70367    0.010
 5410.00    0.83409   0.72850    0.010
 5411.00    0.82536   0.75377    0.010
 5412.00    0.73806   0.75834    0.010
 5413.00    0.67999   0.75108    0.010
 5414.00    0.72230   0.75365    0.010
 5415.00    0.75684   0.76865    0.010
 5416.00    0.76891   0.77777    0.010
 5417.00    0.77985   0.77254    0.010
 5418.00    0.78802   0.76061    0.010
 5419.00    0.75372   0.75338    0.011
 5420.00    0.62901   0.75729    0.013
 5421.00    0.53478   0.75845    0.014
 5422.00    0.49692   0.74234    0.014
 5423.00    0.47091   0.73104    0.014
 5424.00    0.46405   0.74735    0.014
 5425.00    0.53369   0.77335    0.013
 5426.00    0.71177   0.77566    0.011
 5427.00    0.79079   0.74128    0.011
 5428.00    0.74627   0.70434    0.010
 5429.00    0.77846   0.70864    0.010
 5430.00    0.89494   0.73191    0.010
 5431.00    0.89732   0.73097    0.010
 5432.00    0.78908   0.71260    0.010
 5433.00    0.78126   0.70100    0.010
 5434.00    0.85929   0.70647    0.010
 5435.00    0.83198   0.72613    0.010
 5436.00    0.72535   0.75144    0.010
 5437.00    0.67722   0.77370    0.010
 5438.00    0.66781   0.78596    0.010
 5439.00    0.67667   0.78918    0.010
 5440.00    0.69612   0.78891    0.010
 5441.00    0.71645   0.78796    0.010
 5442.00    0.73723   0.78030    0.010
 5443.00    0.77743   0.75653    0.010
 5444.00    0.82611   0.71791    0.010
 5445.00    0.82600   0.68679    0.010
 5446.00    0.80759   0.69307    0.010
 5447.00    0.75524   0.72844    0.010
 5448.00    0.69209   0.75595    0.010
 5449.00    0.72805   0.76345    0.010
 5450.00    0.79035   0.76067    0.010
 5451.00    0.85102   0.75363    0.010
 5452.00    0.91134   0.73679    0.010
 5453.00    0.85188   0.70600    0.010
 5454.00    0.77173   0.68464    0.010
 5455.00    0.82382   0.70139    0.010
 5456.00    0.89325   0.73952    0.010
 5457.00    0.87627   0.76266    0.010
 5458.00    0.85131   0.76288    0.010
 5459.00    0.82392   0.75137    0.010
 5460.00    0.79640   0.73486    0.010
 5461.00    0.74513   0.71641    0.010
 5462.00    0.69416   0.71195    0.010
 5463.00    0.73009   0.72775    0.010
 5464.00    0.76963   0.74118    0.010
 5465.00    0.89353   0.74312    0.010
 5466.00    1.00024   0.74685    0.010
 5467.00    0.88626   0.75085    0.010
 5468.00    0.79371   0.74562    0.010
 5469.00    0.88661   0.73829    0.010
 5470.00    0.96220   0.73668    0.010
 5471.00    0.92686   0.73173    0.010
 5472.00    0.88727   0.72278    0.010
 5473.00    0.82641   0.71687    0.010
 5474.00    0.77572   0.69966    0.010
 5475.00    0.76634   0.67499    0.010
 5476.00    0.75843   0.68006    0.010
 5477.00    0.75544   0.71360    0.010
 5478.00    0.75812   0.73168   -2.000
 5479.00    0.77687   0.71914   -2.000
 5480.00    0.76176   0.70465   -2.000
 5481.00    0.66444   0.71082   -2.000
 5482.00    0.61742   0.73029   -2.000
 5483.00    0.67577   0.74928   -2.000
 5484.00    0.78197   0.75509   -2.000
 5485.00    0.97529   0.74083   -2.000
 5486.00    1.33000   0.72345   -2.000
 5487.00    1.94163   0.72295   -2.000
 5488.00    2.25420   0.73159   -2.000
 5489.00    2.14900   0.73780   -2.000
 5490.00    1.87372   0.74295   -2.000
 5491.00    1.38934   0.74164   -2.000
 5492.00    0.99765   0.73522   -2.000
 5493.00    0.70639   0.73668   -2.000
 5494.00    0.57331   0.73992   -2.000
 5495.00    0.59143   0.73044   -2.000
 5496.00    0.70482   0.72222   -2.000
 5497.00    0.89853   0.73405   -2.000
 5498.00    0.94188   0.74665   -2.000
 5499.00    0.87364   0.73654   -2.000
 5500.00    0.81153   0.71804   -2.000
 5501.00    0.75341   0.71389   -2.000
 5502.00    0.75981   0.72212    0.010
 5503.00    0.80302   0.72580    0.010
 5504.00    0.79838   0.71490    0.010
 5505.00    0.76998   0.70402    0.010
 5506.00    0.81504   0.71294    0.010
 5507.00    0.89168   0.72865    0.010
 5508.00    0.91164   0.73160    0.010
 5509.00    0.91072   0.72355    0.010
 5510.00    0.84519   0.70869    0.010
 5511.00    0.75950   0.69536    0.010
 5512.00    0.75292   0.69488    0.010
 5513.00    0.76693   0.70494    0.010
 5514.00    0.79225   0.71669    0.010
 5515.00    0.81999   0.72697    0.010
 5516.00    0.83106   0.73906    0.010
 5517.00    0.83934   0.75085    0.010
 5518.00    0.80155   0.75383    0.010
 5519.00    0.75794   0.74975    0.010
 5520.00    0.74748   0.74642    0.010
 5521.00    0.73995   0.74606    0.010
 5522.00    0.74547   0.74574    0.010
 5523.00    0.75167   0.74047    0.010
 5524.00    0.76243   0.72862    0.010
 5525.00    0.77166   0.71017    0.010
 5526.00    0.65878   0.68921    0.010
 5527.00    0.55527   0.68470    0.010
 5528.00    0.65350   0.70625    0.010
 5529.00    0.74516   0.73130    0.010
 5530.00    0.75669   0.73891    0.010
 5531.00    0.77903   0.73445    0.010
 5532.00    0.89155   0.72682    0.010
 5533.00    0.98322   0.71804    0.010
 5534.00    0.94518   0.71684    0.010
 5535.00    0.91409   0.72546    0.010
 5536.00    0.91696   0.73137    0.010
 5537.00    0.90996   0.73401    0.010
 5538.00    0.86379   0.74154    0.010
 5539.00    0.80629   0.74997    0.011
 5540.00    0.71142   0.74917    0.026
 5541.00    0.66101   0.73786   -1.000
 5542.00    0.73465   0.72794   -1.000
 5543.00    0.77476   0.72725   -1.000
 5544.00    0.73486   0.72895   -1.000
 5545.00    0.71536   0.73138   -1.000
 5546.00    0.73793   0.74076   -1.000
 5547.00    0.76300   0.75157    0.053
 5548.00    0.79258   0.75545    0.014
 5549.00    0.82536   0.75477    0.010
 5550.00    0.86314   0.75133    0.010
 5551.00    0.87543   0.74301    0.010
 5552.00    0.85262   0.73204    0.010
 5553.00    0.83462   0.72686    0.010
 5554.00    0.82242   0.73078    0.010
 5555.00    0.83090   0.73476    0.010
 5556.00    0.86146   0.73386    0.010
 5557.00    0.84177   0.73377    0.010
 5558.00    0.77472   0.73547    0.010
 5559.00    0.73009   0.73398    0.010
 5560.00    0.70409   0.72735    0.010
 5561.00    0.69028   0.71874    0.010
 5562.00    0.68539   0.71543    0.010
 5563.00    0.70777   0.71589    0.010
 5564.00    0.74766   0.71249    0.010
 5565.00    0.75069   0.70973    0.010
 5566.00    0.73300   0.71129    0.010
 5567.00    0.73268   0.70964    0.010
 5568.00    0.74085   0.70768    0.010
 5569.00    0.79949   0.71411    0.010
 5570.00    0.87946   0.71481    0.010
 5571.00    0.87783   0.70361    0.010
 5572.00    0.84666   0.70507    0.010
 5573.00    0.78666   0.71926    0.010
 5574.00    0.71783   0.72344    0.010
 5575.00    0.67299   0.72293    0.010
 5576.00    0.63424   0.72706    0.009
 5577.00    0.70053   0.72941    0.010
 5578.00    0.78858   0.73111    0.010
 5579.00    0.80813   0.73076    0.010
 5580.00    0.81650   0.72423    0.010
 5581.00    0.73484   0.72068    0.010
 5582.00    0.64218   0.72231    0.010
 5583.00    0.70648   0.71740    0.010
 5584.00    0.78397   0.69924    0.009
 5585.00    0.79230   0.67334    0.010
 5586.00    0.79728   0.65452    0.010
 5587.00    0.78053   0.65196    0.009
 5588.00    0.76476   0.66379    0.009
 5589.00    0.82712   0.68292    0.009
 5590.00    0.88609   0.69667    0.010
 5591.00    0.87769   0.69781    0.010
 5592.00    0.86540   0.69117    0.010
 5593.00    0.80793   0.69236    0.010
 5594.00    0.75508   0.71040    0.010
 5595.00    0.73940   0.72295    0.010
 5596.00    0.72522   0.71016    0.010
 5597.00    0.72018   0.69183    0.010
 5598.00    0.72018   0.68718    0.010
 5599.00    0.74422   0.68444    0.010
 5600.00    0.75267   0.67528    0.010
 5601.00    0.70054   0.67205    0.010
 5602.00    0.65713   0.68750    0.010
 5603.00    0.64190   0.71487    0.010
 5604.00    0.63891   0.73526    0.010
 5605.00    0.66943   0.74259    0.010
 5606.00    0.69200   0.74219    0.009
 5607.00    0.69590   0.73970    0.009
 5608.00    0.71274   0.73795    0.009
 5609.00    0.75583   0.73885    0.010
 5610.00    0.78556   0.74263    0.010
 5611.00    0.79173   0.74264    0.009
 5612.00    0.78378   0.72469    0.009
 5613.00    0.75403   0.68611    0.009
 5614.00    0.73952   0.65931    0.009
 5615.00    0.74568   0.67150    0.009
 5616.00    0.76432   0.69784    0.009
 5617.00    0.79787   0.70736    0.009
 5618.00    0.82057   0.70612    0.009
 5619.00    0.83186   0.71019    0.009
 5620.00    0.80442   0.71897    0.009
 5621.00    0.74102   0.71782    0.009
 5622.00    0.67682   0.69831    0.009
 5623.00    0.61196   0.67834    0.009
 5624.00    0.63351   0.68083    0.009
 5625.00    0.71735   0.69749    0.009
 5626.00    0.74338   0.70936    0.009
 5627.00    0.73280   0.71762    0.009
 5628.00    0.72876   0.72633    0.009
 5629.00    0.72835   0.73129    0.009
 5630.00    0.71827   0.73090    0.009
 5631.00    0.70355   0.72672    0.009
 5632.00    0.75755   0.72034    0.009
 5633.00    0.84011   0.71413    0.009
 5634.00    0.90724   0.70772    0.009
 5635.00    0.96888   0.69969    0.009
 5636.00    0.92735   0.69540    0.009
 5637.00    0.85487   0.69972    0.009
 5638.00    0.77509   0.70400    0.009
 5639.00    0.69349   0.69897    0.009
 5640.00    0.68650   0.69398    0.009
 5641.00    0.69458   0.69780    0.009
 5642.00    0.70248   0.70291    0.009
 5643.00    0.71035   0.70569    0.009
 5644.00    0.72256   0.70917    0.009
 5645.00    0.73528   0.71321    0.009
 5646.00    0.76806   0.71556    0.009
 5647.00    0.80244   0.71315    0.009
 5648.00    0.75636   0.70868    0.009
 5649.00    0.70671   0.71028    0.009
 5650.00    0.67879   0.71847    0.009
 5651.00    0.65102   0.72298    0.009
 5652.00    0.61833   0.71543    0.009
 5653.00    0.59054   0.70299    0.009
 5654.00    0.65322   0.70022    0.009
 5655.00    0.71371   0.69683    0.009
 5656.00    0.74986   0.67365    0.009
 5657.00    0.78547   0.65383    0.009
 5658.00    0.81693   0.66682    0.009
 5659.00    0.83422   0.68834    0.009
 5660.00    0.76829   0.68753    0.009
 5661.00    0.70330   0.67966    0.009
 5662.00    0.64264   0.68767    0.009
 5663.00    0.61549   0.70410    0.009
 5664.00    0.71573   0.71077    0.009
 5665.00    0.79713   0.70404    0.009
 5666.00    0.81873   0.69490    0.009
 5667.00    0.82869   0.69308    0.009
 5668.00    0.80730   0.69714    0.009
 5669.00    0.81513   0.70237    0.009
 5670.00    0.89036   0.71029    0.009
 5671.00    0.92928   0.72140    0.009
 5672.00    0.89571   0.72716    0.009
 5673.00    0.87205   0.72292    0.009
 5674.00    0.86562   0.71893    0.009
 5675.00    0.84941   0.72280    0.009
 5676.00    0.81831   0.72476    0.009
 5677.00    0.78718   0.71923    0.009
 5678.00    0.75602   0.71494    0.009
 5679.00    0.70901   0.71264    0.009
 5680.00    0.64331   0.70208    0.009
 5681.00    0.62584   0.68877    0.009
 5682.00    0.65846   0.68807    0.009
 5683.00    0.69626   0.69680    0.009
 5684.00    0.73881   0.69959    0.009
 5685.00    0.71125   0.69149    0.009
 5686.00    0.62707   0.68282    0.009
 5687.00    0.60698   0.68460    0.009
 5688.00    0.63241   0.69598    0.009
 5689.00    0.69485   0.70782    0.009
 5690.00    0.78036   0.71635    0.009
 5691.00    0.83670   0.72139    0.009
 5692.00    0.87716   0.72018    0.009
 5693.00    0.91885   0.71643    0.009
 5694.00    0.96112   0.71629    0.009
 5695.00    0.90027   0.71584    0.009
 5696.00    0.79731   0.70782    0.009
 5697.00    0.75925   0.69860    0.009
 5698.00    0.74382   0.69432    0.009
 5699.00    0.72414   0.68742    0.009
 5700.00    0.70321   0.68008    0.009
 5701.00    0.67617   0.68326    0.009
 5702.00    0.64765   0.69383    0.009
 5703.00    0.66312   0.69756    0.009
 5704.00    0.68725   0.68881    0.009
 5705.00    0.70664   0.67655    0.009
 5706.00    0.72530   0.66591    0.009
 5707.00    0.70670   0.65549    0.009
 5708.00    0.68387   0.65238    0.009
 5709.00    0.68033   0.65647    0.009
 5710.00    0.67824   0.66137    0.009
 5711.00    0.72181   0.67467    0.009
 5712.00    0.76723   0.69377    0.009
 5713.00    0.75244   0.70428    0.009
 5714.00    0.73667   0.70782    0.009
 5715.00    0.69955   0.70933    0.009
 5716.00    0.66583   0.70859    0.009
 5717.00    0.69044   0.71045    0.009
 5718.00    0.71293   0.71528    0.009
 5719.00    0.71305   0.71933    0.009
 5720.00    0.70584   0.72380    0.009
 5721.00    0.64376   0.72770    0.009
 5722.00    0.59403   0.72784    0.009
 5723.00    0.61485   0.72466    0.009
 5724.00    0.64074   0.71705    0.009
 5725.00    0.68962   0.70521    0.009
 5726.00    0.71717   0.70081    0.009
 5727.00    0.66539   0.70902    0.009
 5728.00    0.64277   0.71505    0.009
 5729.00    0.71096   0.70782    0.009
 5730.00    0.75104   0.69912    0.009
 5731.00    0.71684   0.70319    0.009
 5732.00    0.66850   0.71417    0.009
 5733.00    0.58807   0.72042    0.009
 5734.00    0.54948   0.71959    0.009
 5735.00    0.59312   0.71531    0.009
 5736.00    0.65794   0.71242    0.009
 5737.00    0.75901   0.71198    0.009
 5738.00    0.81007   0.71225    0.009
 5739.00    0.78609   0.71211    0.009
 5740.00    0.75512   0.70991    0.000
 5741.00    0.71496   0.70664    0.000
 5742.00    0.69569   0.70810    0.000
 5743.00    0.70071   0.71555    0.000
 5744.00    0.71549   0.72125    0.000
 5745.00    0.74025   0.71555    0.000
 5746.00    0.73228   0.70178    0.000
 5747.00    0.69474   0.69750    0.000
 5748.00    0.70162   0.70776    0.000
 5749.00    0.74386   0.71625    0.000
 5750.00    0.75827   0.70889    0.000
 5751.00    0.75318   0.68976    0.000
 5752.00    0.76399   0.67523    0.000
 5753.00    0.78455   0.67923    0.000
 5754.00    0.79971   0.69771    0.000
 5755.00    0.81197   0.71394    0.000
 5756.00    0.78734   0.72045    0.000
 5757.00    0.74553   0.71786    0.000
 5758.00    0.73722   0.70803    0.000
 5759.00    0.74236   0.69487    0.000
 5760.00    0.75245   0.68162    0.000
 5761.00    0.76423   0.67516    0.000
 5762.00    0.74079   0.68531    0.000
 5763.00    0.70719   0.70470    0.000
 5764.00    0.70904   0.71631    0.000
 5765.00    0.71934   0.71882    0.000
 5766.00    0.72113   0.71851    0.000
 5767.00    0.72130   0.71682    0.000
 5768.00    0.77375   0.71431    0.000
 5769.00    0.83399   0.71113    0.000
 5770.00    0.83536   0.70628    0.000
 5771.00    0.83030   0.70281    0.000
 5772.00    0.81941   0.70128    0.000
 5773.00    0.80809   0.69961    0.000
 5774.00    0.76136   0.70173    0.000
 5775.00    0.71332   0.70718    0.000
 5776.00    0.79603   0.70923    0.000
 5777.00    0.87702   0.70424    0.000
 5778.00    0.87710   0.68930    0.000
 5779.00    0.87349   0.66807    0.000
 5780.00    0.81077   0.65618    0.000
 5781.00    0.75360   0.65946    0.000
 5782.00    0.75278   0.66360    0.000
 5783.00    0.75275   0.65962    0.000
 5784.00    0.75843   0.66009    0.000
 5785.00    0.76143   0.67373    0.000
 5786.00    0.74950   0.68888    0.000
 5787.00    0.73461   0.69654    0.000
 5788.00    0.70658   0.69502    0.000
 5789.00    0.68767   0.68705    0.000
 5790.00    0.70202   0.68510    0.000
 5791.00    0.72936   0.69263   -2.000
 5792.00    0.79636   0.70175   -2.000
 5793.00    0.86280   0.70911   -2.000
 5794.00    0.92777   0.71063   -2.000
 5795.00    0.96704   0.70119   -2.000
 5796.00    0.94898   0.68978   -2.000
 5797.00    0.92463   0.69260   -2.000
 5798.00    0.88811   0.70728   -2.000
 5799.00    0.84804   0.71870   -2.000
 5800.00    0.80198   0.72247   -2.000
 5801.00    0.76327   0.71919   -2.000
 5802.00    0.73545   0.70793   -2.000
 5803.00    0.71465   0.69648   -2.000
 5804.00    0.70298   0.69318   -2.000
 5805.00    0.72911   0.69680   -2.000
 5806.00    0.79852   0.70125   -2.000
 5807.00    0.82466   0.70327   -2.000
 5808.00    0.80711   0.70533   -2.000
 5809.00    0.77767   0.70845   -2.000
 5810.00    0.73764   0.70980   -2.000
 5811.00    0.71124   0.70876    0.000
 5812.00    0.69555   0.70538    0.000
 5813.00    0.69923   0.69749    0.000
 5814.00    0.71627   0.68773    0.000
 5815.00    0.72193   0.68648    0.000
 5816.00    0.72071   0.69748    0.000
 5817.00    0.72992   0.70990    0.000
 5818.00    0.74464   0.71514    0.000
 5819.00    0.77846   0.71535    0.000
 5820.00    0.82104   0.71310    0.000
 5821.00    0.86553   0.70949    0.000
 5822.00    0.91077   0.70760    0.000
 5823.00    0.90105   0.70929    0.000
 5824.00    0.87285   0.71123    0.000
 5825.00    0.82915   0.71074    0.000
 5826.00    0.78107   0.71004    0.000
 5827.00    0.74828   0.71132    0.000
 5828.00    0.71905   0.71282    0.000
 5829.00    0.68159   0.71204    0.000
 5830.00    0.64260   0.71074    0.000
 5831.00    0.66548   0.70983    0.000
 5832.00    0.69728   0.70632    0.000
 5833.00    0.73318   0.70217    0.000
 5834.00    0.76950   0.70342    0.000
 5835.00    0.76544   0.70664    0.000
 5836.00    0.75865   0.70415    0.000
 5837.00    0.79263   0.70092    0.000
 5838.00    0.82797   0.70434    0.000
 5839.00    0.80835   0.71100    0.000
 5840.00    0.78845   0.71487    0.000
 5841.00    0.76058   0.71528    0.000
 5842.00    0.73471   0.71303    0.000
 5843.00    0.73880   0.70840    0.000
 5844.00    0.74143   0.70212    0.000
 5845.00    0.72980   0.69525    0.000
 5846.00    0.71592   0.69112    0.000
 5847.00    0.68629   0.69227    0.000
 5848.00    0.65998   0.69530    0.000
 5849.00    0.65168   0.69469    0.000
 5850.00    0.65427   0.68702    0.000
 5851.00    0.70406   0.67451    0.000
 5852.00    0.73294   0.66865    0.000
 5853.00    0.68718   0.67374    0.000
 5854.00    0.65136   0.67486    0.000
 5855.00    0.64533   0.66139    0.000
 5856.00    0.65812   0.64779    0.000
 5857.00    0.71891   0.65149    0.000
 5858.00    0.76202   0.66649    0.000
 5859.00    0.76634   0.67846    0.000
 5860.00    0.76418   0.68015    0.000
 5861.00    0.74968   0.67687    0.000
 5862.00    0.74181   0.67943    0.000
 5863.00    0.74494   0.68474    0.000
 5864.00    0.73775   0.68229    0.000
 5865.00    0.71552   0.67562    0.000
 5866.00    0.70112   0.67703    0.000
 5867.00    0.69675   0.68602    0.000
 5868.00    0.72273   0.69379    0.000
 5869.00    0.78298   0.69629    0.000
 5870.00    0.79689   0.69365    0.000
 5871.00    0.76467   0.68896    0.000
 5872.00    0.72781   0.68741    0.000
 5873.00    0.68688   0.68901    0.000
 5874.00    0.66248   0.68838    0.000
 5875.00    0.65087   0.68484    0.000
 5876.00    0.66439   0.68128    0.000
 5877.00    0.69501   0.67683    0.000
 5878.00    0.73165   0.67033    0.000
 5879.00    0.77189   0.66755    0.000
 5880.00    0.77541   0.67106    0.000
 5881.00    0.75984   0.67199    0.000
 5882.00    0.70740   0.66691    0.000
 5883.00    0.63834   0.66424    0.000
 5884.00    0.61842   0.66577    0.000
 5885.00    0.61754   0.66032    0.000
 5886.00    0.61902   0.63145    0.000
 5887.00    0.62128   0.56912    0.000
 5888.00    0.64216   0.50577    0.000
 5889.00    0.66819   0.50144    0.000
 5890.00    0.70712   0.55097    0.000
 5891.00    0.74898   0.59530    0.000
 5892.00    0.75973   0.60513    0.000
 5893.00    0.76482   0.57548    0.000
 5894.00    0.72246   0.53210    0.000
 5895.00    0.67346   0.53348    0.000
 5896.00    0.63554   0.58021    0.000
 5897.00    0.59873   0.61975    0.000
 5898.00    0.61040   0.63825    0.000
 5899.00    0.62516   0.65125    0.000
 5900.00    0.62255   0.66027    0.000
 5901.00    0.61947   0.66416    0.008
 5902.00    0.63242   0.66624    0.008
 5903.00    0.64559   0.66537    0.009
 5904.00    0.66493   0.66254    0.008
 5905.00    0.68479   0.66389    0.008
 5906.00    0.71207   0.66936    0.008
 5907.00    0.73457   0.67198    0.008
 5908.00    0.71250   0.67156    0.008
 5909.00    0.69217   0.67381    0.008
 5910.00    0.68358   0.67638    0.008
 5911.00    0.67254   0.67053    0.008
 5912.00    0.64857   0.65661    0.008
 5913.00    0.62056   0.64734    0.008
 5914.00    0.57544   0.64837    0.008
 5915.00    0.54144   0.65554    0.008
 5916.00    0.54629   0.66358    0.008
 5917.00    0.54104   0.66845    0.008
 5918.00    0.50610   0.67159    0.008
 5919.00    0.47258   0.67204    0.008
 5920.00    0.44260   0.66836    0.008
 5921.00    0.44162   0.66631    0.008
 5922.00    0.50325   0.66883    0.008
 5923.00    0.56403   0.67261    0.008
 5924.00    0.62324   0.67573    0.008
 5925.00    0.64781   0.67584    0.008
 5926.00    0.61567   0.67112    0.008
 5927.00    0.58262   0.66258    0.008
 5928.00    0.54826   0.65433    0.008
 5929.00    0.53238   0.65614    0.008
 5930.00    0.53984   0.66773    0.008
 5931.00    0.55835   0.67385    0.008
 5932.00    0.58916   0.66721    0.008
 5933.00    0.59935   0.65915    0.008
 5934.00    0.58930   0.66188    0.008
 5935.00    0.58450   0.67048    0.008
 5936.00    0.58423   0.67590    0.008
 5937.00    0.61466   0.67792    0.008
 5938.00    0.66850   0.67469    0.008
 5939.00    0.68388   0.66529    0.008
 5940.00    0.67348   0.65876    0.008
 5941.00    0.67116   0.66069    0.008
 5942.00    0.67356   0.66656    0.008
 5943.00    0.67438   0.67286    0.008
 5944.00    0.67438   0.67736    0.008
 5945.00    0.64002   0.67520    0.008
 5946.00    0.59041   0.66450    0.008
 5947.00    0.58945   0.65348    0.008
 5948.00    0.60701   0.65462    0.008
 5949.00    0.61391   0.66369    0.008
 5950.00    0.61736   0.66357    0.008
 5951.00    0.59738   0.65527    0.008
 5952.00    0.57107   0.65588    0.008
 5953.00    0.59106   0.66407    0.008
 5954.00    0.62134   0.66392    0.008
 5955.00    0.65515   0.65613    0.008
 5956.00    0.68958   0.65352    0.008
 5957.00    0.66087   0.65884    0.008
 5958.00    0.62364   0.66714    0.008
 5959.00    0.59587   0.67425    0.008
 5960.00    0.56901   0.67794    0.008
 5961.00    0.56596   0.67826    0.008
 5962.00    0.56433   0.67649    0.008
 5963.00    0.61293   0.67195    0.008
 5964.00    0.66262   0.66662    0.008
 5965.00    0.68289   0.66725    0.008
 5966.00    0.70206   0.67234    0.008
 5967.00    0.69326   0.67570    0.008
 5968.00    0.68305   0.67786    0.008
 5969.00    0.65386   0.68001    0.008
 5970.00    0.62946   0.68053    0.008
 5971.00    0.64790   0.67946    0.008
 5972.00    0.66213   0.67652    0.008
 5973.00    0.64859   0.66928    0.008
 5974.00    0.63203   0.65889    0.008
 5975.00    0.59996   0.65125    0.008
 5976.00    0.57775   0.65017    0.008
 5977.00    0.59634   0.65536    0.008
 5978.00    0.61068   0.66411    0.008
 5979.00    0.61046   0.67083    0.008
 5980.00    0.61551   0.67028    0.008
 5981.00    0.63573   0.66012    0.008
 5982.00    0.65741   0.64495    0.008
 5983.00    0.68269   0.63896    0.008
 5984.00    0.68530   0.64679    0.008
 5985.00    0.63970   0.65564    0.008
 5986.00    0.60079   0.65949    0.008
 5987.00    0.57425   0.66349    0.008
 5988.00    0.56577   0.66671    0.008
 5989.00    0.58643   0.66369    0.008
 5990.00    0.60532   0.66016    0.008
 5991.00    0.62173   0.66515    0.008
 5992.00    0.63923   0.67388    0.008
 5993.00    0.65809   0.67623    0.008
 5994.00    0.67216   0.67076    0.008
 5995.00    0.68096   0.66149    0.008
 5996.00    0.68283   0.65430    0.008
 5997.00    0.67800   0.65430    0.008
 5998.00    0.65464   0.65970    0.008
 5999.00    0.61545   0.66383    0.008
 6000.00    0.59439   0.66061    0.008
 6001.00    0.58693   0.65329    0.008
 6002.00    0.59598   0.65324    0.008
 6003.00    0.61592   0.65857    0.008
 6004.00    0.60395   0.65782    0.008
 6005.00    0.57353   0.64825    0.008
 6006.00    0.56723   0.63632    0.008
 6007.00    0.57308   0.63620    0.008
 6008.00    0.60999   0.65136    0.008
 6009.00    0.66044   0.66414    0.008
 6010.00    0.66526   0.66148    0.008
 6011.00    0.65301   0.65020    0.008
 6012.00    0.65221   0.64571    0.008
 6013.00    0.65504   0.65014    0.008
 6014.00    0.67777   0.65133    0.008
 6015.00    0.70578   0.64830    0.008
 6016.00    0.67083   0.64995    0.008
 6017.00    0.62224   0.65114    0.008
 6018.00    0.60494   0.64461    0.008
 6019.00    0.59303   0.63856    0.008
 6020.00    0.59628   0.64004    0.008
 6021.00    0.60152   0.64438    0.008
 6022.00    0.59301   0.64646    0.008
 6023.00    0.58324   0.65083    0.008
 6024.00    0.59550   0.65710    0.008
 6025.00    0.60898   0.65846    0.008
 6026.00    0.63441   0.65984    0.008
 6027.00    0.65997   0.66512    0.008
 6028.00    0.67166   0.66825    0.008
 6029.00    0.68271   0.66771    0.008
 6030.00    0.67869   0.66879    0.008
 6031.00    0.67426   0.67198    0.008
 6032.00    0.66440   0.67320    0.008
 6033.00    0.65111   0.67215    0.008
 6034.00    0.60825   0.67157    0.008
 6035.00    0.57022   0.67204    0.008
 6036.00    0.56300   0.67190    0.008
 6037.00    0.56379   0.66931    0.008
 6038.00    0.60461   0.66540    0.008
 6039.00    0.63994   0.66295    0.008
 6040.00    0.65306   0.66194    0.008
 6041.00    0.66650   0.66470    0.008
 6042.00    0.68103   0.67027    0.008
 6043.00    0.68181   0.67317    0.008
 6044.00    0.64366   0.67318    0.008
 6045.00    0.61265   0.67376    0.008
 6046.00    0.59894   0.67426    0.008
 6047.00    0.58600   0.67323    0.008
 6048.00    0.57466   0.67365    0.008
 6049.00    0.56873   0.67527    0.008
 6050.00    0.57259   0.67342    0.008
 6051.00    0.57530   0.66757    0.008
 6052.00    0.57616   0.66241    0.008
 6053.00    0.57363   0.65901    0.008
 6054.00    0.56637   0.65508    0.008
 6055.00    0.58395   0.65353    0.008
 6056.00    0.63201   0.65704    0.008
 6057.00    0.68015   0.66339    0.008
 6058.00    0.72839   0.66826    0.008
 6059.00    0.74853   0.66930    0.008
 6060.00    0.74189   0.66615    0.008
 6061.00    0.71577   0.66001    0.008
 6062.00    0.67327   0.65083    0.008
 6063.00    0.64782   0.63824    0.008
 6064.00    0.63500   0.63492    0.008
 6065.00    0.61940   0.64889    0.008
 6066.00    0.60198   0.66545    0.008
 6067.00    0.61291   0.67294    0.008
 6068.00    0.63997   0.67418    0.008
 6069.00    0.67344   0.67432    0.008
 6070.00    0.71008   0.67505    0.008
 6071.00    0.71726   0.67571    0.008
 6072.00    0.71182   0.67549    0.008
 6073.00    0.69020   0.67463    0.008
 6074.00    0.66264   0.67210    0.008
 6075.00    0.68284   0.66605    0.008
 6076.00    0.71790   0.65581    0.008
 6077.00    0.72236   0.64794    0.008
 6078.00    0.71887   0.64912    0.008
 6079.00    0.67662   0.65110    0.008
 6080.00    0.62617   0.64664    0.008
 6081.00    0.61808   0.64435    0.008
 6082.00    0.61706   0.64734    0.008
 6083.00    0.60206   0.64807    0.008
 6084.00    0.58530   0.64728    0.008
 6085.00    0.59706   0.65036    0.008
 6086.00    0.61133   0.65537    0.008
 6087.00    0.63893   0.65423    0.008
 6088.00    0.66723   0.64603    0.008
 6089.00    0.64096   0.64097    0.008
 6090.00    0.61356   0.64243    0.008
 6091.00    0.57668   0.64474    0.008
 6092.00    0.54298   0.64900    0.008
 6093.00    0.57703   0.65711    0.008
 6094.00    0.61083   0.66116    0.008
 6095.00    0.64174   0.65784    0.008
 6096.00    0.66764   0.65547    0.008
 6097.00    0.65209   0.65867    0.008
 6098.00    0.63071   0.66265    0.008
 6099.00    0.57317   0.65535    0.008
 6100.00    0.52337   0.62836    0.008
 6101.00    0.51127   0.60341    0.008
 6102.00    0.50975   0.61099    0.008
 6103.00    0.55008   0.63804    0.008
 6104.00    0.58667   0.65406    0.008
 6105.00    0.61098   0.65393    0.008
 6106.00    0.62555   0.64918    0.008
 6107.00    0.61302   0.65139    0.008
 6108.00    0.60903   0.65701    0.008
 6109.00    0.62537   0.65518    0.008
 6110.00    0.63879   0.65070    0.008
 6111.00    0.64623   0.65337    0.008
 6112.00    0.65364   0.66013    0.008
 6113.00    0.66099   0.66188    0.008
 6114.00    0.65917   0.65583    0.008
 6115.00    0.64298   0.65140    0.008
 6116.00    0.62648   0.65399    0.008
 6117.00    0.60954   0.65358    0.008
 6118.00    0.58902   0.64398    0.008
 6119.00    0.56417   0.62712    0.008
 6120.00    0.55939   0.60872    0.008
 6121.00    0.57602   0.60821    0.008
 6122.00    0.58599   0.62897    0.008
 6123.00    0.58970   0.64543    0.008
 6124.00    0.58742   0.64678    0.008
 6125.00    0.58020   0.64269    0.008
 6126.00    0.57649   0.63915    0.008
 6127.00    0.57536   0.63944    0.008
 6128.00    0.56545   0.64569    0.008
 6129.00    0.54992   0.65278    0.008
 6130.00    0.57262   0.65549    0.008
 6131.00    0.61677   0.65579    0.008
 6132.00    0.66405   0.65221    0.008
 6133.00    0.71285   0.63810    0.008
 6134.00    0.71841   0.60983    0.008
 6135.00    0.70573   0.58018    0.008
 6136.00    0.65578   0.57948    0.008
 6137.00    0.59238   0.61132    0.008
 6138.00    0.55214   0.63940    0.008
 6139.00    0.51897   0.63831    0.008
 6140.00    0.52241   0.62550    0.008
 6141.00    0.53515   0.62929    0.008
 6142.00    0.56023   0.64578    0.008
 6143.00    0.58786   0.65556    0.008
 6144.00    0.58962   0.65562    0.008
 6145.00    0.58719   0.65147    0.008
 6146.00    0.58018   0.64340    0.008
 6147.00    0.57263   0.63418    0.008
 6148.00    0.59280   0.62957    0.008
 6149.00    0.61529   0.63219    0.008
 6150.00    0.62882   0.63948    0.008
 6151.00    0.64191   0.64525    0.008
 6152.00    0.65298   0.64179    0.008
 6153.00    0.66369   0.63311    0.008
 6154.00    0.65503   0.63095    0.008
 6155.00    0.64509   0.63325    0.008
 6156.00    0.61014   0.63330    0.008
 6157.00    0.57840   0.63136    0.008
 6158.00    0.58383   0.62037    0.008
 6159.00    0.58949   0.59070    0.008
 6160.00    0.59698   0.55785    0.008
 6161.00    0.59640   0.54964    0.008
 6162.00    0.54723   0.56871    0.008
 6163.00    0.51000   0.59305    0.008
 6164.00    0.52953   0.60695    0.008
 6165.00    0.55344   0.61393    0.008
 6166.00    0.59429   0.61269    0.008
 6167.00    0.61791   0.59450    0.008
 6168.00    0.58591   0.57766    0.008
 6169.00    0.56811   0.58743    0.008
 6170.00    0.58911   0.61006    0.008
 6171.00    0.60746   0.61944    0.008
 6172.00    0.61958   0.61898    0.008
 6173.00    0.63572   0.61955    0.008
 6174.00    0.66000   0.61902    0.008
 6175.00    0.65831   0.61752    0.008
 6176.00    0.61085   0.62157    0.008
 6177.00    0.56390   0.62703    0.008
 6178.00    0.51772   0.62646    0.008
 6179.00    0.48566   0.62668    0.007
 6180.00    0.47273   0.63146    0.007
 6181.00    0.48569   0.63412    0.007
 6182.00    0.52952   0.63352    0.007
 6183.00    0.55008   0.63166    0.007
 6184.00    0.54617   0.62527    0.007
 6185.00    0.53834   0.61668    0.007
 6186.00    0.52687   0.61207    0.008
 6187.00    0.52926   0.61164    0.008
 6188.00    0.54298   0.60615    0.008
 6189.00    0.55985   0.58864    0.008
 6190.00    0.57900   0.57883    0.008
 6191.00    0.60930   0.59376    0.008
 6192.00    0.64665   0.61417    0.008
 6193.00    0.74939   0.62295    0.008
 6194.00    0.88824   0.62647    0.008
 6195.00    1.06688   0.63020    0.008
 6196.00    1.26462   0.62862   -2.000
 6197.00    1.31228   0.61709   -2.000
 6198.00    1.29773   0.60510   -2.000
 6199.00    1.07979   0.60656   -2.000
 6200.00    0.78977   0.61865   -2.000
 6201.00    0.63673   0.62805   -2.000
 6202.00    0.52468   0.62970   -2.000
 6203.00    0.51091   0.62852   -2.000
 6204.00    0.52154   0.62926   -2.000
 6205.00    0.57176   0.63072   -2.000
 6206.00    0.62994   0.63098   -2.000
 6207.00    0.63179   0.63017   -2.000
 6208.00    0.62475   0.62742    0.008
 6209.00    0.60940   0.62334    0.008
 6210.00    0.59308   0.61784    0.008
 6211.00    0.61604   0.60546    0.008
 6212.00    0.64211   0.59035    0.008
 6213.00    0.63089   0.58282    0.007
 6214.00    0.61803   0.58508    0.007
 6215.00    0.61136   0.59518    0.007
 6216.00    0.60535   0.60346    0.007
 6217.00    0.62786   0.59948    0.007
 6218.00    0.64915   0.59089    0.008
 6219.00    0.64796   0.59097    0.008
 6220.00    0.64632   0.59909    0.008
 6221.00    0.63971   0.60562    0.008
 6222.00    0.63838   0.60529    0.008
 6223.00    0.67778   0.60440    0.008
 6224.00    0.71471   0.60673    0.008
 6225.00    0.73722   0.60866    0.008
 6226.00    0.75315   0.60821    0.008
 6227.00    0.73858   0.60020    0.008
 6228.00    0.72248   0.58106    0.008
 6229.00    0.70061   0.56605    0.008
 6230.00    0.67790   0.56935    0.008
 6231.00    0.65254   0.58292    0.008
 6232.00    0.62913   0.59949    0.008
 6233.00    0.61097   0.61438    0.008
 6234.00    0.59804   0.61908    0.008
 6235.00    0.59715   0.61296    0.007
 6236.00    0.60888   0.60290    0.007
 6237.00    0.64573   0.59362    0.007
 6238.00    0.66797   0.58723    0.007
 6239.00    0.66484   0.58879    0.007
 6240.00    0.65882   0.59143    0.007
 6241.00    0.64841   0.58465    0.007
 6242.00    0.63894   0.57850    0.007
 6243.00    0.63070   0.57896    0.007
 6244.00    0.61316   0.57891    0.007
 6245.00    0.58468   0.58271    0.008
 6246.00    0.57259   0.59490    0.008
 6247.00    0.57751   0.60653    0.008
 6248.00    0.57110   0.61058    0.008
 6249.00    0.55434   0.60469    0.008
 6250.00    0.55158   0.58887    0.008
 6251.00    0.56013   0.57487    0.008
 6252.00    0.58029   0.57240    0.008
 6253.00    0.60869   0.57665    0.008
 6254.00    0.63674   0.57715    0.008
 6255.00    0.66457   0.57105    0.008
 6256.00    0.69384   0.56343    0.008
 6257.00    0.72390   0.56461    0.008
 6258.00    0.78461   0.57742    0.008
 6259.00    0.85981   0.58936    0.008
 6260.00    0.86133   0.59815    0.009
 6261.00    0.83283   0.60824    0.009
 6262.00    0.72867   0.61022    0.009
 6263.00    0.59818   0.60059    0.010
 6264.00    0.52690   0.59557    0.009
 6265.00    0.47298   0.60159    0.009
 6266.00    0.49746   0.60604    0.009
 6267.00    0.54098   0.60306    0.008
 6268.00    0.53940   0.59945    0.008
 6269.00    0.52897   0.60019    0.008
 6270.00    0.53583   0.60492    0.008
 6271.00    0.54534   0.60953    0.007
 6272.00    0.58760   0.60986    0.007
 6273.00    0.63356   0.60831    0.007
 6274.00    0.65216   0.60860    0.008
 6275.00    0.66870   0.60870    0.008
 6276.00    0.65709   0.60688    0.008
 6277.00    0.64434   0.60189    0.008
 6278.00    0.61031   0.59297    0.008
 6279.00    0.57578   0.58799    0.008
 6280.00    0.52719   0.59179    0.000
 6281.00    0.48100   0.59960    0.000
 6282.00    0.47577   0.60627    0.000
 6283.00    0.47371   0.60811    0.000
 6284.00    0.50516   0.60877    0.000
 6285.00    0.53452   0.61328    0.000
 6286.00    0.54833   0.61924    0.000
 6287.00    0.55688   0.62187    0.000
 6288.00    0.53551   0.61788    0.000
 6289.00    0.51722   0.61005    0.000
 6290.00    0.51292   0.60459    0.000
 6291.00    0.51641   0.60353    0.000
 6292.00    0.54881   0.60661    0.000
 6293.00    0.57001   0.60861    0.000
 6294.00    0.55646   0.60178    0.000
 6295.00    0.54627   0.59100    0.000
 6296.00    0.54492   0.58817    0.000
 6297.00    0.55257   0.59354    0.000
 6298.00    0.58060   0.59599    0.000
 6299.00    0.60134   0.58864    0.000
 6300.00    0.60779   0.58043    0.000
 6301.00    0.60276   0.58367    0.000
 6302.00    0.57809   0.59478    0.000
 6303.00    0.55916   0.60123    0.000
 6304.00    0.54879   0.60362    0.000
 6305.00    0.54012   0.61024    0.000
 6306.00    0.53367   0.61767    0.000
 6307.00    0.52152   0.61808    0.000
 6308.00    0.50276   0.61173    0.000
 6309.00    0.49276   0.60441    0.000
 6310.00    0.49173   0.60155    0.000
 6311.00    0.49223   0.60357    0.000
 6312.00    0.49411   0.60084    0.000
 6313.00    0.47954   0.59144    0.000
 6314.00    0.45189   0.58820    0.000
 6315.00    0.43576   0.58859    0.000
 6316.00    0.42769   0.58102    0.000
 6317.00    0.45318   0.57726    0.000
 6318.00    0.49923   0.58719    0.000
 6319.00    0.54164   0.59806    0.000
 6320.00    0.58209   0.60025    0.000
 6321.00    0.61193   0.60093    0.007
 6322.00    0.63682   0.60675    0.007
 6323.00    0.64707   0.61260    0.007
 6324.00    0.65145   0.61381    0.007
 6325.00    0.62000   0.61127    0.007
 6326.00    0.57631   0.61048    0.008
 6327.00    0.56163   0.61228    0.008
 6328.00    0.55529   0.61014    0.007
 6329.00    0.56222   0.60781    0.007
 6330.00    0.57231   0.61151    0.007
 6331.00    0.57512   0.61701    0.008
 6332.00    0.57653   0.61352    0.008
 6333.00    0.56083   0.59651    0.008
 6334.00    0.54258   0.58036    0.008
 6335.00    0.52020   0.58023    0.007
 6336.00    0.49736   0.59018    0.007
 6337.00    0.51662   0.59756    0.007
 6338.00    0.53888   0.60422    0.007
 6339.00    0.56489   0.61092    0.007
 6340.00    0.59103   0.61033    0.007
 6341.00    0.54837   0.60049    0.007
 6342.00    0.50619   0.58928    0.007
 6343.00    0.49008   0.58811    0.007
 6344.00    0.47618   0.59342    0.007
 6345.00    0.49759   0.59626    0.007
 6346.00    0.51847   0.60005    0.007
 6347.00    0.53407   0.60704    0.007
 6348.00    0.54522   0.61147    0.007
 6349.00    0.52417   0.61250    0.007
 6350.00    0.50232   0.61271    0.007
 6351.00    0.47602   0.60975    0.007
 6352.00    0.45848   0.60112    0.008
 6353.00    0.47970   0.59230    0.008
 6354.00    0.49736   0.59238    0.008
 6355.00    0.50204   0.59511    0.008
 6356.00    0.51325   0.58838    0.008
 6357.00    0.54436   0.57819    0.008
 6358.00    0.57111   0.57538    0.008
 6359.00    0.58654   0.57474    0.008
 6360.00    0.58459   0.57024    0.007
 6361.00    0.54392   0.56865    0.008
 6362.00    0.50462   0.57453    0.008
 6363.00    0.46796   0.58328    0.007
 6364.00    0.45580   0.59020    0.007
 6365.00    0.48493   0.59656    0.007
 6366.00    0.51056   0.60305    0.007
 6367.00    0.53105   0.60486    0.007
 6368.00    0.53794   0.60053    0.007
 6369.00    0.52719   0.59752    0.007
 6370.00    0.50480   0.60215    0.007
 6371.00    0.46910   0.61026    0.007
 6372.00    0.45540   0.61348    0.007
 6373.00    0.46387   0.61236    0.007
 6374.00    0.48898   0.61199    0.007
 6375.00    0.52891   0.61116    0.007
 6376.00    0.55006   0.60571    0.007
 6377.00    0.55651   0.59910    0.007
 6378.00    0.55059   0.59633    0.007
 6379.00    0.53615   0.59656    0.007
 6380.00    0.52806   0.60001    0.007
 6381.00    0.52380   0.60344    0.008
 6382.00    0.51522   0.60200    0.007
 6383.00    0.50436   0.59987    0.007
 6384.00    0.50627   0.60254    0.007
 6385.00    0.51401   0.60684    0.007
 6386.00    0.52013   0.60792    0.007
 6387.00    0.52562   0.60717    0.007
 6388.00    0.52017   0.60724    0.007
 6389.00    0.51105   0.60623    0.007
 6390.00    0.52724   0.59736    0.007
 6391.00    0.55055   0.58026    0.007
 6392.00    0.57003   0.57275    0.007
 6393.00    0.58862   0.58467    0.007
 6394.00    0.58425   0.60146    0.007
 6395.00    0.57561   0.61067    0.008
 6396.00    0.58485   0.60923    0.008
 6397.00    0.59666   0.59252    0.008
 6398.00    0.61815   0.57051    0.008
 6399.00    0.64065   0.57134    0.008
 6400.00    0.63305   0.59330    0.008
 6401.00    0.62343   0.60989    0.007
 6402.00    0.57430   0.61464    0.007
 6403.00    0.52387   0.61333    0.008
 6404.00    0.50102   0.60774    0.007
 6405.00    0.47950   0.59703    0.007
 6406.00    0.49937   0.58782    0.007
 6407.00    0.51738   0.59168    0.007
 6408.00    0.50727   0.59948    0.007
 6409.00    0.49986   0.59411    0.007
 6410.00    0.51840   0.58657    0.007
 6411.00    0.53474   0.59017    0.007
 6412.00    0.53571   0.59591    0.007
 6413.00    0.53664   0.59793    0.007
 6414.00    0.53744   0.60020    0.007
 6415.00    0.53411   0.60175    0.007
 6416.00    0.51296   0.60065    0.007
 6417.00    0.49020   0.59477    0.007
 6418.00    0.46169   0.58239    0.007
 6419.00    0.43922   0.57329    0.007
 6420.00    0.43477   0.58063    0.007
 6421.00    0.42913   0.59892    0.007
 6422.00    0.42043   0.60942    0.007
 6423.00    0.42359   0.60924    0.007
 6424.00    0.45272   0.60898    0.007
 6425.00    0.49119   0.61212    0.007
 6426.00    0.54745   0.61397    0.007
 6427.00    0.58230   0.60825    0.008
 6428.00    0.58166   0.59243    0.008
 6429.00    0.58060   0.57770    0.008
 6430.00    0.57891   0.57856    0.008
 6431.00    0.58930   0.59030    0.008
 6432.00    0.61513   0.60105    0.008
 6433.00    0.62568   0.60735    0.007
 6434.00    0.61902   0.60976    0.007
 6435.00    0.59282   0.60602    0.007
 6436.00    0.54721   0.59028    0.007
 6437.00    0.51335   0.57307    0.007
 6438.00    0.48981   0.57698    0.007
 6439.00    0.47534   0.59712    0.007
 6440.00    0.46789   0.61135    0.007
 6441.00    0.46084   0.61504    0.007
 6442.00    0.45407   0.61502    0.007
 6443.00    0.44882   0.61545    0.007
 6444.00    0.44449   0.61677    0.007
 6445.00    0.46844   0.61602    0.007
 6446.00    0.50708   0.60540    0.007
 6447.00    0.54906   0.57976    0.008
 6448.00    0.59255   0.55686    0.008
 6449.00    0.56598   0.56144    0.008
 6450.00    0.51232   0.58346    0.008
 6451.00    0.46381   0.60040    0.008
 6452.00    0.41701   0.60391    0.007
 6453.00    0.44187   0.59392    0.007
 6454.00    0.48650   0.58218    0.007
 6455.00    0.50808   0.58452    0.007
 6456.00    0.52444   0.59873    0.007
 6457.00    0.50837   0.61085    0.007
 6458.00    0.48642   0.61410    0.007
 6459.00    0.47970   0.60387    0.007
 6460.00    0.47510   0.57880    0.007
 6461.00    0.49249   0.56170    0.007
 6462.00    0.51208   0.57147    0.007
 6463.00    0.51973   0.59090    0.007
 6464.00    0.52663   0.60277    0.007
 6465.00    0.53306   0.60797    0.007
 6466.00    0.53945   0.60844    0.007
 6467.00    0.53546   0.60379    0.007
 6468.00    0.53066   0.59745    0.007
 6469.00    0.50323   0.59078    0.007
 6470.00    0.47782   0.58830    0.007
 6471.00    0.48095   0.59420    0.007
 6472.00    0.48589   0.59788    0.008
 6473.00    0.50763   0.59322    0.008
 6474.00    0.52419   0.59092    0.008
 6475.00    0.50575   0.59628    0.008
 6476.00    0.48897   0.60054    0.008
 6477.00    0.48086   0.60087    0.007
 6478.00    0.47657   0.59839    0.007
 6479.00    0.48840   0.58864    0.007
 6480.00    0.49842   0.57443    0.007
 6481.00    0.50210   0.56948    0.007
 6482.00    0.50914   0.57697    0.007
 6483.00    0.52602   0.58667    0.007
 6484.00    0.54487   0.59199    0.007
 6485.00    0.56862   0.59437    0.007
 6486.00    0.58158   0.59577    0.007
 6487.00    0.57127   0.59442    0.007
 6488.00    0.55587   0.58881    0.007
 6489.00    0.53095   0.58198    0.007
 6490.00    0.50495   0.57521    0.007
 6491.00    0.47721   0.56007    0.007
 6492.00    0.45761   0.53272    0.007
 6493.00    0.44968   0.51184    0.007
 6494.00    0.46450   0.51066    0.007
 6495.00    0.50798   0.52226    0.007
 6496.00    0.55668   0.53731    0.007
 6497.00    0.61116   0.54721    0.007
 6498.00    0.62326   0.55599    0.008
 6499.00    0.59383   0.56791    0.008
 6500.00    0.54316   0.57786    0.008
 6501.00    0.47414   0.58338    0.007
 6502.00    0.44664   0.58647    0.007
 6503.00    0.45074   0.58935    0.007
 6504.00    0.47003   0.59221    0.007
 6505.00    0.49948   0.59186    0.007
 6506.00    0.51718   0.58744    0.007
 6507.00    0.52799   0.58436    0.007
 6508.00    0.53801   0.58664    0.007
 6509.00    0.54763   0.59017    0.007
 6510.00    0.54927   0.59105    0.007
 6511.00    0.54736   0.59026    0.007
 6512.00    0.53143   0.58794    0.007
 6513.00    0.51017   0.58170    0.007
 6514.00    0.50873   0.57427    0.007
 6515.00    0.51369   0.57028    0.007
 6516.00    0.53408   0.56803    0.007
 6517.00    0.55864   0.56862    0.007
 6518.00    0.56109   0.57634    0.007
 6519.00    0.55865   0.58527    0.007
 6520.00    0.56375   0.58868    0.007
 6521.00    0.57018   0.58824    0.008
 6522.00    0.57202   0.58846    0.007
 6523.00    0.57324   0.58867    0.007
 6524.00    0.53787   0.58384    0.007
 6525.00    0.49901   0.57667    0.007
 6526.00    0.51252   0.57609    0.007
 6527.00    0.52914   0.58180    0.007
 6528.00    0.61489   0.58610    0.000
 6529.00    0.70182   0.58454    0.000
 6530.00    0.70687   0.57866    0.000
 6531.00    0.70951   0.57368    0.000
 6532.00    0.65143   0.57456    0.000
 6533.00    0.59535   0.58076    0.000
 6534.00    0.56603   0.58516    0.000
 6535.00    0.53955   0.58389    0.000
 6536.00    0.53840   0.58199    0.000
 6537.00    0.53980   0.58436    0.000
 6538.00    0.55789   0.58796    0.000
 6539.00    0.57678   0.58684    0.000
 6540.00    0.59975   0.58098    0.000
 6541.00    0.61881   0.57490    0.000
 6542.00    0.62172   0.57048    0.000
 6543.00    0.61978   0.56272    0.000
 6544.00    0.60128   0.55110    0.000
 6545.00    0.59126   0.54787    0.000
 6546.00    0.60569   0.55544    0.000
 6547.00    0.61067   0.56233    0.000
 6548.00    0.59239   0.56224    0.000
 6549.00    0.58150   0.55733    0.000
 6550.00    0.58626   0.55257    0.000
 6551.00    0.59234   0.54787    0.000
 6552.00    0.60086   0.53943    0.000
 6553.00    0.60852   0.52916    0.000
 6554.00    0.61479   0.52340    0.000
 6555.00    0.64129   0.52442    0.000
 6556.00    0.69633   0.52543    0.000
 6557.00    0.76558   0.52001    0.000
 6558.00    0.85246   0.50640    0.000
 6559.00    0.92908   0.47125    0.000
 6560.00    0.99447   0.40370    0.000
 6561.00    0.98414   0.35366    0.000
 6562.00    0.90067   0.38092    0.000
 6563.00    0.77316   0.45028    0.000
 6564.00    0.60815   0.49930    0.000
 6565.00    0.49270   0.52196    0.000
 6566.00    0.41443   0.52954    0.000
 6567.00    0.38269   0.52789    0.000
 6568.00    0.38161   0.52853    0.000
 6569.00    0.40050   0.53429    0.000
 6570.00    0.43091   0.53557    0.000
 6571.00    0.44352   0.53098    0.000
 6572.00    0.44718   0.52716    0.000
 6573.00    0.46703   0.52945    0.000
 6574.00    0.49392   0.54047    0.000
 6575.00    0.52160   0.55431    0.000
 6576.00    0.54957   0.56317    0.000
 6577.00    0.59469   0.56473    0.000
 6578.00    0.64525   0.56023    0.000
 6579.00    0.70683   0.55477    0.000
 6580.00    0.77133   0.55587    0.000
 6581.00    0.78397   0.56162    0.000
 6582.00    0.78540   0.56539    0.000
 6583.00    0.75125   0.56492    0.000
 6584.00    0.71100   0.56188    0.000
 6585.00    0.65848   0.56236    0.000
 6586.00    0.60436   0.56788    0.000
 6587.00    0.56440   0.57289    0.000
 6588.00    0.52573   0.57460    0.000
 6589.00    0.53259   0.56966    0.000
 6590.00    0.54196   0.55294    0.000
 6591.00    0.57003   0.53253    0.000
 6592.00    0.59797   0.53000    0.000
 6593.00    0.57641   0.54622    0.000
 6594.00    0.55524   0.56051    0.000
 6595.00    0.54307   0.56307    0.000
 6596.00    0.53204   0.55928    0.000
 6597.00    0.53561   0.55849    0.000
 6598.00    0.53515   0.56488    0.000
 6599.00    0.50011   0.57289    0.000
 6600.00    0.46543   0.57577    0.000
 6601.00    0.43303   0.57348    0.000
 6602.00    0.40938   0.56806    0.000
 6603.00    0.42930   0.56262    0.000
 6604.00    0.45120   0.56028    0.000
 6605.00    0.48113   0.55887    0.000
 6606.00    0.50580   0.55406    0.000
 6607.00    0.51289   0.54799    0.000
 6608.00    0.51585   0.55139    0.000
 6609.00    0.50715   0.56382    0.007
 6610.00    0.50602   0.57127    0.007
 6611.00    0.52318   0.56881    0.007
 6612.00    0.53863   0.56543    0.007
 6613.00    0.55048   0.56921    0.007
 6614.00    0.56135   0.57385    0.008
 6615.00    0.57044   0.57338    0.008
 6616.00    0.55502   0.57141    0.008
 6617.00    0.50072   0.57216    0.007
 6618.00    0.45050   0.57446    0.007
 6619.00    0.40598   0.57577    0.007
 6620.00    0.38475   0.57460    0.007
 6621.00    0.39204   0.56945    0.007
 6622.00    0.42023   0.56080    0.007
 6623.00    0.47097   0.55493    0.007
 6624.00    0.50205   0.55759    0.007
 6625.00    0.51440   0.56266    0.007
 6626.00    0.51618   0.56433    0.007
 6627.00    0.50907   0.56400    0.007
 6628.00    0.49927   0.56289    0.007
 6629.00    0.48748   0.56056    0.007
 6630.00    0.47452   0.55576    0.007
 6631.00    0.46080   0.54716    0.007
 6632.00    0.47211   0.54082    0.008
 6633.00    0.49764   0.54516    0.008
 6634.00    0.49786   0.55554    0.008
 6635.00    0.48554   0.56307    0.008
 6636.00    0.48491   0.56480    0.008
 6637.00    0.48928   0.56221    0.008
 6638.00    0.46446   0.56030    0.008
 6639.00    0.42895   0.56293    0.008
 6640.00    0.41281   0.56317    0.008
 6641.00    0.40269   0.55367    0.007
 6642.00    0.42193   0.54654    0.007
 6643.00    0.44878   0.55163    0.007
 6644.00    0.48724   0.55907    0.007
 6645.00    0.52816   0.56035    0.007
 6646.00    0.52407   0.55970    0.007
 6647.00    0.51247   0.56105    0.007
 6648.00    0.46066   0.56209    0.007
 6649.00    0.40380   0.56024    0.007
 6650.00    0.39393   0.55775    0.007
 6651.00    0.38815   0.55680    0.007
 6652.00    0.40279   0.55712    0.007
 6653.00    0.41847   0.55801    0.007
 6654.00    0.45159   0.55784    0.007
 6655.00    0.48455   0.55708    0.007
 6656.00    0.48388   0.55749    0.007
 6657.00    0.48183   0.55787    0.007
 6658.00    0.45071   0.55618    0.007
 6659.00    0.42176   0.55320    0.007
 6660.00    0.41898   0.54764    0.007
 6661.00    0.42128   0.53870    0.008
 6662.00    0.46547   0.53605    0.008
 6663.00    0.50500   0.54245    0.007
 6664.00    0.51574   0.54752    0.007
 6665.00    0.52454   0.54785    0.007
 6666.00    0.52387   0.54820    0.007
 6667.00    0.52304   0.55193    0.007
 6668.00    0.52159   0.55732    0.007
 6669.00    0.51910   0.56049    0.007
 6670.00    0.51320   0.56032    0.007
 6671.00    0.50459   0.55950    0.007
 6672.00    0.48849   0.55972    0.007
 6673.00    0.47840   0.56023    0.007
 6674.00    0.48258   0.55640    0.007
 6675.00    0.47821   0.54159    0.007
 6676.00    0.45631   0.52541    0.007
 6677.00    0.44057   0.52679    0.008
 6678.00    0.43588   0.54036    0.008
 6679.00    0.42104   0.54798    0.008
 6680.00    0.39037   0.54964    0.008
 6681.00    0.38561   0.55144    0.008
 6682.00    0.41640   0.55365    0.008
 6683.00    0.43329   0.55458    0.008
 6684.00    0.43342   0.55429    0.007
 6685.00    0.44134   0.55310    0.007
 6686.00    0.45756   0.55165    0.007
 6687.00    0.45536   0.55211    0.007
 6688.00    0.43584   0.55361    0.007
 6689.00    0.44851   0.55432    0.007
 6690.00    0.48782   0.55400    0.007
 6691.00    0.50747   0.55381    0.007
 6692.00    0.51277   0.55275    0.007
 6693.00    0.51149   0.54778    0.007
 6694.00    0.50598   0.53993    0.007
 6695.00    0.50569   0.53650    0.007
 6696.00    0.50833   0.53913    0.000
 6697.00    0.49978   0.54405    0.000
 6698.00    0.48579   0.55002    0.000
 6699.00    0.50978   0.55356    0.000
 6700.00    0.54976   0.55237    0.000
 6701.00    0.55691   0.54749    0.000
 6702.00    0.55224   0.54197    0.000
 6703.00    0.52046   0.54108    0.000
 6704.00    0.48044   0.54504    0.000
 6705.00    0.49225   0.54868    0.000
 6706.00    0.51719   0.54963    0.000
 6707.00    0.54859   0.54902    0.000
 6708.00    0.58132   0.54665    0.000
 6709.00    0.57183   0.54543    0.000
 6710.00    0.55550   0.54538    0.000
 6711.00    0.55531   0.54267    0.000
 6712.00    0.55707   0.53847    0.000
 6713.00    0.59594   0.53411    0.000
 6714.00    0.63788   0.52720    0.000
 6715.00    0.63147   0.51804    0.000
 6716.00    0.62276   0.51590    0.000
 6717.00    0.58391   0.52576    0.000
 6718.00    0.54445   0.53630    0.000
 6719.00    0.49504   0.53847    0.000
 6720.00    0.44843   0.53741    0.000
 6721.00    0.45603   0.54012    0.000
 6722.00    0.46636   0.54380    0.000
 6723.00    0.50792   0.54229    0.000
 6724.00    0.54398   0.53753    0.000
 6725.00    0.53617   0.53664    0.000
 6726.00    0.52365   0.54013    0.000
 6727.00    0.48281   0.54328    0.000
 6728.00    0.45095   0.54513    0.000
 6729.00    0.46168   0.54569    0.000
 6730.00    0.47849   0.54452    0.000
 6731.00    0.51880   0.54201    0.000
 6732.00    0.54561   0.54085    0.000
 6733.00    0.52894   0.54196    0.000
 6734.00    0.50572   0.54382    0.000
 6735.00    0.46466   0.54247    0.000
 6736.00    0.43390   0.53729    0.000
 6737.00    0.42723   0.53298    0.000
 6738.00    0.43034   0.53371    0.000
 6739.00    0.45319   0.53709    0.000
 6740.00    0.47474   0.53615    0.000
 6741.00    0.49401   0.53196    0.000
 6742.00    0.50759   0.53219    0.000
 6743.00    0.51242   0.53548    0.000
 6744.00    0.50611   0.53620    0.000
 6745.00    0.48475   0.53453    0.000
 6746.00    0.49270   0.53215    0.000
 6747.00    0.53555   0.52877    0.000
 6748.00    0.55941   0.52584    0.000
 6749.00    0.56332   0.52745    0.000
 6750.00    0.55872   0.52947    0.000
 6751.00    0.54623   0.52873    0.000
 6752.00    0.58147   0.53097    0.000
 6753.00    0.65566   0.53496    0.009
 6754.00    0.65560   0.53722    0.009
 6755.00    0.60222   0.53954    0.009
 6756.00    0.51339   0.54234    0.009
 6757.00    0.40221   0.54467    0.009
 6758.00    0.42561   0.54577    0.009
 6759.00    0.52319   0.54530    0.009
 6760.00    0.56892   0.54349    0.009
 6761.00    0.58980   0.54300    0.009
 6762.00    0.59967   0.54320    0.010
 6763.00    0.60497   0.54221    0.010
 6764.00    0.58761   0.53759    0.009
 6765.00    0.56223   0.53040    0.009
 6766.00    0.58904   0.52736    0.009
 6767.00    0.63144   0.53112    0.009
 6768.00    0.61019   0.53378    0.009
 6769.00    0.57317   0.53137    0.009
 6770.00    0.55256   0.53092    0.009
 6771.00    0.53523   0.53531    0.009
 6772.00    0.57457   0.54123    0.009
 6773.00    0.62282   0.54531    0.009
 6774.00    0.59459   0.54674    0.008
 6775.00    0.55745   0.54605    0.008
 6776.00    0.52689   0.54553    0.008
 6777.00    0.49686   0.54697    0.008
 6778.00    0.48472   0.54728    0.009
 6779.00    0.47336   0.54398    0.009
 6780.00    0.47490   0.53725    0.009
 6781.00    0.47526   0.52849    0.009
 6782.00    0.41442   0.52170    0.009
 6783.00    0.35916   0.52087    0.009
 6784.00    0.40492   0.52371    0.009
 6785.00    0.44858   0.52822    0.009
 6786.00    0.46926   0.53342    0.009
 6787.00    0.48819   0.53583    0.009
 6788.00    0.49359   0.53523    0.009
 6789.00    0.50295   0.53543    0.009
 6790.00    0.53532   0.53558    0.009
 6791.00    0.56144   0.53229    0.009
 6792.00    0.55870   0.52915    0.009
 6793.00    0.55215   0.52939    0.009
 6794.00    0.53121   0.53033    0.009
 6795.00    0.50007   0.53175    0.009
 6796.00    0.43673   0.53289    0.008
 6797.00    0.41507   0.53368    0.008
 6798.00    0.50504   0.53514    0.008
 6799.00    0.58708   0.53717    0.009
 6800.00    0.65088   0.53850    0.009
 6801.00    0.65870   0.53694    0.009
 6802.00    0.55520   0.53390    0.009
 6803.00    0.47845   0.53363    0.009
 6804.00    0.44804   0.53357    0.009
 6805.00    0.46869   0.53198    0.009
 6806.00    0.56678   0.53291    0.009
 6807.00    0.58202   0.53322    0.009
 6808.00    0.48683   0.53065    0.009
 6809.00    0.45200   0.53068    0.009
 6810.00    0.48801   0.53336    0.009
 6811.00    0.49428   0.53395    0.009
 6812.00    0.46977   0.53050    0.009
 6813.00    0.45960   0.52679    0.009
 6814.00    0.46253   0.52897    0.009
 6815.00    0.45384   0.53487    0.009
 6816.00    0.43581   0.53702    0.009
 6817.00    0.44254   0.53344    0.009
 6818.00    0.46681   0.52915    0.008
 6819.00    0.48487   0.52957    0.008
 6820.00    0.49909   0.53440    0.008
 6821.00    0.49994   0.53826    0.008
 6822.00    0.49353   0.53949    0.009
 6823.00    0.48547   0.53939    0.009
 6824.00    0.47664   0.53858    0.009
 6825.00    0.49931   0.53413    0.009
 6826.00    0.53478   0.52710    0.009
 6827.00    0.53843   0.52541    0.009
 6828.00    0.53103   0.53049    0.009
 6829.00    0.51871   0.53551    0.009
 6830.00    0.50494   0.53571    0.009
 6831.00    0.52880   0.53399    0.009
 6832.00    0.56179   0.53486    0.009
 6833.00    0.52441   0.53753    0.009
 6834.00    0.47328   0.53753    0.009
 6835.00    0.42969   0.53430    0.009
 6836.00    0.38726   0.52965    0.009
 6837.00    0.45629   0.52408    0.009
 6838.00    0.53783   0.51835    0.009
 6839.00    0.56945   0.51211    0.009
 6840.00    0.59733   0.50892    0.009
 6841.00    0.48553   0.51247    0.009
 6842.00    0.36817   0.52086    0.009
 6843.00    0.38418   0.52895    0.009
 6844.00    0.40187   0.53236    0.009
 6845.00    0.45015   0.53234    0.009
 6846.00    0.49595   0.53229    0.009
 6847.00    0.49969   0.53186    0.009
 6848.00    0.50013   0.53073    0.009
 6849.00    0.46597   0.53025    0.009
 6850.00    0.44281   0.53089    0.009
 6851.00    0.50149   0.53105    0.009
 6852.00    0.54479   0.52555    0.009
 6853.00    0.50102   0.51618    0.009
 6854.00    0.46225   0.51345    0.009
 6855.00    0.44608   0.51697    0.009
 6856.00    0.45117   0.51984    0.009
 6857.00    0.53494   0.52220    0.009
 6858.00    0.57868   0.52144    0.009
 6859.00    0.49847   0.51579    0.009
 6860.00    0.44202   0.51354    0.009
 6861.00    0.44810   0.52057    0.009
 6862.00    0.46420   0.52991    0.009
 6863.00    0.50293   0.53288    0.009
 6864.00    0.52373   0.52926    0.009
 6865.00    0.50942   0.52238    0.009
 6866.00    0.52048   0.51569    0.009
 6867.00    0.57482   0.51621    0.009
 6868.00    0.60752   0.52226    0.009
 6869.00    0.60787   0.52399    0.010
 6870.00    0.53708   0.52033    0.010
 6871.00    0.37283   0.51927    0.009
 6872.00    0.32454   0.52148    0.009
 6873.00    0.41041   0.52248    0.009
 6874.00    0.45626   0.52324    0.009
 6875.00    0.46125   0.52620    0.009
 6876.00    0.42900   0.52993    0.009
 6877.00    0.36321   0.53105    0.009
 6878.00    0.37335   0.52909    0.009
 6879.00    0.44372   0.52424    0.009
 6880.00    0.45956   0.51775    0.009
 6881.00    0.43735   0.51521    0.009
 6882.00    0.46285   0.51963    0.009
 6883.00    0.51753   0.52413    0.009
 6884.00    0.53540   0.52359    0.009
 6885.00    0.53359   0.52464    0.009
 6886.00    0.52864   0.52930    0.009
 6887.00    0.52224   0.53192    0.009
 6888.00    0.52723   0.53292    0.009
 6889.00    0.53676   0.53482    0.009
 6890.00    0.53036   0.53455    0.009
 6891.00    0.51854   0.53196    0.009
 6892.00    0.52518   0.53076    0.009
 6893.00    0.53712   0.52928    0.009
 6894.00    0.47210   0.52718    0.009
 6895.00    0.38886   0.52760    0.009
 6896.00    0.38734   0.53067    0.009
 6897.00    0.40139   0.53151    0.009
 6898.00    0.46531   0.52828    0.009
 6899.00    0.53659   0.52689    0.009
 6900.00    0.55946   0.53076    0.009
 6901.00    0.57712   0.53427    0.009
 6902.00    0.55335   0.53308    0.009
 6903.00    0.52665   0.53052    0.009
 6904.00    0.45629   0.53121    0.009
 6905.00    0.38437   0.53524    0.009
 6906.00    0.40935   0.53714    0.009
 6907.00    0.43437   0.53618    0.009
 6908.00    0.44984   0.53472    0.009
 6909.00    0.46304   0.53289    0.009
 6910.00    0.44032   0.53087    0.009
 6911.00    0.41433   0.52656    0.009
 6912.00    0.35562   0.52023    0.009
 6913.00    0.31003   0.51920    0.009
 6914.00    0.35870   0.52216    0.009
 6915.00    0.40315   0.52304    0.009
 6916.00    0.42435   0.52380    0.009
 6917.00    0.44474   0.52625    0.009
 6918.00    0.46151   0.52976    0.009
 6919.00    0.46105   0.53357    0.009
 6920.00    0.39816   0.53474    0.009
 6921.00    0.35925   0.53070    0.009
 6922.00    0.39325   0.52213    0.009
 6923.00    0.44958   0.51539    0.009
 6924.00    0.56365   0.51587    0.009
 6925.00    0.58745   0.52281    0.009
 6926.00    0.41060   0.52923    0.009
 6927.00    0.29921   0.53105    0.009
 6928.00    0.31393   0.53093    0.009
 6929.00    0.32436   0.53011    0.009
 6930.00    0.32757   0.52703    0.009
 6931.00    0.36998   0.52274    0.009
 6932.00    0.47010   0.52309    0.009
 6933.00    0.51069   0.52762    0.009
 6934.00    0.47420   0.52964    0.009
 6935.00    0.46532   0.52881    0.009
 6936.00    0.48795   0.52809    0.009
 6937.00    0.47750   0.52923    0.009
 6938.00    0.43378   0.53201    0.010
 6939.00    0.45134   0.53362    0.010
 6940.00    0.52330   0.53183    0.009
 6941.00    0.48601   0.52723    0.009
 6942.00    0.36332   0.52015    0.009
 6943.00    0.34582   0.51374    0.009
 6944.00    0.40065   0.51609    0.009
 6945.00    0.40362   0.52479    0.009
 6946.00    0.37533   0.53064    0.009
 6947.00    0.39456   0.53252    0.009
 6948.00    0.43878   0.53059    0.009
 6949.00    0.45857   0.52482    0.009
 6950.00    0.46722   0.52125    0.009
 6951.00    0.47994   0.52097    0.009
 6952.00    0.49426   0.52094    0.009
 6953.00    0.45672   0.52237    0.009
 6954.00    0.40184   0.52623    0.009
 6955.00    0.39881   0.52943    0.009
 6956.00    0.41033   0.53010    0.009
 6957.00    0.43667   0.52959    0.009
 6958.00    0.46645   0.52927    0.009
 6959.00    0.48895   0.53019    0.009
 6960.00    0.51010   0.53157    0.009
 6961.00    0.47739   0.53260    0.009
 6962.00    0.43697   0.53274    0.009
 6963.00    0.46541   0.53022    0.009
 6964.00    0.50098   0.52738    0.009
 6965.00    0.42456   0.52949    0.009
 6966.00    0.34068   0.53473    0.009
 6967.00    0.36534   0.53648    0.009
 6968.00    0.39351   0.53392    0.009
 6969.00    0.47020   0.52994    0.009
 6970.00    0.54115   0.52981    0.009
 6971.00    0.43604   0.53332    0.009
 6972.00    0.34006   0.53324    0.009
 6973.00    0.38004   0.52777    0.009
 6974.00    0.41339   0.52082    0.009
 6975.00    0.38303   0.51172    0.009
 6976.00    0.36070   0.49853    0.009
 6977.00    0.39421   0.49270    0.009
 6978.00    0.41999   0.50297    0.009
 6979.00    0.40433   0.51833    0.009
 6980.00    0.38191   0.52823    0.009
 6981.00    0.33037   0.53324    0.009
 6982.00    0.32320   0.53519    0.009
 6983.00    0.47349   0.53512    0.009
 6984.00    0.58573   0.53446    0.009
 6985.00    0.58445   0.53327    0.010
 6986.00    0.55584   0.52966    0.010
 6987.00    0.45783   0.52453    0.010
 6988.00    0.40239   0.52350    0.009
 6989.00    0.44005   0.52744    0.009
 6990.00    0.45192   0.53234    0.009
 6991.00    0.41488   0.53362    0.009
 6992.00    0.37963   0.53066    0.009
 6993.00    0.34733   0.52899    0.009
 6994.00    0.34912   0.53076    0.009
 6995.00    0.40041   0.53261    0.009
 6996.00    0.42267   0.53001    0.009
 6997.00    0.40788   0.52204    0.009
 6998.00    0.40481   0.51572    0.009
 6999.00    0.41492   0.51832    0.009
 7000.00    0.40196   0.52538    0.009
 7001.00    0.36609   0.52677    0.009
 7002.00    0.32558   0.52093    0.009
 7003.00    0.28099   0.51591    0.009
 7004.00    0.35957   0.51559    0.009
 7005.00    0.53309   0.51833    0.009
 7006.00    0.58010   0.52256    0.010
 7007.00    0.54140   0.52698    0.010
 7008.00    0.53042   0.52809    0.010
 7009.00    0.53589   0.52523    0.010
 7010.00    0.52233   0.52378    0.010
 7011.00    0.49891   0.52618    0.010
 7012.00    0.38916   0.52624    0.009
 7013.00    0.24064   0.51668    0.009
 7014.00    0.23390   0.50166    0.009
 7015.00    0.28188   0.49866    0.009
 7016.00    0.31675   0.51233    0.009
 7017.00    0.34732   0.52654    0.009
 7018.00    0.33860   0.53301    0.009
 7019.00    0.31908   0.53377    0.009
 7020.00    0.36773   0.52887    0.009
 7021.00    0.43179   0.51845    0.009
 7022.00    0.41188   0.51042    0.009
 7023.00    0.37680   0.51165    0.009
 7024.00    0.39608   0.51852    0.009
 7025.00    0.42289   0.52281    0.009
 7026.00    0.39532   0.52411    0.009
 7027.00    0.36236   0.52559    0.009
 7028.00    0.33712   0.52784    0.010
 7029.00    0.31235   0.52907    0.010
 7030.00    0.33365   0.52801    0.010
 7031.00    0.35628   0.52622    0.010
 7032.00    0.38636   0.52508    0.010
 7033.00    0.41760   0.52541    0.010
 7034.00    0.48103   0.52808    0.010
 7035.00    0.53218   0.52516    0.010
 7036.00    0.41082   0.51382    0.010
 7037.00    0.30715   0.51116    0.010
 7038.00    0.36668   0.52424    0.009
 7039.00    0.41272   0.53855    0.009
 7040.00    0.36784   0.54531    0.009
 7041.00    0.33511   0.54593    0.009
 7042.00    0.36582   0.54098    0.009
 7043.00    0.40022   0.53455    0.009
 7044.00    0.45015   0.53418    0.010
 7045.00    0.47563   0.53951    0.010
 7046.00    0.41610   0.54506    0.010
 7047.00    0.37283   0.54701    0.010
 7048.00    0.37714   0.54502    0.010
 7049.00    0.39504   0.53949    0.010
 7050.00    0.44684   0.52813   -2.000
 7051.00    0.45592   0.51410   -2.000
 7052.00    0.37313   0.50521   -2.000
 7053.00    0.35174   0.50308   -2.000
 7054.00    0.44504   0.50690   -2.000
 7055.00    0.49167   0.51279   -2.000
 7056.00    0.46221   0.51431   -2.000
 7057.00    0.43937   0.50837   -2.000
 7058.00    0.42599   0.49989   -2.000
 7059.00    0.43374   0.49783   -2.000
 7060.00    0.46806   0.50154   -2.000
 7061.00    0.52370   0.50548   -2.000
 7062.00    0.60298   0.50969   -2.000
 7063.00    0.54686   0.51164   -2.000
 7064.00    0.35831   0.50748   -2.000
 7065.00    0.30728   0.49949   -2.000
 7066.00    0.37488   0.49207   -2.000
 7067.00    0.40152   0.49165   -2.000
 7068.00    0.39704   0.50052   -2.000
 7069.00    0.22034   0.50955   -2.000
 7070.00   -0.07135   0.51268   -2.000
 7071.00    0.07805   0.51331   -2.000
 7072.00    0.48540   0.51384   -2.000
 7073.00    0.64573   0.51307   -2.000
 7074.00    0.68012   0.51146   -2.000
 7075.00    0.55364   0.51130   -2.000
 7076.00    0.35613   0.51272   -2.000
 7077.00    0.33709   0.51372   -2.000
 7078.00    0.38573   0.51480   -2.000
 7079.00    0.37496   0.51605   -2.000
 7080.00    0.34506   0.51321   -2.000
 7081.00    0.42366   0.50314   -2.000
 7082.00    0.53149   0.48938   -2.000
 7083.00    0.52251   0.48207   -2.000
 7084.00    0.48774   0.48462   -2.000
 7085.00    0.40370   0.48629   -2.000
 7086.00    0.31100   0.48318   -2.000
 7087.00    0.40542   0.47971   -2.000
 7088.00    0.52491   0.47694   -2.000
 7089.00    0.50197   0.47640   -2.000
 7090.00    0.46549   0.47880   -2.000
 7091.00    0.51365   0.47909   -2.000
 7092.00    0.56677   0.47909   -2.000
 7093.00    0.62131   0.47915   -2.000
 7094.00    0.67412   0.47901   -2.000
 7095.00    0.48697   0.47945   -2.000
 7096.00    0.30903   0.48187   -2.000
 7097.00    0.35997   0.48969   -2.000
 7098.00    0.40939   0.49381   -2.000
 7099.00    0.43872   0.49280   -2.000
 7100.00    0.46082   0.48926   -2.000
 7101.00    0.41901   0.48769   -2.000
 7102.00    0.38539   0.49074   -2.000
 7103.00    0.40530   0.49527   -2.000
 7104.00    0.41928   0.49530   -2.000
 7105.00    0.40304   0.49169   -2.000
 7106.00    0.38323   0.49043   -2.000
 7107.00    0.34871   0.49137   -2.000
 7108.00    0.33676   0.48876   -2.000
 7109.00    0.40172   0.48275   -2.000
 7110.00    0.45700   0.48080   -2.000
 7111.00    0.48444   0.48511   -2.000
 7112.00    0.47786   0.48969   -2.000
 7113.00    0.38780   0.49147   -2.000
 7114.00    0.33399   0.49315   -2.000
 7115.00    0.35691   0.49459   -2.000
 7116.00    0.39128   0.49418   -2.000
 7117.00    0.44667   0.49329   -2.000
 7118.00    0.49919   0.49250   -2.000
 7119.00    0.54707   0.49032   -2.000
 7120.00    0.61677   0.48660   -2.000
 7121.00    0.71724   0.48786   -2.000
 7122.00    0.73286   0.49201   -2.000
 7123.00    0.64322   0.48922   -2.000
 7124.00    0.56980   0.48225   -2.000
 7125.00    0.51411   0.47927   -2.000
 7126.00    0.54010   0.48093   -2.000
 7127.00    0.64485   0.48023   -2.000
 7128.00   -0.54640   0.47294   -2.000
 7129.00   -2.83975   0.46671   -2.000
 7130.00   -2.51761   0.46997   -2.000
 7131.00   -0.23677   0.47759   -2.000
 7132.00    0.77900   0.48385   -2.000
 7133.00    0.96239   0.48721   -2.000
 7134.00    0.74376   0.48799   -2.000
 7135.00    0.29357   0.48988   -2.000
 7136.00    0.23151   0.48900   -2.000
 7137.00    0.36420   0.48455   -2.000
 7138.00    0.52439   0.48338   -2.000
 7139.00    0.69653   0.48750   -2.000
 7140.00    0.66974   0.48942   -2.000
 7141.00    0.56885   0.48851   -2.000
 7142.00    0.46451   0.48805   -2.000
 7143.00    0.35909   0.48750   -2.000
 7144.00    0.36697   0.48668   -2.000
 7145.00    0.40473   0.48036   -2.000
 7146.00    0.46784   0.46908   -2.000
 7147.00    0.53641   0.46782   -2.000
 7148.00    0.48514   0.47685   -2.000
 7149.00    0.41338   0.48420   -2.000
 7150.00    0.48061   0.48976   -2.000
 7151.00    0.56584   0.49500   -2.000
 7152.00    0.56112   0.49527   -2.000
 7153.00    0.54824   0.49150   -2.000
 7154.00    0.58837   0.49175   -2.000
 7155.00    0.63140   0.49753   -2.000
 7156.00    0.64461   0.49877   -2.000
 7157.00    0.65693   0.49363   -2.000
 7158.00    0.64554   0.48879   -2.000
 7159.00    0.63386   0.48927   -2.000
 7160.00    0.61579   0.49248   -2.000
 7161.00    0.60197   0.48844   -2.000
 7162.00    0.64175   0.47486   -2.000
 7163.00    0.65873   0.46456   -2.000
 7164.00    0.48123   0.46965   -2.000
 7165.00    0.30903   0.48327   -2.000
 7166.00    0.17046   0.49211   -2.000
 7167.00    0.08964   0.49270   -2.000
 7168.00    0.29551   0.49079   -2.000
 7169.00    0.44524   0.49196   -2.000
 7170.00    0.36902   0.49585   -2.000
 7171.00    0.36041   0.49839   -2.000
 7172.00    0.57768   0.49751   -2.000
 7173.00    0.69250   0.49251   -2.000
 7174.00    0.51834   0.48606   -2.000
 7175.00    0.39785   0.48610   -2.000
 7176.00    0.40682   0.49202   -2.000
 7177.00    0.39135   0.49192   -2.000
 7178.00    0.32502   0.48227   -2.000
 7179.00    0.34129   0.47283   -2.000
 7180.00    0.50714   0.47441   -2.000
 7181.00    0.58831   0.48618   -2.000
 7182.00    0.53544   0.49477   -2.000
 7183.00    0.46320   0.49452   -2.000
 7184.00    0.36404   0.48768   -2.000
 7185.00    0.38564   0.47529   -2.000
 7186.00    0.55490   0.46772   -2.000
 7187.00    0.60133   0.46947   -2.000
 7188.00    0.51537   0.47589   -2.000
 7189.00    0.47915   0.48324   -2.000
 7190.00    0.49021   0.48447   -2.000
 7191.00    0.49962   0.48133   -2.000
 7192.00    0.50765   0.48125   -2.000
 7193.00    0.46049   0.48613   -2.000
 7194.00    0.37258   0.48696   -2.000
 7195.00    0.41086   0.48178   -2.000
 7196.00    0.53095   0.48161   -2.000
 7197.00    0.59107   0.48685   -2.000
 7198.00    0.61715   0.48891   -2.000
 7199.00    0.53329   0.48466   -2.000
 7200.00    0.39513   0.47935   -2.000
 7201.00    0.50981   0.48187   -2.000
 7202.00    0.73246   0.49066   -2.000
 7203.00    0.65621   0.49422   -2.000
 7204.00    0.47060   0.48450   -2.000
 7205.00    0.38994   0.46778   -2.000
 7206.00    0.34180   0.46182   -2.000
 7207.00    0.30228   0.46860   -2.000
 7208.00    0.26498   0.47975   -2.000
 7209.00    0.37352   0.49039   -2.000
 7210.00    0.51274   0.49266   -2.000
 7211.00    0.42749   0.48818   -2.000
 7212.00    0.30496   0.48380   -2.000
 7213.00    0.30646   0.48194   -2.000
 7214.00    0.32346   0.48320   -2.000
 7215.00    0.40902   0.48839   -2.000
 7216.00    0.50053   0.49380   -2.000
 7217.00    0.51635   0.49356   -2.000
 7218.00    0.52832   0.49053   -2.000
