###################################################################
## OUTPUT of StarlightChains_v04.for    [Cid@UFSC - 01/Apr/2007] ##
###################################################################

## Some input info
KUG0210-078._30_20.txt                   [arq_obs]
Base.CB07.vall.4m                        [arq_base]
Masks.EmLines.NEW.gm                     [arq_masks]
StCv04.C11.config                        [arq_config]
   66                                    [N_base]
    0                                    [N_YAV_components = # of components with extra extinction!]
    0                                    [i_FitPowerLaw (1/0 = Yes/No)]
-9.99                                    [alpha_PowerLaw]
CCM                                      [red_law_option]
 1.458241                                [q_norm = A(l_norm)/A(V)]

## (Re)Sampling Parameters
 3741.00                                 [l_ini (A)]
 7218.00                                 [l_fin (A)]
    1.00                                 [dl    (A)]     (OBS: dl_cushion =    50.00 A)

## Normalization info
 4020.00                                 [l_norm (A) - for base]
 4010.00                                 [llow_norm (A) - window for f_obs]
 4060.00                                 [lupp_norm (A) - window for f_obs]
6.880432E-18                             [fobs_norm (in input units)]

## S/N
 3691.00                                 [llow_SN (A) - window for S/N]
 7268.00                                 [lupp_SN (A) - window for S/N]
   2.353                                 [S/N in S/N window]
   3.093                                 [S/N in norm. window]
   0.006                                 [S/N_err in S/N window]
   0.008                                 [S/N_err in norm. window]
  1.0000                                 [fscale_chi2]

## etc...
    -2007421                             [idum_orig]
  2403                                   [NOl_eff]
  2403                                   [Nl_eff]
     0    NSIGMA                         [Ntot_cliped & clip_method]
   236880                                [Nglobal_steps]
   7                                     [N_chains]
   8                                     [NEX0s_base = N_base in EX0s-fits]
 0   0   1      174   2.0   1.716E-02    [Clip-Bug, RC-Crash & Burn-In warning-flags, n_censored_weights, wei_nsig_threshold & wei_limit]
     7      7.221      6.842      0.379  [idt_all, wdt_TotTime, wdt_UsrTime & wdt_SysTime (sec)]

## Synthesis Results - Best model ##

 1.51113E-05                             [chi2/Nl_eff]
    52.52301                             [adev (%)]

   110.24534                             [sum-of-x (%)]
 1.17476E-17                             [Flux_tot (units of input spectrum!)]
 8.12353E-14                             [Mini_tot (???)]
 4.11759E-14                             [Mcor_tot (???)]

 407.76                                  [v0_min  (km/s)]
   2.53                                  [vd_min  (km/s)]
 0.3257                                  [AV_min  (mag)]
 0.0000                                  [YAV_min (mag)]

# j     x_j(%)      Mini_j(%)     Mcor_j(%)     age_j(yr)     Z_j      (L/M)_j    YAV?  Mstars   component_j        a/Fe...       SSP_chi2r SSP_adev(%)   SSP_AV   SSP_x(%)
  1      0.0000     0.0000E+00    0.0000E+00    1.000000E+06  0.00400  1.094E-02    0   1.0000   age020_m42            0.0000     1.5764E-05    54.7806   1.8818   102.7503
  2      0.0000     0.0000E+00    0.0000E+00    3.160000E+06  0.00400  4.007E-02    0   0.9999   age045_m42            0.0000     1.6100E-05    54.8436   1.1171   110.4015
  3      0.0000     0.0000E+00    0.0000E+00    5.010000E+06  0.00400  2.539E-02    0   0.9488   age055_m42            0.0000     1.5847E-05    54.9460   1.4626   107.2319
  4      0.0000     0.0000E+00    0.0000E+00    6.610000E+06  0.00400  2.620E-02    0   0.9220   age061_m42            0.0000     1.6126E-05    54.6727   1.0606   110.1919
  5      0.0000     0.0000E+00    0.0000E+00    1.000000E+07  0.00400  1.322E-02    0   0.8862   age070_m42            0.0000     1.5820E-05    53.6542   0.8536   110.4762
  6      0.0000     0.0000E+00    0.0000E+00    1.445000E+07  0.00400  7.883E-03    0   0.8571   age078_m42            0.0000     1.5688E-05    53.9187   1.1766   107.8713
  7      0.0000     0.0000E+00    0.0000E+00    2.512000E+07  0.00400  5.251E-03    0   0.8174   age090_m42            0.0000     1.5810E-05    53.5026   0.7345   110.7993
  8      0.0000     0.0000E+00    0.0000E+00    4.000000E+07  0.00400  3.649E-03    0   0.7851   age104_m42            0.0000     1.5927E-05    53.5095   0.4892   112.1671
  9      0.0000     0.0000E+00    0.0000E+00    5.500000E+07  0.00400  3.098E-03    0   0.7629   age110_m42            0.0000     1.6282E-05    53.8039   0.6061   113.0520
 10      0.0000     0.0000E+00    0.0000E+00    1.015200E+08  0.00400  2.228E-03    0   0.7207   age116_m42            0.0000     1.6610E-05    53.9503   0.6049   113.7445
 11      0.0000     0.0000E+00    0.0000E+00    2.861200E+08  0.00400  1.093E-03    0   0.6648   age125_m42            0.0000     1.6776E-05    53.8233  -0.0001   117.2653
 12      0.0000     0.0000E+00    0.0000E+00    5.088000E+08  0.00400  6.597E-04    0   0.6365   age130_m42            0.0000     1.7291E-05    53.7324  -0.0013   118.6322
 13      0.0000     0.0000E+00    0.0000E+00    1.434000E+09  0.00400  2.132E-04    0   0.5798   age139_m42            0.0000     1.7406E-05    53.3385  -1.0000   122.1980
 14      0.0000     0.0000E+00    0.0000E+00    4.250000E+09  0.00400  5.895E-05    0   0.5377   age158_m42            0.0000     1.7933E-05    52.4539  -1.0000   110.8014
 15      0.0000     0.0000E+00    0.0000E+00    7.500000E+09  0.00400  3.510E-05    0   0.5212   age171_m42            0.0000     1.8906E-05    53.4034  -1.0000   106.2675
 16     15.1560     9.9155E+01    9.8476E+01    1.300000E+10  0.00400  2.005E-05    0   0.5034   age193_m42            0.0000     1.9965E-05    54.5245  -1.0000   101.9956
 17      0.0000     0.0000E+00    0.0000E+00    1.800000E+10  0.00400  1.525E-05    0   0.4967   age213_m42            0.0000     1.9949E-05    54.8900  -1.0000   101.0528
 18      0.0000     0.0000E+00    0.0000E+00    1.000000E+06  0.00800  1.238E-02    0   1.0000   age020_m52            0.0000     1.5754E-05    54.8048   1.8787   102.9471
 19      0.0000     0.0000E+00    0.0000E+00    3.160000E+06  0.00800  3.074E-02    0   0.9966   age045_m52            0.0000     1.5691E-05    54.9133   1.7946   103.9961
 20      0.0000     0.0000E+00    0.0000E+00    5.010000E+06  0.00800  2.668E-02    0   0.9443   age055_m52            0.0000     1.5745E-05    54.8218   1.5535   106.1125
 21      0.0000     0.0000E+00    0.0000E+00    6.610000E+06  0.00800  2.136E-02    0   0.9177   age061_m52            0.0000     1.5583E-05    53.6671   0.3348   112.5154
 22      0.0000     0.0000E+00    0.0000E+00    1.000000E+07  0.00800  1.215E-02    0   0.8827   age070_m52            0.0000     1.5627E-05    53.4446   1.0546   109.6572
 23      0.0000     0.0000E+00    0.0000E+00    1.445000E+07  0.00800  8.717E-03    0   0.8552   age078_m52            0.0000     1.5693E-05    53.7954   1.1464   109.2822
 24      0.0000     0.0000E+00    0.0000E+00    2.512000E+07  0.00800  5.592E-03    0   0.8162   age090_m52            0.0000     1.5817E-05    53.4180   0.7994   112.0289
 25      0.0000     0.0000E+00    0.0000E+00    4.000000E+07  0.00800  3.896E-03    0   0.7841   age104_m52            0.0000     1.6019E-05    53.5811   0.6896   113.4189
 26      0.0000     0.0000E+00    0.0000E+00    1.015200E+08  0.00800  2.148E-03    0   0.7226   age116_m52            0.0000     1.6386E-05    53.9661   0.5869   114.2367
 27      0.0000     0.0000E+00    0.0000E+00    2.861200E+08  0.00800  9.925E-04    0   0.6683   age125_m52            0.0000     1.7309E-05    54.0577  -0.0001   120.5772
 28      0.0000     0.0000E+00    0.0000E+00    9.047900E+08  0.00800  3.141E-04    0   0.6138   age135_m52            0.0000     1.8027E-05    54.2377  -0.8328   127.3960
 29      0.0000     0.0000E+00    0.0000E+00    1.434000E+09  0.00800  1.719E-04    0   0.5853   age139_m52            0.0000     1.7970E-05    51.7387  -1.0000   117.8285
 30      0.0000     0.0000E+00    0.0000E+00    2.500000E+09  0.00800  7.872E-05    0   0.5600   age150_m52            0.0000     1.9245E-05    53.1999  -1.0000   109.6424
 31      0.0000     0.0000E+00    0.0000E+00    4.250000E+09  0.00800  4.336E-05    0   0.5426   age158_m52            0.0000     1.9329E-05    53.5477  -1.0000   108.3474
 32      0.0000     0.0000E+00    0.0000E+00    6.250000E+09  0.00800  3.159E-05    0   0.5319   age166_m52            0.0000     2.0922E-05    54.9693  -1.0000   103.5876
 33      0.0000     0.0000E+00    0.0000E+00    1.300000E+10  0.00800  1.361E-05    0   0.5073   age193_m52            0.0000     2.5002E-05    58.7667  -1.0000    90.3500
 34      0.0000     0.0000E+00    0.0000E+00    1.800000E+10  0.00800  9.886E-06    0   0.4990   age213_m52            0.0000     2.6685E-05    59.0915  -1.0000    86.6668
 35     23.4993     1.9964E-01    3.9387E-01    1.000000E+06  0.02000  1.544E-02    0   1.0000   age020_m62            0.0000     1.5729E-05    54.7750   1.8773   103.1473
 36      0.0000     0.0000E+00    0.0000E+00    3.160000E+06  0.02000  3.762E-02    0   0.9858   age045_m62            0.0000     1.5651E-05    54.7772   1.8138   104.1243
 37      0.0000     0.0000E+00    0.0000E+00    5.010000E+06  0.02000  3.296E-02    0   0.9342   age055_m62            0.0000     1.5950E-05    54.8140   1.4109   108.8090
 38      0.0000     0.0000E+00    0.0000E+00    8.710000E+06  0.02000  1.154E-02    0   0.8861   age067_m62            0.0000     1.5179E-05    52.1317   0.6408   109.0703
 39      0.0000     0.0000E+00    0.0000E+00    1.445000E+07  0.02000  7.663E-03    0   0.8472   age078_m62            0.0000     1.5442E-05    53.0031   0.7354   111.2176
 40      0.0000     0.0000E+00    0.0000E+00    2.512000E+07  0.02000  4.532E-03    0   0.8099   age090_m62            0.0000     1.5509E-05    53.0092   0.7376   110.5520
 41      0.0000     0.0000E+00    0.0000E+00    5.500000E+07  0.02000  2.733E-03    0   0.7595   age110_m62            0.0000     1.5960E-05    53.5561   0.6778   112.4895
 42      0.0000     0.0000E+00    0.0000E+00    1.609000E+08  0.02000  1.369E-03    0   0.6985   age120_m62            0.0000     1.6869E-05    53.4643   0.4691   116.6572
 43      0.0000     0.0000E+00    0.0000E+00    2.861200E+08  0.02000  9.013E-04    0   0.6714   age125_m62            0.0000     1.7645E-05    53.3074   0.1803   120.8646
 44      0.0000     0.0000E+00    0.0000E+00    5.088000E+08  0.02000  5.028E-04    0   0.6449   age130_m62            0.0000     1.8351E-05    54.0417  -0.2847   126.5440
 45      0.0000     0.0000E+00    0.0000E+00    9.047900E+08  0.02000  2.428E-04    0   0.6179   age135_m62            0.0000     1.8027E-05    55.1968  -0.9381   127.9806
 46      0.0000     0.0000E+00    0.0000E+00    1.434000E+09  0.02000  1.263E-04    0   0.5908   age139_m62            0.0000     1.8283E-05    52.6451  -1.0000   119.7706
 47      0.0000     0.0000E+00    0.0000E+00    2.500000E+09  0.02000  5.985E-05    0   0.5673   age150_m62            0.0000     1.9926E-05    53.4749  -1.0000   110.6535
 48      0.0000     0.0000E+00    0.0000E+00    4.250000E+09  0.02000  3.271E-05    0   0.5468   age158_m62            0.0000     2.2524E-05    55.3685  -1.0000   102.0784
 49      0.0000     0.0000E+00    0.0000E+00    1.000000E+10  0.02000  1.360E-05    0   0.5167   age181_m62            0.0000     2.6453E-05    57.4795  -1.0000    91.6760
 50      0.0000     0.0000E+00    0.0000E+00    1.800000E+10  0.02000  7.124E-06    0   0.5013   age213_m62            0.0000     2.9294E-05    58.2392  -1.0000    84.5591
 51      0.0000     0.0000E+00    0.0000E+00    1.000000E+06  0.05000  2.592E-02    0   0.9998   age020_m72            0.0000     1.5675E-05    54.7797   1.8750   103.0508
 52      0.0000     0.0000E+00    0.0000E+00    3.160000E+06  0.05000  4.845E-02    0   0.9577   age045_m72            0.0000     1.5727E-05    54.9581   1.6831   105.7603
 53      0.0000     0.0000E+00    0.0000E+00    5.010000E+06  0.05000  3.072E-02    0   0.9147   age055_m72            0.0000     1.5480E-05    53.6874   1.2830   108.0322
 54     71.5901     6.4541E-01    1.1303E+00    6.610000E+06  0.05000  1.455E-02    0   0.8877   age061_m72            0.0000     1.5181E-05    52.6732   0.7125   108.6171
 55      0.0000     0.0000E+00    0.0000E+00    1.000000E+07  0.05000  9.074E-03    0   0.8524   age070_m72            0.0000     1.5538E-05    53.9757   1.4544   107.6927
 56      0.0000     0.0000E+00    0.0000E+00    2.512000E+07  0.05000  4.250E-03    0   0.7902   age090_m72            0.0000     1.5756E-05    53.8203   1.1529   109.7312
 57      0.0000     0.0000E+00    0.0000E+00    4.000000E+07  0.05000  3.087E-03    0   0.7618   age104_m72            0.0000     1.5892E-05    53.5473   0.9336   111.2374
 58      0.0000     0.0000E+00    0.0000E+00    1.015200E+08  0.05000  1.700E-03    0   0.7096   age116_m72            0.0000     1.6652E-05    53.3425   0.6343   115.4718
 59      0.0000     0.0000E+00    0.0000E+00    2.861200E+08  0.05000  7.384E-04    0   0.6633   age125_m72            0.0000     1.8104E-05    53.4874  -0.0005   123.8187
 60      0.0000     0.0000E+00    0.0000E+00    5.088000E+08  0.05000  3.819E-04    0   0.6372   age130_m72            0.0000     1.8225E-05    54.6295  -0.5824   128.6469
 61      0.0000     0.0000E+00    0.0000E+00    9.047900E+08  0.05000  1.676E-04    0   0.6110   age135_m72            0.0000     1.8652E-05    53.1017  -1.0000   122.8517
 62      0.0000     0.0000E+00    0.0000E+00    1.434000E+09  0.05000  8.837E-05    0   0.5874   age139_m72            0.0000     2.0284E-05    53.4087  -1.0000   112.2541
 63      0.0000     0.0000E+00    0.0000E+00    2.500000E+09  0.05000  4.233E-05    0   0.5598   age150_m72            0.0000     2.2944E-05    55.4471  -1.0000   102.9310
 64      0.0000     0.0000E+00    0.0000E+00    6.250000E+09  0.05000  1.435E-05    0   0.5249   age166_m72            0.0000     2.7476E-05    58.1983  -1.0000    88.5366
 65      0.0000     0.0000E+00    0.0000E+00    1.300000E+10  0.05000  6.513E-06    0   0.5036   age193_m72            0.0000     3.1271E-05    59.0328  -1.0000    80.5910
 66      0.0000     0.0000E+00    0.0000E+00    1.800000E+10  0.05000  4.527E-06    0   0.4945   age213_m72            0.0000     3.3546E-05    59.1447  -1.0000    75.3708


## Synthesis Results - Average & Chains ##

# j      x_j: min, <> & last-chain-values for 1 ...  7 chains
  1      0.0000      1.2554      0.0000      0.0000      0.0000      0.5174      0.0000     39.5402     29.0022
  2      0.0000      1.6036      0.0000      0.1964      0.0000      0.0000      1.5466      0.0000      2.4031
  3      0.0000      1.0513      0.1656      0.3864      0.0012      0.0553      0.0000      0.0000      0.0000
  4      0.0000      1.6031      0.0158      0.0000     16.9606      0.0000      0.0000      0.0000      3.8631
  5      0.0000      1.3357      0.2566      0.0490      0.0000      8.1301      0.0000      0.0000      0.0006
  6      0.0000      1.0894      0.0001      0.0000      0.0000      2.7225     11.2565      0.0000      0.0000
  7      0.0000      1.3836      0.9958      3.7646      0.0000      5.8192      0.6532      0.0000      0.0000
  8      0.0000      1.1004      1.5563      0.4656      0.0000      3.6561      0.4082      0.0029      0.0000
  9      0.0000      1.9410      2.6082      0.0000      0.0000      0.0000      0.0000      1.2921      0.0000
 10      0.0000      1.4263      0.0000      0.0000      0.0000      0.0000      0.0000      4.1852      0.1741
 11      0.0000      1.2692      6.3578      0.0000      0.0000      0.0218      0.0000      0.0000      0.0683
 12      0.0000      1.4256      0.0000      0.0000      0.0000      0.0167      0.0000      0.0000      0.0000
 13      0.0000      1.1321      0.1239      0.0000      0.0000      0.0942      0.0000      0.8293      4.7182
 14      0.0000      1.2886      0.0000      0.0000      0.0000      0.0243      0.0000      0.0000      0.0000
 15      0.0000      1.0560      0.0000      6.9374      0.0000      0.2343      0.0000      0.0000      0.0753
 16     15.1560      1.4326      0.0000      0.0000      7.0994      0.0311      0.0000      0.0000      0.0238
 17      0.0000      1.7086      0.0000      0.0000      0.0000      2.2429      0.0000      0.0000      0.0000
 18      0.0000      1.3397      0.0000     20.4612      0.0061      4.1736      0.0000      0.0000      0.7548
 19      0.0000      1.8812      0.0000      6.1268      0.0000      3.3443      0.0000      1.1426      0.0309
 20      0.0000      1.7127      2.7505      0.0000      0.0000     21.0054      0.0000      0.0000      1.1147
 21      0.0000      1.4756      0.0000      3.6417      0.0000      0.0000      0.0000      0.0000      0.0000
 22      0.0000      1.2040      0.0000      0.3867      0.0000      0.0019      0.0000      2.0067      0.8332
 23      0.0000      1.4805      0.0000      6.0418      0.0013      0.1862      6.9134      0.0000      1.7764
 24      0.0000      1.4983      0.0274      0.0000      0.0000      0.0000     11.2919      0.0171      9.8815
 25      0.0000      1.3907      0.0815      0.0000      0.0000      0.0050      0.0000      0.0000      0.0000
 26      0.0000      1.2929      0.0000      0.0000      1.4730      0.0004      0.0000      0.0000      0.1596
 27      0.0000      1.6293      0.6697      0.0000      0.0000      0.0002      0.0000      0.0000      1.1961
 28      0.0000      1.2281      0.1446      0.0000      0.0000      0.2162      0.0000      0.4426      0.0000
 29      0.0000      1.5610      0.1355      4.2852      0.0000      0.0000      0.0000      0.9387      0.0000
 30      0.0000      1.4047      0.0000      0.0225      0.0000      0.0000      0.0000      1.8129      0.0251
 31      0.0000      1.4790      2.0500      0.0782      0.0000      0.0000      0.0000      0.1134      0.0014
 32      0.0000      1.8562      0.0000      0.0000      0.0000      0.1334      0.0000      0.0000      0.0000
 33      0.0000      2.1437      0.4325      5.6639      0.0000      0.0000     12.6913      0.0000      0.0000
 34      0.0000      1.7616      0.2038      0.6583      0.0000      0.3528      0.0000      0.0000      0.4069
 35     23.4993      1.8846     40.1197      0.3055     19.8777      4.7121      0.0000      0.1162      0.0000
 36      0.0000      1.6134      0.0000      0.7812      0.0000      8.7417      0.0000      0.0000      6.0091
 37      0.0000      1.4467      0.0000     28.0650      0.0000      0.5268      0.0000      0.5019      0.3941
 38      0.0000      1.7382     23.4339      4.7396     19.2493     21.5771     42.2062      0.8629      1.6438
 39      0.0000      1.6921      0.0000      1.9303      1.5060      0.0000      0.0000      0.0000      0.0000
 40      0.0000      1.7397      0.0000      2.4141      0.0000      0.0198      0.0000     20.4302      0.0787
 41      0.0000      1.6727     11.6978      0.0016      0.0000      0.0124      0.0000      3.7565      0.0000
 42      0.0000      1.1424      0.0000      0.0000      0.0000      3.2241      0.0000      4.1699      0.0000
 43      0.0000      1.0688      1.0602      0.0249      0.0000      1.8408      1.4782      0.0000      0.0000
 44      0.0000      1.7179      0.5093      0.7996      0.0000      0.0282      0.0000      0.0000      1.5952
 45      0.0000      2.0404      0.0000      0.2292      0.0000      0.0027      0.0000      0.0000      0.0000
 46      0.0000      1.5629      0.1347      0.0000      0.0000      0.0000      0.0000      0.0000      2.2746
 47      0.0000      1.7923      0.0000      0.0000      0.0000      0.0000      0.0000      0.0000      0.0000
 48      0.0000      1.4492      0.0444      0.0000      0.0000      0.0179      0.0000      0.0000      0.0000
 49      0.0000      1.1377      3.3986      0.0466      0.0000      3.7243      0.0000      0.2289      1.4556
 50      0.0000      1.6410      2.1368      0.0497      0.0000      0.0070      0.0000      0.0000      0.4976
 51      0.0000      1.2147      0.0177      0.0000      0.0000      0.1523      0.0000      0.0814      0.0000
 52      0.0000      1.3871      2.8546      1.2490     15.5599      4.6053      0.0000      3.4647      0.9218
 53      0.0000      1.9975      0.0000      0.1403      0.0000      0.2206      0.0000      0.1306     27.6893
 54     71.5901      1.9786      0.0000      2.9181     22.7711      0.0512      0.0000      0.0000      3.9418
 55      0.0000      1.0206      0.0000      0.1822      1.4993      0.1552     19.7796      0.0000      0.0000
 56      0.0000      1.0417      0.0000      0.7976      0.0000      0.0002      0.0000     11.4129      0.0000
 57      0.0000      1.1300      0.0000      1.4234      0.0000      4.8269      0.0000      0.0000      0.0000
 58      0.0000      1.2111      0.4369      0.0133      0.0000      0.0000      0.0000      0.0000      0.0000
 59      0.0000      1.6639      0.3007      0.9384      0.0000      0.1789      0.0000      0.7414      0.0052
 60      0.0000      1.2792      0.0936      0.0000      0.0000      0.5372      0.0000      0.0000      0.1047
 61      0.0000      1.4814      0.0000      0.0000      0.0000      0.0000      0.0000      8.1414      1.6119
 62      0.0000      1.3551      0.0000      0.0000      0.0000      0.7666      0.2957      0.2307      2.3846
 63      0.0000      1.4476      3.0087      0.0139      0.0000      0.0000      0.0601      0.0000      0.0464
 64      0.0000      1.3927      0.0000      2.2435      0.0000      2.5801      0.0000      0.0000      0.0000
 65      0.0000      1.8731      0.0000      0.0977      0.0000      0.0000      0.0000      0.0000      4.1127
 66      0.0000      1.0372      0.0000      0.0000      0.0000      0.0000      0.0000      0.0000      2.5991

# j      m_j: min, <> & last-chain-values for 1 ...  7 chains
  1  0.0000E+00  1.2341E-02  0.0000E+00  0.0000E+00  0.0000E+00  1.3456E-02  0.0000E+00  4.7688E+00  3.4443E-01
  2  0.0000E+00  4.3035E-03  0.0000E+00  1.0504E-03  0.0000E+00  0.0000E+00  7.9446E-03  0.0000E+00  7.7911E-03
  3  0.0000E+00  4.2248E-03  1.5906E-03  3.0952E-03  2.4804E-05  5.8739E-04  0.0000E+00  0.0000E+00  0.0000E+00
  4  0.0000E+00  6.0671E-03  1.4271E-04  0.0000E+00  3.2418E-01  0.0000E+00  0.0000E+00  0.0000E+00  1.7662E-02
  5  0.0000E+00  9.6290E-03  4.4205E-03  7.0348E-04  0.0000E+00  1.5505E-01  0.0000E+00  0.0000E+00  5.4940E-06
  6  0.0000E+00  1.2738E-02  4.0048E-06  0.0000E+00  0.0000E+00  8.4214E-02  2.5194E-01  0.0000E+00  0.0000E+00
  7  0.0000E+00  2.3163E-02  3.9834E-02  1.2561E-01  0.0000E+00  2.5771E-01  2.0931E-02  0.0000E+00  0.0000E+00
  8  0.0000E+00  2.5462E-02  8.6050E-02  2.1471E-02  0.0000E+00  2.2379E-01  1.8078E-02  8.2845E-04  0.0000E+00
  9  0.0000E+00  5.1404E-02  1.6505E-01  0.0000E+00  0.0000E+00  0.0000E+00  0.0000E+00  4.1982E-01  0.0000E+00
 10  0.0000E+00  4.9617E-02  0.0000E+00  0.0000E+00  0.0000E+00  0.0000E+00  2.4463E-07  1.7863E+00  7.3150E-03
 11  0.0000E+00  8.3019E-02  9.9374E-01  0.0000E+00  0.0000E+00  3.7735E-03  0.0000E+00  0.0000E+00  5.3978E-03
 12  0.0000E+00  1.4792E-01  0.0000E+00  0.0000E+00  0.0000E+00  4.5807E-03  0.0000E+00  0.0000E+00  0.0000E+00
 13  0.0000E+00  3.3109E-01  8.6604E-02  0.0000E+00  0.0000E+00  7.2891E-02  0.0000E+00  2.9756E+00  1.6671E+00
 14  0.0000E+00  1.2641E+00  2.2456E-07  0.0000E+00  0.0000E+00  6.3019E-02  0.0000E+00  0.0000E+00  0.0000E+00
 15  0.0000E+00  1.6863E+00  0.0000E+00  2.2080E+01  0.0000E+00  9.8976E-01  0.0000E+00  0.0000E+00  1.4520E-01
 16  9.8476E+01  3.8683E+00  0.0000E+00  0.0000E+00  9.6815E+01  2.2238E-01  0.0000E+00  0.0000E+00  7.7583E-02
 17  0.0000E+00  5.9847E+00  0.0000E+00  0.0000E+00  0.0000E+00  2.0783E+01  0.0000E+00  0.0000E+00  0.0000E+00
 18  0.0000E+00  1.1638E-02  8.2655E-08  3.5426E-01  2.6578E-04  9.5912E-02  0.0000E+00  0.0000E+00  7.9213E-03
 19  0.0000E+00  6.5590E-03  0.0000E+00  4.2576E-02  0.0000E+00  3.0846E-02  0.0000E+00  4.8874E-02  1.3000E-04
 20  0.0000E+00  6.5193E-03  2.5017E-02  0.0000E+00  0.0000E+00  2.1151E-01  0.0000E+00  0.0000E+00  5.1257E-03
 21  0.0000E+00  6.8178E-03  7.8089E-08  3.3537E-02  0.0000E+00  3.8830E-07  0.0000E+00  0.0000E+00  0.0000E+00
 22  0.0000E+00  9.4071E-03  0.0000E+00  6.0224E-03  0.0000E+00  3.9957E-05  0.0000E+00  1.9236E-01  7.8640E-03
 23  0.0000E+00  1.5621E-02  0.0000E+00  1.2705E-01  6.7617E-05  5.1969E-03  1.3962E-01  0.0000E+00  2.2642E-02
 24  0.0000E+00  2.3518E-02  1.0286E-03  0.0000E+00  0.0000E+00  0.0000E+00  3.3927E-01  3.2935E-03  1.8739E-01
 25  0.0000E+00  3.0099E-02  4.2127E-03  0.0000E+00  0.0000E+00  2.8676E-04  0.0000E+00  0.0000E+00  0.0000E+00
 26  0.0000E+00  4.6775E-02  1.5506E-12  0.0000E+00  2.6915E-01  3.5075E-05  0.0000E+00  0.0000E+00  6.9737E-03
 27  0.0000E+00  1.1799E-01  1.1588E-01  0.0000E+00  0.0000E+00  3.2809E-05  0.0000E+00  0.0000E+00  1.0464E-01
 28  0.0000E+00  2.5809E-01  7.2593E-02  0.0000E+00  0.0000E+00  1.2020E-01  0.0000E+00  1.1412E+00  0.0000E+00
 29  0.0000E+00  5.7161E-01  1.1854E-01  3.1274E+00  0.0000E+00  0.0000E+00  0.0000E+00  4.2171E+00  0.0000E+00
 30  0.0000E+00  1.0747E+00  0.0000E+00  3.4246E-02  0.0000E+00  0.0000E+00  0.0000E+00  1.7016E+01  2.3163E-02
 31  0.0000E+00  1.9904E+00  6.5922E+00  2.0986E-01  0.0000E+00  0.0000E+00  0.0000E+00  1.8729E+00  2.3349E-03
 32  0.0000E+00  3.3611E+00  0.0000E+00  0.0000E+00  0.0000E+00  6.3923E-01  0.0000E+00  0.0000E+00  0.0000E+00
 33  0.0000E+00  8.5930E+00  4.1431E+00  4.5252E+01  1.5257E-04  0.0000E+00  9.7378E+01  0.0000E+00  0.0000E+00
 34  0.0000E+00  9.5626E+00  2.6436E+00  7.1224E+00  0.0000E+00  5.0669E+00  0.0000E+00  0.0000E+00  2.6681E+00
 35  3.9387E-01  1.3126E-02  6.6774E-01  4.2407E-03  6.9926E-01  8.6826E-02  0.0000E+00  9.9318E-03  0.0000E+00
 36  0.0000E+00  4.5466E-03  0.0000E+00  4.3876E-03  3.7847E-07  6.5170E-02  0.0000E+00  0.0000E+00  2.0458E-02
 37  0.0000E+00  4.4098E-03  0.0000E+00  1.7050E-01  0.0000E+00  4.2482E-03  0.0000E+00  1.8769E-02  1.4513E-03
 38  0.0000E+00  1.4354E-02  4.6240E-01  7.8007E-02  8.0281E-01  4.7136E-01  6.6711E-01  8.7422E-02  1.6398E-02
 39  0.0000E+00  2.0119E-02  0.0000E+00  4.5744E-02  9.0432E-02  0.0000E+00  0.0000E+00  0.0000E+00  0.0000E+00
 40  0.0000E+00  3.3434E-02  0.0000E+00  9.2473E-02  0.0000E+00  1.0067E-03  0.0000E+00  4.8172E+00  1.8280E-03
 41  0.0000E+00  4.9989E-02  8.3538E-01  9.7768E-05  0.0000E+00  9.7688E-04  0.0000E+00  1.3774E+00  0.0000E+00
 42  0.0000E+00  6.2688E-02  1.3204E-08  0.0000E+00  0.0000E+00  4.6801E-01  0.0000E+00  2.8072E+00  0.0000E+00
 43  0.0000E+00  8.5621E-02  2.0296E-01  3.9734E-03  0.0000E+00  3.9011E-01  2.2666E-01  0.0000E+00  0.0000E+00
 44  0.0000E+00  2.3697E-01  1.6786E-01  2.1983E-01  0.0000E+00  1.0301E-02  0.0000E+00  0.0000E+00  2.6583E-01
 45  0.0000E+00  5.5844E-01  0.0000E+00  1.2501E-01  0.0000E+00  1.9253E-03  0.0000E+00  0.0000E+00  0.0000E+00
 46  0.0000E+00  7.8625E-01  1.6195E-01  0.0000E+00  0.0000E+00  0.0000E+00  0.0000E+00  0.0000E+00  1.3823E+00
 47  0.0000E+00  1.8270E+00  0.0000E+00  0.0000E+00  0.0000E+00  0.0000E+00  0.0000E+00  0.0000E+00  0.0000E+00
 48  0.0000E+00  2.6053E+00  1.9059E-01  0.0000E+00  0.0000E+00  8.5016E-02  0.0000E+00  0.0000E+00  0.0000E+00
 49  0.0000E+00  4.6485E+00  3.3181E+01  3.7927E-01  0.0000E+00  4.0255E+01  0.0000E+00  1.1476E+01  7.1849E+00
 50  0.0000E+00  1.2418E+01  3.8640E+01  7.4949E-01  0.0000E+00  1.4111E-01  0.0000E+00  0.0000E+00  4.5496E+00
 51  0.0000E+00  5.0387E-03  1.7563E-04  0.0000E+00  0.0000E+00  1.6710E-03  0.0000E+00  4.1449E-03  0.0000E+00
 52  0.0000E+00  2.9487E-03  1.4500E-02  5.2921E-03  1.6706E-01  2.5899E-02  0.0000E+00  9.0362E-02  2.3672E-03
 53  0.0000E+00  6.3962E-03  0.0000E+00  8.9520E-04  0.0000E+00  1.8687E-03  0.0000E+00  5.1290E-03  1.0712E-01
 54  1.1303E+00  1.2982E-02  0.0000E+00  3.8161E-02  7.5459E-01  8.8945E-04  0.0000E+00  0.0000E+00  3.1245E-02
 55  0.0000E+00  1.0311E-02  7.3014E-07  3.6680E-03  7.6499E-02  4.1481E-03  3.8248E-01  0.0000E+00  0.0000E+00
 56  0.0000E+00  2.0829E-02  0.0000E+00  3.1785E-02  0.0000E+00  1.2119E-05  0.0000E+00  2.7998E+00  0.0000E+00
 57  0.0000E+00  2.9989E-02  0.0000E+00  7.5293E-02  0.0000E+00  3.3888E-01  0.0000E+00  0.0000E+00  0.0000E+00
 58  0.0000E+00  5.4368E-02  4.6867E-02  1.1892E-03  0.0000E+00  0.0000E+00  6.2535E-08  0.0000E+00  0.0000E+00
 59  0.0000E+00  1.6075E-01  6.9413E-02  1.8068E-01  0.0000E+00  4.5727E-02  0.0000E+00  8.7867E-01  6.0401E-04
 60  0.0000E+00  2.2954E-01  4.0147E-02  0.0000E+00  0.0000E+00  2.5501E-01  0.0000E+00  0.0000E+00  2.2687E-02
 61  0.0000E+00  5.8078E-01  0.0000E+00  0.0000E+00  0.0000E+00  0.0000E+00  0.0000E+00  3.9161E+01  7.6347E-01
 62  0.0000E+00  9.6871E-01  0.0000E+00  0.0000E+00  0.0000E+00  1.4497E+00  4.0457E-01  2.0235E+00  2.0593E+00
 63  0.0000E+00  2.0589E+00  1.0225E+01  3.9518E-02  0.0000E+00  0.0000E+00  1.6367E-01  0.0000E+00  7.9724E-02
 64  0.0000E+00  5.4786E+00  0.0000E+00  1.7590E+01  0.0000E+00  2.6850E+01  2.8178E-05  0.0000E+00  0.0000E+00
 65  0.0000E+00  1.5576E+01  4.2363E-07  1.6186E+00  0.0000E+00  0.0000E+00  0.0000E+00  0.0000E+00  4.1315E+01
 66  0.0000E+00  1.2184E+01  0.0000E+00  0.0000E+00  0.0000E+00  0.0000E+00  0.0000E+00  0.0000E+00  3.6887E+01

# AV, chi2 & Mass for <> & i_chain = 1 ...  7 solutions
AV       0.3257      0.6928      0.5010      0.3265      0.8113      0.5108      0.2618      0.8075      0.2591
chi2 1.5111E-05  2.1520E-05  1.5385E-05  1.5410E-05  1.5304E-05  1.5358E-05  1.5310E-05  1.5588E-05  1.5353E-05
Mass 4.1176E-14  1.6223E-13  5.2473E-14  4.9766E-14  3.7665E-14  4.8028E-14  4.7508E-14  1.5427E-14  7.5002E-14
 407.76                                  [v0_min (km/s) before EX0s...]
   2.53                                  [vd_min (km/s) before EX0s...]


## Synthetic spectrum (Best Model) ##l_obs f_obs f_syn wei
 3478    [Nl_obs]
 3741.00   -0.24446   0.91498    0.000
 3742.00   -0.16829   0.97589    0.000
 3743.00    0.17247   1.03782    0.000
 3744.00    1.50995   1.08842    0.000
 3745.00    3.42815   1.12053    0.017
 3746.00    3.09879   1.13947    0.017
 3747.00    1.62812   1.14319    0.017
 3748.00    1.93379   1.13242    0.017
 3749.00    3.02058   1.11290    0.017
 3750.00    2.77366   1.08476    0.017
 3751.00    2.02323   1.04830    0.017
 3752.00    1.15510   1.00805    0.017
 3753.00    0.24925   0.94325    0.017
 3754.00    0.52424   0.86240    0.017
 3755.00    1.11566   0.82236    0.017
 3756.00    0.28209   0.86206    0.017
 3757.00   -0.86424   0.94180    0.000
 3758.00   -0.01127   1.01162    0.000
 3759.00    1.19071   1.06340    0.017
 3760.00    0.59543   1.10036    0.017
 3761.00   -0.23859   1.12128    0.000
 3762.00   -0.11829   1.12434    0.000
 3763.00    0.09170   1.11982    0.017
 3764.00    0.89182   1.12065    0.017
 3765.00    1.72599   1.13030    0.017
 3766.00    1.15284   1.14513    0.017
 3767.00    0.54383   1.14563    0.017
 3768.00   -0.36147   1.13681    0.000
 3769.00   -1.22251   1.13148    0.000
 3770.00   -1.00830   1.12009    0.000
 3771.00   -0.81002   1.08611    0.000
 3772.00   -0.82061   1.03785    0.000
 3773.00   -0.86735   0.98631    0.000
 3774.00   -1.23148   0.91883    0.000
 3775.00   -1.39973   0.84598    0.000
 3776.00   -0.29791   0.82725    0.000
 3777.00    0.61099   0.88709    0.017
 3778.00    0.54341   0.96675    0.017
 3779.00    0.57419   1.02696    0.017
 3780.00    1.00757   1.07295    0.017
 3781.00    1.24972   1.10933    0.017
 3782.00    0.84327   1.13111    0.017
 3783.00    0.55875   1.14336    0.017
 3784.00    0.62294   1.16063    0.017
 3785.00    0.77769   1.18403    0.017
 3786.00    1.15370   1.20029    0.017
 3787.00    1.28586   1.20505    0.017
 3788.00    0.90404   1.20509    0.017
 3789.00    0.78097   1.19940    0.017
 3790.00    1.13188   1.18761    0.017
 3791.00    1.23165   1.17660    0.017
 3792.00    0.92942   1.16837    0.017
 3793.00    0.61457   1.16233    0.017
 3794.00    0.28202   1.15382    0.017
 3795.00    0.18220   1.13644    0.017
 3796.00    0.37005   1.11293    0.017
 3797.00    0.73333   1.09423    0.017
 3798.00    1.28773   1.07081    0.017
 3799.00    1.38413   1.02681    0.017
 3800.00    1.04039   0.96432    0.017
 3801.00    0.31465   0.88666    0.017
 3802.00   -0.73478   0.80207    0.000
 3803.00   -0.64870   0.75754    0.000
 3804.00    0.28473   0.79572    0.017
 3805.00    0.81470   0.88697    0.017
 3806.00    1.08019   0.97469    0.017
 3807.00    1.11284   1.03562    0.017
 3808.00    1.01189   1.08021    0.017
 3809.00    1.83920   1.11374    0.017
 3810.00    3.13048   1.12023    0.017
 3811.00    2.20620   1.10195    0.017
 3812.00    0.32382   1.10586    0.017
 3813.00    0.28658   1.14321    0.017
 3814.00    0.93362   1.17516    0.017
 3815.00    1.44718   1.18921    0.017
 3816.00    1.91879   1.19357    0.017
 3817.00    1.50560   1.19041    0.017
 3818.00    0.86031   1.17876    0.017
 3819.00    0.61373   1.16716    0.017
 3820.00    0.45259   1.15808    0.017
 3821.00    1.12609   1.15101    0.017
 3822.00    1.94125   1.14389    0.017
 3823.00    1.26615   1.10531    0.017
 3824.00    0.39983   1.02266    0.017
 3825.00    0.62604   0.97828    0.017
 3826.00    0.95033   1.02480    0.017
 3827.00    0.42484   1.09643    0.017
 3828.00   -0.14632   1.13511    0.000
 3829.00    0.22405   1.13504    0.017
 3830.00    0.60978   1.12132    0.017
 3831.00    0.69928   1.11199    0.017
 3832.00    0.79228   1.10403    0.017
 3833.00    0.96289   1.09116    0.017
 3834.00    1.09273   1.07163    0.017
 3835.00    0.71572   1.04687    0.017
 3836.00    0.29855   1.00807    0.017
 3837.00   -0.45814   0.94914    0.000
 3838.00   -1.04344   0.87754    0.000
 3839.00   -0.55059   0.79696    0.000
 3840.00   -0.03222   0.73149    0.000
 3841.00    0.61201   0.73160    0.017
 3842.00    1.15371   0.79070    0.017
 3843.00    1.28494   0.85871    0.017
 3844.00    1.34311   0.92554    0.017
 3845.00    1.15835   0.98738    0.017
 3846.00    1.08739   1.03236    0.017
 3847.00    1.33598   1.06750    0.000
 3848.00    1.68439   1.09564    0.000
 3849.00    2.27261   1.11837    0.000
 3850.00    2.58770   1.13352    0.000
 3851.00    2.33638   1.14137    0.000
 3852.00    1.76642   1.14743    0.000
 3853.00    0.62177   1.15073    0.000
 3854.00    0.27929   1.14913    0.000
 3855.00    1.20191   1.13727    0.000
 3856.00    1.51125   1.13182    0.000
 3857.00    0.97160   1.14676    0.000
 3858.00    0.62456   1.15931    0.000
 3859.00    0.51221   1.15519    0.000
 3860.00    0.90202   1.13990    0.000
 3861.00    1.83123   1.12464    0.000
 3862.00    1.93847   1.12791    0.000
 3863.00    1.26690   1.13873    0.000
 3864.00    0.95030   1.13440    0.000
 3865.00    0.93025   1.12203    0.000
 3866.00    1.26896   1.12289    0.000
 3867.00    1.87156   1.13436    0.000
 3868.00    1.79181   1.13671    0.000
 3869.00    1.27131   1.12741    0.000
 3870.00    1.27711   1.12420    0.000
 3871.00    1.58034   1.12732    0.000
 3872.00    1.52695   1.11717    0.000
 3873.00    1.29814   1.11459    0.000
 3874.00    1.02287   1.13358    0.000
 3875.00    0.72784   1.13897    0.000
 3876.00    1.35502   1.11226    0.000
 3877.00    2.31811   1.08050    0.000
 3878.00    1.87083   1.08366    0.000
 3879.00    0.98875   1.10756    0.000
 3880.00    0.08799   1.10890    0.000
 3881.00   -0.81756   1.08411    0.000
 3882.00    0.08923   1.07085    0.017
 3883.00    1.37493   1.07567    0.017
 3884.00    1.72704   1.08308    0.017
 3885.00    1.92521   1.08700    0.017
 3886.00    1.79923   1.07389    0.017
 3887.00    1.63311   1.04567    0.017
 3888.00    1.73307   1.02429    0.017
 3889.00    1.85580   1.01079    0.017
 3890.00    1.36569   0.97725    0.017
 3891.00    0.84504   0.91630    0.017
 3892.00    0.60274   0.84002    0.017
 3893.00    0.36839   0.75350    0.017
 3894.00    0.35269   0.69274    0.017
 3895.00    0.37293   0.71492    0.017
 3896.00    1.12816   0.80239    0.017
 3897.00    1.76446   0.89237    0.017
 3898.00    0.99445   0.95739    0.017
 3899.00    0.37610   0.99975    0.017
 3900.00    0.99336   1.02633    0.017
 3901.00    1.38255   1.04945    0.017
 3902.00    0.37876   1.07161    0.016
 3903.00   -0.38536   1.07820    0.000
 3904.00    0.00384   1.07333    0.016
 3905.00    0.36008   1.08132    0.015
 3906.00    0.58727   1.10245    0.016
 3907.00    0.73547   1.11633    0.016
 3908.00    0.62623   1.12007    0.016
 3909.00    0.62862   1.12310    0.017
 3910.00    0.93882   1.12055    0.017
 3911.00    1.14404   1.11453    0.017
 3912.00    1.10134   1.11770    0.017
 3913.00    0.94577   1.13043    0.017
 3914.00    0.55984   1.14162    0.017
 3915.00    0.54035   1.14360    0.017
 3916.00    1.17172   1.13397    0.017
 3917.00    1.57689   1.12395    0.017
 3918.00    1.63058   1.12686    0.017
 3919.00    1.42299   1.13566    0.017
 3920.00    0.85888   1.13975    0.017
 3921.00    0.64155   1.13747    0.017
 3922.00    0.84079   1.13063    0.017
 3923.00    0.99115   1.10732    0.017
 3924.00    1.08975   1.06658    0.017
 3925.00    1.15678   1.03488    0.017
 3926.00    1.19429   1.03680    0.017
 3927.00    1.13979   1.06589    0.017
 3928.00    1.00949   1.08476    0.017
 3929.00    0.87593   1.08087    0.017
 3930.00    0.73998   1.06909    0.017
 3931.00    0.71064   1.05194    0.017
 3932.00    0.74914   1.03956    0.017
 3933.00    0.83155   1.04055    0.017
 3934.00    0.93840   1.04470    0.017
 3935.00    0.82818   1.04669    0.017
 3936.00    0.61287   1.04104    0.017
 3937.00    1.13808   1.02470    0.017
 3938.00    1.97290   1.00014    0.017
 3939.00    1.44960   0.98646    0.017
 3940.00    0.44049   0.99621    0.017
 3941.00    0.38403   1.01653    0.017
 3942.00    0.61552   1.03804    0.017
 3943.00    0.82273   1.05651    0.017
 3944.00    1.02386   1.07121    0.017
 3945.00    0.73414   1.08384    0.017
 3946.00    0.34432   1.09008    0.017
 3947.00    0.97768   1.09089    0.017
 3948.00    1.77487   1.08659    0.017
 3949.00    1.77789   1.07467    0.017
 3950.00    1.68609   1.06832    0.017
 3951.00    1.32731   1.08058    0.017
 3952.00    0.94678   1.09399    0.017
 3953.00    1.01120   1.09491    0.017
 3954.00    1.09607   1.09556    0.017
 3955.00    0.82523   1.10305    0.017
 3956.00    0.55752   1.10856    0.017
 3957.00    0.69021   1.10179    0.017
 3958.00    0.80040   1.08864    0.017
 3959.00    0.48440   1.07793    0.017
 3960.00    0.19030   1.07362    0.000
 3961.00    0.14295   1.07226    0.000
 3962.00    0.13549   1.07249    0.000
 3963.00    0.44160   1.07539    0.000
 3964.00    0.71327   1.07639    0.000
 3965.00    0.78053   1.06388    0.000
 3966.00    0.91288   1.03111    0.000
 3967.00    1.35080   0.99648    0.000
 3968.00    1.70186   0.97281    0.000
 3969.00    1.72008   0.93894    0.000
 3970.00    1.65501   0.89559    0.000
 3971.00    1.32370   0.86135    0.000
 3972.00    0.97427   0.81940    0.000
 3973.00    0.57578   0.75116    0.000
 3974.00    0.16557   0.66935    0.000
 3975.00   -0.27187   0.61435    0.000
 3976.00   -0.21874   0.63059    0.000
 3977.00    0.81969   0.70557    0.000
 3978.00    1.62964   0.78645    0.000
 3979.00    2.03993   0.85615    0.000
 3980.00    1.84547   0.91877    0.000
 3981.00    0.72515   0.96479    0.017
 3982.00    0.35245   0.99482    0.017
 3983.00    0.98520   1.01810    0.017
 3984.00    1.26142   1.03712    0.017
 3985.00    1.11543   1.05242    0.017
 3986.00    1.43188   1.06189    0.017
 3987.00    2.23122   1.05854    0.017
 3988.00    2.33698   1.05163    0.017
 3989.00    1.80393   1.05970    0.017
 3990.00    1.72653   1.07711    0.017
 3991.00    2.01907   1.08863    0.017
 3992.00    1.96749   1.09446    0.017
 3993.00    1.67002   1.10141    0.017
 3994.00    1.51389   1.10437    0.017
 3995.00    1.44636   1.10155    0.017
 3996.00    1.39487   1.10231    0.017
 3997.00    1.35216   1.10835    0.017
 3998.00    1.24965   1.11109    0.017
 3999.00    1.11865   1.09898    0.017
 4000.00    1.44605   1.08134    0.017
 4001.00    1.96186   1.07870    0.017
 4002.00    2.12181   1.08607    0.017
 4003.00    2.15677   1.08766    0.017
 4004.00    1.86679   1.09036    0.017
 4005.00    1.48053   1.09980    0.017
 4006.00    1.76816   1.10603    0.017
 4007.00    2.22133   1.10649    0.017
 4008.00    1.44931   1.10507    0.017
 4009.00    0.43368   1.09638    0.016
 4010.00    0.39311   1.07913    0.016
 4011.00    0.50406   1.06771    0.016
 4012.00    0.68310   1.06753    0.016
 4013.00    0.86997   1.05757    0.016
 4014.00    0.82806   1.03236    0.016
 4015.00    0.76846   1.02578    0.016
 4016.00    1.08424   1.05199    0.016
 4017.00    1.41583   1.08142    0.016
 4018.00    1.31819   1.09535    0.016
 4019.00    1.22095   1.10021    0.016
 4020.00    1.31315   1.10382    0.016
 4021.00    1.39691   1.10625    0.016
 4022.00    1.33204   1.10322    0.016
 4023.00    1.29752   1.09917    0.016
 4024.00    1.58972   1.10137    0.016
 4025.00    1.82931   1.10322    0.016
 4026.00    1.66946   1.09694    0.016
 4027.00    1.54185   1.08548    0.016
 4028.00    1.60019   1.06918    0.016
 4029.00    1.62851   1.03803    0.016
 4030.00    1.51924   0.98333    0.016
 4031.00    1.35768   0.92850    0.016
 4032.00    1.00000   0.92882    0.016
 4033.00    0.81705   0.98939    0.016
 4034.00    1.18185   1.04755    0.016
 4035.00    1.47498   1.06722    0.016
 4036.00    1.57739   1.06438    0.016
 4037.00    1.64657   1.05936    0.016
 4038.00    1.63987   1.05719    0.016
 4039.00    1.67090   1.05636    0.016
 4040.00    1.77657   1.05746    0.016
 4041.00    1.56206   1.06983    0.016
 4042.00    0.79601   1.09351    0.016
 4043.00    0.44228   1.10925    0.016
 4044.00    0.71057   1.10899    0.016
 4045.00    0.85381   1.09822    0.016
 4046.00    0.83128   1.08359    0.017
 4047.00    0.87576   1.07723    0.017
 4048.00    0.99845   1.07700    0.016
 4049.00    0.86824   1.06759    0.016
 4050.00    0.47765   1.05052    0.016
 4051.00    0.26243   1.04241    0.016
 4052.00    0.20646   1.05375    0.016
 4053.00    0.35042   1.07281    0.016
 4054.00    0.65441   1.08411    0.016
 4055.00    0.65003   1.09107    0.016
 4056.00    0.42850   1.09705    0.016
 4057.00    0.35058   1.09574    0.016
 4058.00    0.36138   1.08569    0.015
 4059.00    0.65618   1.07252    0.016
 4060.00    1.10423   1.06454    0.016
 4061.00    0.93260   1.06582    0.016
 4062.00    0.47055   1.06913    0.016
 4063.00    0.76606   1.06827    0.016
 4064.00    1.36763   1.06542    0.016
 4065.00    1.90352   1.06182    0.016
 4066.00    2.41677   1.05991    0.015
 4067.00    2.28006   1.05737    0.015
 4068.00    1.95462   1.04648    0.015
 4069.00    1.51806   1.03751    0.015
 4070.00    1.05480   1.04675    0.015
 4071.00    1.00779   1.06144    0.015
 4072.00    1.04144   1.06242    0.015
 4073.00    1.11413   1.05394    0.015
 4074.00    1.19272   1.04181    0.015
 4075.00    1.17135   1.02655    0.015
 4076.00    1.13893   1.01269    0.015
 4077.00    0.88317   1.00538    0.015
 4078.00    0.61104   1.01544    0.015
 4079.00    0.32163   1.03344    0.015
 4080.00    0.03155   1.02638    0.015
 4081.00    0.73894   1.00223    0.015
 4082.00    1.42472   0.99477    0.015
 4083.00    1.08743   1.00394    0.015
 4084.00    0.78148   1.01628    0.015
 4085.00    0.99215   1.03253    0.015
 4086.00    1.22590   1.04898    0.015
 4087.00    1.69724   1.05411    0.015
 4088.00    2.02652   1.04646    0.015
 4089.00    1.31342   1.03242    0.015
 4090.00    0.74883   1.02140    0.015
 4091.00    1.01738   1.02254    0.015
 4092.00    1.21541   1.03111    0.000
 4093.00    1.09786   1.03246    0.000
 4094.00    0.89046   1.02465    0.000
 4095.00    0.35310   1.02263    0.000
 4096.00    0.18186   1.03009    0.000
 4097.00    1.13663   1.02700    0.000
 4098.00    1.63571   1.01140    0.000
 4099.00    0.94380   0.99979    0.000
 4100.00    0.39671   0.98224    0.000
 4101.00    0.17488   0.94525    0.000
 4102.00    0.22043   0.90413    0.000
 4103.00    0.78631   0.87384    0.000
 4104.00    1.10561   0.84273    0.000
 4105.00    1.00654   0.78696    0.000
 4106.00    1.02776   0.70325    0.000
 4107.00    1.22782   0.64001    0.000
 4108.00    1.21929   0.65537    0.000
 4109.00    0.93822   0.73102    0.000
 4110.00    0.77616   0.80893    0.000
 4111.00    0.75108   0.87154    0.000
 4112.00    0.73292   0.91942    0.000
 4113.00    0.72176   0.94899    0.015
 4114.00    0.57914   0.96490    0.015
 4115.00    0.31880   0.97231    0.015
 4116.00    0.38636   0.97572    0.015
 4117.00    0.71262   0.98370    0.015
 4118.00    0.87410   0.99867    0.015
 4119.00    0.92123   1.01228    0.015
 4120.00    1.18192   1.01513    0.015
 4121.00    1.57255   1.01240    0.015
 4122.00    1.64321   1.01604    0.015
 4123.00    1.54387   1.01690    0.015
 4124.00    0.97653   0.99643    0.014
 4125.00    0.19340   0.96538    0.014
 4126.00    0.15378   0.94793    0.014
 4127.00    0.40939   0.95868    0.015
 4128.00    0.66457   0.99280    0.014
 4129.00    0.91960   1.02522    0.014
 4130.00    1.41260   1.04357    0.014
 4131.00    1.97331   1.04946    0.014
 4132.00    1.64682   1.04022    0.014
 4133.00    1.11202   1.02219    0.014
 4134.00    0.69140   1.01121    0.014
 4135.00    0.29231   1.00994    0.014
 4136.00    0.53821   1.00488    0.014
 4137.00    0.87829   0.99487    0.014
 4138.00    1.11729   0.99006    0.014
 4139.00    1.34555   0.99805    0.014
 4140.00    0.91590   1.01502    0.014
 4141.00    0.44073   1.03160    0.014
 4142.00    0.33146   1.03693    0.014
 4143.00    0.23482   1.03396    0.014
 4144.00    0.45228   1.03382    0.014
 4145.00    0.67023   1.03343    0.014
 4146.00    0.88381   1.02759    0.014
 4147.00    1.09361   1.00484    0.014
 4148.00    1.24495   0.95405    0.014
 4149.00    1.36288   0.90704    0.014
 4150.00    1.15154   0.91540    0.014
 4151.00    0.94085   0.96699    0.014
 4152.00    0.73476   1.00726    0.014
 4153.00    0.57841   1.02341    0.014
 4154.00    0.69356   1.02397    0.014
 4155.00    0.86631   1.01362    0.014
 4156.00    1.29077   1.00802    0.014
 4157.00    1.59845   1.01059    0.014
 4158.00    1.48610   1.00432    0.014
 4159.00    1.46434   0.99620    0.014
 4160.00    1.71595   1.00177    0.014
 4161.00    1.68849   1.00925    0.014
 4162.00    0.94439   1.01094    0.014
 4163.00    0.43718   1.01901    0.014
 4164.00    0.45328   1.03087    0.014
 4165.00    0.53196   1.03610    0.014
 4166.00    0.73053   1.03437    0.014
 4167.00    0.98945   1.02999    0.014
 4168.00    1.34925   1.02549    0.014
 4169.00    1.45685   1.02041    0.014
 4170.00    1.19503   1.01486    0.014
 4171.00    0.96236   1.01389    0.014
 4172.00    0.76723   1.01379    0.014
 4173.00    0.74165   1.00519    0.014
 4174.00    0.90846   0.99383    0.014
 4175.00    0.89562   0.99526    0.014
 4176.00    0.70298   1.00299    0.014
 4177.00    0.67235   0.99695    0.014
 4178.00    0.78473   0.98273    0.014
 4179.00    0.75303   0.97921    0.014
 4180.00    0.60927   0.98566    0.014
 4181.00    0.75116   0.99239    0.014
 4182.00    1.08839   0.99558    0.014
 4183.00    1.29224   0.99695    0.014
 4184.00    1.41614   1.00121    0.014
 4185.00    1.11759   1.00967    0.014
 4186.00    0.59808   1.01555    0.014
 4187.00    0.76625   1.01272    0.014
 4188.00    1.24633   1.00765    0.014
 4189.00    1.26832   1.00665    0.014
 4190.00    1.11156   1.00352    0.014
 4191.00    1.00287   0.99728    0.014
 4192.00    0.91016   0.99112    0.014
 4193.00    1.07278   0.98745    0.014
 4194.00    1.30657   0.98765    0.014
 4195.00    1.20811   0.98542    0.014
 4196.00    1.03343   0.98602    0.013
 4197.00    0.92741   0.99600    0.014
 4198.00    0.83401   1.00984    0.014
 4199.00    0.77604   1.01853    0.014
 4200.00    0.72308   1.01355    0.013
 4201.00    0.82514   0.99958    0.013
 4202.00    0.94301   0.99001    0.013
 4203.00    1.09173   0.98209    0.013
 4204.00    1.24247   0.96845    0.013
 4205.00    1.05141   0.95751    0.013
 4206.00    0.85025   0.95735    0.013
 4207.00    0.90653   0.96408    0.013
 4208.00    0.96702   0.97344    0.013
 4209.00    1.15113   0.98427    0.013
 4210.00    1.31760   0.98970    0.013
 4211.00    1.22717   0.99170    0.013
 4212.00    1.15792   0.99808    0.013
 4213.00    1.28880   1.00580    0.013
 4214.00    1.33817   1.01078    0.013
 4215.00    0.82723   1.00840    0.013
 4216.00    0.50408   1.00249    0.013
 4217.00    1.17903   1.00051    0.013
 4218.00    1.73908   1.00114    0.013
 4219.00    1.80840   0.99943    0.013
 4220.00    1.77186   0.99184    0.013
 4221.00    1.36235   0.97939    0.013
 4222.00    1.09289   0.97589    0.013
 4223.00    1.23817   0.98707    0.013
 4224.00    1.19958   0.99642    0.013
 4225.00    0.69699   0.99912    0.013
 4226.00    0.41797   0.99909    0.013
 4227.00    0.62477   0.99290    0.013
 4228.00    0.78410   0.97952    0.013
 4229.00    0.85391   0.96835    0.013
 4230.00    0.88422   0.95535    0.013
 4231.00    0.84951   0.93323    0.012
 4232.00    0.77778   0.91119    0.012
 4233.00    0.65261   0.90971    0.012
 4234.00    0.68982   0.93657    0.012
 4235.00    0.93318   0.96504    0.012
 4236.00    1.08274   0.97807    0.012
 4237.00    1.12735   0.98058    0.012
 4238.00    1.07019   0.97595    0.012
 4239.00    0.91259   0.96987    0.012
 4240.00    0.94355   0.97134    0.012
 4241.00    1.13859   0.96853    0.012
 4242.00    1.40453   0.95541    0.012
 4243.00    1.72483   0.95261    0.012
 4244.00    1.46066   0.96282    0.013
 4245.00    0.80260   0.96980    0.013
 4246.00    0.59550   0.96957    0.013
 4247.00    0.65466   0.96666    0.013
 4248.00    0.60393   0.96767    0.013
 4249.00    0.49663   0.97959    0.013
 4250.00    0.44343   0.99326    0.013
 4251.00    0.41438   0.99263    0.013
 4252.00    0.61174   0.97832    0.013
 4253.00    0.89591   0.96676    0.013
 4254.00    1.04498   0.96413    0.013
 4255.00    1.15002   0.96147    0.013
 4256.00    0.92946   0.95482    0.013
 4257.00    0.62001   0.95645    0.013
 4258.00    0.39320   0.95712    0.013
 4259.00    0.18490   0.93691    0.013
 4260.00    0.09888   0.92350    0.013
 4261.00    0.03474   0.93989    0.013
 4262.00    0.08605   0.96288    0.013
 4263.00    0.15316   0.97207    0.013
 4264.00    0.08515   0.96474    0.013
 4265.00    0.00394   0.95256    0.013
 4266.00    0.28743   0.94374    0.013
 4267.00    0.59322   0.94685    0.013
 4268.00    0.56376   0.96256    0.013
 4269.00    0.52690   0.97695    0.012
 4270.00    0.81220   0.98082    0.012
 4271.00    1.07616   0.96813    0.012
 4272.00    0.77579   0.92731    0.013
 4273.00    0.52930   0.89108    0.013
 4274.00    1.02367   0.90838    0.014
 4275.00    1.47886   0.94243    0.016
 4276.00    1.57819   0.94330    0.016
 4277.00    1.65125   0.92630    0.016
 4278.00    1.54929   0.92027    0.015
 4279.00    1.45854   0.92310    0.015
 4280.00    1.42583   0.91671    0.014
 4281.00    1.38839   0.90583    0.013
 4282.00    1.33121   0.90909   -2.000
 4283.00    1.30929   0.92871   -2.000
 4284.00    1.40912   0.95274   -2.000
 4285.00    1.39990   0.96156   -2.000
 4286.00    1.07371   0.95171   -2.000
 4287.00    0.82307   0.94099   -2.000
 4288.00    0.75984   0.93331   -2.000
 4289.00    0.76322   0.92937   -2.000
 4290.00    0.90902   0.92795   -2.000
 4291.00    0.95705   0.92479   -2.000
 4292.00    0.82355   0.92886   -2.000
 4293.00    0.80231   0.93600   -2.000
 4294.00    0.96314   0.92614   -2.000
 4295.00    1.00273   0.90572   -2.000
 4296.00    0.86983   0.89803   -2.000
 4297.00    0.85255   0.91027   -2.000
 4298.00    0.97997   0.93323    0.012
 4299.00    1.08261   0.94436    0.012
 4300.00    1.15789   0.93179    0.013
 4301.00    1.30210   0.92387    0.013
 4302.00    1.51337   0.92884    0.012
 4303.00    1.48902   0.92717    0.012
 4304.00    1.26253   0.91567    0.012
 4305.00    0.86291   0.89888    0.012
 4306.00    0.33245   0.89084    0.012
 4307.00    0.22791   0.89542    0.012
 4308.00    0.40619   0.89049    0.012
 4309.00    0.69643   0.87622    0.012
 4310.00    1.05178   0.87800    0.012
 4311.00    1.02048   0.89064    0.012
 4312.00    0.79322   0.89330    0.012
 4313.00    0.64464   0.88097    0.012
 4314.00    0.53057   0.86812    0.012
 4315.00    0.53905   0.87040    0.012
 4316.00    0.59370   0.88637    0.012
 4317.00    0.77493   0.90210    0.012
 4318.00    0.99663   0.90895    0.012
 4319.00    0.95310   0.90731    0.012
 4320.00    0.83867   0.90815    0.012
 4321.00    0.86105   0.92195    0.012
 4322.00    0.91335   0.94141    0.012
 4323.00    0.66212   0.94909    0.012
 4324.00    0.35809   0.94629    0.012
 4325.00    0.63985   0.94147    0.012
 4326.00    0.99909   0.94109    0.012
 4327.00    0.97865   0.94559    0.012
 4328.00    0.92274   0.94479    0.012
 4329.00    0.74484   0.92931    0.012
 4330.00    0.55997   0.90181    0.000
 4331.00    0.71391   0.87265    0.000
 4332.00    0.87536   0.86934    0.000
 4333.00    0.99459   0.89870    0.000
 4334.00    1.11722   0.92710    0.000
 4335.00    1.32145   0.93319    0.000
 4336.00    1.49156   0.92428    0.000
 4337.00    1.21758   0.91255    0.000
 4338.00    0.99965   0.90383    0.000
 4339.00    1.27151   0.89581    0.000
 4340.00    1.43391   0.88899    0.000
 4341.00    0.88922   0.87703    0.000
 4342.00    0.45986   0.84026    0.000
 4343.00    0.61229   0.77603    0.000
 4344.00    0.74174   0.70823    0.000
 4345.00    0.77737   0.63785    0.000
 4346.00    0.83746   0.57806    0.000
 4347.00    0.98032   0.59455    0.000
 4348.00    0.92830   0.67998    0.000
 4349.00    0.32022   0.75347    0.000
 4350.00    0.05089   0.79325    0.000
 4351.00    0.60741   0.82320    0.012
 4352.00    0.92257   0.84524    0.013
 4353.00    0.73004   0.86017    0.013
 4354.00    0.64951   0.87777    0.013
 4355.00    0.77370   0.89439    0.013
 4356.00    0.79967   0.89144    0.013
 4357.00    0.66868   0.86814    0.012
 4358.00    0.59354   0.86051    0.012
 4359.00    0.59668   0.88253    0.012
 4360.00    0.58684   0.90662    0.012
 4361.00    0.56099   0.92154    0.012
 4362.00    0.61764   0.93543    0.012
 4363.00    0.76401   0.94361    0.012
 4364.00    0.70419   0.93727    0.012
 4365.00    0.44656   0.92591    0.012
 4366.00    0.40698   0.92579    0.012
 4367.00    0.55184   0.93319    0.012
 4368.00    0.63242   0.94190    0.013
 4369.00    0.66512   0.94701    0.012
 4370.00    0.74367   0.94867    0.012
 4371.00    0.85223   0.94967    0.012
 4372.00    0.90490   0.93540    0.012
 4373.00    0.92557   0.91690    0.012
 4374.00    0.85730   0.91591    0.012
 4375.00    0.74468   0.92402    0.012
 4376.00    0.75000   0.92759    0.012
 4377.00    0.80621   0.92208    0.012
 4378.00    0.82865   0.91399    0.012
 4379.00    0.83859   0.90846    0.012
 4380.00    0.87829   0.90064    0.012
 4381.00    0.92732   0.89686    0.012
 4382.00    0.80262   0.90905    0.012
 4383.00    0.63248   0.92805    0.012
 4384.00    0.72676   0.93441    0.012
 4385.00    0.87752   0.92934    0.012
 4386.00    1.04155   0.92975    0.012
 4387.00    1.20783   0.93093    0.012
 4388.00    1.14100   0.90920    0.012
 4389.00    1.04440   0.86884    0.012
 4390.00    0.88226   0.84763    0.012
 4391.00    0.71428   0.86255    0.012
 4392.00    0.48962   0.88014    0.012
 4393.00    0.26193   0.85965    0.012
 4394.00    0.53912   0.83794    0.012
 4395.00    0.82582   0.86078    0.012
 4396.00    1.08242   0.89031    0.012
 4397.00    1.31384   0.90541    0.012
 4398.00    0.99153   0.92326    0.012
 4399.00    0.69235   0.93211    0.012
 4400.00    0.67894   0.92039    0.012
 4401.00    0.65466   0.90301    0.012
 4402.00    0.53896   0.91055    0.012
 4403.00    0.44699   0.93651    0.012
 4404.00    0.50380   0.94650    0.012
 4405.00    0.53296   0.93472    0.012
 4406.00    0.42606   0.91748    0.012
 4407.00    0.36680   0.91630    0.012
 4408.00    0.49773   0.93289    0.011
 4409.00    0.65400   0.92931    0.011
 4410.00    0.89431   0.89802    0.011
 4411.00    1.09349   0.87955    0.011
 4412.00    1.17746   0.89139    0.012
 4413.00    1.22700   0.90376    0.012
 4414.00    1.19403   0.90166    0.012
 4415.00    1.10962   0.90718    0.012
 4416.00    0.91877   0.92252    0.012
 4417.00    0.84537   0.92778    0.012
 4418.00    0.98341   0.93222    0.012
 4419.00    1.08540   0.93355    0.012
 4420.00    1.13065   0.90335    0.012
 4421.00    1.05304   0.86965    0.012
 4422.00    0.80568   0.86862    0.012
 4423.00    0.71464   0.88552    0.011
 4424.00    0.81374   0.90904    0.011
 4425.00    0.84921   0.92980    0.011
 4426.00    0.81643   0.93554    0.011
 4427.00    0.78537   0.93244    0.011
 4428.00    0.75593   0.92386    0.011
 4429.00    0.55269   0.92167    0.011
 4430.00    0.20452   0.92831    0.011
 4431.00    0.22582   0.92744    0.011
 4432.00    0.51836   0.91754    0.012
 4433.00    0.65489   0.90923    0.011
 4434.00    0.69083   0.91292    0.011
 4435.00    0.72795   0.91754    0.011
 4436.00    0.76573   0.90898    0.011
 4437.00    0.71110   0.90640    0.012
 4438.00    0.61110   0.91498    0.012
 4439.00    0.58989   0.91132    0.012
 4440.00    0.60212   0.89738    0.012
 4441.00    0.58865   0.88523    0.012
 4442.00    0.56584   0.88457    0.012
 4443.00    0.58405   0.89538    0.012
 4444.00    0.61487   0.91576    0.012
 4445.00    0.68276   0.93646    0.012
 4446.00    0.76013   0.93712    0.011
 4447.00    0.83228   0.91836    0.011
 4448.00    0.90334   0.89576    0.011
 4449.00    1.10095   0.88710    0.011
 4450.00    1.31934   0.90132    0.011
 4451.00    1.24768   0.92363    0.011
 4452.00    1.14026   0.92658    0.011
 4453.00    0.89378   0.91353    0.011
 4454.00    0.63546   0.91283    0.011
 4455.00    0.64462   0.92184    0.011
 4456.00    0.66698   0.92263    0.011
 4457.00    0.41661   0.92061    0.011
 4458.00    0.17082   0.91784    0.011
 4459.00    0.48461   0.91229    0.011
 4460.00    0.78670   0.90163    0.011
 4461.00    0.85193   0.88758    0.000
 4462.00    0.88900   0.88760    0.000
 4463.00    0.59520   0.89720    0.000
 4464.00    0.36083   0.90156    0.000
 4465.00    0.60847   0.89850    0.000
 4466.00    0.82546   0.89522    0.000
 4467.00    0.85596   0.88903    0.000
 4468.00    0.85645   0.88656    0.000
 4469.00    0.71297   0.89960    0.000
 4470.00    0.63869   0.91065    0.000
 4471.00    0.83465   0.90572    0.000
 4472.00    0.99629   0.89691    0.000
 4473.00    1.04630   0.89086    0.000
 4474.00    1.02666   0.88281    0.000
 4475.00    0.81539   0.86751    0.000
 4476.00    0.66971   0.83533    0.000
 4477.00    0.67860   0.79205    0.000
 4478.00    0.65918   0.79590    0.000
 4479.00    0.58209   0.85761    0.000
 4480.00    0.63274   0.90622    0.000
 4481.00    0.90985   0.91826    0.000
 4482.00    1.02803   0.92379    0.011
 4483.00    0.89973   0.93443    0.011
 4484.00    0.80032   0.93707    0.011
 4485.00    0.74026   0.91908    0.011
 4486.00    0.60470   0.88224    0.011
 4487.00    0.37861   0.85440    0.011
 4488.00    0.22165   0.86385    0.011
 4489.00    0.13776   0.89850    0.011
 4490.00    0.26308   0.92488    0.011
 4491.00    0.58349   0.93661    0.011
 4492.00    0.57395   0.93984    0.011
 4493.00    0.29316   0.93251    0.011
 4494.00    0.45121   0.91414    0.011
 4495.00    0.92679   0.89619    0.011
 4496.00    1.08862   0.89539    0.011
 4497.00    1.05114   0.91072    0.011
 4498.00    1.04910   0.92462    0.011
 4499.00    1.06676   0.92559    0.011
 4500.00    0.96731   0.91266    0.011
 4501.00    0.81128   0.89980    0.011
 4502.00    0.70502   0.89616    0.011
 4503.00    0.61953   0.90196    0.011
 4504.00    0.78887   0.91545    0.011
 4505.00    1.04916   0.92533    0.011
 4506.00    0.99680   0.92303    0.011
 4507.00    0.85017   0.91349    0.011
 4508.00    0.77727   0.91595    0.011
 4509.00    0.72284   0.93461    0.011
 4510.00    0.92321   0.94776    0.011
 4511.00    1.17537   0.94579    0.011
 4512.00    1.14238   0.93579    0.011
 4513.00    1.06389   0.92626    0.011
 4514.00    1.11888   0.92365    0.011
 4515.00    1.18974   0.92753    0.011
 4516.00    0.98638   0.93065    0.011
 4517.00    0.76083   0.92599    0.011
 4518.00    0.63486   0.91275    0.011
 4519.00    0.51343   0.90263    0.011
 4520.00    0.42994   0.90089    0.011
 4521.00    0.35237   0.90323    0.011
 4522.00    0.55260   0.90983    0.011
 4523.00    0.75195   0.91041    0.011
 4524.00    0.93471   0.90513    0.011
 4525.00    1.09176   0.90886    0.011
 4526.00    0.96065   0.92058    0.011
 4527.00    0.86412   0.92756    0.011
 4528.00    1.03823   0.91744    0.011
 4529.00    1.16000   0.90122    0.011
 4530.00    0.97226   0.89601    0.011
 4531.00    0.78412   0.89511    0.011
 4532.00    0.59412   0.88969    0.011
 4533.00    0.48086   0.87849    0.011
 4534.00    0.66089   0.86222    0.011
 4535.00    0.84577   0.85111    0.011
 4536.00    1.04611   0.85527    0.011
 4537.00    1.12063   0.87147    0.011
 4538.00    0.85517   0.88780    0.011
 4539.00    0.64702   0.88615    0.011
 4540.00    0.57167   0.86867    0.010
 4541.00    0.60895   0.85604    0.010
 4542.00    0.87198   0.86672    0.010
 4543.00    0.97052   0.89660    0.011
 4544.00    0.78191   0.91559    0.011
 4545.00    0.69229   0.91186    0.011
 4546.00    0.75394   0.89464    0.011
 4547.00    0.78189   0.87928    0.011
 4548.00    0.76461   0.88152    0.011
 4549.00    0.73344   0.89474    0.011
 4550.00    0.68584   0.89692    0.000
 4551.00    0.74536   0.89093    0.000
 4552.00    0.91655   0.89339    0.000
 4553.00    0.86339   0.89970    0.000
 4554.00    0.60397   0.89621    0.000
 4555.00    0.57235   0.88310    0.000
 4556.00    0.72533   0.88264    0.000
 4557.00    0.73068   0.88920    0.000
 4558.00    0.63075   0.87651    0.000
 4559.00    0.62434   0.86097    0.000
 4560.00    0.67645   0.86158    0.000
 4561.00    0.77659   0.86994    0.000
 4562.00    0.90300   0.88358    0.000
 4563.00    0.94333   0.90327    0.000
 4564.00    0.94273   0.91654    0.000
 4565.00    0.88760   0.91951    0.000
 4566.00    0.81010   0.91780    0.000
 4567.00    0.86756   0.91702    0.000
 4568.00    0.97231   0.91557    0.000
 4569.00    0.94438   0.90521    0.000
 4570.00    0.87724   0.89325    0.000
 4571.00    0.84510   0.89120    0.000
 4572.00    0.82153   0.89690    0.000
 4573.00    0.72097   0.90164    0.000
 4574.00    0.60514   0.90315    0.000
 4575.00    0.51602   0.90860    0.000
 4576.00    0.43103   0.90887    0.000
 4577.00    0.52008   0.89407    0.000
 4578.00    0.62904   0.88817    0.000
 4579.00    0.68866   0.90086    0.000
 4580.00    0.74449   0.90631    0.000
 4581.00    0.84122   0.90060    0.000
 4582.00    0.93966   0.90369    0.000
 4583.00    1.00156   0.91047    0.000
 4584.00    1.05363   0.90774    0.000
 4585.00    0.69697   0.89463    0.000
 4586.00    0.37130   0.88263    0.000
 4587.00    0.58729   0.88186    0.000
 4588.00    0.78204   0.89036    0.000
 4589.00    0.74965   0.89545    0.000
 4590.00    0.73584   0.89255    0.000
 4591.00    0.86262   0.88733    0.000
 4592.00    0.98668   0.88373    0.000
 4593.00    1.09512   0.88768    0.000
 4594.00    1.13735   0.89835    0.000
 4595.00    0.87704   0.90381    0.000
 4596.00    0.68773   0.89356    0.000
 4597.00    0.76404   0.87720    0.000
 4598.00    0.84986   0.87257    0.000
 4599.00    0.96541   0.87876    0.000
 4600.00    0.98664   0.88097    0.000
 4601.00    0.75748   0.87472    0.000
 4602.00    0.63203   0.86995    0.000
 4603.00    0.74289   0.87544    0.000
 4604.00    0.83794   0.88653    0.000
 4605.00    0.90178   0.89222    0.000
 4606.00    0.91218   0.88577    0.000
 4607.00    0.83067   0.87051    0.000
 4608.00    0.78524   0.86484    0.000
 4609.00    0.79413   0.87351    0.000
 4610.00    0.89667   0.88417    0.000
 4611.00    1.12314   0.88643    0.000
 4612.00    1.21830   0.88125    0.000
 4613.00    1.16043   0.87877    0.000
 4614.00    1.07192   0.88751    0.000
 4615.00    0.95193   0.89738    0.000
 4616.00    0.74848   0.89945    0.000
 4617.00    0.46939   0.89971    0.000
 4618.00    0.53624   0.89842    0.000
 4619.00    0.87949   0.89132    0.000
 4620.00    0.98408   0.89029    0.000
 4621.00    0.92093   0.89876    0.000
 4622.00    1.01666   0.90288    0.000
 4623.00    1.21033   0.90303    0.000
 4624.00    1.17354   0.89511    0.000
 4625.00    1.01263   0.87957    0.000
 4626.00    0.99999   0.87624    0.000
 4627.00    1.05670   0.88779    0.000
 4628.00    1.15586   0.89645    0.000
 4629.00    1.27214   0.90103    0.000
 4630.00    1.22758   0.90357    0.000
 4631.00    1.12771   0.89985    0.000
 4632.00    1.10334   0.89312    0.000
 4633.00    1.10084   0.89027    0.000
 4634.00    1.18910   0.88852    0.000
 4635.00    1.29911   0.87895    0.000
 4636.00    1.15094   0.86879    0.000
 4637.00    0.95291   0.87176    0.000
 4638.00    0.82934   0.88081    0.000
 4639.00    0.71695   0.88014    0.000
 4640.00    0.74158   0.87480    0.000
 4641.00    0.78129   0.87452    0.000
 4642.00    0.85931   0.87731    0.000
 4643.00    0.94011   0.87314    0.000
 4644.00    1.21938   0.85878    0.000
 4645.00    1.50615   0.84536    0.000
 4646.00    1.32046   0.84211    0.000
 4647.00    1.13056   0.84493    0.000
 4648.00    0.87425   0.84912    0.000
 4649.00    0.63888   0.85684    0.000
 4650.00    0.74567   0.86624    0.000
 4651.00    0.83807   0.86746    0.000
 4652.00    0.78325   0.85144    0.000
 4653.00    0.74133   0.83008    0.000
 4654.00    0.79372   0.81956    0.000
 4655.00    0.85736   0.81851    0.000
 4656.00    0.98387   0.81980    0.000
 4657.00    1.03564   0.82747    0.000
 4658.00    0.75394   0.84524    0.000
 4659.00    0.57154   0.86315    0.000
 4660.00    0.75285   0.86354    0.000
 4661.00    0.91499   0.85478    0.000
 4662.00    1.01826   0.85308    0.000
 4663.00    1.10784   0.86072    0.000
 4664.00    1.16173   0.87650    0.000
 4665.00    1.15660   0.89352    0.000
 4666.00    1.01915   0.89984    0.000
 4667.00    0.92439   0.88962    0.000
 4668.00    0.91252   0.87404    0.000
 4669.00    0.84849   0.86765    0.000
 4670.00    0.69613   0.87006    0.000
 4671.00    0.65512   0.87139    0.000
 4672.00    0.77935   0.86217    0.000
 4673.00    0.88713   0.84216    0.000
 4674.00    0.97344   0.82754    0.000
 4675.00    1.03840   0.83050    0.000
 4676.00    1.07883   0.84575    0.000
 4677.00    0.99724   0.86152    0.000
 4678.00    0.79199   0.86719    0.000
 4679.00    0.86948   0.86078    0.000
 4680.00    1.19964   0.85263    0.000
 4681.00    1.21636   0.84968    0.000
 4682.00    0.98622   0.85310    0.000
 4683.00    0.98410   0.85920    0.000
 4684.00    1.13992   0.86260    0.000
 4685.00    1.20931   0.86057    0.000
 4686.00    1.22620   0.85584    0.000
 4687.00    1.13254   0.85017    0.000
 4688.00    0.98025   0.84656    0.000
 4689.00    0.93924   0.84910    0.000
 4690.00    0.94942   0.85107    0.000
 4691.00    0.88889   0.84290    0.000
 4692.00    0.80035   0.83439    0.000
 4693.00    0.80056   0.83839    0.000
 4694.00    0.83073   0.85014    0.000
 4695.00    0.66282   0.86014    0.000
 4696.00    0.43870   0.86234    0.000
 4697.00    0.29402   0.85717    0.000
 4698.00    0.16794   0.85624    0.000
 4699.00    0.40828   0.86281    0.000
 4700.00    0.71754   0.86945    0.000
 4701.00    0.60224   0.87428    0.000
 4702.00    0.42519   0.87790    0.000
 4703.00    0.58133   0.87539    0.000
 4704.00    0.77270   0.85948    0.000
 4705.00    0.98330   0.84047    0.000
 4706.00    1.19523   0.83815    0.000
 4707.00    1.00006   0.84696    0.000
 4708.00    0.79105   0.84770    0.000
 4709.00    0.74177   0.84204    0.000
 4710.00    0.69382   0.84073    0.000
 4711.00    0.68089   0.84457    0.000
 4712.00    0.66595   0.84717    0.000
 4713.00    0.62036   0.84652    0.000
 4714.00    0.59357   0.84314    0.000
 4715.00    0.75109   0.83878    0.000
 4716.00    0.89133   0.84035    0.000
 4717.00    0.90935   0.85166    0.000
 4718.00    0.90344   0.85157    0.000
 4719.00    0.76736   0.83158    0.000
 4720.00    0.65891   0.81916    0.000
 4721.00    0.67083   0.82822    0.000
 4722.00    0.68052   0.84080    0.000
 4723.00    0.68221   0.85101    0.000
 4724.00    0.70445   0.86131    0.000
 4725.00    0.78860   0.86961    0.000
 4726.00    0.84533   0.87494    0.000
 4727.00    0.83181   0.87588    0.000
 4728.00    0.84532   0.87081    0.000
 4729.00    0.91838   0.86581    0.000
 4730.00    0.95843   0.86893    0.000
 4731.00    0.93535   0.87623    0.000
 4732.00    0.91996   0.87591    0.000
 4733.00    0.91737   0.86155    0.000
 4734.00    0.96328   0.84343    0.000
 4735.00    1.08010   0.83638    0.000
 4736.00    1.09787   0.83929    0.000
 4737.00    0.98829   0.84338    0.000
 4738.00    0.84514   0.84737    0.000
 4739.00    0.66396   0.85172    0.000
 4740.00    0.63512   0.85525    0.000
 4741.00    0.75848   0.85940    0.000
 4742.00    0.83749   0.85916    0.000
 4743.00    0.87742   0.85364    0.000
 4744.00    0.77993   0.85417    0.000
 4745.00    0.57574   0.85987    0.000
 4746.00    0.61843   0.85929    0.000
 4747.00    0.82964   0.85217    0.000
 4748.00    0.96021   0.84771    0.000
 4749.00    1.04254   0.85181    0.000
 4750.00    0.99067   0.85871    0.000
 4751.00    0.86875   0.86007    0.000
 4752.00    0.92925   0.86064    0.000
 4753.00    1.07234   0.86466    0.000
 4754.00    1.03565   0.86641    0.000
 4755.00    0.92897   0.86517    0.000
 4756.00    0.91318   0.86483    0.000
 4757.00    0.92750   0.86437    0.000
 4758.00    0.90418   0.86080    0.000
 4759.00    0.87040   0.85653    0.000
 4760.00    0.76068   0.85440    0.000
 4761.00    0.63360   0.85471    0.009
 4762.00    0.75331   0.85525    0.009
 4763.00    0.91824   0.85315    0.009
 4764.00    0.94090   0.84898    0.009
 4765.00    0.94354   0.84638    0.009
 4766.00    0.88245   0.84709    0.009
 4767.00    0.81490   0.84445    0.009
 4768.00    0.83354   0.83360    0.009
 4769.00    0.85775   0.82239    0.009
 4770.00    0.87857   0.81774    0.009
 4771.00    0.89950   0.81551    0.009
 4772.00    1.02740   0.81314    0.009
 4773.00    1.14959   0.81476    0.009
 4774.00    1.10599   0.82078    0.009
 4775.00    1.06828   0.82809    0.009
 4776.00    1.11581   0.83332    0.009
 4777.00    1.16932   0.83195    0.009
 4778.00    1.27918   0.82557    0.009
 4779.00    1.35672   0.82351    0.009
 4780.00    1.21294   0.83005    0.009
 4781.00    1.07439   0.83823    0.009
 4782.00    0.96363   0.84103    0.009
 4783.00    0.85618   0.84062    0.009
 4784.00    0.76283   0.83886    0.009
 4785.00    0.69884   0.83291    0.009
 4786.00    0.73800   0.82618    0.009
 4787.00    0.78695   0.82414    0.009
 4788.00    0.86486   0.82370    0.009
 4789.00    0.90969   0.82028    0.009
 4790.00    0.87124   0.81832    0.009
 4791.00    0.88499   0.82203    0.009
 4792.00    1.01192   0.82301    0.009
 4793.00    1.08098   0.81870    0.009
 4794.00    1.04112   0.81681    0.009
 4795.00    1.03915   0.81675    0.009
 4796.00    1.09945   0.81828    0.009
 4797.00    1.11331   0.82290    0.009
 4798.00    1.06027   0.82695    0.009
 4799.00    0.97060   0.83199    0.009
 4800.00    0.83452   0.84097    0.009
 4801.00    0.73026   0.84909    0.009
 4802.00    0.66152   0.85065    0.009
 4803.00    0.65709   0.84583    0.009
 4804.00    0.71600   0.83796    0.009
 4805.00    0.74592   0.82971    0.009
 4806.00    0.75065   0.82553    0.009
 4807.00    0.72456   0.82893    0.009
 4808.00    0.67489   0.83520    0.009
 4809.00    0.70915   0.83726    0.009
 4810.00    0.79988   0.83379    0.009
 4811.00    0.82420   0.82658    0.009
 4812.00    0.80938   0.81986    0.009
 4813.00    0.84259   0.81686    0.009
 4814.00    0.90046   0.81588    0.009
 4815.00    0.86998   0.81683    0.009
 4816.00    0.80015   0.81996    0.009
 4817.00    0.66308   0.82213    0.009
 4818.00    0.50029   0.82096    0.009
 4819.00    0.57674   0.81769    0.009
 4820.00    0.73099   0.81636    0.010
 4821.00    0.70212   0.81801    0.010
 4822.00    0.62340   0.82100    0.009
 4823.00    0.72145   0.82658    0.009
 4824.00    0.85901   0.83205    0.009
 4825.00    0.97082   0.83020    0.009
 4826.00    1.07804   0.82475    0.009
 4827.00    1.02321   0.82516    0.009
 4828.00    0.94631   0.82819    0.009
 4829.00    0.85344   0.82147    0.009
 4830.00    0.75902   0.81007    0.009
 4831.00    0.82067   0.81110    0.009
 4832.00    0.89179   0.82154    0.009
 4833.00    0.89412   0.82530    0.009
 4834.00    0.89427   0.81736    0.009
 4835.00    0.83149   0.80752    0.009
 4836.00    0.77962   0.80777    0.010
 4837.00    1.01251   0.81246    0.009
 4838.00    1.21535   0.80908    0.009
 4839.00    1.00800   0.80581    0.009
 4840.00    0.82181   0.81346    0.009
 4841.00    0.82680   0.82201    0.009
 4842.00    0.82193   0.82275    0.009
 4843.00    0.75163   0.82087    0.009
 4844.00    0.67756   0.81983    0.009
 4845.00    0.58400   0.81528    0.009
 4846.00    0.54137   0.80856    0.009
 4847.00    0.71072   0.80687    0.009
 4848.00    0.81525   0.80892    0.000
 4849.00    0.69658   0.80554    0.000
 4850.00    0.67554   0.80003    0.000
 4851.00    0.93762   0.80383    0.000
 4852.00    1.07847   0.81263    0.000
 4853.00    0.91931   0.81291    0.000
 4854.00    0.80165   0.80205    0.000
 4855.00    0.77255   0.79026    0.000
 4856.00    0.81802   0.78745    0.000
 4857.00    1.00168   0.78784    0.000
 4858.00    1.09988   0.78365    0.000
 4859.00    1.05973   0.77867    0.000
 4860.00    0.96962   0.77019    0.000
 4861.00    0.80858   0.75064    0.000
 4862.00    0.69363   0.72873    0.000
 4863.00    0.63627   0.71701    0.000
 4864.00    0.63650   0.70562    0.000
 4865.00    0.70013   0.67515    0.000
 4866.00    0.76394   0.61836    0.000
 4867.00    0.82791   0.54905    0.000
 4868.00    0.80971   0.51703    0.000
 4869.00    0.72113   0.55614    0.000
 4870.00    0.68450   0.62437    0.000
 4871.00    0.68706   0.67202    0.000
 4872.00    0.73029   0.70303    0.000
 4873.00    0.80049   0.72745    0.000
 4874.00    0.90490   0.74355    0.000
 4875.00    1.02917   0.75588    0.009
 4876.00    1.16709   0.76359    0.009
 4877.00    1.31192   0.75795    0.009
 4878.00    1.23146   0.74890    0.009
 4879.00    1.05234   0.75679    0.009
 4880.00    0.85442   0.77523    0.009
 4881.00    0.64944   0.78451    0.009
 4882.00    0.67272   0.78612    0.009
 4883.00    0.76882   0.79132    0.009
 4884.00    0.77366   0.79740    0.009
 4885.00    0.75418   0.80242    0.009
 4886.00    0.75282   0.80773    0.009
 4887.00    0.75540   0.80363    0.009
 4888.00    0.75131   0.79366    0.009
 4889.00    0.74606   0.79436    0.009
 4890.00    0.80558   0.80090    0.009
 4891.00    0.87364   0.79895    0.009
 4892.00    0.90733   0.79115    0.009
 4893.00    0.93781   0.78905    0.009
 4894.00    0.92385   0.79453    0.009
 4895.00    0.90736   0.79753    0.009
 4896.00    0.77546   0.79004    0.009
 4897.00    0.64176   0.77556    0.009
 4898.00    0.59923   0.77239    0.009
 4899.00    0.56397   0.79119    0.009
 4900.00    0.70117   0.81374    0.009
 4901.00    0.83453   0.82719    0.009
 4902.00    0.91827   0.83545    0.009
 4903.00    0.99445   0.83885    0.009
 4904.00    1.00478   0.83815    0.009
 4905.00    1.00832   0.83134    0.009
 4906.00    0.96817   0.81752    0.009
 4907.00    0.91783   0.80926    0.009
 4908.00    0.81622   0.81248    0.009
 4909.00    0.73870   0.81287    0.009
 4910.00    0.75923   0.80768    0.009
 4911.00    0.78661   0.81039    0.009
 4912.00    0.83709   0.82106    0.009
 4913.00    0.85690   0.82588    0.009
 4914.00    0.78940   0.82189    0.009
 4915.00    0.77292   0.81505    0.009
 4916.00    0.88058   0.80723    0.009
 4917.00    0.89026   0.80298    0.009
 4918.00    0.69428   0.80838    0.009
 4919.00    0.56150   0.81541    0.009
 4920.00    0.54403   0.81773    0.009
 4921.00    0.54622   0.82132    0.009
 4922.00    0.57977   0.82781    0.008
 4923.00    0.64910   0.82739    0.008
 4924.00    0.76849   0.81404    0.008
 4925.00    0.86201   0.79058    0.009
 4926.00    0.92369   0.76408    0.009
 4927.00    0.92495   0.73818    0.009
 4928.00    0.86064   0.72325    0.008
 4929.00    0.88947   0.73790    0.008
 4930.00    1.00750   0.76273    0.009
 4931.00    0.97731   0.77566    0.009
 4932.00    0.82197   0.78614    0.009
 4933.00    0.73305   0.80927    0.009
 4934.00    0.69352   0.82679    0.009
 4935.00    0.79596   0.83400    0.009
 4936.00    0.99113   0.83862    0.009
 4937.00    1.04161   0.83942    0.009
 4938.00    1.00938   0.83513    0.009
 4939.00    0.84757   0.82181    0.009
 4940.00    0.62126   0.80189    0.000
 4941.00    0.66072   0.79680    0.000
 4942.00    0.81463   0.81065    0.000
 4943.00    0.76461   0.81681    0.000
 4944.00    0.63930   0.80362    0.000
 4945.00    0.59877   0.78629    0.000
 4946.00    0.58476   0.78373    0.000
 4947.00    0.61494   0.79561    0.000
 4948.00    0.65665   0.80562    0.000
 4949.00    0.71499   0.80663    0.000
 4950.00    0.77687   0.81370    0.000
 4951.00    0.98920   0.82372    0.000
 4952.00    1.22689   0.82613    0.000
 4953.00    1.09599   0.82520    0.000
 4954.00    0.91821   0.82945    0.000
 4955.00    0.91063   0.83355    0.000
 4956.00    0.91814   0.83624    0.000
 4957.00    0.92504   0.84033    0.000
 4958.00    0.93190   0.84191    0.000
 4959.00    0.98145   0.83523    0.000
 4960.00    1.02929   0.82256    0.000
 4961.00    0.87980   0.80651    0.000
 4962.00    0.73371   0.78647    0.000
 4963.00    0.66183   0.76163    0.000
 4964.00    0.60983   0.73948    0.000
 4965.00    0.80192   0.74256    0.000
 4966.00    0.99203   0.76750    0.000
 4967.00    1.16564   0.78542    0.000
 4968.00    1.26035   0.78770    0.000
 4969.00    0.86236   0.78506    0.000
 4970.00    0.52790   0.78382    0.000
 4971.00    0.50494   0.77895    0.000
 4972.00    0.54190   0.77055    0.000
 4973.00    0.81740   0.76640    0.000
 4974.00    0.98185   0.76761    0.000
 4975.00    0.77892   0.77069    0.000
 4976.00    0.67870   0.77624    0.000
 4977.00    0.86562   0.78070    0.000
 4978.00    0.97250   0.78495    0.000
 4979.00    0.88795   0.78960    0.000
 4980.00    0.78951   0.79316    0.000
 4981.00    0.66237   0.79679    0.000
 4982.00    0.59406   0.79746    0.000
 4983.00    0.63144   0.79405    0.000
 4984.00    0.69992   0.78819    0.000
 4985.00    0.81727   0.78058    0.000
 4986.00    0.91104   0.77583    0.000
 4987.00    0.97231   0.77132    0.000
 4988.00    0.88971   0.75758    0.000
 4989.00    0.63245   0.74173    0.000
 4990.00    0.58854   0.74049    0.000
 4991.00    0.77299   0.75250    0.000
 4992.00    0.81171   0.76411    0.000
 4993.00    0.71284   0.77257    0.000
 4994.00    0.67110   0.78077    0.000
 4995.00    0.67692   0.78359    0.000
 4996.00    0.64467   0.77877    0.000
 4997.00    0.58450   0.77131    0.000
 4998.00    0.60920   0.76923    0.000
 4999.00    0.68853   0.77643    0.000
 5000.00    0.70846   0.77766    0.000
 5001.00    0.69496   0.77270    0.000
 5002.00    0.67803   0.77695    0.000
 5003.00    0.65943   0.78421    0.000
 5004.00    0.67528   0.78341    0.000
 5005.00    0.70570   0.77577    0.000
 5006.00    0.70970   0.75950    0.000
 5007.00    0.70411   0.74082    0.000
 5008.00    0.57819   0.73384    0.000
 5009.00    0.41535   0.74016    0.000
 5010.00    0.61029   0.75153    0.000
 5011.00    0.89658   0.74964    0.000
 5012.00    1.01427   0.73810    0.000
 5013.00    1.09693   0.72967    0.000
 5014.00    0.91758   0.73669    0.000
 5015.00    0.69534   0.75269    0.000
 5016.00    0.66270   0.76106    0.000
 5017.00    0.65332   0.75821    0.000
 5018.00    0.73394   0.75136    0.000
 5019.00    0.82218   0.74072    0.000
 5020.00    0.76765   0.72667    0.000
 5021.00    0.70614   0.70973    0.000
 5022.00    0.57618   0.69820    0.000
 5023.00    0.45023   0.71102    0.000
 5024.00    0.63363   0.73326    0.000
 5025.00    0.80088   0.74698    0.000
 5026.00    0.64425   0.75338    0.000
 5027.00    0.49640   0.75984    0.000
 5028.00    0.45109   0.75737    0.000
 5029.00    0.42732   0.74843    0.008
 5030.00    0.57744   0.75031    0.008
 5031.00    0.70258   0.75994    0.008
 5032.00    0.67622   0.76281    0.008
 5033.00    0.66333   0.75951    0.008
 5034.00    0.71488   0.75423    0.008
 5035.00    0.73286   0.75610    0.008
 5036.00    0.62007   0.76699    0.008
 5037.00    0.55048   0.77329    0.008
 5038.00    0.62101   0.77526    0.008
 5039.00    0.67744   0.77922    0.008
 5040.00    0.69517   0.78449    0.008
 5041.00    0.70099   0.77990    0.008
 5042.00    0.67882   0.76161    0.008
 5043.00    0.70943   0.74825    0.008
 5044.00    0.84731   0.75318    0.008
 5045.00    0.93305   0.75444    0.008
 5046.00    0.92654   0.73859    0.008
 5047.00    0.85794   0.71254    0.008
 5048.00    0.69323   0.70189    0.008
 5049.00    0.60944   0.72355    0.008
 5050.00    0.63568   0.75504    0.008
 5051.00    0.71731   0.76889    0.009
 5052.00    0.86523   0.77774    0.009
 5053.00    0.86466   0.78209    0.009
 5054.00    0.70738   0.77118    0.009
 5055.00    0.71453   0.75434    0.009
 5056.00    0.87473   0.74764    0.008
 5057.00    0.96346   0.74932    0.008
 5058.00    0.99353   0.74997    0.008
 5059.00    0.94628   0.75589    0.008
 5060.00    0.84319   0.76583    0.009
 5061.00    0.78834   0.77178    0.009
 5062.00    0.76408   0.76629    0.009
 5063.00    0.81973   0.76313    0.009
 5064.00    0.91966   0.76992    0.009
 5065.00    0.87211   0.78134    0.009
 5066.00    0.75344   0.78182    0.009
 5067.00    0.71779   0.78304    0.009
 5068.00    0.71669   0.78777    0.009
 5069.00    0.75491   0.78706    0.009
 5070.00    0.80712   0.77416    0.009
 5071.00    0.81445   0.75137    0.009
 5072.00    0.80829   0.73983    0.009
 5073.00    0.73505   0.75022    0.009
 5074.00    0.64507   0.75871    0.008
 5075.00    0.56960   0.75633    0.009
 5076.00    0.49707   0.75824    0.009
 5077.00    0.51003   0.76599    0.009
 5078.00    0.53659   0.76407    0.008
 5079.00    0.70327   0.75449    0.008
 5080.00    0.88652   0.75534    0.009
 5081.00    0.71906   0.76324    0.008
 5082.00    0.52340   0.76248    0.008
 5083.00    0.46684   0.75915    0.008
 5084.00    0.41653   0.76112    0.008
 5085.00    0.61547   0.75671    0.008
 5086.00    0.81441   0.73497    0.008
 5087.00    0.86657   0.72237    0.008
 5088.00    0.91667   0.73008    0.008
 5089.00    0.92836   0.73797    0.008
 5090.00    0.93955   0.73828    0.008
 5091.00    0.94521   0.74397    0.008
 5092.00    0.93989   0.75492    0.008
 5093.00    0.84899   0.75975    0.008
 5094.00    0.75315   0.75959    0.008
 5095.00    0.62822   0.76111    0.008
 5096.00    0.56316   0.76449    0.008
 5097.00    0.77749   0.76225    0.008
 5098.00    0.93809   0.76053    0.008
 5099.00    0.89389   0.76632    0.008
 5100.00    0.81951   0.77527    0.008
 5101.00    0.64913   0.77449    0.008
 5102.00    0.51803   0.76382    0.008
 5103.00    0.49279   0.75600    0.008
 5104.00    0.51478   0.75312    0.008
 5105.00    0.64598   0.74530    0.008
 5106.00    0.72045   0.73454    0.008
 5107.00    0.68142   0.73789    0.008
 5108.00    0.67032   0.75096    0.008
 5109.00    0.70786   0.75667    0.008
 5110.00    0.75732   0.75453    0.008
 5111.00    0.82493   0.75061    0.008
 5112.00    0.86885   0.74893    0.008
 5113.00    0.88100   0.74551    0.008
 5114.00    0.87335   0.73785    0.008
 5115.00    0.84234   0.73636    0.008
 5116.00    0.78574   0.73957    0.008
 5117.00    0.70252   0.73696    0.008
 5118.00    0.69477   0.74031    0.008
 5119.00    0.75631   0.74724    0.008
 5120.00    0.72423   0.74720    0.008
 5121.00    0.61642   0.75109    0.008
 5122.00    0.65078   0.75991    0.008
 5123.00    0.78635   0.76667    0.008
 5124.00    0.75372   0.77337    0.008
 5125.00    0.61603   0.77578    0.008
 5126.00    0.70087   0.76959    0.008
 5127.00    0.90720   0.76040    0.008
 5128.00    0.86077   0.75001    0.008
 5129.00    0.69443   0.73915    0.008
 5130.00    0.67210   0.72551    0.008
 5131.00    0.70871   0.71959    0.008
 5132.00    0.68564   0.72744    0.008
 5133.00    0.64172   0.73033    0.008
 5134.00    0.75162   0.72429    0.008
 5135.00    0.90686   0.72257    0.008
 5136.00    0.75533   0.72681    0.008
 5137.00    0.52887   0.73156    0.008
 5138.00    0.57128   0.74121    0.008
 5139.00    0.66680   0.74495    0.009
 5140.00    0.64519   0.74160    0.008
 5141.00    0.60551   0.74633    0.008
 5142.00    0.76916   0.76068    0.008
 5143.00    0.95596   0.76125    0.008
 5144.00    0.90704   0.75060    0.008
 5145.00    0.84013   0.73955    0.008
 5146.00    0.76791   0.73022    0.008
 5147.00    0.69548   0.73762    0.008
 5148.00    0.65959   0.74788    0.008
 5149.00    0.62466   0.73316    0.008
 5150.00    0.61688   0.72137    0.008
 5151.00    0.61927   0.72674    0.008
 5152.00    0.79799   0.72853    0.008
 5153.00    0.94216   0.72344    0.009
 5154.00    0.71892   0.72581    0.009
 5155.00    0.52451   0.73181    0.009
 5156.00    0.54720   0.73875    0.008
 5157.00    0.56184   0.73223    0.008
 5158.00    0.53038   0.71849    0.008
 5159.00    0.49882   0.71233    0.008
 5160.00    0.46672   0.71484    0.008
 5161.00    0.46508   0.72044    0.008
 5162.00    0.57706   0.72801    0.008
 5163.00    0.62161   0.74208    0.008
 5164.00    0.45578   0.75754    0.008
 5165.00    0.38092   0.76790    0.008
 5166.00    0.54696   0.76364    0.008
 5167.00    0.65753   0.76267    0.008
 5168.00    0.64195   0.76686    0.008
 5169.00    0.59443   0.76286    0.008
 5170.00    0.48401   0.75700    0.008
 5171.00    0.40510   0.75269    0.008
 5172.00    0.38025   0.73087    0.008
 5173.00    0.42699   0.68811    0.008
 5174.00    0.58133   0.64702    0.008
 5175.00    0.67102   0.63305    0.008
 5176.00    0.67533   0.64920    0.008
 5177.00    0.67150   0.67081    0.008
 5178.00    0.65818   0.66513    0.008
 5179.00    0.57451   0.63411    0.008
 5180.00    0.41865   0.62420    0.008
 5181.00    0.39206   0.65366    0.008
 5182.00    0.48246   0.68497    0.008
 5183.00    0.56120   0.69820    0.008
 5184.00    0.63065   0.70485    0.008
 5185.00    0.62692   0.70957    0.008
 5186.00    0.57186   0.70734    0.008
 5187.00    0.58965   0.70206    0.008
 5188.00    0.65227   0.69252    0.008
 5189.00    0.66220   0.66903    0.008
 5190.00    0.64381   0.63442    0.000
 5191.00    0.77484   0.62722    0.000
 5192.00    0.97563   0.66237    0.000
 5193.00    0.90119   0.70180    0.000
 5194.00    0.71604   0.72011    0.000
 5195.00    0.64486   0.72182    0.000
 5196.00    0.61279   0.72267    0.000
 5197.00    0.58747   0.72593    0.000
 5198.00    0.56410   0.71176    0.000
 5199.00    0.53709   0.68940    0.000
 5200.00    0.50922   0.68573    0.000
 5201.00    0.63251   0.69697    0.000
 5202.00    0.78488   0.70536    0.000
 5203.00    0.69706   0.71580    0.000
 5204.00    0.57332   0.72782    0.000
 5205.00    0.54905   0.73269    0.000
 5206.00    0.53567   0.73506    0.000
 5207.00    0.64960   0.73207    0.000
 5208.00    0.77272   0.72528    0.000
 5209.00    0.78357   0.71969    0.000
 5210.00    0.79024   0.71608    0.000
 5211.00    0.81046   0.70050    0.008
 5212.00    0.83185   0.67803    0.008
 5213.00    0.89381   0.66848    0.008
 5214.00    0.94873   0.67117    0.008
 5215.00    0.88954   0.66763    0.008
 5216.00    0.82155   0.66641    0.008
 5217.00    0.66398   0.67710    0.008
 5218.00    0.54537   0.69412    0.008
 5219.00    0.71028   0.71407    0.008
 5220.00    0.83483   0.73177    0.008
 5221.00    0.73455   0.74095    0.008
 5222.00    0.64554   0.73514    0.008
 5223.00    0.60667   0.72456    0.008
 5224.00    0.60119   0.72562    0.008
 5225.00    0.71766   0.73551    0.008
 5226.00    0.75431   0.74306    0.008
 5227.00    0.54661   0.74741    0.008
 5228.00    0.42796   0.75253    0.008
 5229.00    0.54103   0.75279    0.008
 5230.00    0.64722   0.74232    0.008
 5231.00    0.73798   0.72354    0.008
 5232.00    0.71499   0.70333    0.008
 5233.00    0.47151   0.68504    0.008
 5234.00    0.37326   0.67962    0.008
 5235.00    0.52051   0.70263    0.008
 5236.00    0.63644   0.73271    0.008
 5237.00    0.70600   0.74794    0.008
 5238.00    0.73078   0.75470    0.008
 5239.00    0.69729   0.74906    0.008
 5240.00    0.69157   0.73229    0.008
 5241.00    0.71771   0.72364    0.008
 5242.00    0.70750   0.72998    0.008
 5243.00    0.66053   0.74490    0.008
 5244.00    0.59721   0.75700    0.008
 5245.00    0.51931   0.75931    0.008
 5246.00    0.58181   0.75388    0.008
 5247.00    0.75467   0.74732    0.008
 5248.00    0.83180   0.74548    0.008
 5249.00    0.84274   0.74489    0.008
 5250.00    0.80780   0.74485    0.008
 5251.00    0.74505   0.75096    0.008
 5252.00    0.70925   0.75514    0.008
 5253.00    0.68771   0.73654    0.008
 5254.00    0.67954   0.71091    0.008
 5255.00    0.67750   0.70867    0.008
 5256.00    0.79447   0.71829    0.008
 5257.00    0.95849   0.71314    0.008
 5258.00    0.86161   0.70738    0.008
 5259.00    0.67686   0.71578    0.008
 5260.00    0.63880   0.72789    0.008
 5261.00    0.64227   0.72935    0.008
 5262.00    0.58709   0.72297    0.008
 5263.00    0.51822   0.72959    0.008
 5264.00    0.45758   0.74825    0.008
 5265.00    0.39849   0.76108    0.008
 5266.00    0.36516   0.76073    0.008
 5267.00    0.33556   0.75096    0.009
 5268.00    0.29169   0.73683    0.009
 5269.00    0.24633   0.72060    0.009
 5270.00    0.32276   0.70198    0.009
 5271.00    0.40749   0.68700    0.009
 5272.00    0.55480   0.67762    0.009
 5273.00    0.70421   0.67824    0.009
 5274.00    0.68865   0.69567    0.009
 5275.00    0.67079   0.70328    0.009
 5276.00    0.58501   0.67582    0.009
 5277.00    0.51750   0.65253    0.008
 5278.00    0.72838   0.67136    0.008
 5279.00    0.90284   0.70410    0.008
 5280.00    0.72196   0.72052    0.008
 5281.00    0.56336   0.72589    0.008
 5282.00    0.56159   0.72372    0.008
 5283.00    0.56243   0.72217    0.008
 5284.00    0.57748   0.73727    0.008
 5285.00    0.59950   0.75603    0.008
 5286.00    0.65190   0.76145    0.008
 5287.00    0.71053   0.75459    0.008
 5288.00    0.79144   0.74143    0.008
 5289.00    0.84664   0.72848    0.008
 5290.00    0.82466   0.71957    0.008
 5291.00    0.77798   0.72116    0.008
 5292.00    0.66814   0.73936    0.008
 5293.00    0.57660   0.76060    0.008
 5294.00    0.52529   0.76855    0.008
 5295.00    0.52838   0.76318    0.008
 5296.00    0.63525   0.75740    0.008
 5297.00    0.72505   0.75813    0.008
 5298.00    0.78645   0.76046    0.008
 5299.00    0.83166   0.75918    0.008
 5300.00    0.85322   0.75674    0.008
 5301.00    0.82691   0.75794    0.008
 5302.00    0.73917   0.75545    0.008
 5303.00    0.74180   0.73876    0.008
 5304.00    0.84665   0.71231    0.008
 5305.00    0.84685   0.69816    0.008
 5306.00    0.74268   0.70773    0.008
 5307.00    0.66444   0.72385    0.008
 5308.00    0.60901   0.72700    0.008
 5309.00    0.62901   0.72769    0.008
 5310.00    0.70747   0.73792    0.008
 5311.00    0.71409   0.75572    0.008
 5312.00    0.67175   0.76710    0.008
 5313.00    0.66005   0.76342    0.008
 5314.00    0.66666   0.75193    0.008
 5315.00    0.64400   0.74797    0.008
 5316.00    0.60609   0.75397    0.008
 5317.00    0.66535   0.75852    0.008
 5318.00    0.76851   0.75677    0.008
 5319.00    0.71947   0.75308    0.008
 5320.00    0.61130   0.75009    0.008
 5321.00    0.61844   0.74954    0.008
 5322.00    0.66368   0.74956    0.008
 5323.00    0.71216   0.74622    0.008
 5324.00    0.76152   0.74267    0.008
 5325.00    0.77940   0.74417    0.008
 5326.00    0.79011   0.74529    0.008
 5327.00    0.73250   0.74183    0.008
 5328.00    0.66243   0.74032    0.008
 5329.00    0.70213   0.74025    0.008
 5330.00    0.75724   0.73548    0.008
 5331.00    0.84344   0.72715    0.008
 5332.00    0.93278   0.72845    0.008
 5333.00    0.93219   0.73136    0.008
 5334.00    0.92583   0.70994    0.008
 5335.00    0.86945   0.67097    0.008
 5336.00    0.81147   0.66087    0.008
 5337.00    0.70458   0.68809    0.008
 5338.00    0.60711   0.71769    0.008
 5339.00    0.77898   0.72873    0.008
 5340.00    0.92592   0.73002    0.008
 5341.00    0.71519   0.73661    0.008
 5342.00    0.53059   0.74525    0.008
 5343.00    0.59057   0.74521    0.008
 5344.00    0.64581   0.74100    0.008
 5345.00    0.66869   0.73951    0.008
 5346.00    0.67168   0.73326    0.008
 5347.00    0.56954   0.71677    0.008
 5348.00    0.49501   0.70528    0.008
 5349.00    0.53766   0.71257    0.008
 5350.00    0.57344   0.72593    0.008
 5351.00    0.58507   0.73339    0.008
 5352.00    0.60273   0.72826    0.008
 5353.00    0.63813   0.72257    0.008
 5354.00    0.69295   0.72605    0.008
 5355.00    0.79659   0.72709    0.008
 5356.00    0.89106   0.71903    0.008
 5357.00    0.96567   0.71953    0.008
 5358.00    0.97295   0.73388    0.008
 5359.00    0.85372   0.74853    0.008
 5360.00    0.78130   0.75448    0.008
 5361.00    0.78562   0.75899    0.008
 5362.00    0.80772   0.76539    0.008
 5363.00    0.85537   0.76736    0.008
 5364.00    0.89463   0.76666    0.008
 5365.00    0.92328   0.76680    0.008
 5366.00    0.88622   0.76602    0.008
 5367.00    0.77590   0.76144    0.008
 5368.00    0.71683   0.75201   -2.000
 5369.00    0.70815   0.74227   -2.000
 5370.00    0.70791   0.73850   -2.000
 5371.00    0.71498   0.73770   -2.000
 5372.00    0.67740   0.73537   -2.000
 5373.00    0.60571   0.73415   -2.000
 5374.00    0.50239   0.73527   -2.000
 5375.00    0.37782   0.73601   -2.000
 5376.00    0.52025   0.72923   -2.000
 5377.00    0.81971   0.71093   -2.000
 5378.00    0.89622   0.69145   -2.000
 5379.00    0.85839   0.69163   -2.000
 5380.00    0.80446   0.71502   -2.000
 5381.00    0.74338   0.74019   -2.000
 5382.00    0.80579   0.75212   -2.000
 5383.00    0.91535   0.75125    0.008
 5384.00    0.85261   0.74715    0.008
 5385.00    0.73398   0.74996    0.008
 5386.00    0.74123   0.75530    0.008
 5387.00    0.78266   0.75374    0.008
 5388.00    0.81991   0.74667    0.008
 5389.00    0.85623   0.74107    0.008
 5390.00    0.78643   0.73708    0.008
 5391.00    0.69777   0.73593    0.008
 5392.00    0.67886   0.73949    0.008
 5393.00    0.66941   0.74366    0.008
 5394.00    0.61234   0.74542    0.008
 5395.00    0.55066   0.74366    0.008
 5396.00    0.66700   0.73664    0.008
 5397.00    0.79405   0.72675    0.008
 5398.00    0.79642   0.72143    0.008
 5399.00    0.79466   0.72235    0.008
 5400.00    0.64576   0.72421    0.008
 5401.00    0.50414   0.72339    0.008
 5402.00    0.55038   0.72031    0.008
 5403.00    0.60055   0.70897    0.008
 5404.00    0.70397   0.69292    0.008
 5405.00    0.79825   0.69605    0.008
 5406.00    0.81036   0.71730    0.008
 5407.00    0.78344   0.73035    0.008
 5408.00    0.49853   0.73040    0.008
 5409.00    0.29390   0.73108    0.008
 5410.00    0.50219   0.73017    0.008
 5411.00    0.69913   0.71642    0.008
 5412.00    0.84893   0.69403    0.008
 5413.00    0.92768   0.68186    0.008
 5414.00    0.76240   0.69054    0.008
 5415.00    0.66191   0.70353    0.008
 5416.00    0.74887   0.69982    0.008
 5417.00    0.79134   0.68669    0.008
 5418.00    0.72399   0.68801    0.008
 5419.00    0.69890   0.70501    0.008
 5420.00    0.76382   0.72191    0.008
 5421.00    0.81860   0.73021    0.008
 5422.00    0.85464   0.73304    0.008
 5423.00    0.86350   0.73848    0.008
 5424.00    0.82846   0.74625    0.008
 5425.00    0.75257   0.74948    0.008
 5426.00    0.61880   0.74604    0.008
 5427.00    0.58881   0.73969    0.008
 5428.00    0.68826   0.73727    0.008
 5429.00    0.76026   0.74142    0.008
 5430.00    0.80211   0.74215    0.008
 5431.00    0.82052   0.73403    0.008
 5432.00    0.81620   0.72979    0.008
 5433.00    0.70831   0.73670    0.008
 5434.00    0.51187   0.74766    0.008
 5435.00    0.50016   0.74536    0.008
 5436.00    0.62755   0.72068    0.008
 5437.00    0.67999   0.69920    0.008
 5438.00    0.68284   0.70327    0.008
 5439.00    0.75639   0.71246    0.008
 5440.00    0.87090   0.70907    0.008
 5441.00    0.92329   0.70030    0.008
 5442.00    0.94431   0.69689    0.008
 5443.00    0.85203   0.70187    0.008
 5444.00    0.71024   0.71226    0.008
 5445.00    0.73375   0.72527    0.008
 5446.00    0.81926   0.73823    0.008
 5447.00    0.78866   0.74810    0.008
 5448.00    0.72112   0.75360    0.008
 5449.00    0.72151   0.75605    0.008
 5450.00    0.73996   0.75780    0.008
 5451.00    0.75399   0.75612    0.008
 5452.00    0.76706   0.74214    0.008
 5453.00    0.75242   0.71363    0.008
 5454.00    0.73300   0.68660    0.008
 5455.00    0.80187   0.68091    0.008
 5456.00    0.88231   0.69082    0.008
 5457.00    0.88161   0.69880    0.008
 5458.00    0.87343   0.69989    0.008
 5459.00    0.81497   0.69751    0.008
 5460.00    0.75369   0.69205    0.008
 5461.00    0.73025   0.68225    0.008
 5462.00    0.70833   0.66809    0.008
 5463.00    0.75657   0.66180    0.008
 5464.00    0.80252   0.67264    0.008
 5465.00    0.79489   0.69097    0.008
 5466.00    0.78728   0.70154    0.008
 5467.00    0.78004   0.70030    0.007
 5468.00    0.77995   0.69503    0.007
 5469.00    0.84170   0.69159    0.007
 5470.00    0.88769   0.68896    0.008
 5471.00    0.83265   0.68988    0.008
 5472.00    0.78779   0.69531    0.008
 5473.00    0.79394   0.69842    0.008
 5474.00    0.79261   0.70036    0.008
 5475.00    0.76096   0.70542    0.008
 5476.00    0.69497   0.70773    0.008
 5477.00    0.51341   0.70296    0.008
 5478.00    0.39663   0.69806   -2.000
 5479.00    0.46384   0.69691   -2.000
 5480.00    0.53400   0.69319   -2.000
 5481.00    0.61128   0.68792   -2.000
 5482.00    0.51254   0.68635   -2.000
 5483.00    0.04505   0.68088   -2.000
 5484.00   -0.22381   0.67219   -2.000
 5485.00   -0.13092   0.67724   -2.000
 5486.00   -0.21615   0.69414   -2.000
 5487.00   -0.58492   0.70243   -2.000
 5488.00   -0.60534   0.69489   -2.000
 5489.00   -0.13913   0.68590   -2.000
 5490.00    0.17104   0.68861   -2.000
 5491.00    0.28939   0.70003   -2.000
 5492.00    1.04069   0.71089   -2.000
 5493.00    2.47792   0.71384   -2.000
 5494.00    2.42880   0.70758   -2.000
 5495.00    0.95889   0.70075   -2.000
 5496.00    0.34338   0.70134   -2.000
 5497.00    0.44800   0.70350   -2.000
 5498.00    0.56598   0.70390   -2.000
 5499.00    0.69388   0.70754   -2.000
 5500.00    0.72658   0.71012   -2.000
 5501.00    0.69722   0.70827   -2.000
 5502.00    0.68402   0.70737    0.008
 5503.00    0.68003   0.70577    0.008
 5504.00    0.61242   0.69740    0.007
 5505.00    0.51320   0.69081    0.007
 5506.00    0.63865   0.69641    0.007
 5507.00    0.86064   0.70275    0.007
 5508.00    0.85616   0.69692    0.007
 5509.00    0.76826   0.68849    0.007
 5510.00    0.65152   0.68920    0.007
 5511.00    0.52579   0.69466    0.007
 5512.00    0.59224   0.69493    0.007
 5513.00    0.70871   0.68650    0.007
 5514.00    0.70628   0.67894    0.007
 5515.00    0.67861   0.68509    0.007
 5516.00    0.61069   0.69689    0.007
 5517.00    0.53600   0.70048    0.007
 5518.00    0.53604   0.69543    0.007
 5519.00    0.54554   0.68485    0.007
 5520.00    0.53400   0.67495    0.007
 5521.00    0.52060   0.67164    0.007
 5522.00    0.51468   0.67424    0.007
 5523.00    0.50916   0.68110    0.007
 5524.00    0.56100   0.69112    0.007
 5525.00    0.61257   0.70281    0.007
 5526.00    0.56244   0.71332    0.007
 5527.00    0.51452   0.71748    0.007
 5528.00    0.51399   0.71575    0.008
 5529.00    0.51935   0.71359    0.008
 5530.00    0.59655   0.71316    0.008
 5531.00    0.65959   0.71300    0.008
 5532.00    0.60451   0.71073    0.008
 5533.00    0.55271   0.70476    0.008
 5534.00    0.52131   0.69498    0.008
 5535.00    0.50951   0.68429    0.008
 5536.00    0.59351   0.68254    0.008
 5537.00    0.67419   0.69424    0.008
 5538.00    0.74172   0.70694    0.008
 5539.00    0.79008   0.70998    0.008
 5540.00    0.77519   0.70653    0.008
 5541.00    0.75438   0.70204    0.008
 5542.00    0.71703   0.69760    0.008
 5543.00    0.68587   0.69661    0.008
 5544.00    0.66950   0.70098    0.008
 5545.00    0.66227   0.70427    0.008
 5546.00    0.67388   0.70532    0.008
 5547.00    0.68079   0.71017    0.008
 5548.00    0.67929   0.71699    0.008
 5549.00    0.73642   0.71845    0.008
 5550.00    0.88550   0.71305    0.008
 5551.00    0.94026   0.70729    0.008
 5552.00    0.86517   0.70557    0.008
 5553.00    0.82312   0.70480    0.008
 5554.00    0.82114   0.70480    0.008
 5555.00    0.78143   0.70955    0.008
 5556.00    0.70142   0.71630    0.008
 5557.00    0.64330   0.71900    0.007
 5558.00    0.60581   0.71766    0.007
 5559.00    0.63525   0.71472    0.007
 5560.00    0.72029   0.70981    0.007
 5561.00    0.74830   0.70367    0.007
 5562.00    0.73459   0.70013    0.007
 5563.00    0.79094   0.69993    0.007
 5564.00    0.89228   0.69944    0.007
 5565.00    0.83136   0.69832    0.007
 5566.00    0.67928   0.69971    0.007
 5567.00    0.65379   0.70203    0.007
 5568.00    0.69020   0.70187    0.007
 5569.00    0.64231   0.69897    0.007
 5570.00    0.55881   0.69522    0.007
 5571.00    0.59221   0.69272    0.007
 5572.00    0.66791   0.69105    0.007
 5573.00    0.67543   0.68838    0.008
 5574.00    0.66209   0.68723    0.008
 5575.00    0.64225   0.68923    0.008
 5576.00    0.62077   0.68998    0.008
 5577.00    0.64968   0.68921    0.008
 5578.00    0.68902   0.69178    0.008
 5579.00    0.71595   0.69363    0.008
 5580.00    0.74085   0.68942    0.008
 5581.00    0.68029   0.68837    0.008
 5582.00    0.60929   0.69399    0.008
 5583.00    0.59156   0.69703    0.008
 5584.00    0.57830   0.69750    0.008
 5585.00    0.66969   0.69889    0.008
 5586.00    0.76614   0.69846    0.008
 5587.00    0.75743   0.69845    0.008
 5588.00    0.74626   0.69923    0.008
 5589.00    0.68244   0.69566    0.008
 5590.00    0.62301   0.69179    0.008
 5591.00    0.65094   0.69223    0.008
 5592.00    0.67189   0.69141    0.008
 5593.00    0.61174   0.68545    0.008
 5594.00    0.54903   0.67457    0.008
 5595.00    0.46580   0.66302    0.008
 5596.00    0.40650   0.65743    0.008
 5597.00    0.49185   0.66084    0.008
 5598.00    0.60527   0.66960    0.008
 5599.00    0.85248   0.67518    0.008
 5600.00    1.04038   0.67519    0.008
 5601.00    0.99788   0.67483    0.008
 5602.00    0.95129   0.67867    0.008
 5603.00    0.89146   0.68792    0.008
 5604.00    0.82797   0.69303    0.008
 5605.00    0.75446   0.68150    0.007
 5606.00    0.70789   0.66394    0.007
 5607.00    0.72456   0.65821    0.007
 5608.00    0.73684   0.66077    0.007
 5609.00    0.74021   0.66125    0.007
 5610.00    0.72190   0.66030    0.007
 5611.00    0.66528   0.66400    0.007
 5612.00    0.68953   0.67258    0.007
 5613.00    0.83873   0.68127    0.007
 5614.00    0.85533   0.68867    0.007
 5615.00    0.69202   0.69321    0.007
 5616.00    0.58023   0.69415    0.007
 5617.00    0.53001   0.69234    0.007
 5618.00    0.54438   0.69147    0.007
 5619.00    0.62679   0.69411    0.007
 5620.00    0.68880   0.69727    0.007
 5621.00    0.73184   0.69258    0.007
 5622.00    0.68775   0.67519    0.008
 5623.00    0.57227   0.65764    0.007
 5624.00    0.58350   0.65789    0.007
 5625.00    0.68606   0.66895    0.007
 5626.00    0.70295   0.67429    0.007
 5627.00    0.66561   0.67359    0.007
 5628.00    0.63624   0.67458    0.007
 5629.00    0.61127   0.67980    0.007
 5630.00    0.63643   0.68220    0.007
 5631.00    0.68571   0.67442    0.007
 5632.00    0.68717   0.66263    0.007
 5633.00    0.66876   0.66134    0.007
 5634.00    0.60494   0.67041    0.007
 5635.00    0.52498   0.67704    0.007
 5636.00    0.57778   0.67756    0.007
 5637.00    0.67042   0.67630    0.007
 5638.00    0.76933   0.67609    0.007
 5639.00    0.86980   0.67826    0.007
 5640.00    0.76938   0.68142    0.007
 5641.00    0.62836   0.68352    0.007
 5642.00    0.66399   0.68269    0.007
 5643.00    0.72758   0.67766    0.007
 5644.00    0.76255   0.67131    0.007
 5645.00    0.79415   0.66764    0.007
 5646.00    0.71746   0.66618    0.007
 5647.00    0.63212   0.66349    0.007
 5648.00    0.63871   0.66026    0.007
 5649.00    0.64941   0.66045    0.007
 5650.00    0.60681   0.66591    0.007
 5651.00    0.56639   0.66942    0.007
 5652.00    0.66122   0.67001    0.007
 5653.00    0.75286   0.67034    0.007
 5654.00    0.78580   0.67074    0.007
 5655.00    0.80929   0.67174    0.007
 5656.00    0.72822   0.67340    0.007
 5657.00    0.65255   0.67643    0.007
 5658.00    0.61867   0.68134    0.007
 5659.00    0.59440   0.68695    0.007
 5660.00    0.62654   0.69139    0.007
 5661.00    0.66532   0.69175    0.007
 5662.00    0.73501   0.68785    0.007
 5663.00    0.79457   0.68484    0.007
 5664.00    0.81562   0.68180    0.007
 5665.00    0.82162   0.66865    0.007
 5666.00    0.77988   0.65241    0.007
 5667.00    0.73149   0.65426    0.007
 5668.00    0.66525   0.66744    0.007
 5669.00    0.62567   0.66784    0.007
 5670.00    0.64759   0.65961    0.007
 5671.00    0.65252   0.65997    0.007
 5672.00    0.62354   0.66837    0.007
 5673.00    0.60951   0.67243    0.007
 5674.00    0.62147   0.67015    0.007
 5675.00    0.65371   0.66551    0.007
 5676.00    0.71685   0.66286    0.007
 5677.00    0.76861   0.66491    0.007
 5678.00    0.80514   0.66703    0.007
 5679.00    0.77541   0.66942    0.007
 5680.00    0.66761   0.67585    0.007
 5681.00    0.66216   0.68324    0.007
 5682.00    0.76301   0.68375    0.007
 5683.00    0.81342   0.67999    0.007
 5684.00    0.81761   0.68121    0.007
 5685.00    0.78497   0.68473    0.007
 5686.00    0.72259   0.68184    0.007
 5687.00    0.67734   0.67642    0.007
 5688.00    0.64425   0.67652    0.007
 5689.00    0.68498   0.67804    0.007
 5690.00    0.77175   0.67552    0.007
 5691.00    0.71719   0.67460    0.007
 5692.00    0.58563   0.68005    0.007
 5693.00    0.61103   0.68163    0.007
 5694.00    0.71074   0.67581    0.007
 5695.00    0.79112   0.66790    0.007
 5696.00    0.86361   0.66673    0.007
 5697.00    0.88433   0.67228    0.007
 5698.00    0.88699   0.68102    0.007
 5699.00    0.83300   0.68865    0.007
 5700.00    0.76234   0.69372    0.007
 5701.00    0.79112   0.69433    0.007
 5702.00    0.84413   0.68878    0.007
 5703.00    0.78490   0.68078    0.007
 5704.00    0.70357   0.67651    0.007
 5705.00    0.67907   0.67501    0.007
 5706.00    0.66330   0.67331    0.007
 5707.00    0.64774   0.67293    0.007
 5708.00    0.63220   0.67145    0.007
 5709.00    0.73647   0.66718    0.007
 5710.00    0.84981   0.66450    0.007
 5711.00    0.86486   0.66843    0.007
 5712.00    0.87591   0.67575    0.007
 5713.00    0.85066   0.67760    0.007
 5714.00    0.82449   0.67117    0.007
 5715.00    0.77157   0.66287    0.007
 5716.00    0.72507   0.65508    0.007
 5717.00    0.78864   0.65110    0.007
 5718.00    0.84617   0.65459    0.007
 5719.00    0.83977   0.65800    0.007
 5720.00    0.82400   0.66141    0.007
 5721.00    0.73805   0.67298    0.007
 5722.00    0.67391   0.68249    0.007
 5723.00    0.73434   0.68547    0.007
 5724.00    0.77581   0.68591    0.007
 5725.00    0.73123   0.68288    0.007
 5726.00    0.69427   0.67918    0.007
 5727.00    0.68567   0.68070    0.007
 5728.00    0.68718   0.68509    0.007
 5729.00    0.72018   0.68847    0.007
 5730.00    0.73229   0.69079    0.007
 5731.00    0.68919   0.69128    0.007
 5732.00    0.64901   0.68946    0.007
 5733.00    0.61543   0.68512    0.007
 5734.00    0.62892   0.67513    0.007
 5735.00    0.73489   0.66678    0.007
 5736.00    0.78879   0.66987    0.007
 5737.00    0.75351   0.67955    0.007
 5738.00    0.70657   0.68138    0.007
 5739.00    0.64213   0.67641    0.007
 5740.00    0.57938   0.67773    0.000
 5741.00    0.51885   0.68572    0.000
 5742.00    0.53691   0.69033    0.000
 5743.00    0.64623   0.68994    0.000
 5744.00    0.72358   0.68653    0.000
 5745.00    0.76821   0.68416    0.000
 5746.00    0.75373   0.68176    0.000
 5747.00    0.68586   0.67860    0.000
 5748.00    0.68237   0.67834    0.000
 5749.00    0.73015   0.68250    0.000
 5750.00    0.69865   0.68598    0.000
 5751.00    0.61165   0.68412    0.000
 5752.00    0.62513   0.68670    0.000
 5753.00    0.70034   0.69366    0.000
 5754.00    0.72059   0.69626    0.000
 5755.00    0.71136   0.68892    0.000
 5756.00    0.71066   0.68013    0.000
 5757.00    0.71393   0.68270    0.000
 5758.00    0.71332   0.69215    0.000
 5759.00    0.71115   0.69506    0.000
 5760.00    0.67953   0.68731    0.000
 5761.00    0.63781   0.67682    0.000
 5762.00    0.66133   0.67351    0.000
 5763.00    0.70365   0.68098    0.000
 5764.00    0.69234   0.69204    0.000
 5765.00    0.66825   0.69881    0.000
 5766.00    0.68476   0.69960    0.000
 5767.00    0.70905   0.69255    0.000
 5768.00    0.72314   0.68042    0.000
 5769.00    0.73571   0.66892    0.000
 5770.00    0.62582   0.66128    0.000
 5771.00    0.50258   0.66272    0.000
 5772.00    0.67185   0.67391    0.000
 5773.00    0.86209   0.68289    0.000
 5774.00    0.78093   0.68485    0.000
 5775.00    0.68977   0.68475    0.000
 5776.00    0.67134   0.68494    0.000
 5777.00    0.65327   0.68438    0.000
 5778.00    0.63693   0.68404    0.000
 5779.00    0.62034   0.68315    0.000
 5780.00    0.59973   0.68136    0.000
 5781.00    0.58209   0.68058    0.000
 5782.00    0.59439   0.67976    0.000
 5783.00    0.61391   0.67981    0.000
 5784.00    0.68583   0.68132    0.000
 5785.00    0.74052   0.68211    0.000
 5786.00    0.69959   0.68209    0.000
 5787.00    0.65814   0.67909    0.000
 5788.00    0.61435   0.66899    0.000
 5789.00    0.61032   0.65675    0.000
 5790.00    0.75117   0.65340    0.000
 5791.00    0.85742   0.65732   -2.000
 5792.00    0.85799   0.65798   -2.000
 5793.00    0.84400   0.65537   -2.000
 5794.00    0.79218   0.65946   -2.000
 5795.00    0.74203   0.66935   -2.000
 5796.00    0.69562   0.67578   -2.000
 5797.00    0.66240   0.67794   -2.000
 5798.00    0.65470   0.67344   -2.000
 5799.00    0.62961   0.66825   -2.000
 5800.00    0.57518   0.67413   -2.000
 5801.00    0.56443   0.68569   -2.000
 5802.00    0.61824   0.69406   -2.000
 5803.00    0.64661   0.69766   -2.000
 5804.00    0.64192   0.69405   -2.000
 5805.00    0.65000   0.68291   -2.000
 5806.00    0.67268   0.67741   -2.000
 5807.00    0.66458   0.68634   -2.000
 5808.00    0.62542   0.69774   -2.000
 5809.00    0.56517   0.70357   -2.000
 5810.00    0.48614   0.70619   -2.000
 5811.00    0.51385   0.70367    0.000
 5812.00    0.62532   0.69549    0.000
 5813.00    0.66256   0.69129    0.000
 5814.00    0.64856   0.69237    0.000
 5815.00    0.63713   0.69479    0.000
 5816.00    0.62724   0.69589    0.000
 5817.00    0.61865   0.69511    0.000
 5818.00    0.61074   0.69274    0.000
 5819.00    0.65075   0.68870    0.000
 5820.00    0.71271   0.68484    0.000
 5821.00    0.71788   0.68245    0.000
 5822.00    0.70064   0.67871    0.000
 5823.00    0.76460   0.67145    0.000
 5824.00    0.85585   0.66714    0.000
 5825.00    0.84341   0.67027    0.000
 5826.00    0.80170   0.67699    0.000
 5827.00    0.68426   0.68087    0.000
 5828.00    0.54919   0.68237    0.000
 5829.00    0.54483   0.68365    0.000
 5830.00    0.56488   0.68213    0.000
 5831.00    0.71562   0.67881    0.000
 5832.00    0.88522   0.67838    0.000
 5833.00    0.91205   0.68197    0.000
 5834.00    0.92393   0.68433    0.000
 5835.00    0.75306   0.68499    0.000
 5836.00    0.56983   0.68573    0.000
 5837.00    0.64653   0.68701    0.000
 5838.00    0.73183   0.68880    0.000
 5839.00    0.69490   0.68888    0.000
 5840.00    0.65934   0.68877    0.000
 5841.00    0.66967   0.68649    0.000
 5842.00    0.67696   0.68220    0.000
 5843.00    0.63826   0.68025    0.000
 5844.00    0.61139   0.68494    0.000
 5845.00    0.69927   0.68655    0.000
 5846.00    0.76008   0.68051    0.000
 5847.00    0.63104   0.67592    0.000
 5848.00    0.52320   0.67931    0.000
 5849.00    0.52992   0.68649    0.000
 5850.00    0.53680   0.69087    0.000
 5851.00    0.54439   0.69129    0.000
 5852.00    0.57070   0.68890    0.000
 5853.00    0.66382   0.68517    0.000
 5854.00    0.73791   0.67950    0.000
 5855.00    0.75497   0.67077    0.000
 5856.00    0.76340   0.66564    0.000
 5857.00    0.74979   0.66460    0.000
 5858.00    0.71062   0.66313    0.000
 5859.00    0.61531   0.65871    0.000
 5860.00    0.56298   0.65043    0.000
 5861.00    0.59253   0.64248    0.000
 5862.00    0.59886   0.64337    0.000
 5863.00    0.56663   0.65033    0.000
 5864.00    0.58641   0.64939    0.000
 5865.00    0.68197   0.63947    0.000
 5866.00    0.75211   0.63565    0.000
 5867.00    0.78967   0.64326    0.000
 5868.00    0.78929   0.65160    0.000
 5869.00    0.74607   0.65499    0.000
 5870.00    0.77605   0.65051    0.000
 5871.00    0.87889   0.64560    0.000
 5872.00    0.94093   0.64786    0.000
 5873.00    0.96716   0.65043    0.000
 5874.00    0.96340   0.64533    0.000
 5875.00    0.93644   0.64065    0.000
 5876.00    0.88244   0.64507    0.000
 5877.00    0.81004   0.65272    0.000
 5878.00    0.83805   0.65768    0.000
 5879.00    0.92589   0.65826    0.000
 5880.00    0.90337   0.65256    0.000
 5881.00    0.82347   0.64585    0.000
 5882.00    0.79664   0.62885    0.000
 5883.00    0.79374   0.60792    0.000
 5884.00    0.73403   0.60076    0.000
 5885.00    0.65229   0.61173    0.000
 5886.00    0.64694   0.63217    0.000
 5887.00    0.66679   0.63302    0.000
 5888.00    0.74547   0.62927    0.000
 5889.00    0.84043   0.63127    0.000
 5890.00    0.80644   0.63746    0.000
 5891.00    0.74312   0.63882    0.000
 5892.00    0.69997   0.63639    0.000
 5893.00    0.66048   0.63502    0.000
 5894.00    0.64522   0.63420    0.000
 5895.00    0.63334   0.62792    0.000
 5896.00    0.62110   0.60044    0.000
 5897.00    0.60882   0.54913    0.000
 5898.00    0.63589   0.51220    0.000
 5899.00    0.66546   0.52945    0.000
 5900.00    0.70636   0.57063    0.000
 5901.00    0.74720   0.59220    0.006
 5902.00    0.65553   0.59188    0.006
 5903.00    0.56627   0.56292    0.006
 5904.00    0.54531   0.53815    0.006
 5905.00    0.53047   0.55465    0.006
 5906.00    0.60296   0.58485    0.006
 5907.00    0.67083   0.59655    0.006
 5908.00    0.69569   0.60182    0.006
 5909.00    0.70936   0.61165    0.006
 5910.00    0.64703   0.61902    0.006
 5911.00    0.58846   0.62313    0.006
 5912.00    0.54972   0.62489    0.006
 5913.00    0.53960   0.62324    0.006
 5914.00    0.65070   0.62066    0.007
 5915.00    0.75081   0.62221    0.007
 5916.00    0.81256   0.62594    0.007
 5917.00    0.84668   0.62668    0.007
 5918.00    0.79955   0.62688    0.007
 5919.00    0.75530   0.62992    0.007
 5920.00    0.71827   0.63031    0.007
 5921.00    0.69494   0.62381    0.007
 5922.00    0.70120   0.61530    0.007
 5923.00    0.70132   0.61400    0.006
 5924.00    0.68991   0.61676    0.006
 5925.00    0.71191   0.62140    0.006
 5926.00    0.78861   0.62480    0.006
 5927.00    0.80005   0.62486    0.006
 5928.00    0.71778   0.62627    0.006
 5929.00    0.68993   0.62563    0.006
 5930.00    0.73079   0.62231    0.006
 5931.00    0.75777   0.62196    0.006
 5932.00    0.76930   0.62488    0.006
 5933.00    0.76596   0.62749    0.006
 5934.00    0.74804   0.62920    0.006
 5935.00    0.75558   0.62947    0.006
 5936.00    0.78519   0.62712    0.006
 5937.00    0.77612   0.62295    0.006
 5938.00    0.73756   0.62089    0.006
 5939.00    0.75755   0.62433    0.006
 5940.00    0.81678   0.63203    0.006
 5941.00    0.81808   0.63291    0.006
 5942.00    0.78538   0.62813    0.006
 5943.00    0.78186   0.62411    0.006
 5944.00    0.79327   0.62799    0.006
 5945.00    0.77564   0.63374    0.006
 5946.00    0.74513   0.63665    0.007
 5947.00    0.71802   0.63723    0.007
 5948.00    0.69222   0.63213    0.007
 5949.00    0.66950   0.62185    0.006
 5950.00    0.64779   0.62075    0.006
 5951.00    0.69191   0.62800    0.006
 5952.00    0.75386   0.63401    0.006
 5953.00    0.74354   0.63850    0.007
 5954.00    0.71716   0.64297    0.007
 5955.00    0.68814   0.64214    0.007
 5956.00    0.65865   0.63264    0.007
 5957.00    0.66883   0.62328    0.006
 5958.00    0.68436   0.62261    0.006
 5959.00    0.66160   0.62622    0.006
 5960.00    0.63516   0.62443    0.006
 5961.00    0.73026   0.62122    0.006
 5962.00    0.83262   0.62528    0.006
 5963.00    0.89513   0.62739    0.006
 5964.00    0.95555   0.62009    0.006
 5965.00    0.85002   0.61432    0.006
 5966.00    0.74764   0.61718    0.006
 5967.00    0.72529   0.62412    0.006
 5968.00    0.70641   0.63175    0.006
 5969.00    0.73420   0.63655    0.006
 5970.00    0.75747   0.63833    0.006
 5971.00    0.74026   0.63743    0.006
 5972.00    0.71723   0.63569    0.006
 5973.00    0.65587   0.63274    0.006
 5974.00    0.60994   0.63068    0.006
 5975.00    0.64309   0.63410    0.006
 5976.00    0.67483   0.63892    0.006
 5977.00    0.70074   0.64190    0.006
 5978.00    0.71698   0.64383    0.006
 5979.00    0.70012   0.64379    0.006
 5980.00    0.69486   0.64137    0.006
 5981.00    0.72308   0.63953    0.006
 5982.00    0.74095   0.63832    0.006
 5983.00    0.73332   0.63506    0.006
 5984.00    0.72667   0.62978    0.006
 5985.00    0.72210   0.62472    0.006
 5986.00    0.73495   0.62030    0.006
 5987.00    0.77998   0.62127    0.006
 5988.00    0.81605   0.62710    0.006
 5989.00    0.83769   0.63327    0.006
 5990.00    0.84950   0.63458    0.006
 5991.00    0.84740   0.62906    0.006
 5992.00    0.82126   0.62075    0.006
 5993.00    0.76521   0.62099    0.006
 5994.00    0.74111   0.63043    0.006
 5995.00    0.75205   0.63697    0.006
 5996.00    0.75821   0.63585    0.006
 5997.00    0.75974   0.63575    0.006
 5998.00    0.75172   0.63819    0.006
 5999.00    0.73554   0.63897    0.006
 6000.00    0.70047   0.64026    0.006
 6001.00    0.65119   0.64653    0.006
 6002.00    0.60338   0.65321    0.006
 6003.00    0.55653   0.65363    0.006
 6004.00    0.57553   0.64920    0.006
 6005.00    0.63261   0.64463    0.006
 6006.00    0.63401   0.64147    0.006
 6007.00    0.60736   0.63900    0.006
 6008.00    0.53398   0.63793    0.006
 6009.00    0.44020   0.63711    0.006
 6010.00    0.47692   0.63372    0.006
 6011.00    0.56247   0.63094    0.006
 6012.00    0.65155   0.63536    0.007
 6013.00    0.74176   0.63982    0.007
 6014.00    0.71170   0.63653    0.007
 6015.00    0.64974   0.62875    0.006
 6016.00    0.62289   0.62260    0.006
 6017.00    0.60365   0.62569    0.006
 6018.00    0.59792   0.63602    0.006
 6019.00    0.59450   0.64259    0.007
 6020.00    0.61547   0.64012    0.006
 6021.00    0.63962   0.63455    0.006
 6022.00    0.60459   0.63504    0.006
 6023.00    0.56412   0.63907    0.006
 6024.00    0.55826   0.63763    0.006
 6025.00    0.55433   0.63386    0.006
 6026.00    0.57006   0.63448    0.006
 6027.00    0.58620   0.63611    0.006
 6028.00    0.60022   0.63559    0.006
 6029.00    0.61432   0.63518    0.006
 6030.00    0.63037   0.63696    0.006
 6031.00    0.64557   0.63849    0.006
 6032.00    0.65004   0.63911    0.006
 6033.00    0.65742   0.64254    0.006
 6034.00    0.68991   0.64675    0.006
 6035.00    0.72462   0.64750    0.006
 6036.00    0.77344   0.64973    0.006
 6037.00    0.81849   0.65410    0.006
 6038.00    0.84463   0.65445    0.006
 6039.00    0.85531   0.65019    0.006
 6040.00    0.80336   0.64791    0.006
 6041.00    0.74990   0.65170    0.006
 6042.00    0.69134   0.65685    0.006
 6043.00    0.65038   0.65854    0.006
 6044.00    0.65931   0.65610    0.006
 6045.00    0.68596   0.65330    0.006
 6046.00    0.75553   0.65246    0.006
 6047.00    0.81655   0.65170    0.006
 6048.00    0.85971   0.65026    0.006
 6049.00    0.86172   0.65202    0.006
 6050.00    0.78892   0.65473    0.006
 6051.00    0.74202   0.65841    0.006
 6052.00    0.73625   0.66245    0.006
 6053.00    0.73120   0.66476    0.006
 6054.00    0.72716   0.66572    0.006
 6055.00    0.72506   0.66608    0.006
 6056.00    0.72534   0.66456    0.006
 6057.00    0.70648   0.66180    0.006
 6058.00    0.66690   0.66254    0.006
 6059.00    0.66146   0.66512    0.006
 6060.00    0.68859   0.66439    0.006
 6061.00    0.69096   0.66149    0.006
 6062.00    0.67250   0.65872    0.006
 6063.00    0.66824   0.65568    0.006
 6064.00    0.67449   0.65232    0.006
 6065.00    0.71162   0.64926    0.006
 6066.00    0.76885   0.64806    0.006
 6067.00    0.82100   0.65135    0.006
 6068.00    0.87025   0.65670    0.006
 6069.00    0.87621   0.65974    0.006
 6070.00    0.86069   0.65807    0.006
 6071.00    0.81795   0.65209    0.006
 6072.00    0.76354   0.64324    0.006
 6073.00    0.72315   0.63349    0.006
 6074.00    0.68792   0.63413    0.006
 6075.00    0.68633   0.64826    0.006
 6076.00    0.69521   0.66142    0.006
 6077.00    0.67642   0.66682    0.006
 6078.00    0.65044   0.66878    0.006
 6079.00    0.64529   0.67026    0.006
 6080.00    0.64455   0.67087    0.006
 6081.00    0.69907   0.66967    0.006
 6082.00    0.76283   0.66891    0.006
 6083.00    0.69722   0.66960    0.006
 6084.00    0.61529   0.66891    0.006
 6085.00    0.64608   0.66567    0.006
 6086.00    0.68675   0.65953    0.006
 6087.00    0.73130   0.65415    0.006
 6088.00    0.77606   0.65189    0.006
 6089.00    0.74570   0.64819    0.006
 6090.00    0.71410   0.64370    0.006
 6091.00    0.69129   0.64532    0.006
 6092.00    0.67018   0.65125    0.006
 6093.00    0.68504   0.65260    0.006
 6094.00    0.70198   0.65179    0.006
 6095.00    0.74420   0.65470    0.006
 6096.00    0.77612   0.65827    0.006
 6097.00    0.72263   0.65570    0.006
 6098.00    0.66642   0.64781    0.006
 6099.00    0.59341   0.64368    0.006
 6100.00    0.53121   0.64631    0.006
 6101.00    0.52176   0.64907    0.006
 6102.00    0.52160   0.65357    0.006
 6103.00    0.55823   0.66200    0.006
 6104.00    0.59684   0.66591    0.006
 6105.00    0.64190   0.66224    0.006
 6106.00    0.67571   0.65968    0.006
 6107.00    0.67822   0.66285    0.006
 6108.00    0.70861   0.66706    0.006
 6109.00    0.80539   0.66244    0.006
 6110.00    0.86239   0.64225    0.006
 6111.00    0.83754   0.62400    0.006
 6112.00    0.82216   0.62872    0.006
 6113.00    0.82375   0.64574    0.006
 6114.00    0.82324   0.65630    0.006
 6115.00    0.81944   0.65685    0.006
 6116.00    0.78094   0.65395    0.006
 6117.00    0.69474   0.65546    0.006
 6118.00    0.65195   0.65841    0.006
 6119.00    0.66167   0.65591    0.006
 6120.00    0.67220   0.65404    0.006
 6121.00    0.68360   0.65960    0.006
 6122.00    0.66311   0.66695    0.006
 6123.00    0.61262   0.66909    0.006
 6124.00    0.57633   0.66481    0.006
 6125.00    0.55183   0.66113    0.006
 6126.00    0.57681   0.66245    0.006
 6127.00    0.63793   0.65965    0.006
 6128.00    0.69464   0.64775    0.006
 6129.00    0.74852   0.63197    0.006
 6130.00    0.73207   0.61951    0.006
 6131.00    0.67616   0.62367    0.006
 6132.00    0.62385   0.64280    0.006
 6133.00    0.57328   0.65492    0.006
 6134.00    0.53948   0.65361    0.006
 6135.00    0.51274   0.64872    0.006
 6136.00    0.55598   0.64605    0.006
 6137.00    0.62449   0.64854    0.006
 6138.00    0.62507   0.65787    0.006
 6139.00    0.60493   0.66673    0.006
 6140.00    0.58964   0.66778    0.006
 6141.00    0.57559   0.66386    0.006
 6142.00    0.60582   0.65648    0.006
 6143.00    0.64519   0.64217    0.006
 6144.00    0.65708   0.62210    0.006
 6145.00    0.66451   0.60471    0.006
 6146.00    0.66018   0.60710    0.006
 6147.00    0.65442   0.63157    0.006
 6148.00    0.62445   0.65273    0.006
 6149.00    0.59245   0.65219    0.006
 6150.00    0.61295   0.64308    0.006
 6151.00    0.63596   0.64575    0.006
 6152.00    0.58062   0.65872    0.006
 6153.00    0.52520   0.66909    0.006
 6154.00    0.53027   0.67129    0.006
 6155.00    0.53513   0.66875    0.006
 6156.00    0.53607   0.66091    0.006
 6157.00    0.53250   0.64520    0.006
 6158.00    0.47698   0.62931    0.006
 6159.00    0.43460   0.62629    0.006
 6160.00    0.49726   0.63583    0.006
 6161.00    0.54628   0.64624    0.006
 6162.00    0.51316   0.64681    0.006
 6163.00    0.48375   0.63982    0.006
 6164.00    0.47197   0.63599    0.006
 6165.00    0.47855   0.63367    0.006
 6166.00    0.55623   0.62676    0.006
 6167.00    0.61914   0.61530    0.006
 6168.00    0.63437   0.60064    0.006
 6169.00    0.63869   0.58022    0.006
 6170.00    0.61323   0.55868    0.006
 6171.00    0.59126   0.55066    0.006
 6172.00    0.57748   0.55971    0.006
 6173.00    0.56925   0.57340    0.006
 6174.00    0.57225   0.58204    0.006
 6175.00    0.56444   0.58709    0.006
 6176.00    0.53755   0.58779    0.006
 6177.00    0.51828   0.57843    0.006
 6178.00    0.51076   0.56955    0.006
 6179.00    0.51610   0.57601    0.006
 6180.00    0.53887   0.59027    0.006
 6181.00    0.57342   0.59578    0.006
 6182.00    0.62203   0.59255    0.006
 6183.00    0.62333   0.58955    0.006
 6184.00    0.57489   0.58994    0.006
 6185.00    0.55125   0.59248    0.006
 6186.00    0.55060   0.59764    0.006
 6187.00    0.47858   0.60260    0.006
 6188.00    0.34821   0.60386    0.006
 6189.00    0.59177   0.60472    0.006
 6190.00    1.10444   0.60679    0.006
 6191.00    1.84317   0.60720    0.006
 6192.00    2.72469   0.60539    0.006
 6193.00    3.47385   0.60149    0.006
 6194.00    4.14990   0.59365    0.006
 6195.00    4.30387   0.58397    0.006
 6196.00    4.20714   0.57825   -2.000
 6197.00    3.15807   0.57641   -2.000
 6198.00    1.71424   0.57165   -2.000
 6199.00    0.63032   0.56089   -2.000
 6200.00   -0.32602   0.55502   -2.000
 6201.00   -0.74291   0.56304   -2.000
 6202.00   -0.99836   0.57567   -2.000
 6203.00   -0.67027   0.58328   -2.000
 6204.00   -0.19723   0.58727   -2.000
 6205.00    0.09357   0.59019   -2.000
 6206.00    0.34767   0.59048   -2.000
 6207.00    0.48149   0.58511   -2.000
 6208.00    0.59633   0.57828    0.006
 6209.00    0.62819   0.57869    0.006
 6210.00    0.65034   0.58591    0.006
 6211.00    0.61350   0.59300    0.006
 6212.00    0.57198   0.59555    0.006
 6213.00    0.57218   0.59507    0.006
 6214.00    0.57422   0.59584    0.006
 6215.00    0.56629   0.59854    0.006
 6216.00    0.55828   0.60065    0.006
 6217.00    0.55131   0.60053    0.006
 6218.00    0.54369   0.59721    0.006
 6219.00    0.52427   0.59153    0.006
 6220.00    0.50827   0.58597    0.006
 6221.00    0.53007   0.57801    0.006
 6222.00    0.55374   0.56722    0.006
 6223.00    0.59183   0.55877    0.006
 6224.00    0.63342   0.55553    0.006
 6225.00    0.69547   0.55931    0.006
 6226.00    0.75269   0.56630    0.006
 6227.00    0.78755   0.56786    0.006
 6228.00    0.80277   0.56551    0.006
 6229.00    0.74351   0.56556    0.006
 6230.00    0.69266   0.56660    0.006
 6231.00    0.66847   0.56445    0.006
 6232.00    0.64289   0.56000    0.006
 6233.00    0.61357   0.55846    0.006
 6234.00    0.59337   0.56127    0.006
 6235.00    0.59420   0.56450    0.006
 6236.00    0.61142   0.56550    0.006
 6237.00    0.66131   0.56196    0.006
 6238.00    0.69679   0.55202    0.006
 6239.00    0.70725   0.54303    0.006
 6240.00    0.70578   0.54402    0.006
 6241.00    0.68618   0.55224    0.006
 6242.00    0.68814   0.56251    0.006
 6243.00    0.71888   0.57218    0.006
 6244.00    0.71041   0.57669    0.006
 6245.00    0.65582   0.57548    0.006
 6246.00    0.62591   0.57075    0.006
 6247.00    0.62160   0.56312    0.006
 6248.00    0.63903   0.55578    0.006
 6249.00    0.67636   0.55499    0.006
 6250.00    0.64450   0.55752    0.006
 6251.00    0.55687   0.55434    0.006
 6252.00    0.53837   0.55086    0.006
 6253.00    0.56890   0.55418    0.006
 6254.00    0.58821   0.55886    0.006
 6255.00    0.60053   0.56369    0.006
 6256.00    0.61712   0.57124    0.006
 6257.00    0.63602   0.57728    0.006
 6258.00    0.64263   0.57893    0.006
 6259.00    0.64344   0.57630    0.006
 6260.00    0.58082   0.56869    0.007
 6261.00    0.49235   0.56138    0.007
 6262.00    0.29838   0.56098    0.007
 6263.00    0.06769   0.56427    0.007
 6264.00   -0.02050   0.56383    0.000
 6265.00   -0.06688   0.55678    0.000
 6266.00    0.06758   0.54674    0.007
 6267.00    0.24596   0.54360    0.007
 6268.00    0.40163   0.55257    0.006
 6269.00    0.55283   0.56386    0.006
 6270.00    0.67528   0.57144    0.006
 6271.00    0.79333   0.57998    0.006
 6272.00    0.83292   0.58594    0.006
 6273.00    0.86365   0.58311    0.006
 6274.00    0.85626   0.57822    0.006
 6275.00    0.84599   0.57869    0.006
 6276.00    0.80320   0.57951    0.006
 6277.00    0.75910   0.57617    0.006
 6278.00    0.64802   0.57437    0.006
 6279.00    0.53746   0.57840    0.006
 6280.00    0.46813   0.58416    0.000
 6281.00    0.40217   0.58688    0.000
 6282.00    0.39349   0.58531    0.000
 6283.00    0.39390   0.58232    0.000
 6284.00    0.48998   0.58133    0.000
 6285.00    0.57272   0.58240    0.000
 6286.00    0.55592   0.58457    0.000
 6287.00    0.53849   0.58516    0.000
 6288.00    0.51748   0.58103    0.000
 6289.00    0.51279   0.57558    0.000
 6290.00    0.58198   0.57591    0.000
 6291.00    0.63920   0.58194    0.000
 6292.00    0.65199   0.58792    0.000
 6293.00    0.67502   0.58996    0.000
 6294.00    0.72986   0.59073    0.000
 6295.00    0.77061   0.59548    0.000
 6296.00    0.77422   0.60213    0.000
 6297.00    0.76250   0.60629    0.000
 6298.00    0.71610   0.60654    0.000
 6299.00    0.69277   0.60302    0.000
 6300.00    0.71466   0.59797    0.000
 6301.00    0.74108   0.59387    0.000
 6302.00    0.77523   0.59282    0.000
 6303.00    0.77879   0.59262    0.000
 6304.00    0.73655   0.58686    0.000
 6305.00    0.69263   0.57857    0.000
 6306.00    0.64652   0.57828    0.000
 6307.00    0.62141   0.58623    0.000
 6308.00    0.62066   0.59268    0.000
 6309.00    0.62832   0.59182    0.000
 6310.00    0.64458   0.58793    0.000
 6311.00    0.67530   0.58836    0.000
 6312.00    0.71905   0.59274    0.000
 6313.00    0.71573   0.59489    0.000
 6314.00    0.67500   0.59440    0.000
 6315.00    0.60350   0.59883    0.000
 6316.00    0.51048   0.60901    0.000
 6317.00    0.51061   0.61497    0.000
 6318.00    0.56785   0.61329    0.000
 6319.00    0.59706   0.60828    0.000
 6320.00    0.61125   0.60354    0.000
 6321.00    0.61172   0.60274    0.006
 6322.00    0.60580   0.60426    0.006
 6323.00    0.66757   0.60318    0.006
 6324.00    0.75644   0.60246    0.006
 6325.00    0.77905   0.60424    0.006
 6326.00    0.77903   0.60161    0.006
 6327.00    0.78985   0.59753    0.006
 6328.00    0.80380   0.60164    0.006
 6329.00    0.81842   0.60792    0.006
 6330.00    0.83320   0.60840    0.006
 6331.00    0.80280   0.60789    0.006
 6332.00    0.76374   0.61070    0.006
 6333.00    0.67118   0.61274    0.006
 6334.00    0.57067   0.61265    0.006
 6335.00    0.58879   0.61382    0.006
 6336.00    0.61978   0.61586    0.006
 6337.00    0.68832   0.61805    0.006
 6338.00    0.75954   0.61792    0.006
 6339.00    0.70103   0.61648    0.006
 6340.00    0.63780   0.62044    0.006
 6341.00    0.57643   0.62726    0.006
 6342.00    0.51864   0.62787    0.006
 6343.00    0.58646   0.61750    0.006
 6344.00    0.65005   0.60272    0.006
 6345.00    0.64610   0.59882    0.006
 6346.00    0.64085   0.60767    0.006
 6347.00    0.62249   0.61712    0.006
 6348.00    0.61182   0.62258    0.006
 6349.00    0.65662   0.62701    0.006
 6350.00    0.69791   0.62862    0.006
 6351.00    0.71976   0.62361    0.006
 6352.00    0.72080   0.61283    0.006
 6353.00    0.62976   0.60233    0.006
 6354.00    0.55062   0.59868    0.006
 6355.00    0.51474   0.60175    0.006
 6356.00    0.50524   0.60914    0.006
 6357.00    0.57613   0.61711    0.006
 6358.00    0.63436   0.62411    0.006
 6359.00    0.65980   0.62648    0.006
 6360.00    0.69986   0.62421    0.006
 6361.00    0.77249   0.61932    0.006
 6362.00    0.81473   0.61252    0.006
 6363.00    0.79827   0.60534    0.006
 6364.00    0.78054   0.60238    0.006
 6365.00    0.76064   0.60356    0.006
 6366.00    0.75613   0.59969    0.006
 6367.00    0.77430   0.59024    0.006
 6368.00    0.78211   0.58589    0.006
 6369.00    0.77645   0.58812    0.006
 6370.00    0.74969   0.58915    0.006
 6371.00    0.69880   0.58814    0.006
 6372.00    0.67321   0.58979    0.006
 6373.00    0.67313   0.59484    0.006
 6374.00    0.73056   0.60081    0.006
 6375.00    0.83911   0.60728    0.006
 6376.00    0.89121   0.61531    0.006
 6377.00    0.89909   0.62197    0.006
 6378.00    0.87039   0.62248    0.006
 6379.00    0.81649   0.61900    0.006
 6380.00    0.75130   0.61958    0.006
 6381.00    0.67929   0.62554    0.006
 6382.00    0.64429   0.63179    0.006
 6383.00    0.62882   0.63293    0.006
 6384.00    0.65306   0.63119    0.006
 6385.00    0.69547   0.63066    0.006
 6386.00    0.72306   0.62715    0.006
 6387.00    0.74483   0.61784    0.006
 6388.00    0.75668   0.61038    0.006
 6389.00    0.76521   0.61096    0.006
 6390.00    0.78623   0.61542    0.006
 6391.00    0.81076   0.62004    0.006
 6392.00    0.76813   0.62111    0.006
 6393.00    0.70991   0.61756    0.006
 6394.00    0.68974   0.61534    0.006
 6395.00    0.67665   0.61735    0.006
 6396.00    0.72351   0.61875    0.006
 6397.00    0.77898   0.61764    0.006
 6398.00    0.78949   0.61790    0.006
 6399.00    0.79531   0.61963    0.006
 6400.00    0.72624   0.61830    0.006
 6401.00    0.65214   0.60952    0.006
 6402.00    0.64303   0.60001    0.006
 6403.00    0.63604   0.60342    0.006
 6404.00    0.59091   0.61738    0.006
 6405.00    0.54730   0.62889    0.006
 6406.00    0.55137   0.63356    0.006
 6407.00    0.55482   0.62830    0.006
 6408.00    0.54915   0.61238    0.006
 6409.00    0.54863   0.60160    0.006
 6410.00    0.59796   0.61128    0.006
 6411.00    0.64281   0.62902    0.006
 6412.00    0.65628   0.63877    0.006
 6413.00    0.67327   0.64172    0.006
 6414.00    0.70910   0.64005    0.006
 6415.00    0.74247   0.63503    0.006
 6416.00    0.76512   0.62939    0.006
 6417.00    0.78899   0.62859    0.006
 6418.00    0.81717   0.63432    0.006
 6419.00    0.83308   0.63515    0.006
 6420.00    0.81232   0.62590    0.006
 6421.00    0.78946   0.61813    0.006
 6422.00    0.76124   0.61827    0.006
 6423.00    0.72751   0.62338    0.006
 6424.00    0.68172   0.62948    0.006
 6425.00    0.65864   0.63322    0.006
 6426.00    0.67874   0.63246    0.006
 6427.00    0.70074   0.62706    0.006
 6428.00    0.72588   0.61778    0.006
 6429.00    0.74220   0.60688    0.006
 6430.00    0.74566   0.60358    0.006
 6431.00    0.73182   0.61471    0.006
 6432.00    0.69585   0.62906    0.006
 6433.00    0.68759   0.63301    0.006
 6434.00    0.71054   0.63177    0.006
 6435.00    0.73748   0.63384    0.006
 6436.00    0.76838   0.63714    0.006
 6437.00    0.76977   0.63554    0.006
 6438.00    0.74530   0.62597    0.006
 6439.00    0.71682   0.61186    0.006
 6440.00    0.68524   0.60652    0.006
 6441.00    0.64973   0.61580    0.006
 6442.00    0.61154   0.62749    0.006
 6443.00    0.57639   0.63233    0.006
 6444.00    0.54304   0.63430    0.006
 6445.00    0.58267   0.63702    0.006
 6446.00    0.66017   0.63410    0.006
 6447.00    0.71941   0.62151    0.006
 6448.00    0.77042   0.61478    0.006
 6449.00    0.74983   0.62578    0.006
 6450.00    0.70154   0.64164    0.006
 6451.00    0.59738   0.64986    0.006
 6452.00    0.47482   0.65303    0.006
 6453.00    0.49686   0.65346    0.006
 6454.00    0.55877   0.65270    0.006
 6455.00    0.57976   0.65072    0.006
 6456.00    0.59148   0.64331    0.006
 6457.00    0.58588   0.62612    0.006
 6458.00    0.57715   0.60299    0.006
 6459.00    0.57747   0.59212    0.006
 6460.00    0.57904   0.60389    0.006
 6461.00    0.61130   0.62291    0.006
 6462.00    0.64662   0.63565    0.006
 6463.00    0.66182   0.63797    0.006
 6464.00    0.67574   0.63220    0.006
 6465.00    0.67546   0.63043    0.006
 6466.00    0.67474   0.63864    0.006
 6467.00    0.66162   0.64875    0.006
 6468.00    0.64954   0.65420    0.006
 6469.00    0.66627   0.65117    0.006
 6470.00    0.68361   0.63589    0.006
 6471.00    0.70968   0.61374    0.006
 6472.00    0.72991   0.60816    0.006
 6473.00    0.69607   0.62323    0.006
 6474.00    0.66471   0.63832    0.006
 6475.00    0.65018   0.64575    0.006
 6476.00    0.64426   0.64998    0.006
 6477.00    0.68355   0.65113    0.006
 6478.00    0.71702   0.64825    0.006
 6479.00    0.72589   0.64310    0.006
 6480.00    0.72617   0.63828    0.006
 6481.00    0.69649   0.63639    0.006
 6482.00    0.63777   0.63318    0.006
 6483.00    0.49384   0.62285    0.006
 6484.00    0.28588   0.61583    0.006
 6485.00   -0.08225   0.62226    0.000
 6486.00   -0.35508   0.63312    0.000
 6487.00   -0.42250   0.63659    0.000
 6488.00   -0.35764   0.63336    0.000
 6489.00   -0.04527   0.62533    0.000
 6490.00    0.24415   0.61084    0.008
 6491.00    0.49607   0.59847    0.007
 6492.00    0.64381   0.59753    0.006
 6493.00    0.64224   0.60540    0.006
 6494.00    0.61942   0.61285    0.006
 6495.00    0.56981   0.61784    0.006
 6496.00    0.52432   0.62139    0.006
 6497.00    0.48339   0.62205    0.006
 6498.00    0.45959   0.61901    0.006
 6499.00    0.45256   0.61393    0.006
 6500.00    0.48247   0.61137    0.006
 6501.00    0.54429   0.60791    0.006
 6502.00    0.56017   0.59338    0.006
 6503.00    0.54108   0.57092    0.006
 6504.00    0.52987   0.55710    0.006
 6505.00    0.52392   0.55613    0.006
 6506.00    0.56110   0.56246    0.006
 6507.00    0.62354   0.57194    0.006
 6508.00    0.67461   0.57921    0.006
 6509.00    0.71986   0.58890    0.006
 6510.00    0.71380   0.60031    0.006
 6511.00    0.68503   0.60908    0.006
 6512.00    0.64451   0.61409    0.006
 6513.00    0.59952   0.61634    0.006
 6514.00    0.60749   0.61933    0.006
 6515.00    0.63256   0.62152    0.006
 6516.00    0.62212   0.61774    0.006
 6517.00    0.60209   0.61053    0.006
 6518.00    0.65508   0.60933    0.006
 6519.00    0.72424   0.61588    0.006
 6520.00    0.70381   0.62177    0.006
 6521.00    0.66758   0.62219    0.006
 6522.00    0.61358   0.62029    0.006
 6523.00    0.55719   0.61743    0.006
 6524.00    0.59748   0.61320    0.006
 6525.00    0.64701   0.60959    0.006
 6526.00    0.58848   0.60755    0.006
 6527.00    0.52356   0.60582    0.006
 6528.00    0.50265   0.60865    0.000
 6529.00    0.48318   0.61636    0.000
 6530.00    0.51199   0.62273    0.000
 6531.00    0.54074   0.62480    0.000
 6532.00    0.56811   0.62398    0.000
 6533.00    0.59138   0.62441    0.000
 6534.00    0.55983   0.62466    0.000
 6535.00    0.53806   0.62210    0.000
 6536.00    0.60339   0.61998    0.000
 6537.00    0.66663   0.62337    0.000
 6538.00    0.71616   0.62939    0.000
 6539.00    0.75374   0.63105    0.000
 6540.00    0.73027   0.62692    0.000
 6541.00    0.71248   0.62175    0.000
 6542.00    0.71820   0.62147    0.000
 6543.00    0.73353   0.62731    0.000
 6544.00    0.78174   0.63400    0.000
 6545.00    0.83738   0.63623    0.000
 6546.00    0.91443   0.63353    0.000
 6547.00    0.97002   0.63191    0.000
 6548.00    0.97286   0.63628    0.000
 6549.00    0.97118   0.64156    0.000
 6550.00    0.95992   0.63995    0.000
 6551.00    0.92790   0.63136    0.000
 6552.00    0.85764   0.62055    0.000
 6553.00    0.80220   0.61237    0.000
 6554.00    0.77064   0.60513    0.000
 6555.00    0.73066   0.59857    0.000
 6556.00    0.67880   0.60032    0.000
 6557.00    0.62463   0.60834    0.000
 6558.00    0.56759   0.60968    0.000
 6559.00    0.57461   0.60315    0.000
 6560.00    0.65180   0.59677    0.000
 6561.00    0.75969   0.59491    0.000
 6562.00    0.89724   0.59349    0.000
 6563.00    1.07835   0.58637    0.000
 6564.00    1.29659   0.57807    0.000
 6565.00    1.37742   0.57470    0.000
 6566.00    1.35517   0.57602    0.000
 6567.00    1.26269   0.57685    0.000
 6568.00    1.12393   0.57322    0.000
 6569.00    0.96876   0.55927    0.000
 6570.00    0.80412   0.51441    0.000
 6571.00    0.67404   0.44126    0.000
 6572.00    0.56135   0.40770    0.000
 6573.00    0.52746   0.45597    0.000
 6574.00    0.52787   0.52588    0.000
 6575.00    0.56284   0.56233    0.000
 6576.00    0.61071   0.57809    0.000
 6577.00    0.60805   0.58539    0.000
 6578.00    0.58938   0.58607    0.000
 6579.00    0.56450   0.58936    0.000
 6580.00    0.53798   0.59359    0.000
 6581.00    0.54442   0.58850    0.000
 6582.00    0.55798   0.57917    0.000
 6583.00    0.72387   0.57736    0.000
 6584.00    0.91589   0.58438    0.000
 6585.00    1.03603   0.59382    0.000
 6586.00    1.14682   0.59919    0.000
 6587.00    1.12567   0.60035    0.000
 6588.00    1.09247   0.59882    0.000
 6589.00    0.95727   0.59793    0.000
 6590.00    0.81644   0.59543    0.000
 6591.00    0.70567   0.59750    0.000
 6592.00    0.59676   0.60674    0.000
 6593.00    0.60273   0.61124    0.000
 6594.00    0.60946   0.61379    0.000
 6595.00    0.63353   0.61290    0.000
 6596.00    0.65637   0.61709    0.000
 6597.00    0.66372   0.62471    0.000
 6598.00    0.66655   0.62753    0.000
 6599.00    0.63059   0.62570    0.000
 6600.00    0.61649   0.61716    0.000
 6601.00    0.74157   0.59968    0.000
 6602.00    0.83176   0.58344    0.000
 6603.00    0.74821   0.58435    0.000
 6604.00    0.66117   0.59973    0.000
 6605.00    0.56007   0.61129    0.000
 6606.00    0.47664   0.61202    0.000
 6607.00    0.45240   0.60559    0.000
 6608.00    0.44532   0.60226    0.000
 6609.00    0.48681   0.60942    0.006
 6610.00    0.52016   0.61930    0.006
 6611.00    0.53386   0.62252    0.006
 6612.00    0.55363   0.62071    0.006
 6613.00    0.58606   0.61600    0.006
 6614.00    0.62083   0.60986    0.006
 6615.00    0.65984   0.60554    0.006
 6616.00    0.66068   0.60319    0.006
 6617.00    0.60097   0.59819    0.006
 6618.00    0.58673   0.59258    0.006
 6619.00    0.63577   0.59739    0.006
 6620.00    0.69626   0.61043    0.006
 6621.00    0.77076   0.61701    0.006
 6622.00    0.78426   0.61389    0.006
 6623.00    0.73189   0.61054    0.006
 6624.00    0.67768   0.61486    0.006
 6625.00    0.62172   0.61893    0.007
 6626.00    0.57978   0.61810    0.007
 6627.00    0.54962   0.61481    0.006
 6628.00    0.50711   0.61347    0.006
 6629.00    0.45547   0.61544    0.006
 6630.00    0.46921   0.61662    0.006
 6631.00    0.52540   0.61394    0.006
 6632.00    0.53899   0.60672    0.006
 6633.00    0.52835   0.59693    0.006
 6634.00    0.53632   0.59021    0.006
 6635.00    0.55351   0.59273    0.006
 6636.00    0.58978   0.59899    0.006
 6637.00    0.63420   0.60226    0.006
 6638.00    0.65656   0.60227    0.006
 6639.00    0.67083   0.60133    0.006
 6640.00    0.64059   0.60154    0.006
 6641.00    0.59651   0.60135    0.006
 6642.00    0.65249   0.59766    0.006
 6643.00    0.73435   0.59443    0.006
 6644.00    0.77019   0.59543    0.006
 6645.00    0.79631   0.59884    0.006
 6646.00    0.78618   0.60150    0.006
 6647.00    0.77001   0.60292    0.006
 6648.00    0.70526   0.60253    0.006
 6649.00    0.63441   0.60190    0.006
 6650.00    0.61048   0.60477    0.006
 6651.00    0.59064   0.60537    0.007
 6652.00    0.60163   0.59686    0.007
 6653.00    0.61420   0.59059    0.007
 6654.00    0.62907   0.59588    0.007
 6655.00    0.64518   0.60268    0.006
 6656.00    0.74535   0.60287    0.007
 6657.00    0.83720   0.60098    0.007
 6658.00    0.75343   0.59995    0.006
 6659.00    0.67460   0.59459    0.006
 6660.00    0.65542   0.58375    0.006
 6661.00    0.64274   0.57627    0.006
 6662.00    0.68375   0.57725    0.006
 6663.00    0.72107   0.58141    0.006
 6664.00    0.73569   0.58372    0.006
 6665.00    0.74297   0.58337    0.006
 6666.00    0.71464   0.58285    0.006
 6667.00    0.68528   0.58348    0.006
 6668.00    0.65189   0.58381    0.006
 6669.00    0.62043   0.58377    0.007
 6670.00    0.59536   0.58341    0.007
 6671.00    0.59945   0.58017    0.007
 6672.00    0.68449   0.57364    0.007
 6673.00    0.72249   0.57345    0.007
 6674.00    0.64872   0.57977    0.007
 6675.00    0.61496   0.58190    0.007
 6676.00    0.66334   0.58109    0.007
 6677.00    0.68514   0.58306    0.007
 6678.00    0.65944   0.58908    0.007
 6679.00    0.67579   0.59481    0.007
 6680.00    0.75783   0.59770    0.007
 6681.00    0.77649   0.59806    0.007
 6682.00    0.70818   0.59701    0.006
 6683.00    0.64901   0.59543    0.006
 6684.00    0.60085   0.59413    0.006
 6685.00    0.56516   0.58667    0.006
 6686.00    0.54276   0.56527    0.006
 6687.00    0.53021   0.54757    0.006
 6688.00    0.52690   0.54963    0.006
 6689.00    0.57813   0.56304    0.006
 6690.00    0.67451   0.56629    0.006
 6691.00    0.76334   0.56213    0.006
 6692.00    0.84666   0.56464    0.007
 6693.00    0.83171   0.57034    0.007
 6694.00    0.75387   0.57294    0.007
 6695.00    0.67855   0.57207    0.007
 6696.00    0.60465   0.57061    0.000
 6697.00    0.52810   0.56970    0.000
 6698.00    0.45026   0.57140    0.000
 6699.00    0.51493   0.57387    0.000
 6700.00    0.63955   0.57513    0.000
 6701.00    0.63434   0.57496    0.000
 6702.00    0.58236   0.57485    0.000
 6703.00    0.54738   0.57422    0.000
 6704.00    0.51757   0.57146    0.000
 6705.00    0.53662   0.56779    0.000
 6706.00    0.56804   0.56772    0.000
 6707.00    0.57698   0.57135    0.000
 6708.00    0.58129   0.57563    0.000
 6709.00    0.52678   0.58055    0.000
 6710.00    0.46273   0.58361    0.000
 6711.00    0.50814   0.58289    0.000
 6712.00    0.56679   0.57979    0.000
 6713.00    0.61016   0.57687    0.000
 6714.00    0.65226   0.57693    0.000
 6715.00    0.70285   0.57900    0.000
 6716.00    0.75384   0.58012    0.000
 6717.00    0.75608   0.58054    0.000
 6718.00    0.75754   0.58089    0.000
 6719.00    0.75370   0.57928    0.000
 6720.00    0.74739   0.57822    0.000
 6721.00    0.69315   0.57925    0.000
 6722.00    0.64733   0.57614    0.000
 6723.00    0.69811   0.56706    0.000
 6724.00    0.73752   0.55647    0.000
 6725.00    0.68626   0.54778    0.000
 6726.00    0.63782   0.53995    0.000
 6727.00    0.60622   0.53658    0.000
 6728.00    0.56077   0.54190    0.000
 6729.00    0.44974   0.54842    0.000
 6730.00    0.38432   0.55052    0.000
 6731.00    0.49512   0.55068    0.000
 6732.00    0.61694   0.55298    0.000
 6733.00    0.77421   0.55592    0.000
 6734.00    0.88308   0.55581    0.000
 6735.00    0.85997   0.55473    0.000
 6736.00    0.81526   0.55641    0.000
 6737.00    0.72007   0.55972    0.000
 6738.00    0.66126   0.56167    0.000
 6739.00    0.67596   0.56241    0.000
 6740.00    0.66305   0.56296    0.000
 6741.00    0.60157   0.56348    0.000
 6742.00    0.56599   0.56348    0.000
 6743.00    0.57027   0.56343    0.000
 6744.00    0.55461   0.56350    0.000
 6745.00    0.51199   0.56457    0.000
 6746.00    0.46641   0.56501    0.000
 6747.00    0.41732   0.56280    0.000
 6748.00    0.39592   0.55930    0.000
 6749.00    0.40361   0.55880    0.000
 6750.00    0.44596   0.56198    0.000
 6751.00    0.52041   0.56171    0.000
 6752.00    0.55490   0.55728    0.000
 6753.00    0.55676   0.55776    0.007
 6754.00    0.47073   0.56236    0.008
 6755.00    0.32156   0.56292    0.008
 6756.00    0.31159   0.55807    0.008
 6757.00    0.38938   0.55187    0.008
 6758.00    0.41659   0.54770    0.008
 6759.00    0.41592   0.54729    0.008
 6760.00    0.46642   0.55007    0.008
 6761.00    0.54146   0.54991    0.009
 6762.00    0.62223   0.54657    0.009
 6763.00    0.70537   0.54858    0.009
 6764.00    0.69531   0.55531    0.009
 6765.00    0.65229   0.56133    0.009
 6766.00    0.63288   0.56567    0.009
 6767.00    0.62051   0.56833    0.009
 6768.00    0.72237   0.56931    0.009
 6769.00    0.85252   0.57022    0.009
 6770.00    0.74985   0.57039    0.008
 6771.00    0.60045   0.56877    0.008
 6772.00    0.63315   0.56889    0.008
 6773.00    0.69446   0.57114    0.008
 6774.00    0.66271   0.57150    0.008
 6775.00    0.62010   0.56734    0.007
 6776.00    0.59708   0.56252    0.007
 6777.00    0.57561   0.56323    0.008
 6778.00    0.65515   0.56769    0.008
 6779.00    0.73909   0.56855    0.008
 6780.00    0.74568   0.56703    0.008
 6781.00    0.75090   0.56907    0.008
 6782.00    0.72956   0.57406    0.008
 6783.00    0.70862   0.57803    0.008
 6784.00    0.69490   0.58094    0.008
 6785.00    0.68216   0.58334    0.008
 6786.00    0.68021   0.58439    0.008
 6787.00    0.66748   0.58390    0.008
 6788.00    0.57187   0.58289    0.008
 6789.00    0.49315   0.58074    0.008
 6790.00    0.51291   0.57452    0.008
 6791.00    0.53266   0.56332    0.008
 6792.00    0.55236   0.55172    0.008
 6793.00    0.57792   0.54455    0.008
 6794.00    0.62559   0.54283    0.008
 6795.00    0.66224   0.54566    0.008
 6796.00    0.66409   0.55127    0.008
 6797.00    0.67030   0.55608    0.008
 6798.00    0.68824   0.55771    0.008
 6799.00    0.70159   0.55595    0.008
 6800.00    0.70442   0.55525    0.008
 6801.00    0.67583   0.55702    0.008
 6802.00    0.58476   0.55703    0.008
 6803.00    0.50379   0.55605    0.008
 6804.00    0.44034   0.55746    0.008
 6805.00    0.44843   0.56062    0.008
 6806.00    0.56505   0.56374    0.008
 6807.00    0.51078   0.56517    0.008
 6808.00    0.22877   0.56561    0.008
 6809.00    0.15886   0.56775    0.008
 6810.00    0.33792   0.57076    0.008
 6811.00    0.42186   0.57271    0.008
 6812.00    0.40734   0.57302    0.009
 6813.00    0.45689   0.57120    0.009
 6814.00    0.56491   0.57019    0.009
 6815.00    0.55481   0.56954    0.009
 6816.00    0.44967   0.56850    0.008
 6817.00    0.54172   0.56973    0.008
 6818.00    0.77338   0.57164    0.008
 6819.00    0.82996   0.57160    0.008
 6820.00    0.77780   0.57213    0.008
 6821.00    0.62681   0.57321    0.008
 6822.00    0.42219   0.57332    0.008
 6823.00    0.48401   0.57066    0.008
 6824.00    0.67147   0.56492    0.008
 6825.00    0.61359   0.56227    0.008
 6826.00    0.45593   0.56622    0.008
 6827.00    0.33072   0.57092    0.008
 6828.00    0.21676   0.57136    0.008
 6829.00    0.29948   0.56947    0.008
 6830.00    0.43975   0.56958    0.008
 6831.00    0.52396   0.57301    0.008
 6832.00    0.59458   0.57605    0.009
 6833.00    0.61944   0.57684    0.009
 6834.00    0.63535   0.57745    0.009
 6835.00    0.71409   0.57872    0.009
 6836.00    0.80242   0.57666    0.009
 6837.00    0.71785   0.57107    0.009
 6838.00    0.61388   0.56835    0.009
 6839.00    0.64425   0.57101    0.009
 6840.00    0.68467   0.57521    0.009
 6841.00    0.57830   0.57543    0.009
 6842.00    0.46610   0.57328    0.009
 6843.00    0.60987   0.57599    0.008
 6844.00    0.75239   0.58195    0.008
 6845.00    0.77489   0.58551    0.008
 6846.00    0.78540   0.58555    0.008
 6847.00    0.59320   0.58325    0.008
 6848.00    0.42839   0.57925    0.008
 6849.00    0.55014   0.57458    0.008
 6850.00    0.67490   0.56962    0.008
 6851.00    0.82194   0.56738    0.008
 6852.00    0.89663   0.57097    0.008
 6853.00    0.56121   0.57849    0.008
 6854.00    0.29903   0.58412    0.008
 6855.00    0.36759   0.58456    0.008
 6856.00    0.43785   0.58236    0.008
 6857.00    0.51436   0.58189    0.009
 6858.00    0.56356   0.58031    0.009
 6859.00    0.52813   0.57535    0.008
 6860.00    0.49253   0.57130    0.008
 6861.00    0.45646   0.57027    0.008
 6862.00    0.44102   0.56995    0.008
 6863.00    0.47224   0.56811    0.008
 6864.00    0.52476   0.56455    0.008
 6865.00    0.61898   0.56337    0.008
 6866.00    0.65209   0.56585    0.008
 6867.00    0.58093   0.56890    0.008
 6868.00    0.59033   0.57061    0.008
 6869.00    0.72016   0.56927    0.008
 6870.00    0.74377   0.56407    0.008
 6871.00    0.62786   0.56119    0.008
 6872.00    0.65533   0.56715    0.008
 6873.00    0.84870   0.57772    0.008
 6874.00    0.84736   0.58280    0.008
 6875.00    0.64731   0.58050    0.008
 6876.00    0.57226   0.57506    0.008
 6877.00    0.60970   0.56896    0.008
 6878.00    0.58667   0.56693    0.008
 6879.00    0.51568   0.57072    0.009
 6880.00    0.55007   0.57223    0.009
 6881.00    0.65800   0.56929    0.008
 6882.00    0.68455   0.56930    0.008
 6883.00    0.66131   0.57304    0.008
 6884.00    0.61149   0.57646    0.008
 6885.00    0.54747   0.57994    0.008
 6886.00    0.57758   0.58400    0.008
 6887.00    0.65135   0.58798    0.008
 6888.00    0.58962   0.59058    0.008
 6889.00    0.47373   0.59070    0.008
 6890.00    0.55143   0.58730    0.008
 6891.00    0.69510   0.58119    0.008
 6892.00    0.70266   0.57540    0.008
 6893.00    0.67119   0.57325    0.008
 6894.00    0.54489   0.57623    0.008
 6895.00    0.39612   0.57954    0.008
 6896.00    0.35174   0.58161    0.008
 6897.00    0.32725   0.58501    0.008
 6898.00    0.52847   0.58822    0.008
 6899.00    0.76305   0.59037    0.009
 6900.00    0.75149   0.59218    0.009
 6901.00    0.71337   0.59240    0.009
 6902.00    0.59022   0.59172    0.009
 6903.00    0.46107   0.59237    0.008
 6904.00    0.65622   0.59331    0.008
 6905.00    0.86302   0.59243    0.008
 6906.00    0.72402   0.59125    0.008
 6907.00    0.59110   0.59276    0.008
 6908.00    0.70868   0.59382    0.008
 6909.00    0.81246   0.58952    0.008
 6910.00    0.69758   0.58544    0.008
 6911.00    0.59050   0.58948    0.008
 6912.00    0.56148   0.59644    0.008
 6913.00    0.54011   0.59786    0.008
 6914.00    0.57385   0.59587    0.008
 6915.00    0.60010   0.59801    0.008
 6916.00    0.58511   0.60352    0.008
 6917.00    0.56315   0.60633    0.008
 6918.00    0.51044   0.60638    0.008
 6919.00    0.49402   0.60596    0.008
 6920.00    0.60909   0.60421    0.008
 6921.00    0.69357   0.60123    0.009
 6922.00    0.68505   0.59760    0.009
 6923.00    0.73561   0.59402    0.009
 6924.00    0.93887   0.59440    0.009
 6925.00    1.00184   0.59788    0.009
 6926.00    0.75302   0.59967    0.008
 6927.00    0.65459   0.59969    0.008
 6928.00    0.84594   0.59740    0.009
 6929.00    0.95200   0.59503    0.009
 6930.00    0.91468   0.59667    0.009
 6931.00    0.79468   0.59965    0.008
 6932.00    0.55292   0.59888    0.008
 6933.00    0.44234   0.59279    0.008
 6934.00    0.50164   0.58657    0.008
 6935.00    0.59239   0.58563    0.008
 6936.00    0.71902   0.59051    0.008
 6937.00    0.77226   0.59773    0.008
 6938.00    0.75166   0.60263    0.008
 6939.00    0.65154   0.60344    0.009
 6940.00    0.48087   0.60184    0.009
 6941.00    0.43444   0.59942    0.009
 6942.00    0.48517   0.59576    0.009
 6943.00    0.50077   0.59460    0.009
 6944.00    0.49222   0.59829    0.009
 6945.00    0.46536   0.60207    0.009
 6946.00    0.42747   0.60270    0.009
 6947.00    0.50609   0.60163    0.009
 6948.00    0.64603   0.60191    0.009
 6949.00    0.61556   0.60514    0.009
 6950.00    0.50732   0.60930    0.008
 6951.00    0.49548   0.61062    0.008
 6952.00    0.52149   0.60852    0.008
 6953.00    0.50416   0.60399    0.008
 6954.00    0.47233   0.59830    0.008
 6955.00    0.43903   0.59785    0.008
 6956.00    0.40531   0.60550    0.008
 6957.00    0.53926   0.61363    0.008
 6958.00    0.71202   0.61671    0.008
 6959.00    0.68741   0.61615    0.008
 6960.00    0.62616   0.61283    0.008
 6961.00    0.66882   0.60772    0.008
 6962.00    0.72636   0.60282    0.009
 6963.00    0.72770   0.59915    0.009
 6964.00    0.72322   0.59988    0.009
 6965.00    0.70405   0.60560    0.009
 6966.00    0.68390   0.61085    0.009
 6967.00    0.51760   0.61271    0.009
 6968.00    0.34665   0.61335    0.009
 6969.00    0.35928   0.61503    0.009
 6970.00    0.37625   0.61780    0.009
 6971.00    0.52599   0.61970    0.009
 6972.00    0.66518   0.62112    0.009
 6973.00    0.64735   0.62277    0.009
 6974.00    0.61572   0.62233    0.009
 6975.00    0.45154   0.62043    0.008
 6976.00    0.33796   0.62056    0.008
 6977.00    0.57641   0.62420    0.008
 6978.00    0.75593   0.62744    0.009
 6979.00    0.61917   0.62607    0.008
 6980.00    0.49528   0.62226    0.008
 6981.00    0.42687   0.62021    0.008
 6982.00    0.37219   0.62179    0.008
 6983.00    0.36626   0.62419    0.008
 6984.00    0.38932   0.62330    0.008
 6985.00    0.49881   0.61938    0.009
 6986.00    0.61546   0.61307    0.009
 6987.00    0.75027   0.60174    0.009
 6988.00    0.79839   0.59077    0.009
 6989.00    0.65697   0.59305    0.009
 6990.00    0.57235   0.60684    0.009
 6991.00    0.59545   0.61951    0.009
 6992.00    0.60825   0.62647    0.009
 6993.00    0.60399   0.62912    0.009
 6994.00    0.60955   0.63062    0.009
 6995.00    0.62935   0.63305    0.009
 6996.00    0.64584   0.63336    0.009
 6997.00    0.65810   0.62830    0.009
 6998.00    0.72051   0.61915    0.009
 6999.00    0.83935   0.61118    0.008
 7000.00    0.83285   0.60978    0.008
 7001.00    0.70201   0.61524    0.009
 7002.00    0.61509   0.62156    0.009
 7003.00    0.56659   0.62273    0.009
 7004.00    0.52435   0.62002    0.009
 7005.00    0.48692   0.61879    0.009
 7006.00    0.50666   0.62057    0.009
 7007.00    0.56514   0.62255    0.009
 7008.00    0.64688   0.62051    0.009
 7009.00    0.74242   0.61523    0.009
 7010.00    0.72971   0.61394    0.009
 7011.00    0.66092   0.61923    0.009
 7012.00    0.58277   0.62486    0.009
 7013.00    0.50041   0.62380    0.009
 7014.00    0.52276   0.61808    0.009
 7015.00    0.58552   0.61573    0.009
 7016.00    0.61446   0.61832    0.009
 7017.00    0.63231   0.62143    0.009
 7018.00    0.69803   0.62419    0.009
 7019.00    0.77692   0.62671    0.009
 7020.00    0.65688   0.62586    0.009
 7021.00    0.49185   0.62463    0.009
 7022.00    0.60524   0.62808    0.009
 7023.00    0.76892   0.63046    0.008
 7024.00    0.72349   0.62322    0.009
 7025.00    0.64910   0.60897    0.009
 7026.00    0.60789   0.60189    0.009
 7027.00    0.56998   0.61135    0.009
 7028.00    0.77258   0.62737    0.009
 7029.00    0.99026   0.63636    0.009
 7030.00    0.56612   0.63846    0.009
 7031.00    0.12672   0.63704    0.009
 7032.00    0.46591   0.63103    0.009
 7033.00    0.79127   0.62269    0.009
 7034.00    0.73669   0.61934    0.009
 7035.00    0.68016   0.62306    0.009
 7036.00    0.59639   0.62671    0.009
 7037.00    0.52469   0.62587    0.009
 7038.00    0.56432   0.62621    0.009
 7039.00    0.59524   0.63109    0.009
 7040.00    0.56746   0.63626    0.009
 7041.00    0.55738   0.63775    0.009
 7042.00    0.63983   0.63537    0.009
 7043.00    0.70395   0.63291    0.009
 7044.00    0.69090   0.63400    0.009
 7045.00    0.64982   0.63702    0.008
 7046.00    0.51125   0.63566    0.008
 7047.00    0.43414   0.62583    0.009
 7048.00    0.53695   0.61641    0.009
 7049.00    0.61525   0.62219    0.009
 7050.00    0.63238   0.63909   -2.000
 7051.00    0.65645   0.65212   -2.000
 7052.00    0.69546   0.65757   -2.000
 7053.00    0.79709   0.65774   -2.000
 7054.00    1.01566   0.65355   -2.000
 7055.00    1.04705   0.65027   -2.000
 7056.00    0.77315   0.65306   -2.000
 7057.00    0.61148   0.65917   -2.000
 7058.00    0.61034   0.66316   -2.000
 7059.00    0.56020   0.66173   -2.000
 7060.00    0.44843   0.65509   -2.000
 7061.00    0.44628   0.64429   -2.000
 7062.00    0.56567   0.62687   -2.000
 7063.00    0.55572   0.60079   -2.000
 7064.00    0.41926   0.57193   -2.000
 7065.00    0.34977   0.55613   -2.000
 7066.00    0.33803   0.56156   -2.000
 7067.00    0.60535   0.57357   -2.000
 7068.00    1.08470   0.57563   -2.000
 7069.00    1.12532   0.56736   -2.000
 7070.00    0.87299   0.55850   -2.000
 7071.00    0.85278   0.55609   -2.000
 7072.00    0.96832   0.55835   -2.000
 7073.00    0.99655   0.56157   -2.000
 7074.00    0.98027   0.56392   -2.000
 7075.00    0.87642   0.56294   -2.000
 7076.00    0.73392   0.56049   -2.000
 7077.00    0.84225   0.55941   -2.000
 7078.00    1.04570   0.55946   -2.000
 7079.00    0.94869   0.56344   -2.000
 7080.00    0.75493   0.57221   -2.000
 7081.00    0.62331   0.58076   -2.000
 7082.00    0.50843   0.58544   -2.000
 7083.00    0.67625   0.58708   -2.000
 7084.00    0.90648   0.58677   -2.000
 7085.00    0.73649   0.58570   -2.000
 7086.00    0.49615   0.58581   -2.000
 7087.00   -1.02698   0.58693   -2.000
 7088.00   -2.72195   0.58855   -2.000
 7089.00   -1.13823   0.59113   -2.000
 7090.00    0.75705   0.59433   -2.000
 7091.00    0.79298   0.59495   -2.000
 7092.00    0.71982   0.58962   -2.000
 7093.00    0.60483   0.57876   -2.000
 7094.00    0.49112   0.56740   -2.000
 7095.00    0.69067   0.56201   -2.000
 7096.00    0.88041   0.55718   -2.000
 7097.00    0.82628   0.54103   -2.000
 7098.00    0.76805   0.52117   -2.000
 7099.00    0.65542   0.51401   -2.000
 7100.00    0.55896   0.51910   -2.000
 7101.00    0.60587   0.52710   -2.000
 7102.00    0.64391   0.53157   -2.000
 7103.00    0.62399   0.52955   -2.000
 7104.00    0.61883   0.52612   -2.000
 7105.00    0.68889   0.52412   -2.000
 7106.00    0.72851   0.52431   -2.000
 7107.00    0.64280   0.52679   -2.000
 7108.00    0.58633   0.53189   -2.000
 7109.00    0.62948   0.53826   -2.000
 7110.00    0.68612   0.54010   -2.000
 7111.00    0.78149   0.53725   -2.000
 7112.00    0.82770   0.53294   -2.000
 7113.00    0.75328   0.53170   -2.000
 7114.00    0.72067   0.53667   -2.000
 7115.00    0.77653   0.54435   -2.000
 7116.00    0.80003   0.54876   -2.000
 7117.00    0.76404   0.55087   -2.000
 7118.00    0.75078   0.55316   -2.000
 7119.00    0.77402   0.55265   -2.000
 7120.00    0.82281   0.54703   -2.000
 7121.00    0.90762   0.54161   -2.000
 7122.00    0.96711   0.54331   -2.000
 7123.00    0.99519   0.54962   -2.000
 7124.00    0.90004   0.55331   -2.000
 7125.00    0.67016   0.55511   -2.000
 7126.00    0.54207   0.55944   -2.000
 7127.00    0.51214   0.56409   -2.000
 7128.00    0.50841   0.56546   -2.000
 7129.00    0.52697   0.56543   -2.000
 7130.00    0.43853   0.56565   -2.000
 7131.00    0.26997   0.56485   -2.000
 7132.00    0.14035   0.56360   -2.000
 7133.00    0.03635   0.56254   -2.000
 7134.00    0.18446   0.55329   -2.000
 7135.00    0.47779   0.53029   -2.000
 7136.00    0.61211   0.50840   -2.000
 7137.00    0.66665   0.50330   -2.000
 7138.00    0.68885   0.50852   -2.000
 7139.00    0.69701   0.51028   -2.000
 7140.00    0.67605   0.50669   -2.000
 7141.00    0.64425   0.50352   -2.000
 7142.00    0.64531   0.50522   -2.000
 7143.00    0.65675   0.51015   -2.000
 7144.00    0.65584   0.51521   -2.000
 7145.00    0.65167   0.51827   -2.000
 7146.00    0.72135   0.51959   -2.000
 7147.00    0.80695   0.52001   -2.000
 7148.00    0.78025   0.51817   -2.000
 7149.00    0.73436   0.51758   -2.000
 7150.00    0.71708   0.52169   -2.000
 7151.00    0.70350   0.52725   -2.000
 7152.00    0.74960   0.53082   -2.000
 7153.00    0.80111   0.53310   -2.000
 7154.00    0.66247   0.53463   -2.000
 7155.00    0.51343   0.53554   -2.000
 7156.00    0.66154   0.53524   -2.000
 7157.00    0.81470   0.53150   -2.000
 7158.00    0.86071   0.52736   -2.000
 7159.00    0.88890   0.52952   -2.000
 7160.00    0.51260   0.53542   -2.000
 7161.00    0.16563   0.54060   -2.000
 7162.00    0.18805   0.54672   -2.000
 7163.00    0.21486   0.55357   -2.000
 7164.00    0.27909   0.55746   -2.000
 7165.00    0.37573   0.55937   -2.000
 7166.00    0.67774   0.56362   -2.000
 7167.00    0.91690   0.56692   -2.000
 7168.00    0.84401   0.56167   -2.000
 7169.00    0.75987   0.55168   -2.000
 7170.00    0.63047   0.54789   -2.000
 7171.00    0.51810   0.55284   -2.000
 7172.00    0.46263   0.55338   -2.000
 7173.00    0.46138   0.53669   -2.000
 7174.00    0.61307   0.52411   -2.000
 7175.00    0.72722   0.52088   -2.000
 7176.00    0.75083   0.52608   -2.000
 7177.00    0.77557   0.53345   -2.000
 7178.00    0.80267   0.53497   -2.000
 7179.00    0.80923   0.53277   -2.000
 7180.00    0.77863   0.53462   -2.000
 7181.00    0.70396   0.53991   -2.000
 7182.00    0.55954   0.54311   -2.000
 7183.00    0.53651   0.54326   -2.000
 7184.00    0.68213   0.54153   -2.000
 7185.00    0.74724   0.54015   -2.000
 7186.00    0.71390   0.54046   -2.000
 7187.00    0.70716   0.54271   -2.000
 7188.00    0.72908   0.54471   -2.000
 7189.00    0.70886   0.54267   -2.000
 7190.00    0.64857   0.53803   -2.000
 7191.00    0.68625   0.53634   -2.000
 7192.00    0.80607   0.54044   -2.000
 7193.00    0.75861   0.54913   -2.000
 7194.00    0.58767   0.55653   -2.000
 7195.00    0.60447   0.55679   -2.000
 7196.00    0.74298   0.54858   -2.000
 7197.00    0.82183   0.53639   -2.000
 7198.00    0.86684   0.52832   -2.000
 7199.00    0.74824   0.53003   -2.000
 7200.00    0.54884   0.54002   -2.000
 7201.00    0.38336   0.54977   -2.000
 7202.00    0.23237   0.55125   -2.000
 7203.00    0.29529   0.54983   -2.000
 7204.00    0.43647   0.55236   -2.000
 7205.00    0.40914   0.55444   -2.000
 7206.00    0.32962   0.54936   -2.000
 7207.00    0.49869   0.53886   -2.000
 7208.00    0.73193   0.53340   -2.000
 7209.00    0.79393   0.53726   -2.000
 7210.00    0.81990   0.54172   -2.000
 7211.00    0.78916   0.53913   -2.000
 7212.00    0.74900   0.53485   -2.000
 7213.00    0.64305   0.53905   -2.000
 7214.00    0.52889   0.54723   -2.000
 7215.00    0.58657   0.54862   -2.000
 7216.00    0.65914   0.54058   -2.000
 7217.00    0.57410   0.52973   -2.000
 7218.00    0.48105   0.52571   -2.000
