###################################################################
## OUTPUT of StarlightChains_v04.for    [Cid@UFSC - 01/Apr/2007] ##
###################################################################

## Some input info
KUG0210-078._44_51.txt                   [arq_obs]
Base.CB07.vall.4m                        [arq_base]
Masks.EmLines.NEW.gm                     [arq_masks]
StCv04.C11.config                        [arq_config]
   66                                    [N_base]
    0                                    [N_YAV_components = # of components with extra extinction!]
    0                                    [i_FitPowerLaw (1/0 = Yes/No)]
-9.99                                    [alpha_PowerLaw]
CCM                                      [red_law_option]
 1.458241                                [q_norm = A(l_norm)/A(V)]

## (Re)Sampling Parameters
 3741.00                                 [l_ini (A)]
 7218.00                                 [l_fin (A)]
    1.00                                 [dl    (A)]     (OBS: dl_cushion =    50.00 A)

## Normalization info
 4020.00                                 [l_norm (A) - for base]
 4010.00                                 [llow_norm (A) - window for f_obs]
 4060.00                                 [lupp_norm (A) - window for f_obs]
4.090097E-18                             [fobs_norm (in input units)]

## S/N
 3691.00                                 [llow_SN (A) - window for S/N]
 7268.00                                 [lupp_SN (A) - window for S/N]
   3.413                                 [S/N in S/N window]
   2.635                                 [S/N in norm. window]
   0.006                                 [S/N_err in S/N window]
   0.005                                 [S/N_err in norm. window]
  1.0000                                 [fscale_chi2]

## etc...
    -2007852                             [idum_orig]
  2332                                   [NOl_eff]
  2305                                   [Nl_eff]
    27    NSIGMA                         [Ntot_cliped & clip_method]
  2396730                                [Nglobal_steps]
   7                                     [N_chains]
  33                                     [NEX0s_base = N_base in EX0s-fits]
 0   0   1       27   2.0   9.082E+02    [Clip-Bug, RC-Crash & Burn-In warning-flags, n_censored_weights, wei_nsig_threshold & wei_limit]
    38     38.140     37.530      0.610  [idt_all, wdt_TotTime, wdt_UsrTime & wdt_SysTime (sec)]

## Synthesis Results - Best model ##

 6.22647E-06                             [chi2/Nl_eff]
    63.75605                             [adev (%)]

   130.00000                             [sum-of-x (%)]
 7.24152E-18                             [Flux_tot (units of input spectrum!)]
 1.63768E-13                             [Mini_tot (???)]
 8.44835E-14                             [Mcor_tot (???)]

 436.17                                  [v0_min  (km/s)]
   1.47                                  [vd_min  (km/s)]
 0.2300                                  [AV_min  (mag)]
 0.0000                                  [YAV_min (mag)]

# j     x_j(%)      Mini_j(%)     Mcor_j(%)     age_j(yr)     Z_j      (L/M)_j    YAV?  Mstars   component_j        a/Fe...       SSP_chi2r SSP_adev(%)   SSP_AV   SSP_x(%)
  1      0.0000     0.0000E+00    0.0000E+00    1.000000E+06  0.00400  1.094E-02    0   1.0000   age020_m42            0.0000     6.6041E-06    71.4042   3.0481   120.1273
  2      0.0000     0.0000E+00    0.0000E+00    3.160000E+06  0.00400  4.007E-02    0   0.9999   age045_m42            0.0000     6.4251E-06    69.8806   2.3208   128.4696
  3      0.0000     0.0000E+00    0.0000E+00    5.010000E+06  0.00400  2.539E-02    0   0.9488   age055_m42            0.0000     6.5040E-06    71.4472   2.6424   125.2473
  4      0.0000     0.0000E+00    0.0000E+00    6.610000E+06  0.00400  2.620E-02    0   0.9220   age061_m42            0.0000     6.4196E-06    70.4020   2.2491   128.6439
  5      0.0000     0.0000E+00    0.0000E+00    1.000000E+07  0.00400  1.322E-02    0   0.8862   age070_m42            0.0000     6.5121E-06    71.9118   2.0015   129.9980
  6      2.7318     1.1787E-02    1.9584E-02    1.445000E+07  0.00400  7.883E-03    0   0.8571   age078_m42            0.0000     6.5279E-06    72.2383   2.3231   126.8937
  7      0.0000     0.0000E+00    0.0000E+00    2.512000E+07  0.00400  5.251E-03    0   0.8174   age090_m42            0.0000     6.5007E-06    72.0156   1.8782   130.4919
  8      0.0000     0.0000E+00    0.0000E+00    4.000000E+07  0.00400  3.649E-03    0   0.7851   age104_m42            0.0000     6.4455E-06    71.1190   1.6475   131.7726
  9      4.1057     4.5078E-02    6.6663E-02    5.500000E+07  0.00400  3.098E-03    0   0.7629   age110_m42            0.0000     6.4183E-06    69.9598   1.7864   132.3332
 10      0.0000     0.0000E+00    0.0000E+00    1.015200E+08  0.00400  2.228E-03    0   0.7207   age116_m42            0.0000     6.4067E-06    69.2713   1.7988   132.8769
 11      0.0000     0.0000E+00    0.0000E+00    2.861200E+08  0.00400  1.093E-03    0   0.6648   age125_m42            0.0000     6.4073E-06    69.6680   1.2359   136.4794
 12      4.5233     2.3322E-01    2.8775E-01    5.088000E+08  0.00400  6.597E-04    0   0.6365   age130_m42            0.0000     6.3833E-06    68.0491   1.2122   138.2613
 13      0.0000     0.0000E+00    0.0000E+00    1.434000E+09  0.00400  2.132E-04    0   0.5798   age139_m42            0.0000     6.1915E-06    64.3993   0.2374   141.3445
 14     28.4297     1.6404E+01    1.7098E+01    4.250000E+09  0.00400  5.895E-05    0   0.5377   age158_m42            0.0000     6.0836E-06    63.6072  -0.2240   136.8673
 15     18.9156     1.8330E+01    1.8520E+01    7.500000E+09  0.00400  3.510E-05    0   0.5212   age171_m42            0.0000     6.1109E-06    62.2268  -0.4180   136.1349
 16      0.0000     0.0000E+00    0.0000E+00    1.300000E+10  0.00400  2.005E-05    0   0.5034   age193_m42            0.0000     6.1894E-06    60.9988  -0.5914   135.6133
 17     15.8684     3.5393E+01    3.4078E+01    1.800000E+10  0.00400  1.525E-05    0   0.4967   age213_m42            0.0000     6.1555E-06    61.6177  -0.6115   134.9851
 18      5.1276     1.4088E-02    2.7309E-02    1.000000E+06  0.00800  1.238E-02    0   1.0000   age020_m52            0.0000     6.6219E-06    71.2907   3.0444   120.3694
 19      0.0000     0.0000E+00    0.0000E+00    3.160000E+06  0.00800  3.074E-02    0   0.9966   age045_m52            0.0000     6.6064E-06    71.2033   2.9667   121.4872
 20      0.0000     0.0000E+00    0.0000E+00    5.010000E+06  0.00800  2.668E-02    0   0.9443   age055_m52            0.0000     6.5200E-06    71.1147   2.7274   124.0265
 21      0.0000     0.0000E+00    0.0000E+00    6.610000E+06  0.00800  2.136E-02    0   0.9177   age061_m52            0.0000     6.4178E-06    70.3623   1.4982   131.7760
 22      0.0000     0.0000E+00    0.0000E+00    1.000000E+07  0.00800  1.215E-02    0   0.8827   age070_m52            0.0000     6.5674E-06    72.2241   2.1884   129.3416
 23      8.5303     3.3286E-02    5.5180E-02    1.445000E+07  0.00800  8.717E-03    0   0.8552   age078_m52            0.0000     6.4946E-06    71.6693   2.2920   128.5411
 24      0.0000     0.0000E+00    0.0000E+00    2.512000E+07  0.00800  5.592E-03    0   0.8162   age090_m52            0.0000     6.4839E-06    71.6469   1.9431   131.9665
 25      2.7892     2.4351E-02    3.7013E-02    4.000000E+07  0.00800  3.896E-03    0   0.7841   age104_m52            0.0000     6.4274E-06    71.1063   1.8463   133.3281
 26      0.0000     0.0000E+00    0.0000E+00    1.015200E+08  0.00800  2.148E-03    0   0.7226   age116_m52            0.0000     6.3400E-06    70.3849   1.7731   133.6257
 27      0.0000     0.0000E+00    0.0000E+00    2.861200E+08  0.00800  9.925E-04    0   0.6683   age125_m52            0.0000     6.3558E-06    67.2762   1.2816   139.3019
 28      0.0000     0.0000E+00    0.0000E+00    9.047900E+08  0.00800  3.141E-04    0   0.6138   age135_m52            0.0000     6.2243E-06    62.9125   0.4562   146.3801
 29      0.0000     0.0000E+00    0.0000E+00    1.434000E+09  0.00800  1.719E-04    0   0.5853   age139_m52            0.0000     6.1544E-06    64.1471  -0.1209   143.2665
 30      0.0000     0.0000E+00    0.0000E+00    2.500000E+09  0.00800  7.872E-05    0   0.5600   age150_m52            0.0000     6.1602E-06    61.8677  -0.4092   140.3381
 31      7.5737     5.9412E+00    6.2490E+00    4.250000E+09  0.00800  4.336E-05    0   0.5426   age158_m52            0.0000     6.1535E-06    61.9337  -0.4265   139.0897
 32      0.0000     0.0000E+00    0.0000E+00    6.250000E+09  0.00800  3.159E-05    0   0.5319   age166_m52            0.0000     6.2217E-06    59.8324  -0.6362   139.3109
 33      0.0000     0.0000E+00    0.0000E+00    1.300000E+10  0.00800  1.361E-05    0   0.5073   age193_m52            0.0000     6.4498E-06    54.9489  -1.0000   134.6324
 34      5.2363     1.8016E+01    1.7427E+01    1.800000E+10  0.00800  9.886E-06    0   0.4990   age213_m52            0.0000     6.6624E-06    52.1501  -1.0000   130.0150
 35      0.0000     0.0000E+00    0.0000E+00    1.000000E+06  0.02000  1.544E-02    0   1.0000   age020_m62            0.0000     6.6355E-06    71.2224   3.0399   120.6682
 36      0.0000     0.0000E+00    0.0000E+00    3.160000E+06  0.02000  3.762E-02    0   0.9858   age045_m62            0.0000     6.6403E-06    70.7493   2.9786   121.7664
 37      0.0000     0.0000E+00    0.0000E+00    5.010000E+06  0.02000  3.296E-02    0   0.9342   age055_m62            0.0000     6.4552E-06    70.3671   2.5995   126.9123
 38      0.0000     0.0000E+00    0.0000E+00    8.710000E+06  0.02000  1.154E-02    0   0.8861   age067_m62            0.0000     6.9986E-06    75.3569   1.6896   130.8904
 39      0.0000     0.0000E+00    0.0000E+00    1.445000E+07  0.02000  7.663E-03    0   0.8472   age078_m62            0.0000     6.6053E-06    72.5201   1.8485   131.7355
 40      6.6119     4.9624E-02    7.7908E-02    2.512000E+07  0.02000  4.532E-03    0   0.8099   age090_m62            0.0000     6.6180E-06    73.1969   1.8440   131.1645
 41      0.3946     4.9117E-03    7.2313E-03    5.500000E+07  0.02000  2.733E-03    0   0.7595   age110_m62            0.0000     6.4218E-06    71.5167   1.8335   132.2000
 42     10.7168     2.6627E-01    3.6053E-01    1.609000E+08  0.02000  1.369E-03    0   0.6985   age120_m62            0.0000     6.3995E-06    69.3268   1.6554   136.5235
 43      0.0000     0.0000E+00    0.0000E+00    2.861200E+08  0.02000  9.013E-04    0   0.6714   age125_m62            0.0000     6.4092E-06    67.2450   1.3945   140.9644
 44      0.0000     0.0000E+00    0.0000E+00    5.088000E+08  0.02000  5.028E-04    0   0.6449   age130_m62            0.0000     6.3698E-06    63.7445   0.9894   146.0254
 45      0.0000     0.0000E+00    0.0000E+00    9.047900E+08  0.02000  2.428E-04    0   0.6179   age135_m62            0.0000     6.1670E-06    63.5941   0.3895   145.8044
 46      0.0000     0.0000E+00    0.0000E+00    1.434000E+09  0.02000  1.263E-04    0   0.5908   age139_m62            0.0000     6.1479E-06    63.3621  -0.0562   143.7247
 47      0.0000     0.0000E+00    0.0000E+00    2.500000E+09  0.02000  5.985E-05    0   0.5673   age150_m62            0.0000     6.2440E-06    60.9085  -0.4372   142.3021
 48      0.0000     0.0000E+00    0.0000E+00    4.250000E+09  0.02000  3.271E-05    0   0.5468   age158_m62            0.0000     6.4031E-06    57.0415  -0.7551   141.5013
 49      0.0000     0.0000E+00    0.0000E+00    1.000000E+10  0.02000  1.360E-05    0   0.5167   age181_m62            0.0000     6.7350E-06    51.8382  -1.0000   137.0510
 50      0.0000     0.0000E+00    0.0000E+00    1.800000E+10  0.02000  7.124E-06    0   0.5013   age213_m62            0.0000     7.1989E-06    47.7990  -1.0000   128.0486
 51      0.0000     0.0000E+00    0.0000E+00    1.000000E+06  0.05000  2.592E-02    0   0.9998   age020_m72            0.0000     6.7083E-06    71.4250   3.0339   120.6100
 52      0.0000     0.0000E+00    0.0000E+00    3.160000E+06  0.05000  4.845E-02    0   0.9577   age045_m72            0.0000     6.5277E-06    70.4994   2.8580   123.5154
 53      0.0000     0.0000E+00    0.0000E+00    5.010000E+06  0.05000  3.072E-02    0   0.9147   age055_m72            0.0000     6.6067E-06    71.8523   2.4109   127.4914
 54      0.0000     0.0000E+00    0.0000E+00    6.610000E+06  0.05000  1.455E-02    0   0.8877   age061_m72            0.0000     7.3714E-06    77.2122   1.7367   131.2924
 55      0.0000     0.0000E+00    0.0000E+00    1.000000E+07  0.05000  9.074E-03    0   0.8524   age070_m72            0.0000     6.6666E-06    72.0488   2.5817   127.2230
 56      0.0000     0.0000E+00    0.0000E+00    2.512000E+07  0.05000  4.250E-03    0   0.7902   age090_m72            0.0000     6.5392E-06    72.3957   2.2920   129.4371
 57      1.6774     1.8482E-02    2.7293E-02    4.000000E+07  0.05000  3.087E-03    0   0.7618   age104_m72            0.0000     6.5518E-06    72.8484   2.0687   131.4138
 58      0.0000     0.0000E+00    0.0000E+00    1.015200E+08  0.05000  1.700E-03    0   0.7096   age116_m72            0.0000     6.4126E-06    70.7137   1.8056   135.5553
 59      0.0000     0.0000E+00    0.0000E+00    2.861200E+08  0.05000  7.384E-04    0   0.6633   age125_m72            0.0000     6.3611E-06    65.9800   1.2447   143.7295
 60      0.3135     2.7924E-02    3.4492E-02    5.088000E+08  0.05000  3.819E-04    0   0.6372   age130_m72            0.0000     6.2360E-06    64.5796   0.7317   147.1586
 61      0.0000     0.0000E+00    0.0000E+00    9.047900E+08  0.05000  1.676E-04    0   0.6110   age135_m72            0.0000     6.2002E-06    63.3285   0.0154   145.3523
 62      0.0000     0.0000E+00    0.0000E+00    1.434000E+09  0.05000  8.837E-05    0   0.5874   age139_m72            0.0000     6.2980E-06    61.7010  -0.4408   144.4136
 63      6.4540     5.1860E+00    5.6276E+00    2.500000E+09  0.05000  4.233E-05    0   0.5598   age150_m72            0.0000     6.5011E-06    56.8245  -0.7659   143.1195
 64      0.0000     0.0000E+00    0.0000E+00    6.250000E+09  0.05000  1.435E-05    0   0.5249   age166_m72            0.0000     6.8923E-06    50.7724  -1.0000   132.9530
 65      0.0000     0.0000E+00    0.0000E+00    1.300000E+10  0.05000  6.513E-06    0   0.5036   age193_m72            0.0000     7.6844E-06    46.8602  -1.0000   123.1518
 66      0.0000     0.0000E+00    0.0000E+00    1.800000E+10  0.05000  4.527E-06    0   0.4945   age213_m72            0.0000     8.3080E-06    44.9322  -1.0000   116.4537


## Synthesis Results - Average & Chains ##

# j      x_j: min, <> & last-chain-values for 1 ...  7 chains
  1      0.0000      1.3917      0.6756      4.0559      5.2200      1.8967      0.2733      2.1332      0.8018
  2      0.0000      1.0333      0.0000      6.7351      0.9404      1.5438      0.0000      8.4163      0.6299
  3      0.0000      1.1534      0.3912      0.5622      0.3193      0.0000      1.4173      4.4135      0.0000
  4      0.0000      1.1337      1.2689      4.5441      2.8115      0.7423      0.0169      0.5857      0.8711
  5      0.0000      0.9431      0.3795      0.0000      0.0000      1.7222      0.3545      5.1773      0.7506
  6      2.7318      1.0727      0.5776      2.6119      2.9434      1.7854      0.9763      0.0000      0.7029
  7      0.0000      1.2594      0.0000      0.3442      1.2799      0.8578      0.0000      1.0859      0.0000
  8      0.0000     42.6800     77.3942     22.2060     10.3314     20.8699     91.8269     18.2393     77.7075
  9      4.1057      2.6787      3.5026      7.5882      6.0315      2.1293      4.3578      5.8359      2.7146
 10      0.0000      7.0776     11.4413      1.5349      7.6059      4.7525     11.7421      0.0000     10.8623
 11      0.0000      1.3965      0.2880      4.3286      0.2453      1.2925      0.0000      0.9253      0.0000
 12      4.5233      1.5157      0.3959      0.0000      7.8849      0.0000      0.0000      0.8238      0.4700
 13      0.0000      1.0169      0.7849      1.7498      0.0000      1.2812      0.0000      3.7871      0.3389
 14     28.4297      1.0638      0.4232      0.3298      0.3179      0.2485      0.5574      0.4637      0.9131
 15     18.9156      1.1194      0.3153      0.2010      0.6268      2.9885      0.0000      3.0741      0.5398
 16      0.0000      1.2095      0.0000      2.7365      4.3954      5.3827      0.9406      0.0000      1.1194
 17     15.8684      1.0497      0.0796      0.1034      1.8399      0.9130      0.1997      5.5696      0.5768
 18      5.1276      0.9357      2.9114      1.0994      0.0000      0.0000      0.0208      0.0000      0.7682
 19      0.0000      1.0252      0.1212      2.9816      1.8452      0.0000      0.0000      0.0000      0.0000
 20      0.0000      1.2823      0.4636      0.0000      0.5689      3.7852      0.0257      0.3823      0.0000
 21      0.0000      1.3875      1.5243      4.2954      0.0000      0.8365      0.6289      4.0318      0.3632
 22      0.0000      1.2009      0.0000      2.0486      3.8031      0.0000      0.0109      0.0000      0.0000
 23      8.5303      1.0488      0.9990      2.1904      0.7940      2.1301      0.1237      0.6109      0.6982
 24      0.0000      0.7840      0.0000      0.0000      1.1512      0.0000      0.1138      0.0000      0.0000
 25      2.7892      1.3750      0.3191      3.1543      1.7420      4.3331      0.6704      0.0000      1.0816
 26      0.0000      1.1454      0.4523      2.6457      0.0000      2.0414      0.0000      0.9202      0.0000
 27      0.0000      1.2162      0.9812      0.0000      1.2131      2.7413      0.9401      0.0000      2.8947
 28      0.0000      0.8959      0.0000      1.5092      0.0000      1.0317      0.0000      0.2129      0.1031
 29      0.0000      1.2887      0.9880      0.0000      0.0000      0.4418      0.0000      0.1828      0.0291
 30      0.0000      0.8664      0.6612      0.0000      2.3397      0.5900      0.5322      0.0000      0.0000
 31      7.5737      1.2124      0.0000      0.0000      0.0000      0.9127      0.1418      1.3382      1.0965
 32      0.0000      0.8863      0.2763      2.7074      1.8273      1.3567      0.0000      0.3329      0.4011
 33      0.0000      1.0741      0.8285      3.0677      4.4398      0.4602      0.0826      0.4297      0.0000
 34      5.2363      1.3493      0.2242      1.0681      4.3158      0.9732      0.0000      3.0057      0.4392
 35      0.0000      1.0495      0.2613      0.2019      5.2523      2.3438      0.3361      4.7043      0.0000
 36      0.0000      0.7640      0.6469      0.0000      1.7248      1.0513      0.1149      0.5132      0.2309
 37      0.0000      1.4186      1.0447      0.5423      4.7462      0.0000      1.0301      0.1974      0.0000
 38      0.0000      1.1105      0.7872      2.9218      0.0000      0.0000      0.0000      1.4523      0.2324
 39      0.0000      0.9911      0.5715      5.0570      6.8001      1.6264      0.3647      0.6047      0.0000
 40      6.6119      1.4179      1.4219      0.6846      0.0000      0.0000      0.0000      0.0000      0.7794
 41      0.3946      1.1472      0.0000      2.5500      0.0000      1.1063      0.2809      0.5362      2.9046
 42     10.7168      1.2950      0.4496      0.0000      2.0125      1.6311      0.7681      1.8084      0.6730
 43      0.0000      0.7837      0.8047      0.0562      0.0000      0.2279      0.0000      0.5098      0.1540
 44      0.0000      0.8729      0.0000      0.4510      3.7292      2.7800      0.0000      0.1846      0.0000
 45      0.0000      1.0816      0.4796      0.0432      0.0000      0.7663      0.0000      1.2294      0.3300
 46      0.0000      1.1440      0.0000      1.3614      0.8887      0.0000      0.2028      2.7447      0.1866
 47      0.0000      1.8787      0.7926      1.4130      3.9371      2.8188      0.0000      3.8132      0.0000
 48      0.0000      1.4389      0.0000      0.0000      2.4613      2.9096      0.0000      1.0223      0.0000
 49      0.0000      1.0107      0.0150      0.0000      0.0000      1.7772      0.0000      0.7465      0.0000
 50      0.0000      1.0669      0.9376      0.4449      0.0000      0.0638      0.0000      0.6430      0.0000
 51      0.0000      1.2650      0.3981      0.0000      2.4746      3.1516      0.6684      2.3957      1.7130
 52      0.0000      1.0953      0.3463      2.5428      2.2114      0.8391      0.5443      0.0000      2.0939
 53      0.0000      1.0356      0.8053      0.4628      0.0000      0.0000      0.7768      0.0000      0.0000
 54      0.0000      1.0456      0.4514      1.3958      0.0000      1.0496      0.3277      1.1449      0.9490
 55      0.0000      1.1454      0.0000      0.3090      0.9696      2.4032      0.3163      1.5368      0.3501
 56      0.0000      1.8974      1.2336      3.6681      0.0000      0.0000      0.4660      2.4159      1.3048
 57      1.6774      3.5799      5.9113      0.0000      7.3245      7.4439      6.2943      2.0849      5.7218
 58      0.0000      1.5666      0.0000      4.0620      2.4535      5.8800      0.4062      1.7164      0.0000
 59      0.0000      1.1662      1.0089      0.0000      0.2705      0.9340      0.0000      0.2419      0.4708
 60      0.3135      1.1063      0.3355      0.9035      0.0000      2.8503      0.2577      7.9808      1.4762
 61      0.0000      1.1284      1.2984      3.7578      1.7650      0.0000      0.5743      4.2141      0.4348
 62      0.0000      1.4561      0.2537      4.4163      0.8856      3.8726      0.0000      5.1384      0.0000
 63      6.4540      1.3718      0.0000      0.7037      0.0000      0.4301      0.0000      2.4035      1.2450
 64      0.0000      1.0490      0.5149      0.0000      0.6255      4.9199      0.0000      0.5525      1.6955
 65      0.0000      1.3538      0.0000      1.8787      2.5112      2.8034      0.0000      1.1369      0.0000
 66      0.0000      1.1309      0.5617      0.0000      0.0000      0.0000      0.0961      0.0000      0.0000

# j      m_j: min, <> & last-chain-values for 1 ...  7 chains
  1  0.0000E+00  1.7391E-02  2.3951E-02  6.5289E-02  5.0097E-02  1.8681E-02  2.9061E-02  2.4650E-02  3.3471E-02
  2  0.0000E+00  3.5249E-03  0.0000E+00  2.9597E-02  2.4639E-03  4.1508E-03  0.0000E+00  2.6550E-02  7.1787E-03
  3  0.0000E+00  5.8919E-03  5.6689E-03  3.6995E-03  1.2526E-03  0.0000E+00  6.1617E-02  2.0850E-02  0.0000E+00
  4  0.0000E+00  5.4539E-03  1.7318E-02  2.8161E-02  1.0388E-02  2.8147E-03  6.9131E-04  2.6059E-03  1.4000E-02
  5  0.0000E+00  8.6427E-03  9.8652E-03  0.0000E+00  0.0000E+00  1.2439E-02  2.7648E-02  4.3875E-02  2.2979E-02
  6  1.9584E-02  1.5944E-02  2.4356E-02  5.0011E-02  3.3601E-02  2.0916E-02  1.2350E-01  0.0000E+00  3.4904E-02
  7  0.0000E+00  2.6801E-02  0.0000E+00  9.4355E-03  2.0919E-02  1.4388E-02  0.0000E+00  2.1369E-02  0.0000E+00
  8  0.0000E+00  1.2553E+00  6.4579E+00  8.4138E-01  2.3339E-01  4.8382E-01  2.2986E+01  4.9610E-01  7.6356E+00
  9  6.6663E-02  9.0176E-02  3.3451E-01  3.2908E-01  1.5595E-01  5.6498E-02  1.2485E+00  1.8168E-01  3.0530E-01
 10  0.0000E+00  3.1297E-01  1.4353E+00  8.7436E-02  2.5832E-01  1.6564E-01  4.4189E+00  0.0000E+00  1.6047E+00
 11  0.0000E+00  1.1611E-01  6.7935E-02  4.6365E-01  1.5664E-02  8.4704E-02  0.0000E+00  7.1151E-02  0.0000E+00
 12  2.8775E-01  1.9991E-01  1.4815E-01  0.0000E+00  7.9875E-01  0.0000E+00  0.0000E+00  1.0049E-01  2.0709E-01
 13  0.0000E+00  3.7805E-01  8.2777E-01  8.3801E-01  0.0000E+00  3.7543E-01  0.0000E+00  1.3020E+00  4.2093E-01
 14  1.7098E+01  1.3264E+00  1.4971E+00  5.2972E-01  3.0442E-01  2.4419E-01  5.9149E+00  5.3470E-01  3.8036E+00
 15  1.8520E+01  2.2723E+00  1.8158E+00  5.2550E-01  9.7720E-01  4.7815E+00  0.0000E+00  5.7707E+00  3.6605E+00
 16  0.0000E+00  4.1514E+00  0.0000E+00  1.2099E+01  1.1587E+01  1.4562E+01  2.7476E+01  0.0000E+00  1.2836E+01
 17  3.4078E+01  4.6737E+00  1.0055E+00  5.9333E-01  6.2919E+00  3.2040E+00  7.5664E+00  2.2933E+01  8.5797E+00
 18  2.7309E-02  1.0333E-02  9.1204E-02  1.5639E-02  0.0000E+00  0.0000E+00  1.9526E-03  0.0000E+00  2.8339E-02
 19  0.0000E+00  4.5434E-03  1.5244E-03  1.7023E-02  6.2808E-03  0.0000E+00  0.0000E+00  0.0000E+00  0.0000E+00
 20  0.0000E+00  6.2045E-03  6.3633E-03  0.0000E+00  2.1142E-03  1.4435E-02  1.0584E-03  1.7105E-03  0.0000E+00
 21  0.0000E+00  8.1488E-03  2.5398E-02  3.2499E-02  0.0000E+00  3.8722E-03  3.1437E-02  2.1899E-02  7.1257E-03
 22  0.0000E+00  1.1926E-02  0.0000E+00  2.6210E-02  2.9009E-02  0.0000E+00  9.1847E-04  0.0000E+00  0.0000E+00
 23  5.5180E-02  1.4066E-02  3.8011E-02  3.7844E-02  8.1787E-03  2.2517E-02  1.4119E-02  7.5768E-03  3.1281E-02
 24  0.0000E+00  1.5643E-02  0.0000E+00  0.0000E+00  1.7641E-02  0.0000E+00  1.9325E-02  0.0000E+00  0.0000E+00
 25  3.7013E-02  3.7829E-02  2.4908E-02  1.1180E-01  3.6810E-02  9.3964E-02  1.5697E-01  0.0000E+00  9.9412E-02
 26  0.0000E+00  5.2676E-02  5.9014E-02  1.5674E-01  0.0000E+00  7.3994E-02  0.0000E+00  3.9134E-02  0.0000E+00
 27  0.0000E+00  1.1195E-01  2.5622E-01  0.0000E+00  8.5766E-02  1.9888E-01  7.3646E-01  0.0000E+00  8.9016E-01
 28  0.0000E+00  2.3932E-01  0.0000E+00  5.1936E-01  0.0000E+00  2.1722E-01  0.0000E+00  5.2604E-02  9.2037E-02
 29  0.0000E+00  5.9982E-01  1.3046E+00  0.0000E+00  0.0000E+00  1.6209E-01  0.0000E+00  7.8690E-02  4.5303E-02
 30  0.0000E+00  8.4254E-01  1.8241E+00  0.0000E+00  1.7476E+00  4.5222E-01  4.4050E+00  0.0000E+00  0.0000E+00
 31  6.2490E+00  2.0740E+00  0.0000E+00  0.0000E+00  0.0000E+00  1.2306E+00  2.0643E+00  2.1170E+00  6.2665E+00
 32  0.0000E+00  2.0400E+00  1.8041E+00  8.0280E+00  3.2304E+00  2.4614E+00  0.0000E+00  7.0870E-01  3.0841E+00
 33  0.0000E+00  5.4728E+00  1.1976E+01  2.0137E+01  1.7375E+01  1.8481E+00  3.5800E+00  2.0247E+00  0.0000E+00
 34  1.7427E+01  9.3105E+00  4.3883E+00  9.4947E+00  2.2872E+01  5.2928E+00  0.0000E+00  1.9180E+01  1.0124E+01
 35  0.0000E+00  9.2924E-03  6.5639E-03  2.3027E-03  3.5716E-02  1.6356E-02  2.5326E-02  3.8518E-02  0.0000E+00
 36  0.0000E+00  2.7369E-03  6.5736E-03  0.0000E+00  4.7453E-03  2.9682E-03  3.5023E-03  1.7001E-03  2.7629E-03
 37  0.0000E+00  5.4967E-03  1.1483E-02  2.7068E-03  1.4124E-02  0.0000E+00  3.3967E-02  7.0715E-04  0.0000E+00
 38  0.0000E+00  1.1657E-02  2.3443E-02  3.9510E-02  0.0000E+00  0.0000E+00  0.0000E+00  1.4098E-02  8.1503E-03
 39  0.0000E+00  1.4979E-02  2.4504E-02  9.8457E-02  7.8935E-02  1.9374E-02  4.6913E-02  8.4523E-03  0.0000E+00
 40  7.7908E-02  3.4638E-02  9.8547E-02  2.1546E-02  0.0000E+00  0.0000E+00  0.0000E+00  0.0000E+00  6.3609E-02
 41  7.2313E-03  4.3581E-02  0.0000E+00  1.2479E-01  0.0000E+00  3.3126E-02  9.0810E-02  1.8838E-02  3.6864E-01
 42  3.6053E-01  9.0322E-02  8.8962E-02  0.0000E+00  1.0781E-01  8.9669E-02  4.5595E-01  1.1664E-01  1.5682E-01
 43  0.0000E+00  7.9808E-02  2.3248E-01  7.3701E-03  0.0000E+00  1.8289E-02  0.0000E+00  4.8006E-02  5.2387E-02
 44  0.0000E+00  1.5306E-01  0.0000E+00  1.0187E-01  5.0220E-01  3.8420E-01  0.0000E+00  2.9937E-02  0.0000E+00
 45  0.0000E+00  3.7627E-01  4.7333E-01  1.9342E-02  0.0000E+00  2.1013E-01  0.0000E+00  3.9551E-01  3.8349E-01
 46  0.0000E+00  7.3157E-01  0.0000E+00  1.1215E+00  4.3646E-01  0.0000E+00  1.1037E+00  1.6231E+00  3.9870E-01
 47  0.0000E+00  2.4344E+00  2.9137E+00  2.3586E+00  3.9182E+00  2.8789E+00  0.0000E+00  4.5693E+00  0.0000E+00
 48  0.0000E+00  3.2883E+00  0.0000E+00  0.0000E+00  4.3199E+00  5.2408E+00  0.0000E+00  2.1605E+00  0.0000E+00
 49  0.0000E+00  5.2492E+00  2.2038E-01  0.0000E+00  0.0000E+00  7.2753E+00  0.0000E+00  3.5852E+00  0.0000E+00
 50  0.0000E+00  1.0263E+01  2.5588E+01  5.5134E+00  0.0000E+00  4.8408E-01  0.0000E+00  5.7197E+00  0.0000E+00
 51  0.0000E+00  6.6702E-03  5.9549E-03  0.0000E+00  1.0022E-02  1.3098E-02  2.9997E-02  1.1682E-02  3.0176E-02
 52  0.0000E+00  2.9596E-03  2.6544E-03  8.8515E-03  4.5895E-03  1.7871E-03  1.2517E-02  0.0000E+00  1.8903E-02
 53  0.0000E+00  4.2153E-03  9.2990E-03  2.4267E-03  0.0000E+00  0.0000E+00  2.6911E-02  0.0000E+00  0.0000E+00
 54  0.0000E+00  8.7203E-03  1.0681E-02  1.4996E-02  0.0000E+00  6.8997E-03  2.3263E-02  8.8306E-03  2.6441E-02
 55  0.0000E+00  1.4709E-02  0.0000E+00  5.1123E-03  9.5630E-03  2.4324E-02  3.4565E-02  1.8251E-02  1.5018E-02
 56  0.0000E+00  4.8227E-02  8.8954E-02  1.2011E-01  0.0000E+00  0.0000E+00  1.0080E-01  5.6787E-02  1.1079E-01
 57  2.7293E-02  1.2077E-01  5.6574E-01  0.0000E+00  1.8978E-01  1.9793E-01  1.8071E+00  6.5044E-02  6.4485E-01
 58  0.0000E+00  8.9394E-02  0.0000E+00  2.9859E-01  1.0753E-01  2.6445E-01  1.9727E-01  9.0571E-02  0.0000E+00
 59  0.0000E+00  1.4321E-01  3.5147E-01  0.0000E+00  2.5509E-02  9.0402E-02  0.0000E+00  2.7474E-02  1.9313E-01
 60  3.4492E-02  2.5232E-01  2.1712E-01  2.6548E-01  0.0000E+00  5.1243E-01  5.0026E-01  1.6834E+00  1.1248E+00
 61  0.0000E+00  5.6234E-01  1.8357E+00  2.4125E+00  6.7559E-01  0.0000E+00  2.4358E+00  1.9422E+00  7.2392E-01
 62  0.0000E+00  1.3231E+00  6.5390E-01  5.1696E+00  6.1807E-01  2.7736E+00  0.0000E+00  4.3178E+00  0.0000E+00
 63  5.6276E+00  2.4799E+00  0.0000E+00  1.6387E+00  0.0000E+00  6.1281E-01  0.0000E+00  4.0183E+00  7.5193E+00
 64  0.0000E+00  5.2452E+00  7.3049E+00  0.0000E+00  2.4022E+00  1.9390E+01  0.0000E+00  2.5549E+00  2.8324E+01
 65  0.0000E+00  1.4310E+01  0.0000E+00  2.5582E+01  2.0387E+01  2.3356E+01  0.0000E+00  1.1113E+01  0.0000E+00
 66  0.0000E+00  1.6888E+01  2.3795E+01  0.0000E+00  0.0000E+00  0.0000E+00  1.2207E+01  0.0000E+00  0.0000E+00

# AV, chi2 & Mass for <> & i_chain = 1 ...  7 solutions
AV       0.2300      2.3100      1.5983      1.6938      1.4424      1.3466      1.7403      1.3926      1.4963
chi2 6.2265E-06  2.3329E-05  6.5004E-06  8.1384E-06  8.1873E-06  7.8832E-06  6.4794E-06  8.0316E-06  6.4544E-06
Mass 8.4483E-14  6.6589E-13  9.0236E-14  2.2592E-13  2.7035E-13  2.3164E-13  3.6400E-14  2.0999E-13  6.6819E-14
 436.17                                  [v0_min (km/s) before EX0s...]
   1.47                                  [vd_min (km/s) before EX0s...]


## Synthetic spectrum (Best Model) ##l_obs f_obs f_syn wei
 3478    [Nl_obs]
 3741.00    3.19313   0.58146    0.000
 3742.00    1.43028   0.64189    0.000
 3743.00   -1.53438   0.72535    0.000
 3744.00   -2.08060   0.82231    0.000
 3745.00   -1.21774   0.90357    0.000
 3746.00   -0.47303   0.94608    0.000
 3747.00    0.21170   0.93995    0.013
 3748.00   -0.79059   0.89998    0.000
 3749.00   -2.53472   0.85620    0.000
 3750.00   -1.29016   0.81391    0.000
 3751.00    1.08272   0.76942    0.013
 3752.00    0.52898   0.73105    0.013
 3753.00   -0.96271   0.67321    0.000
 3754.00   -1.86233   0.59113    0.000
 3755.00   -2.60330   0.55645    0.000
 3756.00   -2.38081   0.61686    0.000
 3757.00   -1.94687   0.72555    0.000
 3758.00   -1.75065   0.81756    0.000
 3759.00   -1.59593   0.89274    0.000
 3760.00   -1.84343   0.96062    0.000
 3761.00   -2.14435   0.99018    0.000
 3762.00   -0.73631   0.95196    0.000
 3763.00    0.83234   0.87651    0.012
 3764.00    0.41404   0.84160    0.012
 3765.00   -0.11888   0.86801    0.000
 3766.00   -1.13181   0.90883    0.000
 3767.00   -2.14913   0.93508    0.000
 3768.00   -2.31767   0.93672    0.000
 3769.00   -2.44170   0.92291    0.000
 3770.00   -1.48464   0.91851    0.000
 3771.00   -0.57320   0.89896    0.000
 3772.00   -0.25957   0.84422    0.000
 3773.00   -0.04145   0.79971    0.000
 3774.00   -0.66188   0.77443    0.000
 3775.00   -1.03978   0.73066    0.000
 3776.00    0.15483   0.70209    0.011
 3777.00    1.07349   0.74704    0.011
 3778.00    0.59551   0.83208    0.011
 3779.00    0.28404   0.89310    0.011
 3780.00    0.65413   0.92120    0.011
 3781.00    0.87873   0.94467    0.011
 3782.00    0.60985   0.97943    0.011
 3783.00   -0.28364   1.01258    0.000
 3784.00   -2.96353   1.04229    0.000
 3785.00   -4.21349   1.07827    0.000
 3786.00   -1.96976   1.10511    0.000
 3787.00   -1.00184   1.11012    0.000
 3788.00   -2.72292   1.11175    0.000
 3789.00   -3.09795   1.12224    0.000
 3790.00   -1.00745   1.11376    0.000
 3791.00    0.53930   1.06116    0.011
 3792.00    1.21563   1.00137    0.011
 3793.00    0.96740   0.97266    0.011
 3794.00   -0.57951   0.95842    0.000
 3795.00   -1.48678   0.94637    0.000
 3796.00   -1.60346   0.94797    0.000
 3797.00   -1.56886   0.94961    0.000
 3798.00   -1.36944   0.91902    0.000
 3799.00   -1.26014   0.85780    0.000
 3800.00   -1.23743   0.79600    0.000
 3801.00   -1.13424   0.74404    0.000
 3802.00   -0.96285   0.68085    0.000
 3803.00   -0.96663   0.61607    0.000
 3804.00   -1.10114   0.61115    0.000
 3805.00   -1.30043   0.69106    0.000
 3806.00   -1.54218   0.80083    0.000
 3807.00   -1.02810   0.88648    0.000
 3808.00   -0.08028   0.95510    0.000
 3809.00    0.16989   1.01148    0.011
 3810.00    0.07136   1.03331    0.011
 3811.00    0.47163   1.02099    0.011
 3812.00    1.08760   1.00226    0.011
 3813.00    1.66459   1.01311    0.011
 3814.00    2.22711   1.05974    0.011
 3815.00    1.85644   1.10614    0.011
 3816.00    1.19241   1.12232    0.011
 3817.00    0.74921   1.10369    0.011
 3818.00    0.36395   1.05730    0.011
 3819.00   -0.15127   1.00754    0.000
 3820.00   -0.69433   0.97437    0.000
 3821.00   -1.27548   0.96253    0.000
 3822.00   -1.86310   0.98411    0.000
 3823.00   -0.98243   1.01495    0.000
 3824.00    0.08665   0.99048    0.010
 3825.00    0.46808   0.91533    0.011
 3826.00    0.78778   0.88062    0.011
 3827.00   -0.61393   0.92610    0.000
 3828.00   -2.10817   0.97994    0.000
 3829.00   -1.18106   0.96611    0.000
 3830.00   -0.22981   0.90394    0.000
 3831.00   -1.33528   0.85975    0.000
 3832.00   -2.34559   0.84753    0.000
 3833.00   -1.24175   0.83901    0.000
 3834.00   -0.19723   0.82538    0.000
 3835.00    0.10974   0.81742    0.010
 3836.00    0.45303   0.79831    0.010
 3837.00    1.10337   0.73717    0.010
 3838.00    1.58009   0.65463    0.010
 3839.00    0.96453   0.59197    0.010
 3840.00    0.46279   0.55917    0.010
 3841.00    0.52258   0.56582    0.010
 3842.00    0.69917   0.60330    0.010
 3843.00    1.34333   0.63672    0.010
 3844.00    1.55794   0.66771    0.010
 3845.00    0.34451   0.71222    0.010
 3846.00   -0.42600   0.76857    0.000
 3847.00    0.04725   0.84280    0.000
 3848.00    0.55728   0.92367    0.000
 3849.00    1.15567   0.97920    0.000
 3850.00    1.60717   1.00418    0.000
 3851.00    1.75406   1.01427    0.000
 3852.00    1.85658   1.03197    0.000
 3853.00    1.87906   1.05611    0.000
 3854.00    1.72339   1.05391    0.000
 3855.00    1.28676   1.02648    0.000
 3856.00    0.55226   1.02252    0.000
 3857.00   -0.59462   1.05604    0.000
 3858.00   -1.25142   1.08181    0.000
 3859.00   -1.31109   1.07727    0.000
 3860.00   -1.21994   1.05547    0.000
 3861.00   -0.96677   1.02718    0.000
 3862.00   -0.98378   1.01243    0.000
 3863.00   -1.25678   1.01070    0.000
 3864.00   -0.96645   0.98372    0.000
 3865.00   -0.20551   0.94732    0.000
 3866.00    0.08652   0.96108    0.000
 3867.00    0.03369   1.02339    0.000
 3868.00    0.36996   1.07947    0.000
 3869.00    0.95755   1.09822    0.000
 3870.00    1.00439   1.08719    0.000
 3871.00    0.74562   1.06938    0.000
 3872.00    0.06654   1.06279    0.000
 3873.00   -0.81930   1.06562    0.000
 3874.00   -0.60590   1.07058    0.000
 3875.00    0.07492   1.06172    0.000
 3876.00    0.39457   1.02325    0.000
 3877.00    0.58265   0.97106    0.000
 3878.00    0.97716   0.94386    0.000
 3879.00    1.43531   0.97169    0.000
 3880.00    1.02174   1.02739    0.000
 3881.00    0.38438   1.05599    0.009
 3882.00    0.00133   1.02938    0.009
 3883.00   -0.32855   0.96549    0.000
 3884.00    0.65929   0.92403    0.009
 3885.00    1.86442   0.94312    0.009
 3886.00    2.09482   0.96517    0.010
 3887.00    2.20450   0.93687    0.010
 3888.00    1.57769   0.90318    0.010
 3889.00    0.88784   0.90124    0.010
 3890.00    0.77964   0.88338    0.009
 3891.00    0.70043   0.80567    0.009
 3892.00    0.08797   0.71532    0.010
 3893.00   -0.53199   0.65590    0.000
 3894.00   -1.07211   0.61678    0.000
 3895.00   -1.55181   0.62334    0.000
 3896.00   -0.79534   0.70345    0.000
 3897.00   -0.08757   0.80704    0.000
 3898.00    0.04418   0.87921    0.009
 3899.00    0.04780   0.91104    0.009
 3900.00   -0.99242   0.92070    0.000
 3901.00   -1.80253   0.93480    0.000
 3902.00   -1.20716   0.97403    0.000
 3903.00   -0.68774   1.00982    0.000
 3904.00   -0.53379   1.00831    0.000
 3905.00   -0.39805   1.00066    0.000
 3906.00   -0.33366   1.02181    0.000
 3907.00   -0.33274   1.05297    0.000
 3908.00   -0.53873   1.05616    0.000
 3909.00   -0.55243   1.04757    0.000
 3910.00   -0.03587   1.03969    0.000
 3911.00    0.41119   1.01511    0.009
 3912.00    0.69410   1.01588    0.009
 3913.00    0.84385   1.06741    0.009
 3914.00    0.72183   1.12172    0.009
 3915.00    0.81712   1.14589    0.009
 3916.00    1.29839   1.15318    0.009
 3917.00    1.71653   1.16464    0.009
 3918.00    2.03657   1.16725    0.009
 3919.00    2.03418   1.14863    0.009
 3920.00    1.59186   1.13556    0.009
 3921.00    1.38655   1.13328    0.009
 3922.00    1.46594   1.12223    0.009
 3923.00    1.10300   1.10959    0.009
 3924.00    0.27158   1.09066    0.009
 3925.00   -0.16343   1.05859    0.000
 3926.00   -0.22811   1.02830    0.000
 3927.00   -0.51938   1.02131    0.000
 3928.00   -0.99725   1.03691    0.000
 3929.00   -0.49069   1.05270    0.000
 3930.00    0.72951   1.05498    0.009
 3931.00    1.49589   1.02911    0.009
 3932.00    1.97346   0.98113    0.010
 3933.00    1.41854   0.92912    0.010
 3934.00    0.28901   0.87608    0.010
 3935.00    0.85001   0.82156    0.010
 3936.00    2.22936   0.76346    0.010
 3937.00    1.73223   0.69655    0.010
 3938.00    0.45056   0.62475    0.009
 3939.00    0.08640   0.57469    0.009
 3940.00    0.05043   0.58378    0.009
 3941.00    0.09744   0.64904    0.009
 3942.00    0.16952   0.73499    0.009
 3943.00   -0.24897   0.81539    0.000
 3944.00   -0.79066   0.88502    0.000
 3945.00   -0.21064   0.94452    0.000
 3946.00    0.59811   0.98387    0.009
 3947.00    0.92561   0.99717    0.009
 3948.00    1.17604   0.99654    0.009
 3949.00    0.92330   0.98421    0.009
 3950.00    0.61047   0.98734    0.009
 3951.00    0.56571   1.03772    0.009
 3952.00    0.54278   1.09014    0.009
 3953.00    0.67211   1.09145    0.009
 3954.00    0.80843   1.07389    0.009
 3955.00    0.26837   1.08776    0.009
 3956.00   -0.26336   1.11936    0.000
 3957.00    0.09080   1.12298    0.009
 3958.00    0.42330   1.09664    0.009
 3959.00    0.34568   1.09689    0.009
 3960.00    0.24680   1.12526    0.000
 3961.00   -0.09172   1.11414    0.000
 3962.00   -0.37191   1.06747    0.000
 3963.00   -0.19368   1.04912    0.000
 3964.00    0.00589   1.06622    0.000
 3965.00    0.33206   1.06724    0.000
 3966.00    0.61337   1.00953    0.000
 3967.00    0.68406   0.91497    0.000
 3968.00    0.57376   0.84845    0.000
 3969.00   -0.23012   0.81545    0.000
 3970.00   -0.78782   0.76947    0.000
 3971.00   -0.55860   0.69169    0.000
 3972.00   -0.29299   0.58910    0.000
 3973.00    0.07121   0.48138    0.000
 3974.00    0.35107   0.40079    0.000
 3975.00    0.43512   0.37698    0.000
 3976.00    0.68821   0.42045    0.000
 3977.00    1.28086   0.51367    0.000
 3978.00    1.46947   0.61658    0.000
 3979.00    0.95135   0.70705    0.000
 3980.00    0.36960   0.79304    0.000
 3981.00   -0.30955   0.87290    0.000
 3982.00   -0.09491   0.93081    0.000
 3983.00    1.32178   0.98008    0.009
 3984.00    1.48225   1.03598    0.009
 3985.00    0.15507   1.08703    0.009
 3986.00   -0.22086   1.11786    0.000
 3987.00    0.39651   1.11638    0.009
 3988.00    0.83489   1.10039    0.009
 3989.00    1.10841   1.10611    0.009
 3990.00    1.20009   1.13387    0.009
 3991.00    1.14414   1.15659    0.009
 3992.00    1.04071   1.16233    0.009
 3993.00    0.90336   1.17625    0.009
 3994.00    1.03024   1.20428    0.009
 3995.00    1.32278   1.20532    0.009
 3996.00    1.02109   1.19665    0.009
 3997.00    0.39375   1.21504    0.008
 3998.00    0.79653   1.24213    0.009
 3999.00    1.69000   1.24914    0.009
 4000.00    2.26661   1.22805    0.009
 4001.00    2.71298   1.20575    0.008
 4002.00    2.42275   1.18501    0.008
 4003.00    1.87382   1.16379    0.008
 4004.00    1.63412   1.17043    0.008
 4005.00    1.48606   1.21853    0.008
 4006.00    1.12775   1.25597    0.008
 4007.00    0.71778   1.26124    0.008
 4008.00    0.28753   1.27034    0.008
 4009.00   -0.14676   1.27320    0.000
 4010.00   -0.37498   1.22165    0.000
 4011.00   -0.57118   1.14747    0.000
 4012.00   -0.50977   1.13792    0.000
 4013.00   -0.41874   1.19132    0.000
 4014.00   -0.01154   1.22985    0.000
 4015.00    0.42011   1.23633    0.009
 4016.00    0.76346   1.24337    0.009
 4017.00    1.10309   1.25854    0.009
 4018.00    1.01716   1.26056    0.009
 4019.00    0.94171   1.26047    0.009
 4020.00    1.49533   1.26742    0.009
 4021.00    2.00854   1.28104    0.009
 4022.00    1.80939   1.28207    0.009
 4023.00    1.65952   1.26097    0.009
 4024.00    2.04000   1.26269    0.009
 4025.00    2.32114   1.29187    0.009
 4026.00    1.84816   1.29718    0.009
 4027.00    1.38941   1.27971    0.009
 4028.00    1.01278   1.26898    0.009
 4029.00    0.70574   1.25512    0.009
 4030.00    0.71757   1.21973    0.009
 4031.00    0.66611   1.20035    0.009
 4032.00    0.37723   1.22487    0.009
 4033.00    0.35116   1.26966    0.008
 4034.00    1.14898   1.29880    0.008
 4035.00    1.64419   1.28023    0.008
 4036.00    1.33435   1.21460    0.008
 4037.00    1.12186   1.16495    0.008
 4038.00    1.13167   1.15818    0.008
 4039.00    1.05988   1.16402    0.008
 4040.00    0.82678   1.18205    0.008
 4041.00    0.92294   1.22041    0.008
 4042.00    1.58634   1.27768    0.008
 4043.00    1.95437   1.33175    0.008
 4044.00    1.87683   1.35214    0.008
 4045.00    1.57875   1.33492    0.008
 4046.00    0.98831   1.29794    0.008
 4047.00    0.77438   1.28309    0.008
 4048.00    1.00000   1.30046    0.008
 4049.00    1.05003   1.28566    0.008
 4050.00    0.91927   1.19986    0.008
 4051.00    1.06195   1.09888    0.008
 4052.00    1.45291   1.09062    0.008
 4053.00    1.27964   1.18888    0.008
 4054.00    0.65477   1.27185    0.008
 4055.00    0.35508   1.29525    0.008
 4056.00    0.28437   1.30961    0.008
 4057.00    0.26246   1.31472    0.008
 4058.00    0.27070   1.29488    0.008
 4059.00    0.41040   1.26998    0.008
 4060.00    0.62103   1.24810    0.008
 4061.00    0.99358   1.23760    0.008
 4062.00    1.44201   1.23894    0.008
 4063.00    1.20325   1.22219    0.008
 4064.00    0.68686   1.20783    0.008
 4065.00    0.87321   1.23738    0.008
 4066.00    1.30187   1.28527    0.008
 4067.00    1.59978   1.29250    0.008
 4068.00    1.85973   1.22883    0.008
 4069.00    1.83873   1.13644    0.008
 4070.00    1.75024   1.12243    0.008
 4071.00    1.53065   1.19132    0.008
 4072.00    1.28566   1.22359    0.008
 4073.00    1.52211   1.21792    0.008
 4074.00    1.83111   1.24887    0.008
 4075.00    1.56186   1.29698    0.008
 4076.00    1.22865   1.27735    0.008
 4077.00    0.96335   1.19651    0.008
 4078.00    0.70302   1.17055    0.008
 4079.00    0.46074   1.23167    0.008
 4080.00    0.21915   1.27380    0.008
 4081.00    0.73941   1.24133    0.008
 4082.00    1.24941   1.16849    0.008
 4083.00    1.21363   1.10839    0.008
 4084.00    1.18980   1.11460    0.008
 4085.00    1.36271   1.17818    0.008
 4086.00    1.49735   1.24965    0.008
 4087.00    1.23822   1.29580    0.008
 4088.00    1.05240   1.29022    0.008
 4089.00    1.40450   1.24874    0.008
 4090.00    1.56752   1.21429    0.008
 4091.00    0.66978   1.20937    0.008
 4092.00    0.04891   1.23383    0.000
 4093.00    0.66705   1.27925    0.000
 4094.00    1.11944   1.31433    0.000
 4095.00    0.96315   1.31285    0.000
 4096.00    0.86300   1.28780    0.000
 4097.00    0.93556   1.25806    0.000
 4098.00    1.04631   1.22679    0.000
 4099.00    1.25690   1.22030    0.000
 4100.00    1.54632   1.21621    0.000
 4101.00    2.01274   1.16052    0.000
 4102.00    2.39897   1.09260    0.000
 4103.00    2.62917   1.05645    0.000
 4104.00    2.41333   1.03004    0.000
 4105.00    1.44063   0.97818    0.000
 4106.00    1.01220   0.87701    0.000
 4107.00    1.39281   0.75433    0.000
 4108.00    1.39898   0.72813    0.000
 4109.00    0.91591   0.82279    0.000
 4110.00    0.82622   0.93484    0.000
 4111.00    1.18934   1.02348    0.000
 4112.00    1.27174   1.09052    0.000
 4113.00    1.06919   1.12522    0.008
 4114.00    0.90807   1.14086    0.008
 4115.00    0.78406   1.14382    0.007
 4116.00    0.93640   1.14447    0.007
 4117.00    1.30678   1.15826    0.008
 4118.00    1.56716   1.18440    0.008
 4119.00    1.75119   1.21914    0.008
 4120.00    2.19552   1.24619    0.008
 4121.00    2.79824   1.25953    0.007
 4122.00    2.65398   1.27444    0.011
 4123.00    2.11288   1.27213    0.046
 4124.00    1.43089   1.23026   -1.000
 4125.00    0.68394   1.19924   -1.000
 4126.00    0.72860   1.21291   -1.000
 4127.00    1.08761   1.22972   -1.000
 4128.00    1.21992   1.23093   -1.000
 4129.00    1.27552   1.23898   -1.000
 4130.00    1.25811   1.26732    0.019
 4131.00    1.21993   1.29374    0.008
 4132.00    0.98776   1.28518    0.008
 4133.00    0.71005   1.25194    0.008
 4134.00    1.04583   1.22547    0.008
 4135.00    1.49740   1.22544    0.008
 4136.00    1.48670   1.22713    0.008
 4137.00    1.40850   1.20326    0.008
 4138.00    1.73698   1.16358    0.008
 4139.00    2.10869   1.15684    0.008
 4140.00    1.19486   1.18030    0.008
 4141.00    0.19210   1.22889    0.008
 4142.00    0.86908   1.27949    0.008
 4143.00    1.60399   1.28965    0.008
 4144.00    1.46238   1.30017    0.008
 4145.00    1.31764   1.31678    0.008
 4146.00    1.12657   1.31848    0.008
 4147.00    0.97975   1.29475    0.008
 4148.00    1.51704   1.21289    0.008
 4149.00    2.01333   1.10729    0.008
 4150.00    2.10536   1.09114    0.008
 4151.00    2.16432   1.17632    0.008
 4152.00    1.98845   1.25308    0.008
 4153.00    1.85101   1.27836    0.008
 4154.00    1.92330   1.27453    0.008
 4155.00    1.89482   1.25315    0.008
 4156.00    1.42592   1.23858    0.008
 4157.00    0.95733   1.24901    0.007
 4158.00    0.48982   1.25344    0.007
 4159.00    0.21830   1.23855    0.007
 4160.00    0.53819   1.21670    0.007
 4161.00    0.88197   1.21387    0.007
 4162.00    1.28714   1.22117    0.007
 4163.00    1.61156   1.23140    0.007
 4164.00    1.75763   1.25731    0.007
 4165.00    1.81375   1.28490    0.008
 4166.00    1.69758   1.29442    0.007
 4167.00    1.71468   1.28968    0.007
 4168.00    1.95451   1.30005    0.007
 4169.00    2.07302   1.31212    0.007
 4170.00    2.01380   1.29987    0.007
 4171.00    1.92332   1.28852    0.007
 4172.00    1.79255   1.27790    0.007
 4173.00    1.52133   1.25102    0.007
 4174.00    1.09071   1.24053    0.007
 4175.00    0.85600   1.26601    0.007
 4176.00    0.81736   1.27970    0.007
 4177.00    1.02987   1.24012    0.007
 4178.00    1.46406   1.16688    0.008
 4179.00    1.57816   1.12853    0.008
 4180.00    1.44331   1.15284    0.007
 4181.00    1.45741   1.19683    0.007
 4182.00    1.57339   1.22114    0.007
 4183.00    1.43804   1.21279    0.007
 4184.00    1.15205   1.20001    0.007
 4185.00    0.80018   1.22576    0.007
 4186.00    0.41384   1.26274    0.007
 4187.00    0.65067   1.25636    0.007
 4188.00    1.17015   1.22818    0.007
 4189.00    1.77202   1.22837    0.007
 4190.00    2.40603   1.24976    0.007
 4191.00    1.93222   1.27369    0.007
 4192.00    1.09045   1.26020    0.007
 4193.00    0.76482   1.20542    0.007
 4194.00    0.58304   1.19322    0.007
 4195.00    1.02729   1.23496    0.007
 4196.00    1.61517   1.26014    0.007
 4197.00    1.56974   1.24836    0.007
 4198.00    1.40793   1.25849    0.007
 4199.00    1.72314   1.30396    0.007
 4200.00    2.10579   1.31284    0.007
 4201.00    2.17353   1.26567    0.007
 4202.00    2.20915   1.22342    0.007
 4203.00    0.95728   1.20207    0.007
 4204.00   -0.37848   1.17008    0.000
 4205.00   -0.01131   1.15799    0.000
 4206.00    0.40738   1.18142    0.007
 4207.00    0.31225   1.18550    0.007
 4208.00    0.23392   1.17488    0.007
 4209.00    0.64883   1.19545    0.007
 4210.00    1.06460   1.22125    0.007
 4211.00    1.49293   1.23119    0.007
 4212.00    1.85596   1.25019    0.007
 4213.00    1.60155   1.27644    0.007
 4214.00    1.43093   1.29603    0.007
 4215.00    1.83637   1.29232    0.007
 4216.00    2.13173   1.27308    0.007
 4217.00    1.84197   1.27662    0.007
 4218.00    1.55221   1.29808    0.007
 4219.00    1.26242   1.30144    0.007
 4220.00    1.12474   1.27124    0.007
 4221.00    1.52303   1.20964    0.007
 4222.00    1.75459   1.17735    0.007
 4223.00    1.49241   1.22177    0.007
 4224.00    1.20272   1.27812    0.007
 4225.00    0.84364   1.30274    0.007
 4226.00    0.61287   1.31798    0.007
 4227.00    0.66091   1.32653    0.007
 4228.00    0.69815   1.30210    0.007
 4229.00    0.71503   1.25281    0.007
 4230.00    0.78781   1.19445    0.007
 4231.00    0.95262   1.11245    0.007
 4232.00    1.05675   1.00674    0.007
 4233.00    1.07328   0.96830    0.007
 4234.00    1.02932   1.06820    0.007
 4235.00    0.90858   1.20058    0.007
 4236.00    0.77621   1.26894    0.006
 4237.00    0.63084   1.29445    0.007
 4238.00    0.68561   1.27742    0.006
 4239.00    0.93788   1.23276    0.006
 4240.00    1.02515   1.22384    0.006
 4241.00    0.96881   1.22604    0.006
 4242.00    0.86905   1.19848    0.006
 4243.00    0.73599   1.19356    0.007
 4244.00    0.70630   1.21423    0.007
 4245.00    0.74628   1.22286    0.007
 4246.00    0.98132   1.23527    0.007
 4247.00    1.33153   1.26679    0.007
 4248.00    1.24703   1.27772    0.007
 4249.00    0.93871   1.27334    0.007
 4250.00    0.60923   1.30103    0.007
 4251.00    0.27031   1.32434    0.007
 4252.00    0.36134   1.29506    0.007
 4253.00    0.61721   1.24163    0.007
 4254.00    0.62489   1.21180    0.007
 4255.00    0.55168   1.19916    0.007
 4256.00    0.57378   1.17622    0.007
 4257.00    0.62191   1.18416    0.007
 4258.00    1.15633   1.23704    0.007
 4259.00    1.79973   1.25414    0.007
 4260.00    1.73528   1.21331    0.007
 4261.00    1.54423   1.18910    0.007
 4262.00    1.16839   1.22960    0.007
 4263.00    0.76727   1.28725    0.007
 4264.00    1.00681   1.28074    0.007
 4265.00    1.30893   1.22077    0.007
 4266.00    1.21843   1.16055    0.007
 4267.00    1.10393   1.14763    0.007
 4268.00    0.69408   1.20388    0.007
 4269.00    0.27782   1.27617    0.007
 4270.00    0.16517   1.31090    0.007
 4271.00    0.06871   1.32365    0.007
 4272.00    0.40027   1.32511    0.007
 4273.00    0.71612   1.29264    0.007
 4274.00    0.81578   1.25645    0.007
 4275.00    0.91343   1.24088    0.007
 4276.00    0.99277   1.20253    0.007
 4277.00    1.11631   1.12325    0.007
 4278.00    1.53423   1.08061    0.007
 4279.00    1.90944   1.10928    0.007
 4280.00    2.06355   1.12972    0.007
 4281.00    2.15200   1.13644    0.007
 4282.00    1.96633   1.18664   -2.000
 4283.00    1.67408   1.25787   -2.000
 4284.00    1.01389   1.30029   -2.000
 4285.00    0.56801   1.28837   -2.000
 4286.00    0.74502   1.23781   -2.000
 4287.00    0.91491   1.21090   -2.000
 4288.00    1.06712   1.21689   -2.000
 4289.00    1.52287   1.23420   -2.000
 4290.00    2.62754   1.24620   -2.000
 4291.00    3.19630   1.22404   -2.000
 4292.00    2.77003   1.19341   -2.000
 4293.00    2.15456   1.19210   -2.000
 4294.00    1.23221   1.18533   -2.000
 4295.00    0.88076   1.13159   -2.000
 4296.00    1.34149   1.07759   -2.000
 4297.00    1.63842   1.09260   -2.000
 4298.00    1.73035   1.16389   -1.000
 4299.00    2.00503   1.21910   -1.000
 4300.00    2.48131   1.21335   -1.000
 4301.00    2.70585   1.19230   -1.000
 4302.00    2.68549   1.18486   -1.000
 4303.00    2.87814   1.16354   -1.000
 4304.00    3.25356   1.11543   -1.000
 4305.00    3.54899   1.04001   -1.000
 4306.00    3.78396   0.98677   -1.000
 4307.00    3.23940   0.99604   -1.000
 4308.00    2.17719   1.01615   -1.000
 4309.00    1.57537   1.02342    0.022
 4310.00    1.24127   1.04478    0.008
 4311.00    1.10359   1.06372    0.007
 4312.00    1.06545   1.05970    0.007
 4313.00    1.23237   1.02617    0.007
 4314.00    1.48928   0.97691    0.007
 4315.00    1.38761   0.96459    0.007
 4316.00    1.15087   1.00009    0.007
 4317.00    0.79025   1.04592    0.007
 4318.00    0.39002   1.08315    0.007
 4319.00    0.55079   1.11269    0.007
 4320.00    0.86148   1.13678    0.007
 4321.00    1.06434   1.18765    0.007
 4322.00    1.24360   1.28477    0.007
 4323.00    1.30712   1.36422    0.007
 4324.00    1.35050   1.38019    0.007
 4325.00    1.32546   1.36328    0.007
 4326.00    1.29137   1.33958    0.007
 4327.00    1.31763   1.31008    0.007
 4328.00    1.34952   1.28483    0.007
 4329.00    0.57902   1.23319    0.007
 4330.00   -0.23737   1.14466    0.000
 4331.00    0.04107   1.05868    0.000
 4332.00    0.34956   1.03596    0.000
 4333.00    1.18473   1.11224    0.000
 4334.00    1.97032   1.22612    0.000
 4335.00    1.56542   1.28717    0.000
 4336.00    1.17690   1.27815    0.000
 4337.00    1.00137   1.25346    0.000
 4338.00    0.86628   1.25228    0.000
 4339.00    1.08447   1.25534    0.000
 4340.00    1.27065   1.25109    0.000
 4341.00    1.25005   1.24661    0.000
 4342.00    1.20640   1.21061    0.000
 4343.00    1.04652   1.10723    0.000
 4344.00    0.88953   0.98316    0.000
 4345.00    0.74436   0.88056    0.000
 4346.00    0.55230   0.78953    0.000
 4347.00    0.20157   0.77404    0.000
 4348.00   -0.00046   0.87730    0.000
 4349.00    0.22180   0.99675    0.000
 4350.00    0.44613   1.06445    0.000
 4351.00    0.67554   1.12173    0.007
 4352.00    0.78234   1.17224    0.007
 4353.00    0.63127   1.19588    0.007
 4354.00    0.64388   1.22317    0.008
 4355.00    0.95570   1.26895    0.022
 4356.00    1.30246   1.27432   -1.000
 4357.00    1.70504   1.19574   -1.000
 4358.00    1.87682   1.11305   -1.000
 4359.00    1.72503   1.12635   -1.000
 4360.00    1.66638   1.19640   -1.000
 4361.00    1.72267   1.24062   -1.000
 4362.00    1.65818   1.26975   -1.000
 4363.00    1.46236   1.30190   -1.000
 4364.00    1.37042   1.30332   -1.000
 4365.00    1.37815   1.27091   -1.000
 4366.00    1.38381   1.26402    0.024
 4367.00    1.38771   1.30311    0.008
 4368.00    1.07643   1.33858    0.007
 4369.00    0.53037   1.34305    0.007
 4370.00    0.61046   1.34954    0.007
 4371.00    1.10026   1.37262    0.007
 4372.00    1.40122   1.36967    0.007
 4373.00    1.59404   1.32366    0.007
 4374.00    1.56103   1.28375    0.007
 4375.00    1.41536   1.28369    0.007
 4376.00    1.37554   1.29375    0.007
 4377.00    1.38137   1.29716    0.007
 4378.00    1.26045   1.30268    0.007
 4379.00    1.09262   1.28963    0.007
 4380.00    1.19733   1.23961    0.007
 4381.00    1.38751   1.19252    0.007
 4382.00    1.09280   1.20401    0.007
 4383.00    0.67122   1.26789    0.007
 4384.00    0.85827   1.32552    0.007
 4385.00    1.17533   1.33970    0.007
 4386.00    1.07847   1.32765    0.007
 4387.00    0.91162   1.31346    0.007
 4388.00    0.88787   1.26128    0.007
 4389.00    0.88240   1.13878    0.007
 4390.00    1.09687   1.03225    0.007
 4391.00    1.33097   1.04496    0.007
 4392.00    1.45100   1.14593    0.007
 4393.00    1.56496   1.22433    0.007
 4394.00    1.91948   1.24168    0.007
 4395.00    2.27147   1.23781    0.007
 4396.00    2.03499   1.23356    0.007
 4397.00    1.79912   1.23845    0.007
 4398.00    1.57682   1.26886    0.007
 4399.00    1.34524   1.29780    0.007
 4400.00    0.99892   1.28232    0.007
 4401.00    0.80711   1.24702    0.007
 4402.00    1.91512   1.26020    0.007
 4403.00    2.78750   1.32107    0.007
 4404.00    2.18311   1.35773    0.007
 4405.00    1.62444   1.33476    0.007
 4406.00    1.29061   1.27782    0.007
 4407.00    1.04529   1.24926    0.007
 4408.00    1.15327   1.28445    0.007
 4409.00    1.27904   1.31159    0.007
 4410.00    1.46386   1.25325    0.007
 4411.00    1.64798   1.17968    0.007
 4412.00    1.83012   1.19165    0.007
 4413.00    1.89147   1.24019    0.007
 4414.00    1.66332   1.24586    0.007
 4415.00    1.46619   1.24738    0.007
 4416.00    1.33326   1.29433    0.007
 4417.00    1.22524   1.35093    0.007
 4418.00    1.16204   1.38354    0.007
 4419.00    1.20506   1.39173    0.007
 4420.00    1.41526   1.34955    0.007
 4421.00    1.45002   1.26625    0.007
 4422.00    1.24234   1.22301    0.007
 4423.00    1.26851   1.24503    0.007
 4424.00    1.57910   1.29097    0.007
 4425.00    1.57641   1.34449    0.007
 4426.00    1.23780   1.38450    0.007
 4427.00    0.82788   1.37878    0.007
 4428.00    0.35052   1.33700    0.007
 4429.00    0.58017   1.30841    0.007
 4430.00    1.39940   1.31733    0.007
 4431.00    1.72444   1.33129    0.007
 4432.00    1.68666   1.32370    0.007
 4433.00    1.78073   1.31090    0.007
 4434.00    1.95980   1.31919    0.007
 4435.00    1.85776   1.33611    0.007
 4436.00    1.59715   1.32475    0.007
 4437.00    1.77554   1.30967    0.007
 4438.00    2.16943   1.32767    0.007
 4439.00    1.99450   1.33715    0.007
 4440.00    1.57820   1.29804    0.007
 4441.00    1.22161   1.24077    0.007
 4442.00    0.88672   1.22723    0.007
 4443.00    1.33348   1.27908    0.007
 4444.00    2.02062   1.35299    0.007
 4445.00    2.08707   1.40185    0.007
 4446.00    1.99462   1.40668    0.007
 4447.00    2.00539   1.36704    0.007
 4448.00    2.03767   1.30548    0.007
 4449.00    2.16521   1.25864    0.007
 4450.00    2.30839   1.25973    0.007
 4451.00    1.90517   1.31376    0.007
 4452.00    1.43459   1.37137    0.007
 4453.00    1.33681   1.38359    0.007
 4454.00    1.27074   1.37465    0.007
 4455.00    1.09014   1.37536    0.007
 4456.00    0.90388   1.36494    0.007
 4457.00    1.18643   1.34951    0.007
 4458.00    1.48029   1.35530    0.007
 4459.00    2.01573   1.35447    0.007
 4460.00    2.50843   1.31119    0.007
 4461.00    2.13529   1.24841    0.000
 4462.00    1.79896   1.22657    0.000
 4463.00    1.89519   1.25316    0.000
 4464.00    1.97729   1.27575    0.000
 4465.00    1.94476   1.27279    0.000
 4466.00    1.84444   1.26609    0.000
 4467.00    1.33163   1.25698    0.000
 4468.00    0.95687   1.24561    0.000
 4469.00    1.24440   1.26980    0.000
 4470.00    1.38461   1.31984    0.000
 4471.00    0.94952   1.34219    0.000
 4472.00    0.67568   1.33821    0.000
 4473.00    0.92615   1.33248    0.000
 4474.00    1.26241   1.32016    0.000
 4475.00    1.83473   1.29428    0.000
 4476.00    2.12037   1.27575    0.000
 4477.00    1.73044   1.28243    0.000
 4478.00    1.29946   1.31006    0.000
 4479.00    0.78488   1.35499    0.000
 4480.00    0.66705   1.39898    0.000
 4481.00    1.25255   1.41292    0.000
 4482.00    1.47246   1.40774    0.007
 4483.00    1.12536   1.42005    0.006
 4484.00    1.15501   1.44117    0.006
 4485.00    1.69778   1.42827    0.007
 4486.00    1.93484   1.36818    0.007
 4487.00    1.80535   1.29481    0.006
 4488.00    1.51205   1.25986    0.006
 4489.00    1.04558   1.29040    0.006
 4490.00    1.00074   1.35865    0.007
 4491.00    1.34908   1.41321    0.007
 4492.00    1.31901   1.43861    0.006
 4493.00    0.97786   1.43934    0.006
 4494.00    0.65922   1.40938    0.006
 4495.00    0.35687   1.35716    0.006
 4496.00    1.19107   1.32127    0.006
 4497.00    2.74723   1.33275    0.007
 4498.00    2.60600   1.37591    0.007
 4499.00    1.52194   1.40171    0.006
 4500.00    1.41581   1.38016    0.006
 4501.00    1.78212   1.33852    0.007
 4502.00    1.97394   1.32144    0.006
 4503.00    2.09296   1.33759    0.006
 4504.00    1.94052   1.37526    0.006
 4505.00    1.69119   1.41198    0.006
 4506.00    1.56009   1.42017    0.006
 4507.00    1.46462   1.39534    0.006
 4508.00    1.55102   1.37781    0.006
 4509.00    1.68297   1.41091    0.006
 4510.00    1.42715   1.46542    0.006
 4511.00    1.09249   1.48879    0.006
 4512.00    0.81677   1.47968    0.006
 4513.00    0.55046   1.45768    0.006
 4514.00    0.93322   1.43847    0.006
 4515.00    1.39312   1.43520    0.007
 4516.00    1.25112   1.44890    0.006
 4517.00    1.06041   1.46134    0.006
 4518.00    1.08559   1.45077    0.006
 4519.00    1.12059   1.42402    0.006
 4520.00    1.15008   1.40161    0.006
 4521.00    1.18243   1.39090    0.006
 4522.00    1.36394   1.39517    0.006
 4523.00    1.52825   1.40076    0.006
 4524.00    1.36973   1.38898    0.006
 4525.00    1.22591   1.38226    0.006
 4526.00    1.24670   1.40224    0.006
 4527.00    1.24688   1.42640    0.006
 4528.00    1.08584   1.42123    0.006
 4529.00    0.96954   1.38562    0.006
 4530.00    1.11785   1.36351    0.006
 4531.00    1.26338   1.36263    0.007
 4532.00    1.39589   1.34580    0.007
 4533.00    1.47563   1.31107    0.007
 4534.00    1.35370   1.27760    0.007
 4535.00    1.19448   1.25913    0.007
 4536.00    0.91641   1.26501    0.007
 4537.00    0.74271   1.28889    0.007
 4538.00    0.85106   1.31730    0.006
 4539.00    1.09998   1.32697    0.006
 4540.00    1.67465   1.29332    0.006
 4541.00    1.93511   1.25003    0.006
 4542.00    1.56572   1.25563    0.006
 4543.00    1.29902   1.32669    0.006
 4544.00    1.21157   1.41005    0.006
 4545.00    1.35808   1.43786    0.006
 4546.00    1.86210   1.41472    0.006
 4547.00    2.11545   1.38307    0.006
 4548.00    2.03230   1.37695    0.006
 4549.00    1.76209   1.39709    0.006
 4550.00    1.27077   1.40164    0.000
 4551.00    1.04524   1.37576    0.000
 4552.00    1.09675   1.36044    0.000
 4553.00    1.32404   1.37140    0.000
 4554.00    1.71295   1.37153    0.000
 4555.00    2.00558   1.33678    0.000
 4556.00    2.22017   1.30314    0.000
 4557.00    2.02044   1.32321    0.000
 4558.00    1.52522   1.36232    0.000
 4559.00    1.38007   1.36044    0.000
 4560.00    1.45399   1.33290    0.000
 4561.00    1.33478   1.31093    0.000
 4562.00    1.10993   1.31641    0.000
 4563.00    1.24671   1.35941    0.000
 4564.00    1.55540   1.41110    0.000
 4565.00    1.63358   1.43559    0.000
 4566.00    1.61723   1.43858    0.000
 4567.00    1.53465   1.44081    0.000
 4568.00    1.42888   1.44396    0.000
 4569.00    1.39905   1.42732    0.000
 4570.00    1.39165   1.38478    0.000
 4571.00    1.53216   1.35276    0.000
 4572.00    1.70890   1.35824    0.000
 4573.00    1.49487   1.39569    0.000
 4574.00    1.20339   1.43784    0.000
 4575.00    0.99805   1.45480    0.000
 4576.00    0.80604   1.44467    0.000
 4577.00    0.95823   1.40522    0.000
 4578.00    1.14980   1.35791    0.000
 4579.00    1.31350   1.36760    0.000
 4580.00    1.47506   1.42113    0.000
 4581.00    1.38454   1.44336    0.000
 4582.00    1.28353   1.43518    0.000
 4583.00    1.43269   1.43185    0.000
 4584.00    1.58092   1.42812    0.000
 4585.00    1.59582   1.40725    0.000
 4586.00    1.59649   1.37005    0.000
 4587.00    1.34862   1.34062    0.000
 4588.00    1.17828   1.34095    0.000
 4589.00    1.83748   1.35851    0.000
 4590.00    2.39027   1.36397    0.000
 4591.00    2.13871   1.35970    0.000
 4592.00    1.90160   1.35857    0.000
 4593.00    1.74751   1.36761    0.000
 4594.00    1.66576   1.39644    0.000
 4595.00    1.91451   1.42552    0.000
 4596.00    2.06311   1.43262    0.000
 4597.00    1.83702   1.41602    0.000
 4598.00    1.63179   1.38742    0.000
 4599.00    1.49176   1.36864    0.000
 4600.00    1.44681   1.37076    0.000
 4601.00    1.65425   1.37676    0.000
 4602.00    1.80893   1.37799    0.000
 4603.00    1.84339   1.38468    0.000
 4604.00    1.85114   1.39360    0.000
 4605.00    1.80619   1.40132    0.000
 4606.00    1.75932   1.39911    0.000
 4607.00    1.70915   1.37837    0.000
 4608.00    1.57030   1.36950    0.000
 4609.00    1.29793   1.38144    0.000
 4610.00    1.25445   1.39286    0.000
 4611.00    1.51385   1.39705    0.000
 4612.00    1.58263   1.39518    0.000
 4613.00    1.42927   1.40019    0.000
 4614.00    1.38839   1.42132    0.000
 4615.00    1.46311   1.45526    0.000
 4616.00    1.56227   1.47622    0.000
 4617.00    1.68359   1.46580    0.000
 4618.00    1.68727   1.44204    0.000
 4619.00    1.59697   1.42657    0.000
 4620.00    1.46037   1.42152    0.000
 4621.00    1.29122   1.43235    0.000
 4622.00    1.09073   1.44138    0.000
 4623.00    0.87091   1.43463    0.000
 4624.00    1.06663   1.43526    0.000
 4625.00    1.48613   1.42877    0.000
 4626.00    1.52595   1.41370    0.000
 4627.00    1.38818   1.42568    0.000
 4628.00    1.60315   1.45172    0.000
 4629.00    1.96033   1.45670    0.000
 4630.00    1.67045   1.45293    0.000
 4631.00    1.15799   1.44914    0.000
 4632.00    1.18978   1.43743    0.000
 4633.00    1.37922   1.43330    0.000
 4634.00    1.80483   1.43870    0.000
 4635.00    2.28700   1.42883    0.000
 4636.00    2.10020   1.40948    0.000
 4637.00    1.78419   1.42017    0.000
 4638.00    1.35306   1.44779    0.000
 4639.00    0.90466   1.44206    0.000
 4640.00    1.26877   1.41459    0.000
 4641.00    1.72230   1.40526    0.000
 4642.00    2.10614   1.40964    0.000
 4643.00    2.48491   1.40620    0.000
 4644.00    2.26331   1.38941    0.000
 4645.00    2.01901   1.37427    0.000
 4646.00    1.72391   1.37044    0.000
 4647.00    1.44588   1.38216    0.000
 4648.00    1.80923   1.41292    0.000
 4649.00    2.13374   1.43278    0.000
 4650.00    1.82337   1.42624    0.000
 4651.00    1.53262   1.40986    0.000
 4652.00    1.44257   1.38041    0.000
 4653.00    1.37209   1.33763    0.000
 4654.00    1.44458   1.31901    0.000
 4655.00    1.53449   1.33670    0.000
 4656.00    1.72178   1.36979    0.000
 4657.00    1.88699   1.39694    0.000
 4658.00    1.95372   1.40779    0.000
 4659.00    2.00742   1.41343    0.000
 4660.00    2.01340   1.41064    0.000
 4661.00    1.96769   1.38170    0.000
 4662.00    1.76336   1.35545    0.000
 4663.00    1.72100   1.35799    0.000
 4664.00    2.10103   1.38986    0.000
 4665.00    2.36744   1.44336    0.000
 4666.00    2.37921   1.48370    0.000
 4667.00    2.21556   1.48813    0.000
 4668.00    1.71125   1.46170    0.000
 4669.00    1.39563   1.42636    0.000
 4670.00    1.39957   1.40419    0.000
 4671.00    1.50567   1.40196    0.000
 4672.00    1.76337   1.39303    0.000
 4673.00    1.84164   1.33948    0.000
 4674.00    1.68589   1.27305    0.000
 4675.00    1.60552   1.26526    0.000
 4676.00    1.61177   1.31344    0.000
 4677.00    1.55081   1.36860    0.000
 4678.00    1.42174   1.40533    0.000
 4679.00    1.44490   1.41107    0.000
 4680.00    1.60413   1.39858    0.000
 4681.00    1.90966   1.39474    0.000
 4682.00    2.33042   1.41041    0.000
 4683.00    2.29721   1.43557    0.000
 4684.00    1.94954   1.43784    0.000
 4685.00    1.44160   1.40912    0.000
 4686.00    0.83633   1.37872    0.000
 4687.00    0.93671   1.36172    0.000
 4688.00    1.41125   1.35530    0.000
 4689.00    1.66501   1.36585    0.000
 4690.00    1.81718   1.39354    0.000
 4691.00    1.68169   1.41296    0.000
 4692.00    1.43222   1.41305    0.000
 4693.00    1.73400   1.40654    0.000
 4694.00    2.22190   1.39929    0.000
 4695.00    1.77774   1.40023    0.000
 4696.00    1.06907   1.40654    0.000
 4697.00    1.23968   1.39955    0.000
 4698.00    1.61614   1.38792    0.000
 4699.00    1.88504   1.39762    0.000
 4700.00    2.13371   1.41771    0.000
 4701.00    2.03312   1.43349    0.000
 4702.00    1.88174   1.45053    0.000
 4703.00    1.76821   1.45762    0.000
 4704.00    1.65867   1.43369    0.000
 4705.00    1.42974   1.38711    0.000
 4706.00    1.19260   1.36463    0.000
 4707.00    1.62590   1.37674    0.000
 4708.00    2.08200   1.37692    0.000
 4709.00    1.89253   1.34979    0.000
 4710.00    1.71078   1.33154    0.000
 4711.00    1.81298   1.35773    0.000
 4712.00    1.89581   1.39313    0.000
 4713.00    1.68163   1.39059    0.000
 4714.00    1.49169   1.36077    0.000
 4715.00    1.53947   1.33874    0.000
 4716.00    1.58308   1.33838    0.000
 4717.00    1.59729   1.36583    0.000
 4718.00    1.60094   1.40975    0.000
 4719.00    1.54713   1.42385    0.000
 4720.00    1.54254   1.40099    0.000
 4721.00    1.75246   1.37060    0.000
 4722.00    1.80305   1.36997    0.000
 4723.00    1.28211   1.40652    0.000
 4724.00    1.01584   1.43905    0.000
 4725.00    1.51623   1.44841    0.000
 4726.00    1.88316   1.45559    0.000
 4727.00    1.90812   1.46227    0.000
 4728.00    1.90829   1.45445    0.000
 4729.00    1.85381   1.43693    0.000
 4730.00    1.79415   1.43803    0.000
 4731.00    1.72457   1.46018    0.000
 4732.00    1.66188   1.47257    0.000
 4733.00    1.61065   1.44849    0.000
 4734.00    1.44468   1.39044    0.000
 4735.00    1.11092   1.34904    0.000
 4736.00    1.02756   1.35091    0.000
 4737.00    1.26614   1.36417    0.000
 4738.00    1.40148   1.37154    0.000
 4739.00    1.41985   1.38674    0.000
 4740.00    1.38069   1.40343    0.000
 4741.00    1.28403   1.41528    0.000
 4742.00    1.34085   1.42094    0.000
 4743.00    1.53291   1.39907    0.000
 4744.00    1.69828   1.38495    0.000
 4745.00    1.84291   1.41406    0.000
 4746.00    1.72407   1.43473    0.000
 4747.00    1.42536   1.42066    0.000
 4748.00    1.39886   1.40645    0.000
 4749.00    1.53523   1.41467    0.000
 4750.00    1.76491   1.43469    0.000
 4751.00    2.04331   1.43825    0.000
 4752.00    1.87521   1.42952    0.000
 4753.00    1.50500   1.43920    0.000
 4754.00    1.31356   1.45300    0.000
 4755.00    1.19173   1.44914    0.000
 4756.00    1.44114   1.44507    0.000
 4757.00    1.81356   1.45116    0.000
 4758.00    1.85256   1.45025    0.000
 4759.00    1.79888   1.43284    0.000
 4760.00    1.70287   1.41486    0.000
 4761.00    1.59718   1.40382    0.006
 4762.00    1.53521   1.40083    0.006
 4763.00    1.48126   1.39864    0.006
 4764.00    1.81829   1.39925    0.006
 4765.00    2.21040   1.40664    0.006
 4766.00    2.28418   1.41931    0.006
 4767.00    2.32569   1.42917    0.006
 4768.00    1.94427   1.40886    0.006
 4769.00    1.53551   1.36494    0.006
 4770.00    1.54050   1.34168    0.006
 4771.00    1.55784   1.34030    0.006
 4772.00    1.49138   1.33578    0.006
 4773.00    1.42743   1.33592    0.006
 4774.00    1.43629   1.35590    0.006
 4775.00    1.47698   1.38344    0.006
 4776.00    1.97777   1.41119    0.006
 4777.00    2.43467   1.42280    0.006
 4778.00    2.47870   1.40090    0.006
 4779.00    2.47667   1.37866    0.006
 4780.00    2.15928   1.39211    0.006
 4781.00    1.87890   1.42812    0.006
 4782.00    1.79453   1.44313    0.006
 4783.00    1.71208   1.43498    0.005
 4784.00    1.63780   1.43661    0.005
 4785.00    1.61418   1.43591    0.005
 4786.00    1.76853   1.41808    0.006
 4787.00    1.84326   1.40670    0.006
 4788.00    1.68273   1.41141    0.006
 4789.00    1.52850   1.40342    0.006
 4790.00    1.39012   1.38145    0.006
 4791.00    1.34247   1.38509    0.006
 4792.00    1.49159   1.39847    0.006
 4793.00    1.52285   1.37558    0.006
 4794.00    1.33227   1.36490    0.005
 4795.00    1.29686   1.37754    0.005
 4796.00    1.51646   1.37334    0.006
 4797.00    1.59487   1.37818    0.006
 4798.00    1.46985   1.39625    0.006
 4799.00    1.40331   1.40830    0.006
 4800.00    1.41089   1.43153    0.006
 4801.00    1.57782   1.46290    0.006
 4802.00    1.92272   1.47720    0.006
 4803.00    2.04217   1.46625    0.006
 4804.00    1.93953   1.44273    0.006
 4805.00    1.93772   1.41247    0.006
 4806.00    2.02350   1.38724    0.006
 4807.00    1.85025   1.38821    0.006
 4808.00    1.47877   1.41546    0.006
 4809.00    1.56681   1.44702    0.006
 4810.00    1.96395   1.45512    0.006
 4811.00    1.87339   1.43305    0.006
 4812.00    1.49543   1.40184    0.006
 4813.00    1.42396   1.39600    0.006
 4814.00    1.50998   1.39662    0.006
 4815.00    1.72114   1.39287    0.006
 4816.00    1.98800   1.40274    0.006
 4817.00    2.02536   1.41546    0.006
 4818.00    1.97492   1.41747    0.006
 4819.00    1.81446   1.41722    0.006
 4820.00    1.61824   1.41968    0.006
 4821.00    1.61970   1.42478    0.006
 4822.00    1.67498   1.43109    0.006
 4823.00    1.91606   1.43960    0.006
 4824.00    2.19865   1.44980    0.006
 4825.00    1.86613   1.45491    0.006
 4826.00    1.42397   1.45799    0.006
 4827.00    1.42190   1.45362    0.006
 4828.00    1.47979   1.44725    0.006
 4829.00    1.56744   1.42717    0.006
 4830.00    1.65799   1.37636    0.006
 4831.00    1.48189   1.35205    0.006
 4832.00    1.28961   1.38754    0.006
 4833.00    1.60663   1.42414    0.006
 4834.00    1.93401   1.42484    0.006
 4835.00    1.69612   1.40599    0.006
 4836.00    1.46207   1.39485    0.006
 4837.00    1.32806   1.40112    0.006
 4838.00    1.19994   1.39282    0.006
 4839.00    1.15214   1.37212    0.006
 4840.00    1.11401   1.38126    0.006
 4841.00    1.16337   1.40918    0.006
 4842.00    1.24456   1.41825    0.006
 4843.00    1.53699   1.41221    0.006
 4844.00    1.77982   1.41228    0.006
 4845.00    1.76672   1.40338    0.006
 4846.00    1.79239   1.37510    0.006
 4847.00    1.97942   1.35468    0.006
 4848.00    1.96061   1.36420    0.000
 4849.00    1.23303   1.37517    0.000
 4850.00    0.80001   1.36372    0.000
 4851.00    1.22122   1.36726    0.000
 4852.00    1.47425   1.39668    0.000
 4853.00    1.31103   1.41144    0.000
 4854.00    1.32208   1.39279    0.000
 4855.00    1.70493   1.35335    0.000
 4856.00    1.91114   1.33710    0.000
 4857.00    1.79001   1.35724    0.000
 4858.00    1.72746   1.36462    0.000
 4859.00    1.75974   1.35286    0.000
 4860.00    1.72049   1.34398    0.000
 4861.00    1.57966   1.30789    0.000
 4862.00    1.56181   1.24277    0.000
 4863.00    1.69761   1.21788    0.000
 4864.00    1.55153   1.23893    0.000
 4865.00    1.09508   1.22694    0.000
 4866.00    1.00208   1.14405    0.000
 4867.00    1.26208   0.99816    0.000
 4868.00    1.43682   0.86570    0.000
 4869.00    1.53854   0.88580    0.000
 4870.00    1.55313   1.02702    0.000
 4871.00    1.50199   1.13226    0.000
 4872.00    1.45836   1.18924    0.000
 4873.00    1.41973   1.23762    0.000
 4874.00    1.47951   1.26959    0.000
 4875.00    1.59642   1.28754    0.006
 4876.00    1.61677   1.30390    0.006
 4877.00    1.58827   1.28650    0.006
 4878.00    1.36356   1.23088    0.006
 4879.00    1.05291   1.21614    0.006
 4880.00    1.19059   1.27007    0.006
 4881.00    1.49678   1.31974    0.006
 4882.00    1.44155   1.33007    0.006
 4883.00    1.27105   1.33650    0.006
 4884.00    1.55061   1.34850    0.006
 4885.00    1.95012   1.35598    0.006
 4886.00    1.60255   1.38660    0.006
 4887.00    1.09198   1.40830    0.006
 4888.00    1.28628   1.37943    0.006
 4889.00    1.60277   1.35636    0.006
 4890.00    1.69936   1.37103    0.006
 4891.00    1.76700   1.37434    0.006
 4892.00    1.98978   1.34837    0.006
 4893.00    2.22698   1.32805    0.006
 4894.00    1.81015   1.33654    0.006
 4895.00    1.35623   1.35133    0.006
 4896.00    1.11961   1.34648    0.006
 4897.00    0.89341   1.31017    0.006
 4898.00    1.26394   1.26788    0.006
 4899.00    1.63118   1.29913    0.006
 4900.00    1.92039   1.38312    0.006
 4901.00    2.13669   1.44369    0.006
 4902.00    1.41021   1.47542    0.006
 4903.00    0.78571   1.48599    0.006
 4904.00    1.04794   1.48380    0.006
 4905.00    1.31347   1.47521    0.006
 4906.00    1.60025   1.44474    0.006
 4907.00    1.77999   1.41195    0.006
 4908.00    1.42141   1.41477    0.006
 4909.00    1.11732   1.42004    0.006
 4910.00    1.03507   1.39812    0.006
 4911.00    1.07314   1.39041    0.006
 4912.00    1.51725   1.42297    0.006
 4913.00    1.80655   1.46036    0.006
 4914.00    1.65513   1.46213    0.006
 4915.00    1.50126   1.43540    0.006
 4916.00    1.34142   1.39671    0.006
 4917.00    1.18363   1.35849    0.006
 4918.00    1.03013   1.35453    0.006
 4919.00    0.86752   1.38527    0.006
 4920.00    0.68828   1.41031    0.006
 4921.00    0.71674   1.42587    0.006
 4922.00    1.07643   1.44902    0.006
 4923.00    1.26948   1.46175    0.006
 4924.00    1.22931   1.43552    0.006
 4925.00    1.35588   1.36561    0.006
 4926.00    1.68779   1.28465    0.006
 4927.00    1.82481   1.23289    0.006
 4928.00    1.75027   1.23750    0.005
 4929.00    1.69825   1.29508    0.005
 4930.00    1.66780   1.34130    0.005
 4931.00    1.80868   1.34291    0.005
 4932.00    2.09423   1.34810    0.005
 4933.00    2.16347   1.39107    0.005
 4934.00    2.07186   1.42944    0.006
 4935.00    1.78150   1.44607    0.006
 4936.00    1.36132   1.46387    0.005
 4937.00    1.37403   1.47312    0.005
 4938.00    1.63419   1.47130    0.006
 4939.00    1.63029   1.45107    0.006
 4940.00    1.49492   1.39122    0.000
 4941.00    1.39225   1.34691    0.000
 4942.00    1.30366   1.37302    0.000
 4943.00    1.28101   1.40828    0.000
 4944.00    1.28270   1.38978    0.000
 4945.00    1.31793   1.33587    0.000
 4946.00    1.36365   1.30662    0.000
 4947.00    1.74740   1.34345    0.000
 4948.00    2.21935   1.40781    0.000
 4949.00    1.79422   1.43795    0.000
 4950.00    1.17805   1.45095    0.000
 4951.00    1.01258   1.46413    0.000
 4952.00    0.92305   1.45350    0.000
 4953.00    1.16465   1.43261    0.000
 4954.00    1.44837   1.43911    0.000
 4955.00    1.41239   1.46078    0.000
 4956.00    1.34805   1.47077    0.000
 4957.00    1.60328   1.47416    0.000
 4958.00    1.87538   1.47987    0.000
 4959.00    1.86706   1.47222    0.000
 4960.00    1.84753   1.45465    0.000
 4961.00    1.36947   1.44497    0.000
 4962.00    0.92177   1.43617    0.000
 4963.00    1.13430   1.38755    0.000
 4964.00    1.34407   1.28624    0.000
 4965.00    1.52002   1.24416    0.000
 4966.00    1.65966   1.32047    0.000
 4967.00    1.49528   1.40927    0.000
 4968.00    1.38466   1.43757    0.000
 4969.00    1.60971   1.43200    0.000
 4970.00    1.75011   1.43176    0.000
 4971.00    1.47537   1.42537    0.000
 4972.00    1.22240   1.39527    0.000
 4973.00    1.05607   1.36903    0.000
 4974.00    0.99355   1.36592    0.000
 4975.00    1.27446   1.36883    0.000
 4976.00    1.41825   1.37423    0.000
 4977.00    1.17874   1.38151    0.000
 4978.00    1.11917   1.39458    0.000
 4979.00    1.48992   1.41338    0.000
 4980.00    1.73532   1.42671    0.000
 4981.00    1.72179   1.43803    0.000
 4982.00    1.54044   1.44271    0.000
 4983.00    1.05755   1.43513    0.000
 4984.00    0.93770   1.42059    0.000
 4985.00    1.38826   1.39701    0.000
 4986.00    1.57105   1.37801    0.000
 4987.00    1.38450   1.37055    0.000
 4988.00    1.32377   1.34466    0.000
 4989.00    1.41581   1.28990    0.000
 4990.00    1.35539   1.25143    0.000
 4991.00    1.13178   1.26062    0.000
 4992.00    1.04374   1.29407    0.000
 4993.00    1.08370   1.33437    0.000
 4994.00    1.28616   1.37957    0.000
 4995.00    1.62391   1.40456    0.000
 4996.00    1.65787   1.39755    0.000
 4997.00    1.46920   1.37510    0.000
 4998.00    1.45240   1.35865    0.000
 4999.00    1.54620   1.36993    0.000
 5000.00    1.67128   1.38236    0.000
 5001.00    1.81399   1.37677    0.000
 5002.00    1.61818   1.38671    0.000
 5003.00    1.25652   1.40485    0.000
 5004.00    1.23593   1.40798    0.000
 5005.00    1.35978   1.39769    0.000
 5006.00    1.45518   1.36516    0.000
 5007.00    1.54027   1.32819    0.000
 5008.00    1.59140   1.31513    0.000
 5009.00    1.63212   1.32143    0.000
 5010.00    1.48561   1.33659    0.000
 5011.00    1.29130   1.34319    0.000
 5012.00    1.24698   1.31642    0.000
 5013.00    1.23382   1.27404    0.000
 5014.00    1.37376   1.27392    0.000
 5015.00    1.53877   1.32517    0.000
 5016.00    1.31088   1.37048    0.000
 5017.00    1.03477   1.37803    0.000
 5018.00    1.15366   1.35764    0.000
 5019.00    1.30595   1.31603    0.000
 5020.00    1.55009   1.27152    0.000
 5021.00    1.79871   1.24445    0.000
 5022.00    1.65929   1.25255    0.000
 5023.00    1.51512   1.28605    0.000
 5024.00    1.44747   1.30046    0.000
 5025.00    1.38873   1.29043    0.000
 5026.00    1.50876   1.29657    0.000
 5027.00    1.62532   1.32630    0.000
 5028.00    1.70134   1.34118    0.000
 5029.00    1.74272   1.32473    0.005
 5030.00    1.50456   1.32024    0.005
 5031.00    1.31379   1.34514    0.005
 5032.00    1.41041   1.36569    0.006
 5033.00    1.57034   1.36517    0.006
 5034.00    2.03299   1.34307    0.006
 5035.00    2.32057   1.32987    0.006
 5036.00    1.92627   1.35245    0.006
 5037.00    1.54426   1.37832    0.006
 5038.00    1.20213   1.38935    0.006
 5039.00    1.01541   1.40551    0.006
 5040.00    1.25530   1.42768    0.005
 5041.00    1.34771   1.42697    0.005
 5042.00    1.09331   1.38106    0.005
 5043.00    0.94583   1.32744    0.005
 5044.00    1.01570   1.32237    0.005
 5045.00    1.12543   1.33575    0.006
 5046.00    1.30569   1.31331    0.006
 5047.00    1.42134   1.25314    0.006
 5048.00    1.43697   1.19376    0.006
 5049.00    1.32953   1.20597    0.006
 5050.00    1.05477   1.28830    0.006
 5051.00    0.92180   1.36092    0.006
 5052.00    0.95854   1.40271    0.006
 5053.00    1.19460   1.43085    0.006
 5054.00    1.64102   1.42980    0.006
 5055.00    1.82006   1.38863    0.006
 5056.00    1.75020   1.33934    0.006
 5057.00    1.84381   1.31734    0.006
 5058.00    2.07156   1.31664    0.006
 5059.00    1.89503   1.32493    0.006
 5060.00    1.42649   1.35051    0.006
 5061.00    1.25739   1.38335    0.006
 5062.00    1.27813   1.40226    0.006
 5063.00    1.25104   1.40476    0.006
 5064.00    1.19742   1.40486    0.006
 5065.00    1.07246   1.41307    0.006
 5066.00    0.91310   1.41663    0.006
 5067.00    0.93627   1.41612    0.006
 5068.00    1.03542   1.42512    0.006
 5069.00    1.31319   1.43543    0.006
 5070.00    1.65456   1.42303    0.006
 5071.00    1.62426   1.37219    0.006
 5072.00    1.48219   1.31865    0.006
 5073.00    1.48888   1.31766    0.006
 5074.00    1.53273   1.34365    0.006
 5075.00    1.38289   1.34722    0.006
 5076.00    1.19381   1.34560    0.005
 5077.00    1.03674   1.36472    0.006
 5078.00    0.88477   1.37351    0.006
 5079.00    1.02501   1.35077    0.006
 5080.00    1.19981   1.34045    0.006
 5081.00    0.97476   1.35718    0.005
 5082.00    0.71756   1.36393    0.005
 5083.00    1.01309   1.35874    0.005
 5084.00    1.33349   1.36524    0.005
 5085.00    1.04338   1.36101    0.005
 5086.00    0.76150   1.30799    0.005
 5087.00    1.25035   1.25021    0.005
 5088.00    1.72211   1.25124    0.005
 5089.00    1.87595   1.28655    0.005
 5090.00    1.97977   1.30368    0.005
 5091.00    1.52632   1.31312    0.005
 5092.00    1.13559   1.34026    0.005
 5093.00    1.23345   1.36762    0.005
 5094.00    1.30273   1.37390    0.005
 5095.00    1.20356   1.37034    0.005
 5096.00    1.12665   1.37416    0.005
 5097.00    1.15363   1.37888    0.005
 5098.00    1.19277   1.37955    0.005
 5099.00    1.27828   1.38853    0.005
 5100.00    1.38857   1.40780    0.005
 5101.00    1.57769   1.41823    0.005
 5102.00    1.64126   1.40518    0.005
 5103.00    1.36628   1.37759    0.005
 5104.00    1.12494   1.34865    0.005
 5105.00    0.96139   1.31519    0.005
 5106.00    0.92940   1.28280    0.005
 5107.00    1.16059   1.28650    0.005
 5108.00    1.27242   1.32897    0.005
 5109.00    1.17626   1.36549    0.005
 5110.00    1.21788   1.37243    0.005
 5111.00    1.46968   1.36234    0.005
 5112.00    1.66378   1.35180    0.005
 5113.00    1.78056   1.33995    0.005
 5114.00    1.78902   1.31719    0.005
 5115.00    1.66966   1.30066    0.006
 5116.00    1.62962   1.30429    0.006
 5117.00    1.67211   1.30702    0.006
 5118.00    1.51059   1.31500    0.006
 5119.00    1.16185   1.34221    0.006
 5120.00    0.98718   1.36355    0.006
 5121.00    0.95335   1.37174    0.006
 5122.00    0.97889   1.37795    0.006
 5123.00    1.04670   1.38462    0.005
 5124.00    1.16137   1.39832    0.005
 5125.00    1.30533   1.41282    0.005
 5126.00    1.26455   1.41146    0.005
 5127.00    1.12293   1.39398    0.005
 5128.00    0.99185   1.37167    0.005
 5129.00    0.86579   1.34909    0.006
 5130.00    0.86820   1.31689    0.006
 5131.00    0.92318   1.28253    0.005
 5132.00    1.19304   1.27491    0.006
 5133.00    1.53801   1.29011    0.006
 5134.00    1.59380   1.30019    0.006
 5135.00    1.56434   1.29890    0.006
 5136.00    1.62842   1.29350    0.006
 5137.00    1.71536   1.29410    0.006
 5138.00    1.84393   1.31051    0.006
 5139.00    1.98072   1.33201    0.006
 5140.00    1.41859   1.34076    0.006
 5141.00    0.74869   1.34540    0.005
 5142.00    0.78767   1.36371    0.005
 5143.00    0.90739   1.37398    0.005
 5144.00    1.02876   1.35205    0.005
 5145.00    1.15027   1.31790    0.005
 5146.00    1.12778   1.28840    0.006
 5147.00    1.09936   1.28581    0.006
 5148.00    1.02178   1.31149    0.005
 5149.00    0.94801   1.30739    0.005
 5150.00    1.05195   1.28020    0.005
 5151.00    1.14468   1.29138    0.005
 5152.00    1.04343   1.31690    0.005
 5153.00    0.96673   1.31177    0.005
 5154.00    1.15133   1.29434    0.005
 5155.00    1.31122   1.29269    0.005
 5156.00    1.28521   1.31039    0.005
 5157.00    1.29538   1.32217    0.005
 5158.00    1.51286   1.30623    0.005
 5159.00    1.71651   1.28354    0.005
 5160.00    1.85720   1.27614    0.005
 5161.00    1.94363   1.27924    0.005
 5162.00    1.82761   1.29353    0.005
 5163.00    1.70566   1.32353    0.005
 5164.00    1.56523   1.35915    0.005
 5165.00    1.33858   1.38419    0.005
 5166.00    0.88355   1.38985    0.005
 5167.00    0.59922   1.38896    0.005
 5168.00    0.70307   1.38933    0.005
 5169.00    0.83146   1.37490    0.005
 5170.00    1.00817   1.35409    0.005
 5171.00    1.10216   1.34280    0.005
 5172.00    1.05417   1.31033    0.005
 5173.00    1.06223   1.22555    0.005
 5174.00    1.15454   1.11227    0.005
 5175.00    1.15423   1.04088    0.005
 5176.00    1.03158   1.06557    0.005
 5177.00    0.98595   1.14843    0.005
 5178.00    1.02993   1.17747    0.005
 5179.00    1.05212   1.09815    0.005
 5180.00    1.05196   1.01636    0.005
 5181.00    1.16743   1.06267    0.005
 5182.00    1.38753   1.19548    0.005
 5183.00    1.39156   1.28911    0.005
 5184.00    1.22328   1.31934    0.005
 5185.00    1.07767   1.33046    0.005
 5186.00    0.94796   1.33481    0.005
 5187.00    0.85279   1.32441    0.005
 5188.00    0.77888   1.29564    0.005
 5189.00    0.87731   1.22804    0.005
 5190.00    1.06837   1.10639    0.000
 5191.00    1.23577   1.00989    0.000
 5192.00    1.39213   1.05269    0.000
 5193.00    1.25548   1.19304    0.000
 5194.00    1.00096   1.29765    0.000
 5195.00    0.84138   1.32464    0.000
 5196.00    0.71439   1.32310    0.000
 5197.00    0.83651   1.33781    0.000
 5198.00    1.03059   1.33208    0.000
 5199.00    1.20041   1.27404    0.000
 5200.00    1.36442   1.23432    0.000
 5201.00    1.22897   1.25634    0.000
 5202.00    1.03588   1.28385    0.000
 5203.00    1.11379   1.29194    0.000
 5204.00    1.23221   1.31035    0.000
 5205.00    1.08959   1.33442    0.000
 5206.00    0.91838   1.35240    0.000
 5207.00    0.78718   1.36870    0.000
 5208.00    0.65887   1.37295    0.000
 5209.00    0.70599   1.36039    0.000
 5210.00    0.75966   1.34269    0.000
 5211.00    0.85959   1.31449    0.005
 5212.00    0.95859   1.26369    0.005
 5213.00    1.01615   1.22188    0.005
 5214.00    1.07642   1.21824    0.005
 5215.00    1.18045   1.21778    0.005
 5216.00    1.25932   1.20510    0.005
 5217.00    1.08217   1.22061    0.005
 5218.00    0.96115   1.26781    0.005
 5219.00    1.24850   1.32384    0.005
 5220.00    1.49284   1.37373    0.005
 5221.00    1.49749   1.39618    0.005
 5222.00    1.47532   1.37718    0.005
 5223.00    1.33382   1.33579    0.005
 5224.00    1.22696   1.31642    0.005
 5225.00    1.24664   1.33623    0.005
 5226.00    1.27097   1.37188    0.005
 5227.00    1.30953   1.39724    0.005
 5228.00    1.38893   1.41135    0.005
 5229.00    1.57458   1.41755    0.005
 5230.00    1.59174   1.40490    0.005
 5231.00    1.23208   1.36884    0.005
 5232.00    1.02810   1.31529    0.005
 5233.00    1.12589   1.25037    0.005
 5234.00    1.34654   1.19728    0.005
 5235.00    1.77490   1.20992    0.005
 5236.00    1.93060   1.28989    0.005
 5237.00    1.68248   1.35851    0.005
 5238.00    1.50317   1.38640    0.005
 5239.00    1.41344   1.38513    0.005
 5240.00    1.33372   1.34899    0.005
 5241.00    1.26547   1.31297    0.005
 5242.00    1.25574   1.31557    0.005
 5243.00    1.30521   1.34747    0.005
 5244.00    1.22663   1.38745    0.005
 5245.00    1.03381   1.41295    0.005
 5246.00    1.07892   1.41659    0.005
 5247.00    1.31107   1.41103    0.005
 5248.00    1.64939   1.40962    0.005
 5249.00    2.06112   1.41031    0.005
 5250.00    1.84901   1.40520    0.005
 5251.00    1.25873   1.40854    0.005
 5252.00    1.16869   1.42515    0.005
 5253.00    1.34338   1.41655    0.005
 5254.00    1.52029   1.36573    0.005
 5255.00    1.69822   1.32736    0.005
 5256.00    1.25944   1.33452    0.005
 5257.00    0.57683   1.33736    0.005
 5258.00    0.79158   1.31932    0.005
 5259.00    1.30861   1.32531    0.005
 5260.00    1.65302   1.35239    0.006
 5261.00    1.94857   1.36296    0.006
 5262.00    1.94771   1.34989    0.006
 5263.00    1.87766   1.34672    0.006
 5264.00    1.67033   1.38352    0.006
 5265.00    1.43726   1.42877    0.006
 5266.00    1.33928   1.44664    0.006
 5267.00    1.26088   1.43621    0.006
 5268.00    1.49598   1.40205    0.006
 5269.00    1.76406   1.34749    0.006
 5270.00    1.75085   1.28799    0.006
 5271.00    1.71846   1.24223    0.006
 5272.00    1.12179   1.21136    0.006
 5273.00    0.50620   1.19542    0.006
 5274.00    0.82416   1.21647    0.006
 5275.00    1.13845   1.26237    0.006
 5276.00    1.30243   1.24316    0.006
 5277.00    1.44591   1.16023    0.006
 5278.00    1.27740   1.15193    0.006
 5279.00    1.11226   1.24511    0.006
 5280.00    0.98005   1.31974    0.006
 5281.00    0.90004   1.33294    0.005
 5282.00    1.18760   1.32513    0.005
 5283.00    1.40799   1.31695    0.005
 5284.00    1.26424   1.34123    0.005
 5285.00    1.14161   1.40104    0.005
 5286.00    1.11074   1.43835    0.005
 5287.00    1.19434   1.42959    0.005
 5288.00    1.68755   1.39635    0.005
 5289.00    2.00590   1.36175    0.005
 5290.00    1.79910   1.33406    0.005
 5291.00    1.65570   1.31767    0.005
 5292.00    1.67442   1.33824    0.005
 5293.00    1.59487   1.39958    0.005
 5294.00    1.29913   1.44855    0.005
 5295.00    1.07194   1.45480    0.005
 5296.00    0.97552   1.44233    0.005
 5297.00    0.98085   1.44205    0.005
 5298.00    1.15556   1.45266    0.005
 5299.00    1.33459   1.45375    0.005
 5300.00    1.51994   1.44184    0.005
 5301.00    1.58569   1.43214    0.005
 5302.00    1.49797   1.42904    0.005
 5303.00    1.35429   1.40795    0.005
 5304.00    1.14736   1.35405    0.005
 5305.00    1.04883   1.29583    0.005
 5306.00    1.05842   1.28676    0.005
 5307.00    1.29969   1.33164    0.005
 5308.00    1.74474   1.36634    0.005
 5309.00    1.87529   1.36469    0.005
 5310.00    1.76212   1.37052    0.005
 5311.00    1.66615   1.40518    0.005
 5312.00    1.58191   1.44357    0.005
 5313.00    1.34629   1.45462    0.005
 5314.00    1.02026   1.43708    0.005
 5315.00    1.15029   1.41865    0.005
 5316.00    1.51791   1.42425    0.005
 5317.00    1.34184   1.44403    0.005
 5318.00    0.92018   1.45292    0.005
 5319.00    0.96802   1.44784    0.005
 5320.00    1.19826   1.43873    0.005
 5321.00    1.46410   1.43118    0.005
 5322.00    1.74172   1.42604    0.005
 5323.00    1.71602   1.41172    0.005
 5324.00    1.60620   1.38894    0.005
 5325.00    1.23809   1.38649    0.005
 5326.00    0.81107   1.40584    0.005
 5327.00    0.77433   1.41572    0.005
 5328.00    0.80884   1.41207    0.005
 5329.00    1.15248   1.40678    0.005
 5330.00    1.53949   1.39432    0.005
 5331.00    1.59086   1.36547    0.005
 5332.00    1.60836   1.34094    0.005
 5333.00    1.55151   1.34918    0.005
 5334.00    1.48990   1.33994    0.005
 5335.00    1.36524   1.25651    0.005
 5336.00    1.23957   1.17435    0.005
 5337.00    1.46608   1.21073    0.005
 5338.00    1.68583   1.32019    0.005
 5339.00    1.71257   1.38748    0.005
 5340.00    1.73647   1.38857    0.005
 5341.00    1.71963   1.38358    0.005
 5342.00    1.71350   1.40656    0.005
 5343.00    1.80756   1.42175    0.005
 5344.00    1.86599   1.41150    0.005
 5345.00    1.68145   1.39968    0.005
 5346.00    1.48119   1.39418    0.005
 5347.00    1.19789   1.36361    0.005
 5348.00    0.93698   1.31716    0.005
 5349.00    0.77108   1.31711    0.005
 5350.00    0.72053   1.36400    0.005
 5351.00    1.07429   1.39898    0.005
 5352.00    1.38060   1.40322    0.005
 5353.00    1.54711   1.38765    0.005
 5354.00    1.69063   1.37855    0.005
 5355.00    1.77643   1.38143    0.005
 5356.00    1.81739   1.36765    0.005
 5357.00    1.76135   1.35342    0.005
 5358.00    1.65674   1.37525    0.005
 5359.00    1.46088   1.41408    0.005
 5360.00    1.43374   1.43075    0.005
 5361.00    1.68332   1.43121    0.005
 5362.00    1.70438   1.44546    0.005
 5363.00    1.39677   1.46593    0.005
 5364.00    1.38154   1.47173    0.005
 5365.00    1.73619   1.47120    0.005
 5366.00    1.72400   1.47362    0.005
 5367.00    1.30282   1.47326    0.005
 5368.00    1.16268   1.45968   -2.000
 5369.00    1.29888   1.43179   -2.000
 5370.00    1.57851   1.40723   -2.000
 5371.00    1.98254   1.39858   -2.000
 5372.00    2.10010   1.38992   -2.000
 5373.00    1.99883   1.37894   -2.000
 5374.00    1.77705   1.38114   -2.000
 5375.00    1.47436   1.38674   -2.000
 5376.00    1.26148   1.38053   -2.000
 5377.00    1.10143   1.34816   -2.000
 5378.00    1.16797   1.29346   -2.000
 5379.00    1.35072   1.26506   -2.000
 5380.00    1.50845   1.30562   -2.000
 5381.00    1.65508   1.38135   -2.000
 5382.00    1.44846   1.42970   -2.000
 5383.00    1.10699   1.44678    0.005
 5384.00    1.08489   1.44295    0.005
 5385.00    1.16637   1.43400    0.005
 5386.00    1.28188   1.43522    0.005
 5387.00    1.40664   1.43219    0.005
 5388.00    1.41991   1.41810    0.005
 5389.00    1.40834   1.40527    0.005
 5390.00    1.56591   1.39698    0.005
 5391.00    1.75353   1.38929    0.005
 5392.00    1.51270   1.39874    0.005
 5393.00    1.21375   1.42020    0.005
 5394.00    1.35393   1.42898    0.005
 5395.00    1.53654   1.42567    0.005
 5396.00    1.51088   1.41450    0.005
 5397.00    1.47269   1.39483    0.005
 5398.00    1.39193   1.37761    0.005
 5399.00    1.31093   1.37105    0.005
 5400.00    1.37643   1.36588    0.005
 5401.00    1.43092   1.36018    0.005
 5402.00    1.20187   1.35973    0.005
 5403.00    0.99546   1.35359    0.005
 5404.00    1.09584   1.31713    0.005
 5405.00    1.20690   1.28565    0.005
 5406.00    1.41391   1.31901    0.005
 5407.00    1.59596   1.37036    0.005
 5408.00    1.61307   1.38343    0.005
 5409.00    1.62540   1.38621    0.005
 5410.00    1.61315   1.39309    0.005
 5411.00    1.58399   1.36451    0.005
 5412.00    1.48465   1.30175    0.005
 5413.00    1.39727   1.25504    0.005
 5414.00    1.35100   1.26278    0.005
 5415.00    1.35761   1.31391    0.005
 5416.00    1.51723   1.34270    0.005
 5417.00    1.55757   1.32097    0.005
 5418.00    1.30336   1.30130    0.005
 5419.00    1.13412   1.33316    0.005
 5420.00    1.14581   1.38206    0.005
 5421.00    1.20530   1.40316    0.005
 5422.00    1.35322   1.39496    0.005
 5423.00    1.39855   1.38915    0.005
 5424.00    1.27811   1.40885    0.005
 5425.00    1.26165   1.42911    0.005
 5426.00    1.39257   1.42675    0.005
 5427.00    1.45934   1.41107    0.005
 5428.00    1.44612   1.39738    0.005
 5429.00    1.52054   1.40049    0.005
 5430.00    1.69129   1.41143    0.005
 5431.00    1.78169   1.39378    0.005
 5432.00    1.79418   1.36347    0.005
 5433.00    1.73004   1.37512    0.005
 5434.00    1.60038   1.41634    0.005
 5435.00    1.53032   1.43961    0.005
 5436.00    1.50514   1.40292    0.005
 5437.00    1.37442   1.32513    0.005
 5438.00    1.17387   1.30448    0.005
 5439.00    1.08377   1.34962    0.005
 5440.00    1.05764   1.36526    0.005
 5441.00    1.20611   1.33993    0.005
 5442.00    1.44270   1.31424    0.005
 5443.00    1.47997   1.31139    0.005
 5444.00    1.43014   1.33755    0.005
 5445.00    1.44599   1.37762    0.005
 5446.00    1.48647   1.41828    0.005
 5447.00    1.40513   1.44342    0.005
 5448.00    1.28503   1.45176    0.005
 5449.00    1.20377   1.45287    0.005
 5450.00    1.13284   1.45324    0.005
 5451.00    1.24974   1.45078    0.005
 5452.00    1.40751   1.42554    0.005
 5453.00    1.32209   1.36892    0.005
 5454.00    1.19466   1.29959    0.005
 5455.00    1.24266   1.27897    0.005
 5456.00    1.31366   1.33258    0.005
 5457.00    1.44310   1.38957    0.005
 5458.00    1.57794   1.40991    0.005
 5459.00    1.48795   1.40898    0.005
 5460.00    1.38532   1.40178    0.005
 5461.00    1.24773   1.38467    0.005
 5462.00    1.11030   1.34075    0.005
 5463.00    1.07010   1.28410    0.005
 5464.00    1.05466   1.28665    0.005
 5465.00    1.62033   1.35152    0.005
 5466.00    2.13365   1.40375    0.005
 5467.00    1.97474   1.41386    0.005
 5468.00    1.83670   1.39911    0.005
 5469.00    1.87929   1.37900    0.005
 5470.00    1.89643   1.35210    0.005
 5471.00    1.75045   1.33017    0.005
 5472.00    1.60641   1.34711    0.005
 5473.00    1.47209   1.37801    0.005
 5474.00    1.34838   1.38379    0.005
 5475.00    1.26779   1.38668    0.005
 5476.00    1.21004   1.39945    0.005
 5477.00    1.22919   1.39707    0.005
 5478.00    1.28416   1.37992   -2.000
 5479.00    1.44084   1.37466   -2.000
 5480.00    1.49521   1.37417   -2.000
 5481.00    1.30122   1.35710   -2.000
 5482.00    1.33550   1.34839   -2.000
 5483.00    1.84799   1.33672   -2.000
 5484.00    2.37096   1.28710   -2.000
 5485.00    2.91301   1.26640   -2.000
 5486.00    3.27966   1.32075   -2.000
 5487.00    3.36712   1.37486   -2.000
 5488.00    2.98702   1.36836   -2.000
 5489.00    1.95376   1.33245   -2.000
 5490.00    1.36245   1.32676   -2.000
 5491.00    1.31447   1.35265   -2.000
 5492.00    1.01830   1.38648   -2.000
 5493.00    0.45314   1.41103   -2.000
 5494.00    0.45798   1.40181   -2.000
 5495.00    1.00766   1.36798   -2.000
 5496.00    1.36975   1.35583   -2.000
 5497.00    1.57373   1.37726   -2.000
 5498.00    1.69903   1.38763   -2.000
 5499.00    1.76593   1.38952   -2.000
 5500.00    1.82189   1.39582   -2.000
 5501.00    1.87070   1.38704   -2.000
 5502.00    1.84808   1.38266    0.005
 5503.00    1.78469   1.39358    0.004
 5504.00    1.69600   1.38636    0.004
 5505.00    1.59474   1.35600    0.004
 5506.00    1.59079   1.35941    0.004
 5507.00    1.62866   1.39555    0.004
 5508.00    1.49055   1.39639    0.004
 5509.00    1.28761   1.36050    0.004
 5510.00    1.14539   1.34415    0.004
 5511.00    1.02213   1.35888    0.005
 5512.00    1.10438   1.37510    0.005
 5513.00    1.24011   1.36512    0.005
 5514.00    1.35443   1.33111    0.005
 5515.00    1.46421   1.32807    0.005
 5516.00    1.42273   1.36514    0.005
 5517.00    1.35585   1.38462    0.005
 5518.00    1.31996   1.37873    0.005
 5519.00    1.28800   1.35808    0.005
 5520.00    1.30696   1.32559    0.005
 5521.00    1.33040   1.30989    0.005
 5522.00    1.31901   1.31948    0.005
 5523.00    1.30579   1.34272    0.005
 5524.00    1.33322   1.36487    0.005
 5525.00    1.35749   1.38309    0.005
 5526.00    1.08541   1.40561    0.005
 5527.00    0.83153   1.41998    0.005
 5528.00    0.96921   1.41728    0.005
 5529.00    1.10004   1.40944    0.005
 5530.00    1.14723   1.40579    0.005
 5531.00    1.17050   1.40728    0.005
 5532.00    0.99448   1.40641    0.005
 5533.00    0.89965   1.39293    0.005
 5534.00    1.30992   1.36737    0.005
 5535.00    1.67780   1.32944    0.005
 5536.00    1.83846   1.29872    0.005
 5537.00    1.89219   1.31904    0.004
 5538.00    1.52143   1.37094    0.004
 5539.00    1.26733   1.39783    0.004
 5540.00    1.39823   1.39489    0.004
 5541.00    1.52756   1.38616    0.004
 5542.00    1.65254   1.37347    0.004
 5543.00    1.73783   1.36043    0.004
 5544.00    1.72840   1.36969    0.004
 5545.00    1.71870   1.38519    0.004
 5546.00    1.70845   1.38730    0.004
 5547.00    1.70073   1.39509    0.004
 5548.00    1.69758   1.41252    0.004
 5549.00    1.71970   1.42241    0.004
 5550.00    1.78145   1.41149    0.004
 5551.00    1.74534   1.38941    0.004
 5552.00    1.57448   1.38175    0.004
 5553.00    1.41459   1.38565    0.004
 5554.00    1.26799   1.38661    0.004
 5555.00    1.26101   1.39453    0.004
 5556.00    1.40321   1.41339    0.004
 5557.00    1.39691   1.42545    0.004
 5558.00    1.25063   1.42741    0.004
 5559.00    1.18448   1.42559    0.005
 5560.00    1.18489   1.41655    0.005
 5561.00    1.19268   1.39804    0.005
 5562.00    1.20588   1.37968    0.005
 5563.00    1.25321   1.38044    0.005
 5564.00    1.32246   1.39268    0.005
 5565.00    1.35772   1.39500    0.005
 5566.00    1.37387   1.39263    0.005
 5567.00    1.46042   1.39522    0.005
 5568.00    1.58139   1.39805    0.005
 5569.00    1.63798   1.39519    0.005
 5570.00    1.66737   1.38168    0.005
 5571.00    1.48209   1.36571    0.005
 5572.00    1.21915   1.36437    0.005
 5573.00    1.05393   1.36346    0.005
 5574.00    0.91860   1.35813    0.004
 5575.00    0.95448   1.36074    0.005
 5576.00    1.03395   1.36281    0.005
 5577.00    1.23349   1.35161    0.004
 5578.00    1.45790   1.35299    0.004
 5579.00    1.32020   1.36943    0.004
 5580.00    1.12344   1.35660    0.004
 5581.00    1.33897   1.34063    0.004
 5582.00    1.60488   1.36202    0.004
 5583.00    1.70787   1.37917    0.004
 5584.00    1.79717   1.37470    0.004
 5585.00    1.43641   1.38087    0.004
 5586.00    1.05387   1.38818    0.004
 5587.00    1.11659   1.39008    0.004
 5588.00    1.18690   1.39473    0.004
 5589.00    1.31124   1.38693    0.004
 5590.00    1.43388   1.37402    0.004
 5591.00    1.52284   1.37697    0.004
 5592.00    1.60511   1.38123    0.004
 5593.00    1.60976   1.36667    0.004
 5594.00    1.59529   1.32989    0.005
 5595.00    1.42725   1.28771    0.005
 5596.00    1.29950   1.26596    0.005
 5597.00    1.41508   1.26904    0.005
 5598.00    1.50451   1.29564    0.005
 5599.00    1.46926   1.32949    0.005
 5600.00    1.43852   1.34412    0.005
 5601.00    1.42528   1.33837    0.005
 5602.00    1.41287   1.32596    0.005
 5603.00    1.40314   1.34118    0.005
 5604.00    1.38187   1.37821    0.005
 5605.00    1.32902   1.37889    0.005
 5606.00    1.28884   1.34078    0.005
 5607.00    1.27836   1.32067    0.005
 5608.00    1.25146   1.32264    0.005
 5609.00    1.19125   1.31293    0.005
 5610.00    1.25427   1.29469    0.005
 5611.00    1.53494   1.29730    0.005
 5612.00    1.72677   1.33714    0.005
 5613.00    1.78131   1.38327    0.005
 5614.00    1.71385   1.40947    0.004
 5615.00    1.48082   1.41766    0.004
 5616.00    1.32551   1.41606    0.004
 5617.00    1.26307   1.41221    0.004
 5618.00    1.21372   1.40986    0.004
 5619.00    1.17816   1.41285    0.004
 5620.00    1.28190   1.41859    0.004
 5621.00    1.51509   1.41341    0.004
 5622.00    1.49546   1.37038    0.004
 5623.00    1.26873   1.30024    0.004
 5624.00    1.17183   1.28100    0.004
 5625.00    1.16854   1.32440    0.004
 5626.00    1.28448   1.35968    0.004
 5627.00    1.47587   1.36290    0.004
 5628.00    1.56358   1.36327    0.004
 5629.00    1.59391   1.37654    0.004
 5630.00    1.63533   1.38858    0.004
 5631.00    1.68210   1.37454    0.004
 5632.00    1.55869   1.33522    0.004
 5633.00    1.36459   1.31584    0.004
 5634.00    1.26635   1.33730    0.004
 5635.00    1.20216   1.36333    0.004
 5636.00    1.24695   1.37587    0.004
 5637.00    1.32442   1.38891    0.004
 5638.00    1.44323   1.40003    0.004
 5639.00    1.57234   1.40305    0.004
 5640.00    1.65632   1.40015    0.004
 5641.00    1.73119   1.39427    0.004
 5642.00    1.88194   1.38718    0.004
 5643.00    2.04471   1.37912    0.004
 5644.00    1.66250   1.36721    0.004
 5645.00    1.21612   1.35366    0.004
 5646.00    1.11748   1.34981    0.004
 5647.00    1.04661   1.35870    0.004
 5648.00    1.10776   1.35969    0.004
 5649.00    1.17478   1.34765    0.004
 5650.00    1.09094   1.34778    0.004
 5651.00    1.00397   1.35937    0.004
 5652.00    0.84860   1.36545    0.004
 5653.00    0.70558   1.36842    0.004
 5654.00    0.79014   1.37209    0.004
 5655.00    0.88505   1.37811    0.004
 5656.00    1.09460   1.38208    0.004
 5657.00    1.28445   1.37810    0.004
 5658.00    1.32155   1.37418    0.004
 5659.00    1.37199   1.38188    0.004
 5660.00    1.50074   1.39556    0.004
 5661.00    1.58583   1.39855    0.004
 5662.00    1.46783   1.38279    0.004
 5663.00    1.41400   1.36716    0.004
 5664.00    1.60411   1.36764    0.004
 5665.00    1.76549   1.34849    0.004
 5666.00    1.83568   1.29578    0.004
 5667.00    1.86315   1.27887    0.004
 5668.00    1.77572   1.32048    0.004
 5669.00    1.63503   1.34901    0.004
 5670.00    1.37145   1.33575    0.004
 5671.00    1.17219   1.32776    0.004
 5672.00    1.10140   1.34863    0.004
 5673.00    1.13530   1.37304    0.004
 5674.00    1.35129   1.37721    0.004
 5675.00    1.43183   1.36359    0.004
 5676.00    1.30616   1.35227    0.004
 5677.00    1.23806   1.35223    0.004
 5678.00    1.24695   1.35910    0.004
 5679.00    1.30830   1.36732    0.004
 5680.00    1.43146   1.38188    0.004
 5681.00    1.50632   1.39862    0.004
 5682.00    1.53102   1.40285    0.004
 5683.00    1.51735   1.39427    0.004
 5684.00    1.46852   1.39287    0.004
 5685.00    1.41255   1.40181    0.004
 5686.00    1.35080   1.40063    0.004
 5687.00    1.29595   1.39161    0.004
 5688.00    1.24599   1.38848    0.004
 5689.00    1.19498   1.38414    0.004
 5690.00    1.14331   1.36409    0.004
 5691.00    1.14800   1.34584    0.004
 5692.00    1.18341   1.34901    0.005
 5693.00    1.27137   1.36225    0.004
 5694.00    1.38421   1.36274    0.004
 5695.00    1.41080   1.34770    0.004
 5696.00    1.40215   1.33556    0.004
 5697.00    1.43304   1.34123    0.004
 5698.00    1.47772   1.36113    0.004
 5699.00    1.51265   1.38133    0.004
 5700.00    1.54471   1.39666    0.004
 5701.00    1.59422   1.40382    0.004
 5702.00    1.64799   1.39916    0.004
 5703.00    1.73272   1.39330    0.004
 5704.00    1.82354   1.39421    0.004
 5705.00    1.60824   1.39038    0.004
 5706.00    1.34591   1.37344    0.004
 5707.00    1.21720   1.36211    0.004
 5708.00    1.10363   1.35668    0.004
 5709.00    1.27247   1.34201    0.004
 5710.00    1.46271   1.33250    0.004
 5711.00    1.54859   1.34309    0.004
 5712.00    1.63023   1.36127    0.004
 5713.00    1.50423   1.36338    0.004
 5714.00    1.37599   1.34697    0.004
 5715.00    1.22187   1.32973    0.004
 5716.00    1.07637   1.31033    0.004
 5717.00    1.07898   1.28910    0.004
 5718.00    1.08411   1.28645    0.004
 5719.00    1.11589   1.29375    0.004
 5720.00    1.14364   1.30442    0.004
 5721.00    1.14110   1.33452    0.004
 5722.00    1.15282   1.36569    0.004
 5723.00    1.24600   1.37886    0.004
 5724.00    1.31491   1.38433    0.004
 5725.00    1.27357   1.38607    0.004
 5726.00    1.19690   1.38475    0.004
 5727.00    0.98876   1.38991    0.004
 5728.00    0.84987   1.39815    0.004
 5729.00    0.92656   1.40462    0.004
 5730.00    1.03298   1.41237    0.004
 5731.00    1.21794   1.41722    0.004
 5732.00    1.36996   1.41581    0.004
 5733.00    1.44721   1.40965    0.004
 5734.00    1.50689   1.39390    0.004
 5735.00    1.53203   1.37246    0.004
 5736.00    1.50607   1.36947    0.004
 5737.00    1.39260   1.38609    0.004
 5738.00    1.33754   1.39350    0.004
 5739.00    1.37011   1.38053    0.004
 5740.00    1.36088   1.37270    0.000
 5741.00    1.29654   1.38448    0.000
 5742.00    1.25249   1.40086    0.000
 5743.00    1.23198   1.40867    0.000
 5744.00    1.33514   1.40544    0.000
 5745.00    1.56494   1.39851    0.000
 5746.00    1.71099   1.39561    0.000
 5747.00    1.78138   1.39501    0.000
 5748.00    1.74096   1.39484    0.000
 5749.00    1.61232   1.39484    0.000
 5750.00    1.54112   1.39244    0.000
 5751.00    1.51012   1.38924    0.000
 5752.00    1.64020   1.39260    0.000
 5753.00    1.86921   1.40404    0.000
 5754.00    1.92766   1.41194    0.000
 5755.00    1.89461   1.40108    0.000
 5756.00    1.75929   1.37953    0.000
 5757.00    1.57633   1.37768    0.000
 5758.00    1.35423   1.39653    0.000
 5759.00    1.11643   1.40650    0.000
 5760.00    1.01345   1.39029    0.000
 5761.00    0.95663   1.35859    0.000
 5762.00    1.02170   1.33770    0.000
 5763.00    1.12190   1.34854    0.000
 5764.00    1.17358   1.37923    0.000
 5765.00    1.21370   1.40343    0.000
 5766.00    1.22417   1.41427    0.000
 5767.00    1.22896   1.41180    0.000
 5768.00    1.45238   1.39690    0.000
 5769.00    1.70837   1.37536    0.000
 5770.00    1.77655   1.35224    0.000
 5771.00    1.82425   1.34097    0.000
 5772.00    1.77982   1.35868    0.000
 5773.00    1.72879   1.38814    0.000
 5774.00    1.52196   1.40417    0.000
 5775.00    1.30939   1.40784    0.000
 5776.00    1.30083   1.40736    0.000
 5777.00    1.29333   1.40444    0.000
 5778.00    1.29286   1.40125    0.000
 5779.00    1.29851   1.39748    0.000
 5780.00    1.40256   1.39085    0.000
 5781.00    1.50163   1.38623    0.000
 5782.00    1.55024   1.38351    0.000
 5783.00    1.57386   1.38097    0.000
 5784.00    1.41631   1.38468    0.000
 5785.00    1.28577   1.39179    0.000
 5786.00    1.30524   1.39302    0.000
 5787.00    1.30262   1.38405    0.000
 5788.00    1.20207   1.35944    0.000
 5789.00    1.26800   1.32563    0.000
 5790.00    1.94056   1.30910    0.000
 5791.00    2.55919   1.31684   -2.000
 5792.00    3.01316   1.32444   -2.000
 5793.00    3.29415   1.32013   -2.000
 5794.00    3.12598   1.32507   -2.000
 5795.00    3.11069   1.34823   -2.000
 5796.00    3.43659   1.36958   -2.000
 5797.00    4.46175   1.37967   -2.000
 5798.00    6.83959   1.37574   -2.000
 5799.00    7.46783   1.36252   -2.000
 5800.00    5.14421   1.36107   -2.000
 5801.00    3.34992   1.37438   -2.000
 5802.00    2.33817   1.38918   -2.000
 5803.00    1.73396   1.40033   -2.000
 5804.00    1.65939   1.40130   -2.000
 5805.00    1.56269   1.38506   -2.000
 5806.00    1.44065   1.36824   -2.000
 5807.00    1.40963   1.37601   -2.000
 5808.00    1.47050   1.40017   -2.000
 5809.00    1.51672   1.41778   -2.000
 5810.00    1.54988   1.42542   -2.000
 5811.00    1.46154   1.42223    0.000
 5812.00    1.27784   1.40604    0.000
 5813.00    1.19551   1.38916    0.000
 5814.00    1.18314   1.38336    0.000
 5815.00    1.24987   1.38785    0.000
 5816.00    1.36445   1.39425    0.000
 5817.00    1.46113   1.39801    0.000
 5818.00    1.54837   1.40219    0.000
 5819.00    1.61185   1.40671    0.000
 5820.00    1.66445   1.40794    0.000
 5821.00    1.69681   1.40585    0.000
 5822.00    1.72120   1.40015    0.000
 5823.00    1.74123   1.38727    0.000
 5824.00    1.75980   1.37248    0.000
 5825.00    1.72065   1.37138    0.000
 5826.00    1.66519   1.38819    0.000
 5827.00    1.50836   1.40620    0.000
 5828.00    1.32793   1.41358    0.000
 5829.00    1.30160   1.41455    0.000
 5830.00    1.30407   1.41233    0.000
 5831.00    1.32088   1.40759    0.000
 5832.00    1.33975   1.40492    0.000
 5833.00    1.29345   1.40788    0.000
 5834.00    1.24032   1.41143    0.000
 5835.00    1.45941   1.41168    0.000
 5836.00    1.69691   1.41153    0.000
 5837.00    1.62639   1.41281    0.000
 5838.00    1.54570   1.41486    0.000
 5839.00    1.42176   1.41450    0.000
 5840.00    1.30097   1.41258    0.000
 5841.00    1.28005   1.41115    0.000
 5842.00    1.26569   1.40716    0.000
 5843.00    1.35033   1.40248    0.000
 5844.00    1.41767   1.40423    0.000
 5845.00    1.31729   1.40796    0.000
 5846.00    1.22163   1.40391    0.000
 5847.00    1.15905   1.39866    0.000
 5848.00    1.11759   1.40309    0.000
 5849.00    1.19021   1.41397    0.000
 5850.00    1.27714   1.42126    0.000
 5851.00    1.42610   1.42190    0.000
 5852.00    1.53764   1.41804    0.000
 5853.00    1.51562   1.41111    0.000
 5854.00    1.48829   1.40133    0.000
 5855.00    1.44503   1.38933    0.000
 5856.00    1.40451   1.38244    0.000
 5857.00    1.37096   1.38497    0.000
 5858.00    1.32722   1.38937    0.000
 5859.00    1.26111   1.38757    0.000
 5860.00    1.23539   1.37478    0.000
 5861.00    1.28659   1.35313    0.000
 5862.00    1.38188   1.34158    0.000
 5863.00    1.55042   1.35004    0.000
 5864.00    1.65077   1.35414    0.000
 5865.00    1.65177   1.33292    0.000
 5866.00    1.60186   1.30943    0.000
 5867.00    1.48674   1.31484    0.000
 5868.00    1.48801   1.33999    0.000
 5869.00    1.62066   1.36005    0.000
 5870.00    1.67147   1.36364    0.000
 5871.00    1.64081   1.35891    0.000
 5872.00    1.62421   1.36320    0.000
 5873.00    1.61997   1.37165    0.000
 5874.00    1.61418   1.36581    0.000
 5875.00    1.60719   1.35193    0.000
 5876.00    1.60006   1.35463    0.000
 5877.00    1.59283   1.37275    0.000
 5878.00    1.54419   1.38722    0.000
 5879.00    1.47085   1.39218    0.000
 5880.00    1.42599   1.38884    0.000
 5881.00    1.39592   1.38131    0.000
 5882.00    1.39075   1.37658    0.000
 5883.00    1.39681   1.37374    0.000
 5884.00    1.31242   1.36833    0.000
 5885.00    1.19297   1.36297    0.000
 5886.00    1.03428   1.36040    0.000
 5887.00    0.86266   1.35563    0.000
 5888.00    0.90028   1.34646    0.000
 5889.00    0.99577   1.34228    0.000
 5890.00    1.13064   1.34731    0.000
 5891.00    1.27448   1.34948    0.000
 5892.00    1.29822   1.34256    0.000
 5893.00    1.30012   1.33833    0.000
 5894.00    1.34501   1.34166    0.000
 5895.00    1.39591   1.33709    0.000
 5896.00    1.39103   1.29484    0.000
 5897.00    1.38055   1.18891    0.000
 5898.00    1.38912   1.06469    0.000
 5899.00    1.39889   1.03922    0.000
 5900.00    1.51046   1.12832    0.000
 5901.00    1.62463   1.21733    0.004
 5902.00    1.60811   1.24051    0.004
 5903.00    1.58715   1.19238    0.004
 5904.00    1.44105   1.10842    0.004
 5905.00    1.30856   1.09513    0.004
 5906.00    1.37009   1.17687    0.004
 5907.00    1.42624   1.25340    0.004
 5908.00    1.43236   1.28591    0.004
 5909.00    1.41849   1.30872    0.004
 5910.00    1.26885   1.32855    0.004
 5911.00    1.14752   1.33809    0.004
 5912.00    1.17512   1.34216    0.004
 5913.00    1.18290   1.34195    0.004
 5914.00    1.10675   1.33810    0.004
 5915.00    1.02651   1.33873    0.004
 5916.00    0.93196   1.34679    0.004
 5917.00    0.88911   1.35206    0.004
 5918.00    0.99826   1.35021    0.004
 5919.00    1.07631   1.35249    0.004
 5920.00    1.07640   1.35839    0.004
 5921.00    1.09099   1.35071    0.004
 5922.00    1.13689   1.32687    0.004
 5923.00    1.25141   1.30798    0.004
 5924.00    1.49459   1.30887    0.004
 5925.00    1.64032   1.32140    0.004
 5926.00    1.62652   1.33602    0.004
 5927.00    1.63129   1.34524    0.004
 5928.00    1.66270   1.35081    0.004
 5929.00    1.63833   1.35227    0.004
 5930.00    1.54350   1.34557    0.004
 5931.00    1.44280   1.34114    0.004
 5932.00    1.33556   1.34661    0.004
 5933.00    1.25317   1.35451    0.004
 5934.00    1.19517   1.36010    0.004
 5935.00    1.22677   1.36108    0.004
 5936.00    1.33593   1.35467    0.004
 5937.00    1.43339   1.34279    0.004
 5938.00    1.52194   1.32965    0.004
 5939.00    1.51922   1.32894    0.004
 5940.00    1.45534   1.34691    0.004
 5941.00    1.34544   1.36057    0.004
 5942.00    1.20853   1.35210    0.004
 5943.00    1.16265   1.33657    0.004
 5944.00    1.16337   1.33775    0.004
 5945.00    1.13311   1.35244    0.004
 5946.00    1.08912   1.36292    0.004
 5947.00    1.15789   1.36637    0.004
 5948.00    1.26960   1.36164    0.004
 5949.00    1.27209   1.34561    0.004
 5950.00    1.23923   1.33203    0.004
 5951.00    1.19851   1.33569    0.004
 5952.00    1.15566   1.34711    0.004
 5953.00    1.22809   1.35656    0.004
 5954.00    1.32612   1.36536    0.004
 5955.00    1.40940   1.36697    0.004
 5956.00    1.49007   1.35240    0.004
 5957.00    1.47084   1.33038    0.004
 5958.00    1.43812   1.32569    0.004
 5959.00    1.25491   1.34095    0.004
 5960.00    1.05724   1.34648    0.004
 5961.00    1.01764   1.33323    0.004
 5962.00    0.98748   1.32900    0.004
 5963.00    1.04433   1.34216    0.004
 5964.00    1.10374   1.34547    0.004
 5965.00    1.21404   1.33272    0.004
 5966.00    1.31915   1.32682    0.004
 5967.00    1.29212   1.33650    0.004
 5968.00    1.27464   1.35151    0.004
 5969.00    1.38579   1.36458    0.004
 5970.00    1.48596   1.37144    0.004
 5971.00    1.48783   1.37307    0.004
 5972.00    1.46559   1.37078    0.004
 5973.00    1.28461   1.36394    0.004
 5974.00    1.12968   1.35343    0.004
 5975.00    1.10826   1.35044    0.004
 5976.00    1.09189   1.35942    0.004
 5977.00    1.09639   1.36759    0.004
 5978.00    1.12323   1.37210    0.004
 5979.00    1.22662   1.37602    0.004
 5980.00    1.33443   1.37761    0.004
 5981.00    1.45496   1.37600    0.004
 5982.00    1.54454   1.37275    0.004
 5983.00    1.55785   1.36343    0.004
 5984.00    1.55563   1.34623    0.004
 5985.00    1.52039   1.33073    0.004
 5986.00    1.48873   1.32487    0.004
 5987.00    1.46367   1.33061    0.004
 5988.00    1.45298   1.34552    0.004
 5989.00    1.46549   1.36004    0.004
 5990.00    1.48524   1.36344    0.004
 5991.00    1.51523   1.35218    0.004
 5992.00    1.53601   1.32836    0.004
 5993.00    1.54530   1.31200    0.004
 5994.00    1.61909   1.32051    0.004
 5995.00    1.76364   1.33766    0.004
 5996.00    1.78505   1.34534    0.004
 5997.00    1.68729   1.34958    0.004
 5998.00    1.54216   1.35573    0.004
 5999.00    1.35662   1.35536    0.004
 6000.00    1.33722   1.34928    0.004
 6001.00    1.44270   1.35416    0.004
 6002.00    1.46010   1.36968    0.004
 6003.00    1.41932   1.37814    0.004
 6004.00    1.35629   1.37211    0.004
 6005.00    1.28040   1.35846    0.004
 6006.00    1.22464   1.34605    0.004
 6007.00    1.17904   1.34302    0.004
 6008.00    1.20683   1.34953    0.004
 6009.00    1.26662   1.35660    0.004
 6010.00    1.35186   1.35400    0.004
 6011.00    1.44663   1.34002    0.004
 6012.00    1.44520   1.33352    0.004
 6013.00    1.41325   1.34406    0.004
 6014.00    1.36941   1.34955    0.004
 6015.00    1.32242   1.33705    0.004
 6016.00    1.28591   1.31587    0.004
 6017.00    1.25166   1.30585    0.004
 6018.00    1.27812   1.32464    0.004
 6019.00    1.31502   1.35192    0.004
 6020.00    1.35751   1.35721    0.004
 6021.00    1.40072   1.34247    0.004
 6022.00    1.36006   1.33186    0.004
 6023.00    1.31169   1.33857    0.004
 6024.00    1.30973   1.34418    0.004
 6025.00    1.31034   1.33610    0.004
 6026.00    1.46190   1.33389    0.004
 6027.00    1.61571   1.34056    0.004
 6028.00    1.66511   1.33447    0.004
 6029.00    1.70683   1.31990    0.004
 6030.00    1.57051   1.31768    0.004
 6031.00    1.44408   1.32685    0.004
 6032.00    1.44392   1.33200    0.004
 6033.00    1.44763   1.33558    0.004
 6034.00    1.48471   1.34767    0.004
 6035.00    1.49932   1.35428    0.004
 6036.00    1.37047   1.35297    0.004
 6037.00    1.26436   1.36153    0.004
 6038.00    1.27195   1.37115    0.004
 6039.00    1.26941   1.37148    0.004
 6040.00    1.22589   1.37053    0.004
 6041.00    1.19640   1.37526    0.004
 6042.00    1.21397   1.37926    0.004
 6043.00    1.22755   1.37925    0.004
 6044.00    1.22982   1.37834    0.004
 6045.00    1.22210   1.37748    0.004
 6046.00    1.19017   1.37671    0.004
 6047.00    1.19125   1.37345    0.004
 6048.00    1.26133   1.36634    0.004
 6049.00    1.30944   1.36252    0.004
 6050.00    1.31760   1.36359    0.004
 6051.00    1.27614   1.36623    0.004
 6052.00    1.15583   1.37408    0.004
 6053.00    1.05496   1.38067    0.004
 6054.00    0.98119   1.38232    0.004
 6055.00    1.00280   1.38327    0.004
 6056.00    1.14145   1.38488    0.004
 6057.00    1.26509   1.38311    0.004
 6058.00    1.37248   1.38016    0.004
 6059.00    1.40122   1.38365    0.004
 6060.00    1.35491   1.38617    0.004
 6061.00    1.32266   1.38139    0.004
 6062.00    1.30224   1.37318    0.004
 6063.00    1.27945   1.36637    0.004
 6064.00    1.25490   1.35778    0.004
 6065.00    1.28324   1.35118    0.004
 6066.00    1.34599   1.35439    0.004
 6067.00    1.39099   1.36394    0.004
 6068.00    1.42588   1.37338    0.004
 6069.00    1.40064   1.37759    0.004
 6070.00    1.34558   1.37669    0.004
 6071.00    1.34335   1.36844    0.004
 6072.00    1.36378   1.35462    0.004
 6073.00    1.46212   1.33218    0.004
 6074.00    1.58909   1.31097    0.004
 6075.00    1.58533   1.32448    0.004
 6076.00    1.54086   1.36105    0.004
 6077.00    1.50730   1.38284    0.004
 6078.00    1.47657   1.38787    0.004
 6079.00    1.55850   1.38765    0.004
 6080.00    1.66427   1.38927    0.004
 6081.00    1.72399   1.39154    0.004
 6082.00    1.77601   1.39144    0.004
 6083.00    1.71224   1.38981    0.004
 6084.00    1.63387   1.38840    0.004
 6085.00    1.58665   1.38098    0.004
 6086.00    1.54215   1.36631    0.004
 6087.00    1.54400   1.34914    0.004
 6088.00    1.54824   1.34522    0.004
 6089.00    1.58675   1.35125    0.004
 6090.00    1.62428   1.34620    0.004
 6091.00    1.54470   1.33723    0.004
 6092.00    1.46920   1.34062    0.004
 6093.00    1.48057   1.34638    0.004
 6094.00    1.48497   1.34377    0.004
 6095.00    1.40482   1.34713    0.004
 6096.00    1.31249   1.35839    0.004
 6097.00    1.11904   1.36409    0.004
 6098.00    0.93976   1.35196    0.004
 6099.00    0.84822   1.33509    0.004
 6100.00    0.78769   1.33394    0.004
 6101.00    0.87829   1.34173    0.004
 6102.00    0.98574   1.34680    0.004
 6103.00    1.15995   1.35923    0.004
 6104.00    1.28584   1.37358    0.004
 6105.00    1.25269   1.37165    0.004
 6106.00    1.19671   1.36433    0.004
 6107.00    1.07719   1.36583    0.004
 6108.00    1.00487   1.37293    0.004
 6109.00    1.04495   1.37292    0.004
 6110.00    1.08402   1.34249    0.004
 6111.00    1.12104   1.28249    0.004
 6112.00    1.18454   1.26300    0.004
 6113.00    1.29541   1.30842    0.004
 6114.00    1.40023   1.35247    0.004
 6115.00    1.49557   1.36212    0.004
 6116.00    1.53454   1.35173    0.004
 6117.00    1.49601   1.34531    0.004
 6118.00    1.45080   1.35704    0.004
 6119.00    1.39748   1.36500    0.004
 6120.00    1.31043   1.35669    0.004
 6121.00    1.18739   1.35532    0.004
 6122.00    1.12366   1.36781    0.004
 6123.00    1.11573   1.37655    0.004
 6124.00    1.16719   1.37175    0.004
 6125.00    1.26791   1.35948    0.004
 6126.00    1.30353   1.35889    0.004
 6127.00    1.29162   1.36609    0.004
 6128.00    1.27472   1.35541    0.004
 6129.00    1.25463   1.33009    0.004
 6130.00    1.28219   1.29588    0.004
 6131.00    1.33649   1.26881    0.004
 6132.00    1.34941   1.29185    0.004
 6133.00    1.34214   1.33627    0.004
 6134.00    1.30112   1.34803    0.004
 6135.00    1.24585   1.34047    0.004
 6136.00    1.25127   1.33657    0.004
 6137.00    1.27858   1.33668    0.004
 6138.00    1.38860   1.34461    0.004
 6139.00    1.52387   1.36123    0.004
 6140.00    1.50594   1.37017    0.004
 6141.00    1.44912   1.36776    0.004
 6142.00    1.40051   1.36467    0.004
 6143.00    1.35360   1.35134    0.004
 6144.00    1.36526   1.31379    0.004
 6145.00    1.38642   1.25273    0.004
 6146.00    1.42257   1.21174    0.004
 6147.00    1.46054   1.24854    0.004
 6148.00    1.38766   1.32121    0.004
 6149.00    1.30552   1.34669    0.004
 6150.00    1.28574   1.31844    0.004
 6151.00    1.26894   1.30322    0.004
 6152.00    1.35829   1.33086    0.004
 6153.00    1.44871   1.36251    0.004
 6154.00    1.51091   1.37266    0.004
 6155.00    1.56777   1.37046    0.004
 6156.00    1.51960   1.36279    0.004
 6157.00    1.47339   1.34687    0.004
 6158.00    1.44991   1.33266    0.004
 6159.00    1.44103   1.32507    0.004
 6160.00    1.54900   1.33008    0.004
 6161.00    1.64718   1.34552    0.004
 6162.00    1.68638   1.35668    0.004
 6163.00    1.69443   1.34470    0.004
 6164.00    1.55442   1.33098    0.004
 6165.00    1.41895   1.33476    0.004
 6166.00    1.30106   1.33593    0.004
 6167.00    1.20085   1.33124    0.004
 6168.00    1.15771   1.32452    0.004
 6169.00    1.12583   1.29115    0.004
 6170.00    1.12472   1.22108    0.004
 6171.00    1.16871   1.16973    0.004
 6172.00    1.31830   1.17977    0.004
 6173.00    1.40471   1.22604    0.004
 6174.00    1.36324   1.26303    0.004
 6175.00    1.29994   1.27862    0.004
 6176.00    1.19820   1.28865    0.004
 6177.00    1.18081   1.27572    0.004
 6178.00    1.29351   1.23071    0.004
 6179.00    1.39687   1.21683    0.004
 6180.00    1.48758   1.25934    0.004
 6181.00    1.49646   1.29640    0.004
 6182.00    1.40776   1.29717    0.004
 6183.00    1.35798   1.29520    0.004
 6184.00    1.34910   1.29942    0.004
 6185.00    1.37316   1.29705    0.004
 6186.00    1.42777   1.29707    0.004
 6187.00    1.42606   1.31182    0.004
 6188.00    1.37831   1.31767    0.004
 6189.00    1.31966   1.31094    0.004
 6190.00    1.25316   1.31726    0.004
 6191.00    1.29017   1.32800    0.004
 6192.00    1.39255   1.32946    0.004
 6193.00    1.52915   1.32731    0.004
 6194.00    1.68465   1.32182    0.004
 6195.00    1.96417   1.30594    0.004
 6196.00    2.30323   1.29093   -2.000
 6197.00    3.02972   1.28515   -2.000
 6198.00    3.91682   1.28360   -2.000
 6199.00    3.88266   1.26377   -2.000
 6200.00    3.52196   1.22233   -2.000
 6201.00    2.44685   1.22296   -2.000
 6202.00    1.15793   1.27156   -2.000
 6203.00    0.26095   1.30434   -2.000
 6204.00   -0.53868   1.31134   -2.000
 6205.00   -0.15554   1.31523   -2.000
 6206.00    0.46575   1.31891   -2.000
 6207.00    0.87975   1.31092   -2.000
 6208.00    1.26105   1.28496    0.004
 6209.00    1.40004   1.26842    0.004
 6210.00    1.51065   1.28261    0.004
 6211.00    1.46156   1.30671    0.004
 6212.00    1.39979   1.31804    0.004
 6213.00    1.36128   1.31746    0.004
 6214.00    1.32379   1.31745    0.004
 6215.00    1.42502   1.32233    0.004
 6216.00    1.52659   1.32552    0.004
 6217.00    1.57217   1.32603    0.004
 6218.00    1.61414   1.32580    0.004
 6219.00    1.58993   1.31925    0.004
 6220.00    1.56881   1.31002    0.004
 6221.00    1.58179   1.29772    0.004
 6222.00    1.59386   1.26739    0.004
 6223.00    1.59896   1.24261    0.004
 6224.00    1.59733   1.23760    0.004
 6225.00    1.55640   1.24690    0.004
 6226.00    1.52120   1.27006    0.004
 6227.00    1.51264   1.27969    0.004
 6228.00    1.52298   1.26026    0.004
 6229.00    1.60495   1.24870    0.004
 6230.00    1.65659   1.25887    0.004
 6231.00    1.61226   1.27559    0.004
 6232.00    1.55607   1.28266    0.004
 6233.00    1.46802   1.27749    0.004
 6234.00    1.36670   1.27884    0.004
 6235.00    1.23479   1.28490    0.004
 6236.00    1.12768   1.28680    0.004
 6237.00    1.06997   1.28418    0.004
 6238.00    1.10583   1.26196    0.004
 6239.00    1.30408   1.22022    0.004
 6240.00    1.48038   1.20270    0.004
 6241.00    1.62334   1.22142    0.004
 6242.00    1.67594   1.24842    0.004
 6243.00    1.60791   1.27994    0.004
 6244.00    1.51703   1.30344    0.004
 6245.00    1.39928   1.30372    0.004
 6246.00    1.36974   1.29129    0.004
 6247.00    1.43165   1.27699    0.004
 6248.00    1.49378   1.26286    0.004
 6249.00    1.55611   1.25280    0.004
 6250.00    1.50383   1.25859    0.004
 6251.00    1.35917   1.25723    0.004
 6252.00    1.22534   1.23844    0.004
 6253.00    1.09918   1.23505    0.004
 6254.00    1.10563   1.24032    0.004
 6255.00    1.19460   1.23865    0.004
 6256.00    1.32155   1.25101    0.004
 6257.00    1.46915   1.27675    0.004
 6258.00    1.53060   1.29340    0.004
 6259.00    1.55133   1.29504    0.004
 6260.00    1.64192   1.27706    0.004
 6261.00    1.76097   1.24173    0.005
 6262.00    1.80881   1.22123    0.005
 6263.00    1.83187   1.22469    0.005
 6264.00    1.68031   1.23341    0.005
 6265.00    1.47754   1.22858    0.005
 6266.00    1.24886   1.21316    0.004
 6267.00    1.01388   1.19995    0.004
 6268.00    1.06423   1.21072    0.004
 6269.00    1.17058   1.23996    0.004
 6270.00    1.27479   1.25795    0.004
 6271.00    1.37868   1.27519    0.004
 6272.00    1.37615   1.29566    0.004
 6273.00    1.36161   1.29213    0.004
 6274.00    1.37917   1.27156    0.004
 6275.00    1.39915   1.27093    0.004
 6276.00    1.35270   1.28603    0.004
 6277.00    1.30358   1.29014    0.004
 6278.00    1.24984   1.28198    0.004
 6279.00    1.19889   1.27629    0.004
 6280.00    1.26217   1.28094    0.000
 6281.00    1.31718   1.29213    0.000
 6282.00    1.23142   1.30006    0.000
 6283.00    1.14430   1.29786    0.000
 6284.00    1.04280   1.29461    0.000
 6285.00    0.96139   1.29553    0.000
 6286.00    1.02987   1.29617    0.000
 6287.00    1.08776   1.29217    0.000
 6288.00    1.08547   1.27886    0.000
 6289.00    1.09195   1.25947    0.000
 6290.00    1.13811   1.25416    0.000
 6291.00    1.19579   1.26601    0.000
 6292.00    1.29620   1.28173    0.000
 6293.00    1.37279   1.29049    0.000
 6294.00    1.37539   1.28924    0.000
 6295.00    1.38441   1.29455    0.000
 6296.00    1.41036   1.30885    0.000
 6297.00    1.40376   1.32051    0.000
 6298.00    1.32346   1.32398    0.000
 6299.00    1.24412   1.31463    0.000
 6300.00    1.16670   1.30046    0.000
 6301.00    1.14091   1.29266    0.000
 6302.00    1.20339   1.29364    0.000
 6303.00    1.21151   1.30125    0.000
 6304.00    1.13824   1.30106    0.000
 6305.00    1.05403   1.28249    0.000
 6306.00    0.95541   1.26350    0.000
 6307.00    0.94946   1.26488    0.000
 6308.00    1.05092   1.27839    0.000
 6309.00    1.12398   1.27795    0.000
 6310.00    1.16800   1.25908    0.000
 6311.00    1.22474   1.24847    0.000
 6312.00    1.29295   1.26191    0.000
 6313.00    1.31556   1.28353    0.000
 6314.00    1.30194   1.29292    0.000
 6315.00    1.28317   1.29719    0.000
 6316.00    1.26080   1.31138    0.000
 6317.00    1.24272   1.32419    0.000
 6318.00    1.22728   1.32156    0.000
 6319.00    1.23682   1.30941    0.000
 6320.00    1.25974   1.29769    0.000
 6321.00    1.31361   1.29435    0.004
 6322.00    1.38186   1.29884    0.004
 6323.00    1.39809   1.29073    0.004
 6324.00    1.39349   1.27411    0.004
 6325.00    1.32416   1.27493    0.004
 6326.00    1.23272   1.27561    0.004
 6327.00    1.27516   1.25835    0.004
 6328.00    1.35608   1.25692    0.004
 6329.00    1.41286   1.27954    0.004
 6330.00    1.46391   1.29483    0.004
 6331.00    1.36514   1.29479    0.004
 6332.00    1.23772   1.29781    0.004
 6333.00    1.18653   1.30930    0.004
 6334.00    1.14665   1.31766    0.004
 6335.00    1.16986   1.31926    0.004
 6336.00    1.19992   1.31440    0.004
 6337.00    1.22721   1.31433    0.004
 6338.00    1.25430   1.31734    0.004
 6339.00    1.34571   1.31213    0.004
 6340.00    1.43945   1.31164    0.004
 6341.00    1.35782   1.32251    0.004
 6342.00    1.27408   1.33177    0.004
 6343.00    1.13895   1.31914    0.004
 6344.00    1.01603   1.28232    0.003
 6345.00    1.08802   1.25579    0.004
 6346.00    1.16181   1.26292    0.004
 6347.00    1.25358   1.28338    0.004
 6348.00    1.33467   1.29659    0.004
 6349.00    1.33865   1.30954    0.004
 6350.00    1.33109   1.32072    0.004
 6351.00    1.25970   1.31979    0.004
 6352.00    1.19739   1.30317    0.004
 6353.00    1.17522   1.28300    0.004
 6354.00    1.16270   1.28168    0.004
 6355.00    1.18524   1.29037    0.004
 6356.00    1.21349   1.29576    0.004
 6357.00    1.25917   1.30388    0.004
 6358.00    1.31888   1.31697    0.004
 6359.00    1.41492   1.32455    0.004
 6360.00    1.46741   1.32581    0.004
 6361.00    1.42289   1.32472    0.004
 6362.00    1.39803   1.31632    0.004
 6363.00    1.41113   1.29808    0.004
 6364.00    1.40555   1.28295    0.004
 6365.00    1.36852   1.28579    0.004
 6366.00    1.35461   1.28953    0.004
 6367.00    1.37481   1.27368    0.004
 6368.00    1.43188   1.25747    0.004
 6369.00    1.53676   1.25980    0.004
 6370.00    1.58030   1.26283    0.004
 6371.00    1.55374   1.25487    0.004
 6372.00    1.50480   1.25143    0.004
 6373.00    1.43330   1.26137    0.004
 6374.00    1.39368   1.27550    0.004
 6375.00    1.38238   1.28626    0.004
 6376.00    1.38844   1.29785    0.004
 6377.00    1.40809   1.31031    0.004
 6378.00    1.44163   1.31315    0.004
 6379.00    1.48472   1.30641    0.004
 6380.00    1.46769   1.30393    0.004
 6381.00    1.41433   1.31257    0.004
 6382.00    1.35898   1.32435    0.004
 6383.00    1.30258   1.32918    0.004
 6384.00    1.25831   1.32764    0.004
 6385.00    1.21959   1.32619    0.004
 6386.00    1.14996   1.32324    0.004
 6387.00    1.06817   1.31272    0.004
 6388.00    1.13133   1.29973    0.004
 6389.00    1.24309   1.29326    0.004
 6390.00    1.23644   1.29458    0.004
 6391.00    1.19645   1.30322    0.004
 6392.00    1.17114   1.31012    0.004
 6393.00    1.14925   1.30788    0.004
 6394.00    1.24445   1.30471    0.004
 6395.00    1.36146   1.30868    0.004
 6396.00    1.40533   1.31509    0.004
 6397.00    1.43869   1.31572    0.004
 6398.00    1.41835   1.31313    0.004
 6399.00    1.39243   1.31223    0.004
 6400.00    1.33436   1.31029    0.004
 6401.00    1.27413   1.29398    0.004
 6402.00    1.27714   1.26388    0.004
 6403.00    1.28221   1.25391    0.004
 6404.00    1.16235   1.27863    0.004
 6405.00    1.04360   1.30952    0.004
 6406.00    0.96029   1.32614    0.004
 6407.00    0.89158   1.32246    0.004
 6408.00    1.04171   1.28874    0.004
 6409.00    1.18777   1.24855    0.004
 6410.00    1.29455   1.25431    0.004
 6411.00    1.37377   1.29588    0.004
 6412.00    1.26046   1.32651    0.004
 6413.00    1.16942   1.33656    0.004
 6414.00    1.19834   1.33536    0.004
 6415.00    1.23003   1.32592    0.004
 6416.00    1.27369   1.30731    0.004
 6417.00    1.30044   1.29244    0.004
 6418.00    1.26699   1.30049    0.004
 6419.00    1.24422   1.31254    0.004
 6420.00    1.25333   1.30064    0.004
 6421.00    1.25389   1.28628    0.004
 6422.00    1.23270   1.29231    0.004
 6423.00    1.22119   1.30456    0.004
 6424.00    1.23086   1.31064    0.004
 6425.00    1.26552   1.31509    0.004
 6426.00    1.34768   1.31839    0.004
 6427.00    1.40205   1.31695    0.004
 6428.00    1.41031   1.30587    0.004
 6429.00    1.37289   1.28231    0.004
 6430.00    1.26901   1.26327    0.004
 6431.00    1.21207   1.27488    0.004
 6432.00    1.21517   1.30824    0.004
 6433.00    1.21843   1.32945    0.004
 6434.00    1.22189   1.33109    0.004
 6435.00    1.25181   1.32963    0.004
 6436.00    1.30803   1.33379    0.004
 6437.00    1.35132   1.33734    0.004
 6438.00    1.38326   1.32734    0.004
 6439.00    1.36707   1.29864    0.004
 6440.00    1.31371   1.27214    0.004
 6441.00    1.26802   1.27484    0.004
 6442.00    1.22755   1.29680    0.004
 6443.00    1.21000   1.31606    0.004
 6444.00    1.20609   1.32788    0.004
 6445.00    1.14284   1.33352    0.004
 6446.00    1.04879   1.32653    0.004
 6447.00    1.05434   1.29666    0.004
 6448.00    1.10470   1.26502    0.004
 6449.00    1.15359   1.27171    0.004
 6450.00    1.20193   1.30801    0.004
 6451.00    1.24660   1.33495    0.004
 6452.00    1.29007   1.34488    0.004
 6453.00    1.28872   1.34694    0.004
 6454.00    1.27501   1.34749    0.004
 6455.00    1.21164   1.35023    0.004
 6456.00    1.13700   1.34893    0.004
 6457.00    1.08360   1.32963    0.004
 6458.00    1.03404   1.28315    0.004
 6459.00    0.96776   1.23885    0.004
 6460.00    0.89915   1.24334    0.004
 6461.00    0.89659   1.28412    0.004
 6462.00    0.90062   1.31774    0.004
 6463.00    0.94991   1.32549    0.004
 6464.00    1.00207   1.30956    0.004
 6465.00    1.11410   1.29100    0.004
 6466.00    1.22778   1.29605    0.004
 6467.00    1.31817   1.31994    0.004
 6468.00    1.40509   1.34018    0.004
 6469.00    1.39534   1.34583    0.004
 6470.00    1.38468   1.32676    0.004
 6471.00    1.36136   1.27848    0.004
 6472.00    1.33925   1.24322    0.004
 6473.00    1.32830   1.25834    0.004
 6474.00    1.32598   1.29535    0.004
 6475.00    1.38210   1.32117    0.004
 6476.00    1.43964   1.33465    0.004
 6477.00    1.50463   1.33778    0.004
 6478.00    1.55111   1.33047    0.004
 6479.00    1.51947   1.31857    0.004
 6480.00    1.48317   1.30508    0.004
 6481.00    1.43062   1.29839    0.004
 6482.00    1.36945   1.30618    0.004
 6483.00    1.28299   1.31131    0.004
 6484.00    1.23181   1.30183    0.004
 6485.00    1.26889   1.29634    0.004
 6486.00    1.30968   1.30723    0.004
 6487.00    1.35847   1.31967    0.004
 6488.00    1.37663   1.32359    0.004
 6489.00    1.33751   1.31930    0.003
 6490.00    1.27753   1.30090    0.004
 6491.00    1.18347   1.27334    0.004
 6492.00    1.11707   1.26105    0.004
 6493.00    1.09027   1.27376    0.004
 6494.00    1.08679   1.29407    0.004
 6495.00    1.11268   1.30564    0.004
 6496.00    1.09609   1.30958    0.004
 6497.00    1.03231   1.31149    0.004
 6498.00    0.94532   1.30958    0.004
 6499.00    0.83559   1.30106    0.004
 6500.00    0.74027   1.28950    0.004
 6501.00    0.65740   1.27691    0.004
 6502.00    0.69032   1.24969    0.004
 6503.00    0.81137   1.20061    0.004
 6504.00    0.99250   1.15922    0.004
 6505.00    1.21382   1.15083    0.004
 6506.00    1.33780   1.16739    0.004
 6507.00    1.40473   1.19356    0.004
 6508.00    1.37870   1.21416    0.004
 6509.00    1.30519   1.23215    0.004
 6510.00    1.22678   1.25582    0.004
 6511.00    1.14621   1.27658    0.004
 6512.00    1.18521   1.28948    0.004
 6513.00    1.26965   1.29765    0.004
 6514.00    1.36370   1.30424    0.004
 6515.00    1.46084   1.30928    0.003
 6516.00    1.44319   1.30854    0.004
 6517.00    1.39452   1.30136    0.004
 6518.00    1.32046   1.29588    0.004
 6519.00    1.24077   1.29854    0.004
 6520.00    1.17210   1.30461    0.004
 6521.00    1.10537   1.30713    0.004
 6522.00    1.14353   1.30600    0.004
 6523.00    1.19581   1.30119    0.004
 6524.00    1.25947   1.29090    0.004
 6525.00    1.32423   1.27858    0.004
 6526.00    1.36075   1.27033    0.004
 6527.00    1.39559   1.26562    0.004
 6528.00    1.29127   1.26604    0.000
 6529.00    1.18395   1.27797    0.000
 6530.00    1.14833   1.29477    0.000
 6531.00    1.11732   1.30433    0.000
 6532.00    1.20239   1.30547    0.000
 6533.00    1.28157   1.30499    0.000
 6534.00    1.28192   1.30512    0.000
 6535.00    1.28567   1.29908    0.000
 6536.00    1.31961   1.28805    0.000
 6537.00    1.35075   1.28538    0.000
 6538.00    1.36354   1.29432    0.000
 6539.00    1.37558   1.30307    0.000
 6540.00    1.38379   1.30210    0.000
 6541.00    1.40467   1.29330    0.000
 6542.00    1.47786   1.28504    0.000
 6543.00    1.55263   1.28517    0.000
 6544.00    1.63284   1.29353    0.000
 6545.00    1.67717   1.30122    0.000
 6546.00    1.61817   1.30237    0.000
 6547.00    1.54261   1.30129    0.000
 6548.00    1.42635   1.30440    0.000
 6549.00    1.32230   1.31005    0.000
 6550.00    1.24418   1.31055    0.000
 6551.00    1.21087   1.30234    0.000
 6552.00    1.26010   1.29158    0.000
 6553.00    1.31318   1.28286    0.000
 6554.00    1.37246   1.26897    0.000
 6555.00    1.51662   1.24695    0.000
 6556.00    1.78064   1.23635    0.000
 6557.00    2.05420   1.24904    0.000
 6558.00    2.33961   1.26573    0.000
 6559.00    2.56471   1.26839    0.000
 6560.00    2.72376   1.26043    0.000
 6561.00    2.59906   1.25202    0.000
 6562.00    2.20024   1.24387    0.000
 6563.00    1.81492   1.23050    0.000
 6564.00    1.44111   1.21302    0.000
 6565.00    1.27169   1.20149    0.000
 6566.00    1.25563   1.20168    0.000
 6567.00    1.25798   1.20456    0.000
 6568.00    1.27247   1.19681    0.000
 6569.00    1.20576   1.17147    0.000
 6570.00    1.09219   1.10492    0.000
 6571.00    0.94720   0.96981    0.000
 6572.00    0.78643   0.84147    0.000
 6573.00    0.80130   0.85931    0.000
 6574.00    0.89261   1.00320    0.000
 6575.00    1.00380   1.12849    0.000
 6576.00    1.12241   1.18558    0.000
 6577.00    1.31974   1.20598    0.000
 6578.00    1.54199   1.20902    0.000
 6579.00    1.67941   1.21105    0.000
 6580.00    1.79440   1.22054    0.000
 6581.00    1.68559   1.22369    0.000
 6582.00    1.52839   1.21357    0.000
 6583.00    1.37583   1.20274    0.000
 6584.00    1.22406   1.20505    0.000
 6585.00    1.24546   1.22456    0.000
 6586.00    1.28937   1.25174    0.000
 6587.00    1.30664   1.27117    0.000
 6588.00    1.32148   1.27718    0.000
 6589.00    1.22930   1.27139    0.000
 6590.00    1.13121   1.26058    0.000
 6591.00    1.12269   1.25799    0.000
 6592.00    1.11668   1.26770    0.000
 6593.00    1.16763   1.27619    0.000
 6594.00    1.21764   1.27568    0.000
 6595.00    1.24588   1.26995    0.000
 6596.00    1.27399   1.26865    0.000
 6597.00    1.30058   1.27814    0.000
 6598.00    1.31710   1.28982    0.000
 6599.00    1.24731   1.29448    0.000
 6600.00    1.17794   1.28801    0.000
 6601.00    1.11124   1.26165    0.000
 6602.00    1.07077   1.22260    0.000
 6603.00    1.16095   1.20544    0.000
 6604.00    1.21926   1.22857    0.000
 6605.00    1.14898   1.26193    0.000
 6606.00    1.07506   1.27461    0.000
 6607.00    0.98896   1.26932    0.000
 6608.00    0.94963   1.26341    0.000
 6609.00    1.04249   1.27107    0.004
 6610.00    1.12841   1.28752    0.004
 6611.00    1.19754   1.29672    0.004
 6612.00    1.26764   1.29449    0.004
 6613.00    1.33975   1.28556    0.004
 6614.00    1.42133   1.27540    0.004
 6615.00    1.52009   1.26988    0.004
 6616.00    1.57253   1.26728    0.004
 6617.00    1.55151   1.25959    0.004
 6618.00    1.51486   1.24794    0.004
 6619.00    1.45643   1.24820    0.004
 6620.00    1.39903   1.26759    0.004
 6621.00    1.34289   1.28649    0.004
 6622.00    1.28938   1.28798    0.004
 6623.00    1.23873   1.28086    0.004
 6624.00    1.26322   1.28175    0.004
 6625.00    1.35928   1.28989    0.004
 6626.00    1.39235   1.29300    0.004
 6627.00    1.37252   1.29124    0.003
 6628.00    1.29347   1.29090    0.003
 6629.00    1.17064   1.29405    0.004
 6630.00    1.11057   1.29750    0.004
 6631.00    1.09127   1.29707    0.004
 6632.00    1.06651   1.28969    0.004
 6633.00    1.03865   1.27556    0.004
 6634.00    1.04165   1.26179    0.004
 6635.00    1.05992   1.25991    0.004
 6636.00    1.12602   1.26882    0.004
 6637.00    1.21260   1.27601    0.004
 6638.00    1.14994   1.27779    0.004
 6639.00    1.03256   1.27645    0.004
 6640.00    1.03445   1.27279    0.004
 6641.00    1.07337   1.26602    0.004
 6642.00    1.12576   1.25458    0.004
 6643.00    1.18163   1.24245    0.004
 6644.00    1.27460   1.24330    0.004
 6645.00    1.37539   1.25853    0.004
 6646.00    1.37733   1.27325    0.004
 6647.00    1.36281   1.27889    0.004
 6648.00    1.25758   1.27687    0.004
 6649.00    1.14097   1.27327    0.004
 6650.00    1.13303   1.27493    0.003
 6651.00    1.13456   1.27832    0.003
 6652.00    1.16761   1.26676    0.004
 6653.00    1.20227   1.24538    0.004
 6654.00    1.20195   1.24425    0.004
 6655.00    1.20084   1.26108    0.004
 6656.00    1.18787   1.27086    0.004
 6657.00    1.17546   1.27052    0.004
 6658.00    1.17497   1.27153    0.004
 6659.00    1.17560   1.27490    0.004
 6660.00    1.18962   1.27364    0.004
 6661.00    1.19739   1.26743    0.004
 6662.00    1.15356   1.26351    0.004
 6663.00    1.09398   1.26389    0.004
 6664.00    0.93711   1.26553    0.004
 6665.00    0.81957   1.26680    0.004
 6666.00    0.89313   1.26634    0.004
 6667.00    0.96741   1.26693    0.004
 6668.00    1.04452   1.26769    0.004
 6669.00    1.11349   1.26552    0.004
 6670.00    1.15569   1.26086    0.004
 6671.00    1.16900   1.25306    0.004
 6672.00    1.10207   1.23782    0.004
 6673.00    1.04009   1.22440    0.004
 6674.00    0.98986   1.23080    0.004
 6675.00    0.94850   1.24506    0.003
 6676.00    0.92539   1.25080    0.003
 6677.00    0.91382   1.25197    0.004
 6678.00    0.92287   1.25593    0.004
 6679.00    0.92508   1.26525    0.004
 6680.00    0.91661   1.27343    0.004
 6681.00    0.92258   1.27499    0.004
 6682.00    0.94836   1.27262    0.004
 6683.00    0.94758   1.27186    0.004
 6684.00    0.91475   1.27203    0.004
 6685.00    0.86388   1.26810    0.004
 6686.00    0.79381   1.24867    0.004
 6687.00    0.81747   1.21483    0.004
 6688.00    0.92913   1.19960    0.004
 6689.00    1.01592   1.21961    0.004
 6690.00    1.08212   1.24362    0.004
 6691.00    1.08325   1.25002    0.004
 6692.00    1.03696   1.25153    0.004
 6693.00    1.03362   1.25630    0.004
 6694.00    1.05778   1.26050    0.004
 6695.00    1.11135   1.25999    0.004
 6696.00    1.18139   1.25743    0.000
 6697.00    1.19785   1.25514    0.000
 6698.00    1.18823   1.25439    0.000
 6699.00    1.19041   1.25800    0.000
 6700.00    1.19756   1.26125    0.000
 6701.00    1.14472   1.26120    0.000
 6702.00    1.07027   1.26032    0.000
 6703.00    1.05659   1.25915    0.000
 6704.00    1.06142   1.25323    0.000
 6705.00    1.04613   1.24228    0.000
 6706.00    1.02575   1.23367    0.000
 6707.00    0.99156   1.23556    0.000
 6708.00    0.95453   1.24393    0.000
 6709.00    1.15120   1.25356    0.000
 6710.00    1.38571   1.26173    0.000
 6711.00    1.50410   1.26288    0.000
 6712.00    1.60843   1.25548    0.000
 6713.00    1.55576   1.24500    0.000
 6714.00    1.49006   1.24043    0.000
 6715.00    1.32577   1.24496    0.000
 6716.00    1.15680   1.25184    0.000
 6717.00    1.14096   1.25546    0.000
 6718.00    1.12861   1.25564    0.000
 6719.00    1.19090   1.25347    0.000
 6720.00    1.24572   1.24871    0.000
 6721.00    1.15480   1.24886    0.000
 6722.00    1.07326   1.25003    0.000
 6723.00    1.09935   1.24333    0.000
 6724.00    1.14401   1.23370    0.000
 6725.00    1.33654   1.22251    0.000
 6726.00    1.50674   1.20499    0.000
 6727.00    1.54293   1.18820    0.000
 6728.00    1.54681   1.19313    0.000
 6729.00    1.39758   1.21642    0.000
 6730.00    1.26845   1.23049    0.000
 6731.00    1.21699   1.23003    0.000
 6732.00    1.15932   1.23086    0.000
 6733.00    1.08171   1.23815    0.000
 6734.00    1.03414   1.24143    0.000
 6735.00    1.06846   1.23578    0.000
 6736.00    1.13504   1.22989    0.000
 6737.00    1.27700   1.23367    0.000
 6738.00    1.36651   1.24085    0.000
 6739.00    1.35001   1.24468    0.000
 6740.00    1.30072   1.24673    0.000
 6741.00    1.19374   1.24551    0.000
 6742.00    1.08339   1.24212    0.000
 6743.00    0.96786   1.23968    0.000
 6744.00    0.91468   1.24071    0.000
 6745.00    0.94581   1.24304    0.000
 6746.00    0.98655   1.24444    0.000
 6747.00    1.03874   1.23995    0.000
 6748.00    1.05510   1.23113    0.000
 6749.00    1.03386   1.22681    0.000
 6750.00    1.00073   1.23055    0.000
 6751.00    0.95659   1.23359    0.000
 6752.00    1.07087   1.22688    0.000
 6753.00    1.31446   1.22068    0.004
 6754.00    1.39249   1.22649    0.004
 6755.00    1.35159   1.23447    0.004
 6756.00    1.21668   1.23431    0.004
 6757.00    1.02250   1.22944    0.004
 6758.00    0.90746   1.22270    0.004
 6759.00    0.83606   1.21314    0.004
 6760.00    0.94834   1.20841    0.004
 6761.00    1.14865   1.21489    0.004
 6762.00    1.22932   1.21927    0.004
 6763.00    1.26050   1.21886    0.005
 6764.00    1.27835   1.22644    0.005
 6765.00    1.29148   1.23538    0.005
 6766.00    1.31101   1.24098    0.005
 6767.00    1.33244   1.24559    0.004
 6768.00    1.27449   1.24924    0.004
 6769.00    1.19688   1.25131    0.005
 6770.00    1.11722   1.25223    0.004
 6771.00    1.03715   1.25035    0.004
 6772.00    1.13550   1.24625    0.004
 6773.00    1.26190   1.24730    0.004
 6774.00    1.23343   1.24914    0.004
 6775.00    1.18691   1.24446    0.004
 6776.00    1.11303   1.23199    0.004
 6777.00    1.03698   1.21877    0.004
 6778.00    1.22311   1.21816    0.004
 6779.00    1.42065   1.22646    0.004
 6780.00    1.40998   1.22688    0.004
 6781.00    1.39439   1.22292    0.004
 6782.00    1.25063   1.22797    0.004
 6783.00    1.11443   1.23847    0.004
 6784.00    1.11506   1.24875    0.004
 6785.00    1.10373   1.25478    0.004
 6786.00    0.96140   1.25671    0.004
 6787.00    0.84747   1.25698    0.004
 6788.00    0.95193   1.25850    0.004
 6789.00    1.05822   1.26006    0.004
 6790.00    1.17516   1.25617    0.004
 6791.00    1.26720   1.24800    0.004
 6792.00    1.24401   1.23450    0.004
 6793.00    1.21575   1.21942    0.004
 6794.00    1.16829   1.21144    0.004
 6795.00    1.14911   1.21369    0.004
 6796.00    1.21928   1.21925    0.004
 6797.00    1.29074   1.22668    0.004
 6798.00    1.36568   1.23421    0.004
 6799.00    1.42254   1.23575    0.004
 6800.00    1.43790   1.23286    0.004
 6801.00    1.43831   1.23331    0.004
 6802.00    1.40901   1.23288    0.004
 6803.00    1.33015   1.22742    0.004
 6804.00    1.16543   1.22512    0.004
 6805.00    1.00647   1.22797    0.004
 6806.00    0.85626   1.22995    0.004
 6807.00    0.82948   1.23214    0.004
 6808.00    0.96720   1.23294    0.004
 6809.00    1.10038   1.23475    0.004
 6810.00    1.22823   1.23855    0.004
 6811.00    1.32471   1.24235    0.004
 6812.00    1.38872   1.24400    0.004
 6813.00    1.42482   1.24039    0.004
 6814.00    1.43544   1.23513    0.004
 6815.00    1.37179   1.23493    0.004
 6816.00    1.24837   1.23316    0.004
 6817.00    1.19326   1.23033    0.004
 6818.00    1.18650   1.23427    0.004
 6819.00    1.25427   1.23478    0.004
 6820.00    1.36835   1.23051    0.004
 6821.00    1.31612   1.23345    0.004
 6822.00    1.17364   1.23845    0.004
 6823.00    1.10517   1.23771    0.004
 6824.00    1.07160   1.22978    0.004
 6825.00    1.14266   1.22486    0.004
 6826.00    1.25626   1.23102    0.004
 6827.00    1.27124   1.24002    0.004
 6828.00    1.25197   1.24084    0.004
 6829.00    1.11035   1.23355    0.004
 6830.00    0.93293   1.22823    0.004
 6831.00    0.96977   1.23274    0.004
 6832.00    1.05850   1.24230    0.004
 6833.00    1.08552   1.24693    0.004
 6834.00    1.10047   1.24668    0.004
 6835.00    1.15112   1.24654    0.004
 6836.00    1.20720   1.24535    0.004
 6837.00    1.35640   1.23537    0.004
 6838.00    1.51605   1.22321    0.004
 6839.00    1.42306   1.22368    0.004
 6840.00    1.31118   1.23461    0.004
 6841.00    1.13004   1.24358    0.004
 6842.00    0.94615   1.24238    0.004
 6843.00    0.94907   1.23930    0.004
 6844.00    0.95992   1.24343    0.004
 6845.00    1.23521   1.24746    0.004
 6846.00    1.47198   1.24599    0.004
 6847.00    1.05824   1.23999    0.004
 6848.00    0.68857   1.23046    0.004
 6849.00    0.78001   1.21893    0.004
 6850.00    0.86707   1.20831    0.004
 6851.00    0.92164   1.19706    0.004
 6852.00    0.96463   1.19551    0.004
 6853.00    0.94202   1.20708    0.004
 6854.00    0.93394   1.22410    0.004
 6855.00    0.99149   1.23648    0.004
 6856.00    1.03050   1.23740    0.004
 6857.00    1.00083   1.23481    0.004
 6858.00    0.96838   1.23590    0.004
 6859.00    0.92731   1.23635    0.004
 6860.00    0.90206   1.23585    0.004
 6861.00    0.91843   1.23549    0.004
 6862.00    0.92601   1.23580    0.004
 6863.00    0.91371   1.23315    0.004
 6864.00    0.99087   1.21926    0.004
 6865.00    1.24316   1.20441    0.004
 6866.00    1.34300   1.20500    0.004
 6867.00    1.18270   1.21308    0.004
 6868.00    1.05646   1.21732    0.004
 6869.00    0.98114   1.22017    0.004
 6870.00    0.94819   1.21571    0.004
 6871.00    0.97092   1.20449    0.004
 6872.00    1.03950   1.20526    0.004
 6873.00    1.16113   1.22261    0.004
 6874.00    1.22009   1.23921    0.004
 6875.00    1.21508   1.23986    0.004
 6876.00    1.23923   1.22967    0.004
 6877.00    1.28962   1.21849    0.004
 6878.00    1.19520   1.21090    0.004
 6879.00    0.98592   1.21565    0.004
 6880.00    0.86570   1.22460    0.004
 6881.00    0.80763   1.22066    0.004
 6882.00    0.82057   1.21191    0.004
 6883.00    0.87697   1.21428    0.004
 6884.00    0.89862   1.22118    0.004
 6885.00    0.90170   1.22257    0.004
 6886.00    0.95121   1.22764    0.004
 6887.00    1.02226   1.23684    0.004
 6888.00    1.02115   1.24417    0.004
 6889.00    0.99121   1.24414    0.004
 6890.00    0.95871   1.23975    0.004
 6891.00    0.92532   1.22889    0.004
 6892.00    1.01973   1.21516    0.004
 6893.00    1.15078   1.21305    0.004
 6894.00    1.18550   1.22149    0.004
 6895.00    1.19743   1.22768    0.004
 6896.00    1.17470   1.22520    0.004
 6897.00    1.14538   1.22713    0.004
 6898.00    1.24433   1.23817    0.004
 6899.00    1.36224   1.24501    0.004
 6900.00    1.35097   1.24596    0.004
 6901.00    1.32576   1.24997    0.004
 6902.00    1.31112   1.25047    0.004
 6903.00    1.29722   1.24515    0.004
 6904.00    1.17719   1.24167    0.004
 6905.00    1.05335   1.23936    0.004
 6906.00    1.08723   1.23760    0.004
 6907.00    1.11512   1.23754    0.004
 6908.00    0.91743   1.24088    0.004
 6909.00    0.73152   1.24122    0.004
 6910.00    0.73206   1.23390    0.004
 6911.00    0.73181   1.23169    0.004
 6912.00    0.72365   1.24008    0.004
 6913.00    0.72253   1.24660    0.004
 6914.00    0.77195   1.24542    0.004
 6915.00    0.83790   1.24200    0.004
 6916.00    0.99500   1.24521    0.004
 6917.00    1.12643   1.25404    0.004
 6918.00    1.14471   1.25811    0.004
 6919.00    1.15052   1.25730    0.004
 6920.00    1.11115   1.25309    0.004
 6921.00    1.08579   1.24741    0.004
 6922.00    1.10302   1.24415    0.004
 6923.00    1.16849   1.23432    0.004
 6924.00    1.35869   1.21986    0.004
 6925.00    1.45959   1.22071    0.004
 6926.00    1.36200   1.22717    0.004
 6927.00    1.29263   1.22922    0.004
 6928.00    1.27764   1.23523    0.004
 6929.00    1.23920   1.23967    0.004
 6930.00    1.16133   1.24289    0.004
 6931.00    1.12131   1.24810    0.004
 6932.00    1.13704   1.24958    0.004
 6933.00    1.10076   1.24206    0.004
 6934.00    0.99715   1.22656    0.004
 6935.00    0.97177   1.21860    0.004
 6936.00    1.03565   1.22260    0.004
 6937.00    1.08097   1.23528    0.004
 6938.00    1.10761   1.24657    0.004
 6939.00    1.17992   1.24983    0.004
 6940.00    1.29278   1.24857    0.004
 6941.00    1.26375   1.24494    0.004
 6942.00    1.12379   1.23870    0.004
 6943.00    1.08791   1.23105    0.004
 6944.00    1.12360   1.23412    0.004
 6945.00    1.15528   1.24346    0.004
 6946.00    1.18453   1.24639    0.004
 6947.00    1.15989   1.24467    0.004
 6948.00    1.10689   1.24296    0.004
 6949.00    1.11884   1.24548    0.004
 6950.00    1.16044   1.24995    0.004
 6951.00    1.08328   1.25268    0.004
 6952.00    0.95949   1.25125    0.004
 6953.00    0.88010   1.24385    0.004
 6954.00    0.81556   1.22849    0.004
 6955.00    0.87818   1.21521    0.004
 6956.00    0.97651   1.22327    0.004
 6957.00    0.91299   1.24168    0.004
 6958.00    0.81201   1.25303    0.004
 6959.00    0.92855   1.25579    0.004
 6960.00    1.08546   1.25117    0.004
 6961.00    1.15524   1.24157    0.004
 6962.00    1.21254   1.23694    0.004
 6963.00    1.21961   1.23627    0.004
 6964.00    1.22148   1.23434    0.004
 6965.00    1.12590   1.23630    0.004
 6966.00    1.02382   1.24440    0.004
 6967.00    0.89101   1.25058    0.004
 6968.00    0.75727   1.25195    0.004
 6969.00    0.84377   1.25114    0.004
 6970.00    0.92460   1.25138    0.004
 6971.00    0.83178   1.25383    0.004
 6972.00    0.73826   1.25630    0.004
 6973.00    0.63426   1.25837    0.004
 6974.00    0.56596   1.25805    0.004
 6975.00    0.84043   1.25318    0.004
 6976.00    1.07955   1.25020    0.004
 6977.00    1.07272   1.25325    0.004
 6978.00    1.06356   1.26068    0.004
 6979.00    1.04188   1.26298    0.004
 6980.00    1.03233   1.25795    0.004
 6981.00    1.07500   1.25169    0.004
 6982.00    1.07953   1.25250    0.004
 6983.00    0.94866   1.25845    0.004
 6984.00    0.84965   1.25828    0.004
 6985.00    0.84563   1.24833    0.004
 6986.00    0.86579   1.23435    0.004
 6987.00    0.94738   1.21660    0.004
 6988.00    1.04951   1.19145    0.004
 6989.00    1.19654   1.18279    0.004
 6990.00    1.25437   1.20530    0.004
 6991.00    1.14302   1.23495    0.004
 6992.00    1.11610   1.25286    0.004
 6993.00    1.22897   1.26132    0.004
 6994.00    1.32018   1.26412    0.004
 6995.00    1.37996   1.26346    0.004
 6996.00    1.26717   1.26312    0.004
 6997.00    0.93412   1.26150    0.004
 6998.00    0.76301   1.25356    0.004
 6999.00    0.77405   1.24289    0.004
 7000.00    0.90651   1.24109    0.004
 7001.00    1.15944   1.24902    0.004
 7002.00    1.24132   1.25814    0.004
 7003.00    1.17354   1.25958    0.004
 7004.00    1.13291   1.25378    0.004
 7005.00    1.11320   1.25104    0.004
 7006.00    1.16210   1.25425    0.004
 7007.00    1.25749   1.25801    0.004
 7008.00    1.19700   1.25342    0.004
 7009.00    1.04395   1.23963    0.004
 7010.00    0.98835   1.22953    0.004
 7011.00    0.98322   1.23450    0.004
 7012.00    0.99305   1.24707    0.004
 7013.00    1.00960   1.24948    0.004
 7014.00    1.06425   1.23826    0.004
 7015.00    1.13362   1.22931    0.004
 7016.00    1.13433   1.22971    0.004
 7017.00    1.11250   1.23630    0.004
 7018.00    1.01511   1.24448    0.004
 7019.00    0.89692   1.25175    0.004
 7020.00    0.98094   1.25368    0.004
 7021.00    1.11066   1.24883    0.004
 7022.00    1.17709   1.24598    0.004
 7023.00    1.23208   1.25000    0.004
 7024.00    1.13194   1.24919    0.004
 7025.00    1.01031   1.22984    0.004
 7026.00    1.14921   1.20089    0.004
 7027.00    1.31397   1.19704    0.004
 7028.00    1.38193   1.22451    0.004
 7029.00    1.44382   1.25088    0.004
 7030.00    1.18270   1.26262    0.004
 7031.00    0.91341   1.26428    0.004
 7032.00    0.90566   1.25679    0.004
 7033.00    0.89989   1.24087    0.004
 7034.00    0.94845   1.22792    0.004
 7035.00    0.99497   1.23005    0.004
 7036.00    1.01309   1.24256    0.004
 7037.00    1.02442   1.25034    0.004
 7038.00    0.97323   1.25185    0.004
 7039.00    0.91588   1.25440    0.004
 7040.00    0.81695   1.25955    0.004
 7041.00    0.77466   1.26308    0.004
 7042.00    1.02854   1.26136    0.004
 7043.00    1.25054   1.25711    0.004
 7044.00    1.33831   1.25396    0.004
 7045.00    1.37801   1.25629    0.004
 7046.00    1.25048   1.26134    0.004
 7047.00    1.15467   1.25434    0.004
 7048.00    1.15169   1.23447    0.004
 7049.00    1.12992   1.23076    0.004
 7050.00    1.06128   1.25549   -2.000
 7051.00    1.09541   1.28314   -2.000
 7052.00    1.35059   1.29765   -2.000
 7053.00    1.41340   1.29963   -2.000
 7054.00    1.11694   1.29120   -2.000
 7055.00    1.01358   1.28124   -2.000
 7056.00    1.22515   1.28150   -2.000
 7057.00    1.31661   1.29119   -2.000
 7058.00    1.23625   1.29918   -2.000
 7059.00    1.24164   1.29717   -2.000
 7060.00    1.35493   1.28985   -2.000
 7061.00    1.31457   1.28189   -2.000
 7062.00    1.10386   1.26578   -2.000
 7063.00    0.99255   1.24398   -2.000
 7064.00    0.97848   1.22832   -2.000
 7065.00    1.09307   1.22175   -2.000
 7066.00    1.31865   1.22521   -2.000
 7067.00    1.34894   1.23516   -2.000
 7068.00    1.23086   1.23882   -2.000
 7069.00    1.10562   1.22903   -2.000
 7070.00    0.97560   1.21479   -2.000
 7071.00    1.10083   1.20977   -2.000
 7072.00    1.37534   1.21478   -2.000
 7073.00    1.29549   1.22158   -2.000
 7074.00    1.03499   1.22893   -2.000
 7075.00    0.90112   1.23103   -2.000
 7076.00    0.82316   1.22317   -2.000
 7077.00    0.82341   1.21281   -2.000
 7078.00    0.85332   1.20234   -2.000
 7079.00    1.01564   1.20136   -2.000
 7080.00    1.22059   1.21519   -2.000
 7081.00    1.33266   1.23103   -2.000
 7082.00    1.41972   1.23914   -2.000
 7083.00    1.43209   1.24282   -2.000
 7084.00    1.42798   1.24495   -2.000
 7085.00    1.45682   1.24368   -2.000
 7086.00    1.49146   1.23993   -2.000
 7087.00    1.45840   1.23779   -2.000
 7088.00    1.41626   1.23928   -2.000
 7089.00    1.38047   1.24156   -2.000
 7090.00    1.34528   1.24369   -2.000
 7091.00    1.19358   1.24483   -2.000
 7092.00    1.03503   1.23985   -2.000
 7093.00    1.16323   1.22344   -2.000
 7094.00    1.29874   1.19832   -2.000
 7095.00    1.46806   1.18191   -2.000
 7096.00    1.61801   1.18387   -2.000
 7097.00    1.28654   1.18625   -2.000
 7098.00    0.98053   1.17871   -2.000
 7099.00    1.01270   1.16827   -2.000
 7100.00    1.02156   1.16031   -2.000
 7101.00    0.82374   1.15836   -2.000
 7102.00    0.67692   1.16380   -2.000
 7103.00    0.86325   1.16695   -2.000
 7104.00    1.03372   1.16740   -2.000
 7105.00    1.12339   1.16688   -2.000
 7106.00    1.19145   1.16597   -2.000
 7107.00    1.17053   1.16638   -2.000
 7108.00    1.15818   1.17087   -2.000
 7109.00    1.17505   1.18726   -2.000
 7110.00    1.21129   1.20017   -2.000
 7111.00    1.30316   1.20130   -2.000
 7112.00    1.28734   1.19446   -2.000
 7113.00    1.00731   1.18916   -2.000
 7114.00    0.86473   1.19285   -2.000
 7115.00    1.01304   1.20173   -2.000
 7116.00    1.12266   1.20461   -2.000
 7117.00    1.16115   1.20089   -2.000
 7118.00    1.14560   1.19987   -2.000
 7119.00    1.04322   1.20155   -2.000
 7120.00    1.03936   1.19660   -2.000
 7121.00    1.17437   1.18596   -2.000
 7122.00    1.27904   1.18221   -2.000
 7123.00    1.34610   1.19023   -2.000
 7124.00    1.41013   1.20031   -2.000
 7125.00    1.47084   1.20490   -2.000
 7126.00    1.40052   1.20855   -2.000
 7127.00    1.20385   1.21235   -2.000
 7128.00    1.06231   1.21369   -2.000
 7129.00    0.96764   1.21246   -2.000
 7130.00    1.01928   1.20981   -2.000
 7131.00    1.18049   1.20430   -2.000
 7132.00    1.27023   1.19639   -2.000
 7133.00    1.31295   1.19730   -2.000
 7134.00    1.07121   1.20521   -2.000
 7135.00    0.66562   1.20197   -2.000
 7136.00    0.70821   1.18673   -2.000
 7137.00    0.97569   1.17559   -2.000
 7138.00    1.02863   1.17413   -2.000
 7139.00    0.98840   1.17185   -2.000
 7140.00    1.18486   1.16039   -2.000
 7141.00    1.46949   1.14910   -2.000
 7142.00    1.51111   1.15268   -2.000
 7143.00    1.47597   1.16639   -2.000
 7144.00    1.48971   1.17960   -2.000
 7145.00    1.51634   1.18744   -2.000
 7146.00    1.61465   1.19021   -2.000
 7147.00    1.72841   1.19276   -2.000
 7148.00    1.60829   1.19114   -2.000
 7149.00    1.44819   1.18393   -2.000
 7150.00    1.33481   1.18170   -2.000
 7151.00    1.22747   1.18820   -2.000
 7152.00    1.49174   1.19410   -2.000
 7153.00    1.78976   1.19578   -2.000
 7154.00    1.57774   1.19633   -2.000
 7155.00    1.33782   1.19604   -2.000
 7156.00    1.19881   1.19406   -2.000
 7157.00    1.06275   1.18216   -2.000
 7158.00    1.00267   1.16110   -2.000
 7159.00    0.95088   1.15527   -2.000
 7160.00    1.08699   1.17113   -2.000
 7161.00    1.23370   1.18800   -2.000
 7162.00    1.51389   1.19929   -2.000
 7163.00    1.73250   1.20930   -2.000
 7164.00    1.42569   1.21353   -2.000
 7165.00    1.19069   1.21094   -2.000
 7166.00    1.41081   1.21203   -2.000
 7167.00    1.47471   1.22100   -2.000
 7168.00    0.76294   1.22535   -2.000
 7169.00    0.28661   1.21796   -2.000
 7170.00    0.75797   1.20747   -2.000
 7171.00    1.10017   1.20532   -2.000
 7172.00    1.01080   1.21022   -2.000
 7173.00    0.92001   1.20235   -2.000
 7174.00    0.82521   1.17689   -2.000
 7175.00    0.84218   1.15486   -2.000
 7176.00    1.12873   1.15777   -2.000
 7177.00    1.37461   1.18007   -2.000
 7178.00    1.53581   1.19772   -2.000
 7179.00    1.72475   1.20130   -2.000
 7180.00    1.96388   1.20001   -2.000
 7181.00    1.98568   1.20255   -2.000
 7182.00    1.66344   1.20930   -2.000
 7183.00    1.37281   1.21546   -2.000
 7184.00    1.12606   1.21497   -2.000
 7185.00    1.00639   1.20656   -2.000
 7186.00    1.04210   1.19629   -2.000
 7187.00    1.12801   1.19528   -2.000
 7188.00    1.26801   1.20317   -2.000
 7189.00    1.29732   1.20357   -2.000
 7190.00    1.22137   1.18893   -2.000
 7191.00    1.16500   1.17190   -2.000
 7192.00    1.12505   1.16959   -2.000
 7193.00    1.24266   1.18628   -2.000
 7194.00    1.47658   1.20635   -2.000
 7195.00    1.41225   1.21277   -2.000
 7196.00    1.15456   1.20321   -2.000
 7197.00    1.06160   1.18141   -2.000
 7198.00    1.06208   1.16099   -2.000
 7199.00    1.35770   1.15671   -2.000
 7200.00    1.79907   1.16827   -2.000
 7201.00    1.78526   1.18614   -2.000
 7202.00    1.57708   1.19526   -2.000
 7203.00    1.10821   1.19268   -2.000
 7204.00    0.54396   1.19220   -2.000
 7205.00    0.44734   1.19917   -2.000
 7206.00    0.49558   1.20167   -2.000
 7207.00    0.52859   1.19286   -2.000
 7208.00    0.55767   1.18697   -2.000
 7209.00    0.79574   1.19281   -2.000
 7210.00    1.07778   1.19975   -2.000
 7211.00    1.26333   1.19534   -2.000
 7212.00    1.43286   1.18172   -2.000
 7213.00    1.54356   1.17885   -2.000
 7214.00    1.64691   1.19414   -2.000
 7215.00    1.44096   1.20727   -2.000
 7216.00    1.20822   1.19802   -2.000
 7217.00    1.06224   1.16937   -2.000
 7218.00    0.92067   1.14924   -2.000
