###################################################################
## OUTPUT of StarlightChains_v04.for    [Cid@UFSC - 01/Apr/2007] ##
###################################################################

## Some input info
KUG0210-078._32_38.txt                   [arq_obs]
Base.CB07.vall.4m                        [arq_base]
Masks.EmLines.NEW.gm                     [arq_masks]
StCv04.C11.config                        [arq_config]
   66                                    [N_base]
    0                                    [N_YAV_components = # of components with extra extinction!]
    0                                    [i_FitPowerLaw (1/0 = Yes/No)]
-9.99                                    [alpha_PowerLaw]
CCM                                      [red_law_option]
 1.458241                                [q_norm = A(l_norm)/A(V)]

## (Re)Sampling Parameters
 3741.00                                 [l_ini (A)]
 7218.00                                 [l_fin (A)]
    1.00                                 [dl    (A)]     (OBS: dl_cushion =    50.00 A)

## Normalization info
 4020.00                                 [l_norm (A) - for base]
 4010.00                                 [llow_norm (A) - window for f_obs]
 4060.00                                 [lupp_norm (A) - window for f_obs]
2.416397E-17                             [fobs_norm (in input units)]

## S/N
 3691.00                                 [llow_SN (A) - window for S/N]
 7268.00                                 [lupp_SN (A) - window for S/N]
   5.251                                 [S/N in S/N window]
   4.469                                 [S/N in norm. window]
   0.034                                 [S/N_err in S/N window]
   0.029                                 [S/N_err in norm. window]
  1.0000                                 [fscale_chi2]

## etc...
    -2007486                             [idum_orig]
  2432                                   [NOl_eff]
  2412                                   [Nl_eff]
    20    NSIGMA                         [Ntot_cliped & clip_method]
  2175110                                [Nglobal_steps]
   7                                     [N_chains]
  25                                     [NEX0s_base = N_base in EX0s-fits]
 0   0   1       20   2.0   4.493E+03    [Clip-Bug, RC-Crash & Burn-In warning-flags, n_censored_weights, wei_nsig_threshold & wei_limit]
    60     59.333     58.563      0.771  [idt_all, wdt_TotTime, wdt_UsrTime & wdt_SysTime (sec)]

## Synthesis Results - Best model ##

 1.69960E-05                             [chi2/Nl_eff]
     7.79424                             [adev (%)]

   109.17349                             [sum-of-x (%)]
 1.55153E-17                             [Flux_tot (units of input spectrum!)]
 1.44278E-12                             [Mini_tot (???)]
 7.22737E-13                             [Mcor_tot (???)]

  -0.66                                  [v0_min  (km/s)]
 367.26                                  [vd_min  (km/s)]
-0.3952                                  [AV_min  (mag)]
 0.0000                                  [YAV_min (mag)]

# j     x_j(%)      Mini_j(%)     Mcor_j(%)     age_j(yr)     Z_j      (L/M)_j    YAV?  Mstars   component_j        a/Fe...       SSP_chi2r SSP_adev(%)   SSP_AV   SSP_x(%)
  1      0.0000     0.0000E+00    0.0000E+00    1.000000E+06  0.00400  1.094E-02    0   1.0000   age020_m42            0.0000     5.0598E-05    13.1452   3.6231    90.0180
  2      0.0000     0.0000E+00    0.0000E+00    3.160000E+06  0.00400  4.007E-02    0   0.9999   age045_m42            0.0000     4.2586E-05    11.8518   2.8840    96.7877
  3      0.0000     0.0000E+00    0.0000E+00    5.010000E+06  0.00400  2.539E-02    0   0.9488   age055_m42            0.0000     4.5908E-05    12.4755   3.2125    94.0736
  4      0.0000     0.0000E+00    0.0000E+00    6.610000E+06  0.00400  2.620E-02    0   0.9220   age061_m42            0.0000     4.2353E-05    11.8075   2.8123    96.9295
  5      0.0000     0.0000E+00    0.0000E+00    1.000000E+07  0.00400  1.322E-02    0   0.8862   age070_m42            0.0000     4.5612E-05    12.7528   2.5579    98.0435
  6      0.0000     0.0000E+00    0.0000E+00    1.445000E+07  0.00400  7.883E-03    0   0.8571   age078_m42            0.0000     4.7726E-05    13.0251   2.8840    95.5514
  7      0.0000     0.0000E+00    0.0000E+00    2.512000E+07  0.00400  5.251E-03    0   0.8174   age090_m42            0.0000     4.6033E-05    12.9228   2.4323    98.4788
  8      0.0000     0.0000E+00    0.0000E+00    4.000000E+07  0.00400  3.649E-03    0   0.7851   age104_m42            0.0000     4.3816E-05    12.5193   2.1980    99.5571
  9      0.0000     0.0000E+00    0.0000E+00    5.500000E+07  0.00400  3.098E-03    0   0.7629   age110_m42            0.0000     4.1822E-05    11.8331   2.3386   100.0561
 10      0.0000     0.0000E+00    0.0000E+00    1.015200E+08  0.00400  2.228E-03    0   0.7207   age116_m42            0.0000     4.0360E-05    11.3542   2.3488   100.6188
 11      0.0000     0.0000E+00    0.0000E+00    2.861200E+08  0.00400  1.093E-03    0   0.6648   age125_m42            0.0000     3.8349E-05    11.1903   1.7796   103.4993
 12      0.0000     0.0000E+00    0.0000E+00    5.088000E+08  0.00400  6.597E-04    0   0.6365   age130_m42            0.0000     3.5251E-05    10.3964   1.7539   104.9780
 13     25.1524     1.1621E+00    1.3450E+00    1.434000E+09  0.00400  2.132E-04    0   0.5798   age139_m42            0.0000     2.6337E-05     9.2353   0.7746   107.2677
 14      0.0000     0.0000E+00    0.0000E+00    4.250000E+09  0.00400  5.895E-05    0   0.5377   age158_m42            0.0000     2.2743E-05     8.7382   0.3142   103.6418
 15      0.0000     0.0000E+00    0.0000E+00    7.500000E+09  0.00400  3.510E-05    0   0.5212   age171_m42            0.0000     2.1361E-05     8.4411   0.1154   103.2303
 16      5.3032     2.6053E+00    2.6182E+00    1.300000E+10  0.00400  2.005E-05    0   0.5034   age193_m42            0.0000     2.0602E-05     8.2983  -0.0594   102.9194
 17      0.0000     0.0000E+00    0.0000E+00    1.800000E+10  0.00400  1.525E-05    0   0.4967   age213_m42            0.0000     2.1041E-05     8.3975  -0.0796   102.3859
 18      0.0000     0.0000E+00    0.0000E+00    1.000000E+06  0.00800  1.238E-02    0   1.0000   age020_m52            0.0000     5.0610E-05    13.1410   3.6186    90.2116
 19      0.0000     0.0000E+00    0.0000E+00    3.160000E+06  0.00800  3.074E-02    0   0.9966   age045_m52            0.0000     4.9719E-05    13.0562   3.5418    91.0152
 20      0.0000     0.0000E+00    0.0000E+00    5.010000E+06  0.00800  2.668E-02    0   0.9443   age055_m52            0.0000     4.6920E-05    12.6568   3.2979    93.0952
 21      0.3710     1.7108E-04    3.1342E-04    6.610000E+06  0.00800  2.136E-02    0   0.9177   age061_m52            0.0000     4.1932E-05    12.4196   2.0568    99.1670
 22      0.0000     0.0000E+00    0.0000E+00    1.000000E+07  0.00800  1.215E-02    0   0.8827   age070_m52            0.0000     4.8380E-05    13.3022   2.7434    97.5596
 23      0.0000     0.0000E+00    0.0000E+00    1.445000E+07  0.00800  8.717E-03    0   0.8552   age078_m52            0.0000     4.6965E-05    12.9412   2.8499    96.8874
 24      0.0000     0.0000E+00    0.0000E+00    2.512000E+07  0.00800  5.592E-03    0   0.8162   age090_m52            0.0000     4.6140E-05    12.9226   2.4944    99.7064
 25      0.0000     0.0000E+00    0.0000E+00    4.000000E+07  0.00800  3.896E-03    0   0.7841   age104_m52            0.0000     4.3702E-05    12.3875   2.3985   100.7813
 26      0.0000     0.0000E+00    0.0000E+00    1.015200E+08  0.00800  2.148E-03    0   0.7226   age116_m52            0.0000     3.9865E-05    11.5605   2.3222   101.1439
 27      0.0000     0.0000E+00    0.0000E+00    2.861200E+08  0.00800  9.925E-04    0   0.6683   age125_m52            0.0000     3.5277E-05    10.3742   1.8189   105.9830
 28      0.0000     0.0000E+00    0.0000E+00    9.047900E+08  0.00800  3.141E-04    0   0.6138   age135_m52            0.0000     2.5763E-05     8.6956   0.9911   111.3960
 29      0.0000     0.0000E+00    0.0000E+00    1.434000E+09  0.00800  1.719E-04    0   0.5853   age139_m52            0.0000     2.2427E-05     8.5158   0.4103   108.9186
 30      0.0000     0.0000E+00    0.0000E+00    2.500000E+09  0.00800  7.872E-05    0   0.5600   age150_m52            0.0000     1.9895E-05     8.0536   0.1222   106.6212
 31      5.0903     1.1564E+00    1.2526E+00    4.250000E+09  0.00800  4.336E-05    0   0.5426   age158_m52            0.0000     2.0045E-05     8.1131   0.1064   105.6096
 32      9.9261     3.0951E+00    3.2864E+00    6.250000E+09  0.00800  3.159E-05    0   0.5319   age166_m52            0.0000     1.8510E-05     7.9436  -0.1129   106.1170
 33      0.0000     0.0000E+00    0.0000E+00    1.300000E+10  0.00800  1.361E-05    0   0.5073   age193_m52            0.0000     1.7473E-05     7.9909  -0.6025   106.0768
 34      0.0000     0.0000E+00    0.0000E+00    1.800000E+10  0.00800  9.886E-06    0   0.4990   age213_m52            0.0000     1.7503E-05     8.1582  -0.7302   106.1707
 35      0.0000     0.0000E+00    0.0000E+00    1.000000E+06  0.02000  1.544E-02    0   1.0000   age020_m62            0.0000     5.0809E-05    13.1911   3.6172    90.3415
 36      2.8078     7.3517E-04    1.4468E-03    3.160000E+06  0.02000  3.762E-02    0   0.9858   age045_m62            0.0000     5.0576E-05    13.1621   3.5551    91.1416
 37      0.0000     0.0000E+00    0.0000E+00    5.010000E+06  0.02000  3.296E-02    0   0.9342   age055_m62            0.0000     4.4198E-05    12.1216   3.1657    95.4834
 38      0.0000     0.0000E+00    0.0000E+00    8.710000E+06  0.02000  1.154E-02    0   0.8861   age067_m62            0.0000     6.3152E-05    16.5317   2.2387    98.6297
 39      0.0000     0.0000E+00    0.0000E+00    1.445000E+07  0.02000  7.663E-03    0   0.8472   age078_m62            0.0000     5.0713E-05    13.9686   2.3999    99.3582
 40      0.0000     0.0000E+00    0.0000E+00    2.512000E+07  0.02000  4.532E-03    0   0.8099   age090_m62            0.0000     5.1177E-05    14.0469   2.3925    99.0447
 41      0.0000     0.0000E+00    0.0000E+00    5.500000E+07  0.02000  2.733E-03    0   0.7595   age110_m62            0.0000     4.3221E-05    12.3948   2.3821    99.9737
 42      0.0000     0.0000E+00    0.0000E+00    1.609000E+08  0.02000  1.369E-03    0   0.6985   age120_m62            0.0000     3.8689E-05    11.0805   2.1966   103.7105
 43      0.0000     0.0000E+00    0.0000E+00    2.861200E+08  0.02000  9.013E-04    0   0.6714   age125_m62            0.0000     3.5951E-05    10.3384   1.9326   107.2800
 44      0.0000     0.0000E+00    0.0000E+00    5.088000E+08  0.02000  5.028E-04    0   0.6449   age130_m62            0.0000     3.0288E-05     9.1508   1.5278   111.1302
 45      0.0000     0.0000E+00    0.0000E+00    9.047900E+08  0.02000  2.428E-04    0   0.6179   age135_m62            0.0000     2.2892E-05     8.2956   0.9250   110.8465
 46      0.0000     0.0000E+00    0.0000E+00    1.434000E+09  0.02000  1.263E-04    0   0.5908   age139_m62            0.0000     2.0520E-05     8.1205   0.4750   109.2723
 47      0.0000     0.0000E+00    0.0000E+00    2.500000E+09  0.02000  5.985E-05    0   0.5673   age150_m62            0.0000     1.8960E-05     8.1090   0.0886   108.4011
 48      0.0000     0.0000E+00    0.0000E+00    4.250000E+09  0.02000  3.271E-05    0   0.5468   age158_m62            0.0000     1.7680E-05     8.1587  -0.2426   108.3091
 49      0.0000     0.0000E+00    0.0000E+00    1.000000E+10  0.02000  1.360E-05    0   0.5167   age181_m62            0.0000     1.7875E-05     8.3705  -0.6242   108.8859
 50     27.6405     3.8218E+01    3.8246E+01    1.800000E+10  0.02000  7.124E-06    0   0.5013   age213_m62            0.0000     1.9482E-05     8.7972  -0.8630   108.9053
 51      0.0000     0.0000E+00    0.0000E+00    1.000000E+06  0.05000  2.592E-02    0   0.9998   age020_m72            0.0000     5.1617E-05    13.3087   3.6090    90.3133
 52      0.0000     0.0000E+00    0.0000E+00    3.160000E+06  0.05000  4.845E-02    0   0.9577   age045_m72            0.0000     4.7768E-05    12.7419   3.4309    92.6153
 53      0.0000     0.0000E+00    0.0000E+00    5.010000E+06  0.05000  3.072E-02    0   0.9147   age055_m72            0.0000     5.0289E-05    13.4387   2.9690    95.9509
 54      0.0000     0.0000E+00    0.0000E+00    6.610000E+06  0.05000  1.455E-02    0   0.8877   age061_m72            0.0000     7.5917E-05    18.4595   2.2770    99.1245
 55      0.0000     0.0000E+00    0.0000E+00    1.000000E+07  0.05000  9.074E-03    0   0.8524   age070_m72            0.0000     5.2661E-05    13.6425   3.1379    95.8101
 56      0.0000     0.0000E+00    0.0000E+00    2.512000E+07  0.05000  4.250E-03    0   0.7902   age090_m72            0.0000     4.8565E-05    13.0696   2.8425    97.7944
 57      0.0000     0.0000E+00    0.0000E+00    4.000000E+07  0.05000  3.087E-03    0   0.7618   age104_m72            0.0000     4.8253E-05    13.0559   2.6164    99.4417
 58      0.0000     0.0000E+00    0.0000E+00    1.015200E+08  0.05000  1.700E-03    0   0.7096   age116_m72            0.0000     4.1283E-05    11.6218   2.3451   103.0072
 59      0.0000     0.0000E+00    0.0000E+00    2.861200E+08  0.05000  7.384E-04    0   0.6633   age125_m72            0.0000     3.3297E-05     9.6674   1.7850   109.3770
 60      0.0000     0.0000E+00    0.0000E+00    5.088000E+08  0.05000  3.819E-04    0   0.6372   age130_m72            0.0000     2.6073E-05     8.6800   1.2698   111.9510
 61      0.0000     0.0000E+00    0.0000E+00    9.047900E+08  0.05000  1.676E-04    0   0.6110   age135_m72            0.0000     1.9997E-05     8.3558   0.5454   110.6443
 62      8.6148     9.6024E-01    1.1260E+00    1.434000E+09  0.05000  8.837E-05    0   0.5874   age139_m72            0.0000     1.8722E-05     8.0759   0.0790   110.3139
 63      0.0000     0.0000E+00    0.0000E+00    2.500000E+09  0.05000  4.233E-05    0   0.5598   age150_m72            0.0000     1.7731E-05     8.2467  -0.2550   109.6631
 64      0.0000     0.0000E+00    0.0000E+00    6.250000E+09  0.05000  1.435E-05    0   0.5249   age166_m72            0.0000     1.8351E-05     8.5354  -0.7321   108.8099
 65      0.0000     0.0000E+00    0.0000E+00    1.300000E+10  0.05000  6.513E-06    0   0.5036   age193_m72            0.0000     2.1139E-05     8.9612  -1.0000   109.4614
 66     24.2675     5.2803E+01    5.2125E+01    1.800000E+10  0.05000  4.527E-06    0   0.4945   age213_m72            0.0000     2.6290E-05     9.1962  -1.0000   104.2788


## Synthesis Results - Average & Chains ##

# j      x_j: min, <> & last-chain-values for 1 ...  7 chains
  1      0.0000      0.6772      0.2683      0.2184      0.1172      0.3068      0.2050      0.3525      0.1482
  2      0.0000      0.7112      0.0000      0.0000      0.0455      0.0000      0.0000      0.0000      0.0005
  3      0.0000      0.7492      0.0154      0.0656      0.1289      0.9820      0.0000      0.1297      0.1771
  4      0.0000      0.7286      0.0000      0.0000      0.0000      0.0770      0.1466      0.0000      0.0000
  5      0.0000      0.5710      0.0006      0.0000      0.0485      0.0877      0.2891      0.0000      0.0000
  6      0.0000      0.9214      0.0487      0.2668      0.0000      0.0000      0.4468      0.1787      0.0324
  7      0.0000      0.7736      0.0036      0.0000      0.0078      0.0177      0.0522      0.0000      0.0000
  8      0.0000      0.7394      0.0011      0.0103      0.1952      0.3078      0.0954      0.3122      0.0988
  9      0.0000      0.7660      0.0022      0.0000      0.0839      0.0000      0.0000      0.0000      0.0000
 10      0.0000      0.6886      0.0000      0.0712      0.0905      0.1858      0.0000      0.0000      0.0000
 11      0.0000      0.9350      0.0000      0.0000      0.2639      0.0000      0.1608      0.0000      0.0000
 12      0.0000      0.6542      0.0000      0.2945      0.1519      0.3332      0.1010      0.0000      0.0000
 13     25.1524      0.5636      0.0000      0.7021      0.0902      0.0741      0.9585      0.1586      0.1756
 14      0.0000      1.6713      1.8486      2.5013      2.3420      2.0317      1.9370      2.0708      2.5510
 15      0.0000      5.7150      8.8221      7.9764      8.2900      7.5167      7.8956      8.5797      8.5899
 16      5.3032     13.9042     22.1868     21.4213     21.7168     20.8773     20.5997     21.6896     21.6245
 17      0.0000      6.3778     10.0321     10.1294      9.9091      8.8640      9.8201      9.9017      9.2730
 18      0.0000      0.6716      0.2713      0.0000      0.1630      0.2576      0.0385      0.2812      0.2591
 19      0.0000      1.2456      0.5272      0.8359      0.4653      0.7185      0.0000      0.5172      0.2404
 20      0.0000      1.0762      1.0974      0.8898      1.1528      0.7156      1.1412      1.1044      1.0808
 21      0.3710      0.5256      0.0269      0.4585      0.1092      0.0220      0.8558      0.1725      0.0000
 22      0.0000      0.7712      0.0413      0.0000      0.0108      0.4221      0.0000      0.0000      0.0000
 23      0.0000      1.0084      0.1775      0.0324      0.0405      0.0000      0.0888      0.0000      0.2005
 24      0.0000      0.8923      0.0201      0.0000      0.1041      0.1445      1.1833      0.0000      0.0214
 25      0.0000      0.6084      0.0000      0.1649      0.1829      0.0994      0.1883      0.0316      0.5121
 26      0.0000      0.5881      0.0000      0.0000      0.0000      0.0898      0.0000      0.0169      0.0015
 27      0.0000      0.8112      0.0000      0.0000      0.0000      0.0736      0.0000      0.0000      0.0000
 28      0.0000      0.8960      0.0000      0.0050      0.1090      0.0000      0.0765      0.0000      0.2743
 29      0.0000      0.7078      0.0088      0.0102      0.0809      0.5115      0.0000      0.0000      0.0000
 30      0.0000      0.8363      0.0000      0.3870      0.3120      0.0108      0.0000      0.0000      0.0000
 31      5.0903      0.7682      0.0078      0.4726      0.0000      0.0201      0.0749      0.0000      0.0000
 32      9.9261      0.7414      0.0017      0.6102      0.0547      0.1293      0.2209      0.0000      0.0017
 33      0.0000      0.5679      0.1251      0.0000      0.1608      0.1473      0.3877      0.2820      0.7846
 34      0.0000      1.0696      0.0586      0.2453      0.1526      0.3009      0.4139      0.2294      0.6279
 35      0.0000      0.8701      0.2064      0.2196      0.3264      0.3347      0.3872      0.0000      0.1906
 36      2.8078      0.7865      0.4957      0.4612      0.5273      0.0918      0.0112      0.4582      0.5117
 37      0.0000      0.6994      0.0000      0.0000      0.1038      0.0000      0.4572      0.3895      0.0000
 38      0.0000      1.2188      0.8476      0.3488      0.6745      1.0535      0.8998      0.8718      0.9033
 39      0.0000      0.6300      0.0897      0.0000      0.1524      0.2560      0.3560      0.0396      0.1166
 40      0.0000      1.0231      0.1108      0.0181      0.0000      0.0000      0.0549      0.1433      0.1412
 41      0.0000      0.5483      0.0000      0.4084      0.0394      0.1858      0.0000      0.0340      0.0527
 42      0.0000      0.5199      0.0000      0.1699      0.0551      0.1047      0.0000      0.0000      0.0000
 43      0.0000      0.8448      0.0000      0.0000      0.1039      0.6852      0.4433      0.0000      0.0000
 44      0.0000      0.9080      0.0000      0.0000      0.0843      0.0486      0.7517      0.4247      0.0000
 45      0.0000      0.8885      0.0000      0.0000      0.0949      0.2348      0.1995      0.0000      0.0015
 46      0.0000      0.7202      0.0040      0.0000      0.0000      0.0000      0.2336      0.0000      0.0000
 47      0.0000      1.7892      2.2116      1.8125      1.7751      1.0088      2.3275      1.4092      2.0171
 48      0.0000      0.7255      0.0000      0.0000      0.1391      0.2954      0.0000      0.0000      0.2917
 49      0.0000      0.5633      0.0000      0.0293      0.0613      0.0448      0.0767      0.0000      0.0000
 50     27.6405      0.7376      0.0000      1.1627      0.2613      0.2791      0.2171      0.0000      0.0236
 51      0.0000      0.7381      0.4983      0.4390      0.2264      0.5354      0.6357      0.4848      0.4491
 52      0.0000      0.8944      0.5703      0.4971      0.4932      0.0000      0.4975      0.2849      0.7571
 53      0.0000      0.5493      0.5632      0.4456      0.2773      0.3595      0.4019      0.4887      0.4572
 54      0.0000      0.4921      0.6424      0.2969      0.6666      0.5418      0.1484      0.3836      0.6154
 55      0.0000      1.1554      0.4177      0.2839      0.2815      0.4958      0.5511      0.3400      0.0358
 56      0.0000      0.9989      0.1280      0.0000      0.0000      0.3295      0.2722      0.0699      0.0632
 57      0.0000      0.6035      0.0518      0.0396      0.3483      0.2187      0.0047      0.0847      0.0443
 58      0.0000      0.6879      0.0000      0.0830      0.0693      0.2424      0.1091      0.0044      0.0000
 59      0.0000      0.7703      0.0000      0.0000      0.5033      0.1222      0.0140      0.0000      0.0000
 60      0.0000      0.3837      0.0023      0.2543      0.0000      0.0000      0.0000      0.0000      0.0000
 61      0.0000     27.1173     43.7849     44.0607     43.7551     43.2145     39.9011     46.3239     43.8337
 62      8.6148      6.3014     11.0386      8.6051      9.1162      9.2440      9.0251      8.2953      9.2044
 63      0.0000      0.7789      0.0007      0.0000      0.0145      0.3901      0.0000      0.5620      0.4629
 64      0.0000      0.6599      0.0000      0.0000      0.1280      0.9584      0.9758      0.0000      0.3674
 65      0.0000      0.7812      0.0067      0.0981      0.0550      0.4830      0.6760      0.2335      0.0256
 66     24.2675      0.7902      0.2835      0.2876      0.5918      0.3246      0.7936      0.4223      0.2830

# j      m_j: min, <> & last-chain-values for 1 ...  7 chains
  1  0.0000E+00  5.1414E-03  1.8508E-03  1.4254E-03  7.8459E-04  2.0951E-03  1.3020E-03  2.3943E-03  9.9802E-04
  2  0.0000E+00  1.4741E-03  0.0000E+00  0.0000E+00  8.3129E-05  0.0000E+00  0.0000E+00  0.0000E+00  8.6635E-07
  3  0.0000E+00  2.3251E-03  4.3426E-05  1.7505E-04  3.5263E-04  2.7415E-03  0.0000E+00  3.6002E-04  4.8763E-04
  4  0.0000E+00  2.1295E-03  0.0000E+00  0.0000E+00  0.0000E+00  2.0232E-04  3.5855E-04  0.0000E+00  0.0000E+00
  5  0.0000E+00  3.1792E-03  2.8905E-06  0.0000E+00  2.3811E-04  4.3895E-04  1.3467E-03  0.0000E+00  0.0000E+00
  6  0.0000E+00  8.3208E-03  3.9975E-04  2.0711E-03  0.0000E+00  0.0000E+00  3.3762E-03  1.4440E-03  2.5974E-04
  7  0.0000E+00  1.0001E-02  4.2640E-05  0.0000E+00  8.8392E-05  2.0571E-04  5.6462E-04  0.0000E+00  0.0000E+00
  8  0.0000E+00  1.3212E-02  1.7823E-05  1.5804E-04  3.0749E-03  4.9471E-03  1.4259E-03  4.9908E-03  1.5667E-03
  9  0.0000E+00  1.5667E-02  4.1260E-05  0.0000E+00  1.5134E-03  0.0000E+00  0.0000E+00  0.0000E+00  1.8541E-08
 10  0.0000E+00  1.8500E-02  0.0000E+00  1.6441E-03  2.1448E-03  4.4902E-03  0.0000E+00  0.0000E+00  0.0000E+00
 11  0.0000E+00  4.7231E-02  0.0000E+00  0.0000E+00  1.1756E-02  0.0000E+00  6.7989E-03  0.0000E+00  0.0000E+00
 12  0.0000E+00  5.2423E-02  0.0000E+00  2.0289E-02  1.0735E-02  2.4013E-02  6.7742E-03  0.0000E+00  0.0000E+00
 13  1.3450E+00  1.2730E-01  0.0000E+00  1.3634E-01  1.7973E-02  1.5060E-02  1.8115E-01  3.2048E-02  3.5182E-02
 14  0.0000E+00  1.2661E+00  1.2722E+00  1.6291E+00  1.5644E+00  1.3844E+00  1.2278E+00  1.4034E+00  1.7142E+00
 15  0.0000E+00  7.0481E+00  9.8842E+00  8.4570E+00  9.0146E+00  8.3383E+00  8.1476E+00  9.4658E+00  9.3971E+00
 16  2.6182E+00  2.8994E+01  4.2031E+01  3.8402E+01  3.9929E+01  3.9158E+01  3.5943E+01  4.0461E+01  4.0000E+01
 17  0.0000E+00  1.7253E+01  2.4654E+01  2.3557E+01  2.3635E+01  2.1568E+01  2.2228E+01  2.3962E+01  2.2251E+01
 18  0.0000E+00  4.5053E-03  1.6534E-03  0.0000E+00  9.6423E-04  1.5545E-03  2.1616E-04  1.6877E-03  1.5417E-03
 19  0.0000E+00  3.3538E-03  1.2897E-03  1.9350E-03  1.1046E-03  1.7403E-03  0.0000E+00  1.2459E-03  5.7426E-04
 20  0.0000E+00  3.1635E-03  2.9308E-03  2.2487E-03  2.9878E-03  1.8921E-03  2.8069E-03  2.9043E-03  2.8184E-03
 21  3.1342E-04  1.8756E-03  8.7305E-05  1.4067E-03  3.4349E-04  7.0485E-05  2.5552E-03  5.5056E-04  0.0000E+00
 22  0.0000E+00  4.6530E-03  2.2658E-04  0.0000E+00  5.7522E-05  2.2908E-03  0.0000E+00  0.0000E+00  0.0000E+00
 23  0.0000E+00  8.2164E-03  1.3141E-03  2.2665E-04  2.9110E-04  0.0000E+00  6.0562E-04  0.0000E+00  1.4494E-03
 24  0.0000E+00  1.0817E-02  2.2106E-04  0.0000E+00  1.1130E-03  1.5754E-03  1.2002E-02  0.0000E+00  2.3023E-04
 25  0.0000E+00  1.0170E-02  0.0000E+00  2.3698E-03  2.6949E-03  1.4951E-03  2.6333E-03  4.7247E-04  7.5928E-03
 26  0.0000E+00  1.6432E-02  0.0000E+00  0.0000E+00  0.0000E+00  2.2565E-03  0.0000E+00  4.2152E-04  3.6967E-05
 27  0.0000E+00  4.5365E-02  0.0000E+00  0.0000E+00  0.0000E+00  3.7004E-03  0.0000E+00  0.0000E+00  0.0000E+00
 28  0.0000E+00  1.4541E-01  0.0000E+00  6.9109E-04  1.5603E-02  0.0000E+00  1.0388E-02  0.0000E+00  3.9484E-02
 29  0.0000E+00  2.0017E-01  2.2522E-03  2.4838E-03  2.0161E-02  1.3012E-01  0.0000E+00  0.0000E+00  0.0000E+00
 30  0.0000E+00  4.9408E-01  0.0000E+00  1.9657E-01  1.6253E-01  5.7510E-03  0.0000E+00  0.0000E+00  0.0000E+00
 31  1.2526E+00  7.9844E-01  7.3741E-03  4.2228E-01  0.0000E+00  1.8816E-02  6.5145E-02  0.0000E+00  0.0000E+00
 32  3.2864E+00  1.0368E+00  2.1382E-03  7.3359E-01  6.7475E-02  1.6266E-01  2.5846E-01  0.0000E+00  2.0866E-03
 33  0.0000E+00  1.7582E+00  3.5197E-01  0.0000E+00  4.3889E-01  4.1012E-01  1.0044E+00  7.8100E-01  2.1545E+00
 34  0.0000E+00  4.4838E+00  2.2310E-01  8.8406E-01  5.6421E-01  1.1348E+00  1.4520E+00  8.6026E-01  2.3348E+00
 35  0.0000E+00  4.6804E-03  1.0088E-03  1.0154E-03  1.5483E-03  1.6194E-03  1.7429E-03  0.0000E+00  9.0937E-04
 36  1.4468E-03  1.7117E-03  9.8004E-04  8.6293E-04  1.0118E-03  1.7964E-04  2.0350E-05  8.9205E-04  9.8794E-04
 37  0.0000E+00  1.6464E-03  0.0000E+00  0.0000E+00  2.1552E-04  0.0000E+00  9.0055E-04  8.2021E-04  0.0000E+00
 38  0.0000E+00  7.7728E-03  4.9109E-03  1.9122E-03  3.7929E-03  6.0433E-03  4.8013E-03  4.9735E-03  5.1101E-03
 39  0.0000E+00  5.7846E-03  7.4857E-04  0.0000E+00  1.2335E-03  2.1145E-03  2.7350E-03  3.2526E-04  9.4990E-04
 40  0.0000E+00  1.5185E-02  1.4941E-03  2.3091E-04  0.0000E+00  0.0000E+00  6.8153E-04  1.9024E-03  1.8589E-03
 41  0.0000E+00  1.2656E-02  0.0000E+00  8.1035E-03  8.0243E-04  3.8566E-03  0.0000E+00  7.0235E-04  1.0793E-03
 42  0.0000E+00  2.2032E-02  0.0000E+00  6.1913E-03  2.0606E-03  3.9923E-03  0.0000E+00  0.0000E+00  0.0000E+00
 43  0.0000E+00  5.2266E-02  0.0000E+00  0.0000E+00  5.6699E-03  3.8133E-02  2.2950E-02  0.0000E+00  0.0000E+00
 44  0.0000E+00  9.6726E-02  0.0000E+00  0.0000E+00  7.9203E-03  4.6605E-03  6.7002E-02  4.0474E-02  0.0000E+00
 45  0.0000E+00  1.8780E-01  0.0000E+00  0.0000E+00  1.7690E-02  4.4643E-02  3.5275E-02  0.0000E+00  2.8615E-04
 46  0.0000E+00  2.7980E-01  1.4156E-03  0.0000E+00  0.0000E+00  0.0000E+00  7.5949E-02  0.0000E+00  0.0000E+00
 47  0.0000E+00  1.4086E+00  1.5818E+00  1.2267E+00  1.2322E+00  7.1435E-01  1.5332E+00  9.9246E-01  1.4086E+00
 48  0.0000E+00  1.0072E+00  0.0000E+00  0.0000E+00  1.7033E-01  3.6896E-01  0.0000E+00  0.0000E+00  3.5923E-01
 49  0.0000E+00  1.7775E+00  0.0000E+00  7.9611E-02  1.7048E-01  1.2712E-01  2.0257E-01  0.0000E+00  0.0000E+00
 50  3.8246E+01  4.3110E+00  0.0000E+00  5.8419E+00  1.3464E+00  1.4672E+00  1.0615E+00  0.0000E+00  1.2219E-01
 51  0.0000E+00  2.3645E-03  1.4504E-03  1.2091E-03  6.3950E-04  1.5429E-03  1.7041E-03  1.3895E-03  1.2763E-03
 52  0.0000E+00  1.4683E-03  8.5052E-04  7.0156E-04  7.1386E-04  0.0000E+00  6.8339E-04  4.1842E-04  1.1026E-03
 53  0.0000E+00  1.3583E-03  1.2654E-03  9.4736E-04  6.0461E-04  7.9958E-04  8.3158E-04  1.0810E-03  1.0030E-03
 54  0.0000E+00  2.4934E-03  2.9573E-03  1.2934E-03  2.9783E-03  2.4694E-03  6.2918E-04  1.7391E-03  2.7662E-03
 55  0.0000E+00  9.0142E-03  2.9606E-03  1.9045E-03  1.9364E-03  3.4795E-03  3.5977E-03  2.3733E-03  2.4792E-04
 56  0.0000E+00  1.5425E-02  1.7951E-03  0.0000E+00  0.0000E+00  4.5769E-03  3.5167E-03  9.6595E-04  8.6590E-04
 57  0.0000E+00  1.2370E-02  9.6480E-04  6.9744E-04  6.2945E-03  4.0323E-03  8.0681E-05  1.5535E-03  8.0528E-04
 58  0.0000E+00  2.3849E-02  0.0000E+00  2.4726E-03  2.1183E-03  7.5582E-03  3.1661E-03  1.3656E-04  0.0000E+00
 59  0.0000E+00  5.7470E-02  0.0000E+00  0.0000E+00  3.3106E-02  8.1991E-03  8.7409E-04  0.0000E+00  0.0000E+00
 60  0.0000E+00  5.3176E-02  2.8960E-04  3.0295E-02  0.0000E+00  0.0000E+00  0.0000E+00  0.0000E+00  0.0000E+00
 61  0.0000E+00  8.2106E+00  1.2044E+01  1.1469E+01  1.1681E+01  1.1769E+01  1.0109E+01  1.2548E+01  1.1773E+01
 62  1.1260E+00  3.4788E+00  5.5363E+00  4.0841E+00  4.4374E+00  4.5903E+00  4.1690E+00  4.0968E+00  4.5075E+00
 63  0.0000E+00  8.5555E-01  7.0609E-04  0.0000E+00  1.4063E-02  3.8541E-01  0.0000E+00  5.5220E-01  4.5098E-01
 64  0.0000E+00  2.0049E+00  0.0000E+00  0.0000E+00  3.4279E-01  2.6190E+00  2.4806E+00  0.0000E+00  9.9012E-01
 65  0.0000E+00  5.0170E+00  3.9228E-02  5.4189E-01  3.1141E-01  2.7900E+00  3.6327E+00  1.3416E+00  1.4596E-01
 66  5.2125E+01  7.1690E+00  2.3364E+00  2.2430E+00  4.7340E+00  2.6486E+00  6.0243E+00  3.4277E+00  2.2775E+00

# AV, chi2 & Mass for <> & i_chain = 1 ...  7 solutions
AV      -0.3952      0.3010      0.3044      0.2863      0.3077      0.3333      0.3042      0.3060      0.2910
chi2 1.6996E-05  3.8749E-05  2.1165E-05  2.0941E-05  2.1089E-05  2.1322E-05  2.1310E-05  2.1100E-05  2.1015E-05
Mass 7.2274E-13  4.3592E-13  4.8198E-13  4.9711E-13  4.9885E-13  5.0606E-13  5.2322E-13  4.9053E-13  4.8484E-13
  -0.66                                  [v0_min (km/s) before EX0s...]
 367.26                                  [vd_min (km/s) before EX0s...]


## Synthetic spectrum (Best Model) ##l_obs f_obs f_syn wei
 3478    [Nl_obs]
 3741.00    0.42885   0.48055    0.000
 3742.00    0.43375   0.48027    0.000
 3743.00    0.44845   0.47753    0.000
 3744.00    0.42613   0.47327    0.000
 3745.00    0.38225   0.46891    0.059
 3746.00    0.42760   0.46478    0.058
 3747.00    0.51826   0.46402    0.057
 3748.00    0.47392   0.46533    0.056
 3749.00    0.37021   0.47071    0.056
 3750.00    0.37070   0.48019    0.056
 3751.00    0.41054   0.49299    0.055
 3752.00    0.44533   0.50717    0.054
 3753.00    0.47851   0.52073    0.054
 3754.00    0.50054   0.53371    0.054
 3755.00    0.51958   0.54402    0.053
 3756.00    0.55177   0.55112    0.054
 3757.00    0.58683   0.55466    0.054
 3758.00    0.49423   0.55583    0.053
 3759.00    0.37934   0.55652    0.053
 3760.00    0.33913   0.55649    0.056
 3761.00    0.30884   0.55603    0.061
 3762.00    0.37585   0.55557    0.056
 3763.00    0.45201   0.55576    0.051
 3764.00    0.54548   0.55675    0.052
 3765.00    0.63995   0.56007    0.053
 3766.00    0.64562   0.56398    0.054
 3767.00    0.64879   0.56944    0.055
 3768.00    0.60361   0.57738    0.054
 3769.00    0.56288   0.58727    0.053
 3770.00    0.63029   0.59791    0.054
 3771.00    0.68367   0.61023    0.054
 3772.00    0.55311   0.62407    0.052
 3773.00    0.43503   0.63819    0.051
 3774.00    0.42651   0.65215    0.050
 3775.00    0.42617   0.66573    0.049
 3776.00    0.47885   0.67877    0.050
 3777.00    0.51862   0.69062    0.051
 3778.00    0.49308   0.70029    0.051
 3779.00    0.47188   0.70771    0.051
 3780.00    0.46846   0.71242    0.051
 3781.00    0.46564   0.71309    0.052
 3782.00    0.46482   0.71013    0.051
 3783.00    0.44563   0.70354    0.051
 3784.00    0.37393   0.69360    0.051
 3785.00    0.35799   0.68049    0.052
 3786.00    0.47828   0.66414    0.052
 3787.00    0.58002   0.64746    0.052
 3788.00    0.64267   0.62999    0.053
 3789.00    0.66648   0.61293    0.053
 3790.00    0.61917   0.59629    0.053
 3791.00    0.55425   0.58134    0.053
 3792.00    0.46117   0.56752    0.052
 3793.00    0.39688   0.55500    0.051
 3794.00    0.37302   0.54523    0.051
 3795.00    0.35071   0.53818    0.050
 3796.00    0.33031   0.53528    0.050
 3797.00    0.33164   0.53558    0.050
 3798.00    0.35662   0.53982    0.050
 3799.00    0.43991   0.54836    0.051
 3800.00    0.57923   0.56054    0.053
 3801.00    0.65929   0.57511    0.054
 3802.00    0.68915   0.59026    0.055
 3803.00    0.66995   0.60597    0.055
 3804.00    0.61415   0.62011    0.054
 3805.00    0.56899   0.63221    0.053
 3806.00    0.53081   0.64151    0.054
 3807.00    0.40710   0.64756    0.052
 3808.00    0.23429   0.65120    0.050
 3809.00    0.25341   0.65137    0.050
 3810.00    0.36845   0.64837    0.051
 3811.00    0.46980   0.64189    0.052
 3812.00    0.56524   0.63305    0.053
 3813.00    0.56573   0.62160    0.053
 3814.00    0.53101   0.60924    0.053
 3815.00    0.45861   0.59608    0.052
 3816.00    0.37435   0.58257    0.051
 3817.00    0.38670   0.56989    0.051
 3818.00    0.42437   0.55706    0.051
 3819.00    0.48867   0.54442    0.051
 3820.00    0.55868   0.53178    0.051
 3821.00    0.57715   0.52055    0.051
 3822.00    0.58688   0.50978    0.051
 3823.00    0.56235   0.49927    0.050
 3824.00    0.53343   0.48802    0.050
 3825.00    0.49631   0.47751    0.050
 3826.00    0.45845   0.46725    0.051
 3827.00    0.48622   0.45760    0.051
 3828.00    0.51751   0.44810    0.051
 3829.00    0.42849   0.43921    0.051
 3830.00    0.33771   0.43097    0.051
 3831.00    0.30258   0.42379    0.051
 3832.00    0.27189   0.41750    0.050
 3833.00    0.33998   0.41351    0.051
 3834.00    0.40390   0.41201    0.051
 3835.00    0.41606   0.41352    0.051
 3836.00    0.43089   0.41836    0.052
 3837.00    0.46828   0.42621    0.052
 3838.00    0.52006   0.43719    0.053
 3839.00    0.66233   0.45108    0.054
 3840.00    0.73651   0.46773    0.055
 3841.00    0.47471   0.48557    0.053
 3842.00    0.25439   0.50502    0.052
 3843.00    0.20011   0.52354    0.052
 3844.00    0.13841   0.54100    0.053
 3845.00    0.05211   0.55657    0.052
 3846.00    0.04747   0.56960    0.053
 3847.00    0.27215   0.58044    0.000
 3848.00    0.42086   0.58828    0.000
 3849.00    0.38714   0.59347    0.000
 3850.00    0.36277   0.59601    0.000
 3851.00    0.35781   0.59731    0.000
 3852.00    0.34272   0.59669    0.000
 3853.00    0.30936   0.59470    0.000
 3854.00    0.26763   0.59163    0.000
 3855.00    0.21270   0.58880    0.000
 3856.00    0.21184   0.58575    0.000
 3857.00    0.28582   0.58413    0.000
 3858.00    0.39295   0.58339    0.000
 3859.00    0.54045   0.58383    0.000
 3860.00    0.68988   0.58591    0.000
 3861.00    0.84138   0.58941    0.000
 3862.00    0.81412   0.59366    0.000
 3863.00    0.61751   0.59763    0.000
 3864.00    0.45037   0.60081    0.000
 3865.00    0.30785   0.60305    0.000
 3866.00    0.33602   0.60405    0.000
 3867.00    0.48972   0.60418    0.000
 3868.00    0.60022   0.60271    0.000
 3869.00    0.68282   0.60090    0.000
 3870.00    0.66611   0.59789    0.000
 3871.00    0.59328   0.59519    0.000
 3872.00    0.51580   0.59203    0.000
 3873.00    0.43605   0.58948    0.000
 3874.00    0.39071   0.58679    0.000
 3875.00    0.36001   0.58404    0.000
 3876.00    0.34900   0.58022    0.000
 3877.00    0.34516   0.57610    0.000
 3878.00    0.35420   0.57106    0.000
 3879.00    0.36720   0.56625    0.000
 3880.00    0.34649   0.56138    0.000
 3881.00    0.31711   0.55598    0.049
 3882.00    0.43313   0.55098    0.050
 3883.00    0.57955   0.54695    0.051
 3884.00    0.62596   0.54459    0.052
 3885.00    0.65588   0.54318    0.053
 3886.00    0.64681   0.54395    0.053
 3887.00    0.63290   0.54767    0.054
 3888.00    0.58294   0.55454    0.053
 3889.00    0.52989   0.56349    0.053
 3890.00    0.54914   0.57542    0.053
 3891.00    0.57199   0.58847    0.053
 3892.00    0.53702   0.60265    0.053
 3893.00    0.50235   0.61625    0.052
 3894.00    0.54850   0.62930    0.053
 3895.00    0.59479   0.64118    0.054
 3896.00    0.64392   0.65158    0.053
 3897.00    0.69534   0.66131    0.053
 3898.00    0.77382   0.66867    0.052
 3899.00    0.82998   0.67568    0.050
 3900.00    0.70428   0.68154    0.049
 3901.00    0.58127   0.68799    0.047
 3902.00    0.47463   0.69413    0.045
 3903.00    0.39227   0.70054    0.044
 3904.00    0.42676   0.70832    0.043
 3905.00    0.45527   0.71668    0.043
 3906.00    0.46036   0.72583    0.044
 3907.00    0.47088   0.73617    0.045
 3908.00    0.49906   0.74619    0.045
 3909.00    0.52319   0.75577    0.046
 3910.00    0.53612   0.76337    0.046
 3911.00    0.54235   0.76932    0.047
 3912.00    0.53274   0.77225    0.048
 3913.00    0.54395   0.77237    0.049
 3914.00    0.59767   0.76874    0.049
 3915.00    0.62375   0.76263    0.050
 3916.00    0.60074   0.75299    0.051
 3917.00    0.58488   0.74120    0.051
 3918.00    0.58013   0.72729    0.051
 3919.00    0.62506   0.71151    0.051
 3920.00    0.73778   0.69453    0.051
 3921.00    0.76997   0.67608    0.052
 3922.00    0.70546   0.65704    0.053
 3923.00    0.65032   0.63617    0.053
 3924.00    0.60510   0.61436    0.053
 3925.00    0.61028   0.59079    0.053
 3926.00    0.66252   0.56600    0.053
 3927.00    0.65206   0.54078    0.054
 3928.00    0.58995   0.51550    0.054
 3929.00    0.49726   0.49200    0.054
 3930.00    0.38241   0.47089    0.053
 3931.00    0.34357   0.45397    0.053
 3932.00    0.35310   0.44198    0.053
 3933.00    0.41337   0.43598    0.054
 3934.00    0.50187   0.43640    0.056
 3935.00    0.54616   0.44318    0.056
 3936.00    0.56905   0.45584    0.055
 3937.00    0.56428   0.47310    0.055
 3938.00    0.54795   0.49418    0.056
 3939.00    0.53599   0.51749    0.056
 3940.00    0.52559   0.54234    0.056
 3941.00    0.56315   0.56720    0.055
 3942.00    0.61521   0.59196    0.055
 3943.00    0.52660   0.61584    0.055
 3944.00    0.40267   0.63855    0.055
 3945.00    0.47106   0.66025    0.055
 3946.00    0.57866   0.68037    0.055
 3947.00    0.60066   0.69852    0.056
 3948.00    0.60896   0.71417    0.056
 3949.00    0.65629   0.72777    0.055
 3950.00    0.70827   0.73827    0.054
 3951.00    0.77876   0.74565    0.054
 3952.00    0.85075   0.74883    0.054
 3953.00    0.75064   0.74818    0.054
 3954.00    0.64261   0.74331    0.054
 3955.00    0.56882   0.73380    0.054
 3956.00    0.49851   0.71923    0.054
 3957.00    0.58684   0.70042    0.054
 3958.00    0.67112   0.67732    0.054
 3959.00    0.67859   0.65046    0.054
 3960.00    0.68484   0.62025    0.000
 3961.00    0.67735   0.58785    0.000
 3962.00    0.67314   0.55459    0.000
 3963.00    0.69474   0.52228    0.000
 3964.00    0.70343   0.49177    0.000
 3965.00    0.63562   0.46507    0.000
 3966.00    0.56394   0.44331    0.000
 3967.00    0.47413   0.42837    0.000
 3968.00    0.41430   0.42096    0.000
 3969.00    0.46937   0.42211    0.000
 3970.00    0.50897   0.43166    0.000
 3971.00    0.49917   0.44947    0.000
 3972.00    0.49583   0.47437    0.000
 3973.00    0.50997   0.50526    0.000
 3974.00    0.57075   0.54037    0.000
 3975.00    0.73981   0.57829    0.000
 3976.00    0.85958   0.61705    0.000
 3977.00    0.88036   0.65531    0.000
 3978.00    0.86463   0.69194    0.000
 3979.00    0.78507   0.72590    0.000
 3980.00    0.75215   0.75675    0.000
 3981.00    0.79062   0.78418    0.057
 3982.00    0.83269   0.80827    0.057
 3983.00    0.87961   0.82951    0.057
 3984.00    0.94033   0.84808    0.058
 3985.00    1.01739   0.86436    0.058
 3986.00    1.00164   0.87865    0.059
 3987.00    0.88896   0.89103    0.058
 3988.00    0.86475   0.90190    0.058
 3989.00    0.92203   0.91134    0.057
 3990.00    0.95076   0.91893    0.057
 3991.00    0.95630   0.92608    0.057
 3992.00    0.99154   0.93140    0.057
 3993.00    1.04798   0.93673    0.056
 3994.00    1.03408   0.94053    0.056
 3995.00    0.97606   0.94480    0.057
 3996.00    0.97102   0.94819    0.057
 3997.00    0.99501   0.95212    0.056
 3998.00    1.11054   0.95553    0.056
 3999.00    1.26967   0.95922    0.055
 4000.00    1.24735   0.96244    0.056
 4001.00    1.15045   0.96523    0.057
 4002.00    1.07583   0.96773    0.057
 4003.00    1.00904   0.97004    0.056
 4004.00    1.01947   0.97235    0.056
 4005.00    1.05279   0.97506    0.056
 4006.00    1.11364   0.97856    0.056
 4007.00    1.18126   0.98352    0.056
 4008.00    1.30640   0.98903    0.056
 4009.00    1.44298   0.99597    0.056
 4010.00    1.23354   1.00295    0.055
 4011.00    0.97033   1.01103    0.054
 4012.00    0.85161   1.01832    0.053
 4013.00    0.74952   1.02596    0.052
 4014.00    0.91720   1.03222    0.053
 4015.00    1.10575   1.03810    0.053
 4016.00    1.08837   1.04242    0.053
 4017.00    1.06231   1.04598    0.054
 4018.00    1.05825   1.04795    0.053
 4019.00    1.05298   1.04933    0.053
 4020.00    0.98622   1.04904    0.053
 4021.00    0.92849   1.04805    0.053
 4022.00    1.02998   1.04547    0.054
 4023.00    1.14352   1.04211    0.054
 4024.00    1.38672   1.03717    0.054
 4025.00    1.58184   1.03121    0.055
 4026.00    1.41191   1.02409    0.055
 4027.00    1.24481   1.01609    0.056
 4028.00    1.09405   1.00769    0.055
 4029.00    0.97463   0.99931    0.055
 4030.00    0.99888   0.99213    0.056
 4031.00    0.98842   0.98625    0.056
 4032.00    0.84778   0.98324    0.055
 4033.00    0.77072   0.98213    0.054
 4034.00    0.89295   0.98397    0.054
 4035.00    1.00000   0.98704    0.055
 4036.00    1.06667   0.99149    0.056
 4037.00    1.08710   0.99533    0.056
 4038.00    1.00192   0.99829    0.055
 4039.00    0.90836   0.99908    0.055
 4040.00    0.79824   0.99788    0.055
 4041.00    0.80248   0.99454    0.055
 4042.00    1.00372   0.98975    0.056
 4043.00    1.09968   0.98450    0.056
 4044.00    1.03680   0.97950    0.057
 4045.00    0.99599   0.97620    0.056
 4046.00    0.98445   0.97461    0.056
 4047.00    0.98371   0.97546    0.056
 4048.00    0.99557   0.97782    0.057
 4049.00    1.02813   0.98146    0.058
 4050.00    1.08200   0.98528    0.058
 4051.00    1.02167   0.98849    0.058
 4052.00    0.85765   0.99052    0.057
 4053.00    0.82693   0.99049    0.057
 4054.00    0.90292   0.98886    0.057
 4055.00    0.90013   0.98497    0.056
 4056.00    0.84189   0.97985    0.056
 4057.00    0.98725   0.97344    0.056
 4058.00    1.25838   0.96658    0.058
 4059.00    1.27965   0.95975    0.057
 4060.00    1.16609   0.95312    0.056
 4061.00    1.01091   0.94772    0.056
 4062.00    0.83622   0.94309    0.055
 4063.00    0.84782   0.94063    0.056
 4064.00    0.93469   0.93891    0.056
 4065.00    0.82523   0.93937    0.055
 4066.00    0.64807   0.94017    0.053
 4067.00    0.73814   0.94252    0.054
 4068.00    0.90581   0.94445    0.055
 4069.00    0.92309   0.94712    0.055
 4070.00    0.90424   0.94885    0.054
 4071.00    0.99559   0.95081    0.054
 4072.00    1.10828   0.95199    0.054
 4073.00    1.15301   0.95368    0.054
 4074.00    1.18750   0.95538    0.055
 4075.00    1.08350   0.95828    0.058
 4076.00    0.96417   0.96215    0.062
 4077.00    0.99527   0.96779    0.064
 4078.00    1.03738   0.97485    0.066
 4079.00    1.32066   0.98363    0.067
 4080.00    1.61318   0.99348    0.067
 4081.00    1.43049   1.00434    0.067
 4082.00    1.25034   1.01533    0.067
 4083.00    1.26513   1.02630    0.067
 4084.00    1.28281   1.03620    0.068
 4085.00    1.34821   1.04497    0.066
 4086.00    1.38649   1.05148    0.064
 4087.00    1.14572   1.05580    0.058
 4088.00    0.93352   1.05686    0.053
 4089.00    0.93103   1.05484    0.053
 4090.00    0.91573   1.04904    0.052
 4091.00    0.82861   1.03972    0.052
 4092.00    0.80336   1.02696    0.000
 4093.00    1.05492   1.01104    0.000
 4094.00    1.23500   0.99306    0.000
 4095.00    1.15253   0.97327    0.000
 4096.00    1.05933   0.95361    0.000
 4097.00    0.93313   0.93426    0.000
 4098.00    0.85308   0.91742    0.000
 4099.00    0.89364   0.90309    0.000
 4100.00    0.92484   0.89310    0.000
 4101.00    0.93499   0.88699    0.000
 4102.00    0.96580   0.88577    0.000
 4103.00    1.03680   0.88838    0.000
 4104.00    1.07249   0.89509    0.000
 4105.00    1.04824   0.90445    0.000
 4106.00    1.02072   0.91605    0.000
 4107.00    0.98830   0.92852    0.000
 4108.00    0.92138   0.94141    0.000
 4109.00    0.80937   0.95384    0.000
 4110.00    0.83811   0.96536    0.000
 4111.00    1.02883   0.97583    0.000
 4112.00    1.10927   0.98485    0.000
 4113.00    1.07774   0.99261    0.056
 4114.00    1.13197   0.99892    0.056
 4115.00    1.26297   1.00390    0.056
 4116.00    1.27838   1.00773    0.056
 4117.00    1.20258   1.01025    0.055
 4118.00    1.21026   1.01204    0.055
 4119.00    1.27587   1.01274    0.056
 4120.00    1.22867   1.01301    0.055
 4121.00    1.11283   1.01245    0.054
 4122.00    1.02084   1.01129    0.054
 4123.00    0.94152   1.00962    0.055
 4124.00    0.85054   1.00677    0.055
 4125.00    0.75419   1.00387    0.054
 4126.00    0.92040   0.99932    0.055
 4127.00    1.19087   0.99542    0.056
 4128.00    1.19808   0.99003    0.056
 4129.00    1.11619   0.98627    0.055
 4130.00    1.01510   0.98181    0.054
 4131.00    0.90856   0.97965    0.053
 4132.00    0.90891   0.97760    0.053
 4133.00    0.93435   0.97767    0.053
 4134.00    0.93231   0.97832    0.053
 4135.00    0.92508   0.97975    0.053
 4136.00    1.05658   0.98151    0.054
 4137.00    1.20834   0.98221    0.055
 4138.00    1.12353   0.98259    0.054
 4139.00    1.01359   0.98117    0.054
 4140.00    1.05459   0.97903    0.054
 4141.00    1.10603   0.97562    0.054
 4142.00    1.12229   0.97174    0.054
 4143.00    1.13733   0.96774    0.054
 4144.00    1.20372   0.96415    0.053
 4145.00    1.26684   0.96175    0.053
 4146.00    1.21859   0.95983    0.053
 4147.00    1.16075   0.95936    0.053
 4148.00    0.95454   0.95905    0.052
 4149.00    0.77546   0.96017    0.051
 4150.00    0.86394   0.96104    0.051
 4151.00    0.93945   0.96356    0.051
 4152.00    0.92285   0.96577    0.052
 4153.00    0.90806   0.96964    0.052
 4154.00    0.90318   0.97362    0.051
 4155.00    0.91294   0.97899    0.051
 4156.00    0.98674   0.98497    0.051
 4157.00    1.01779   0.99140    0.051
 4158.00    0.89511   0.99849    0.049
 4159.00    0.81646   1.00480    0.049
 4160.00    0.87071   1.01089    0.050
 4161.00    0.93325   1.01507    0.051
 4162.00    1.01707   1.01814    0.051
 4163.00    1.10508   1.01885    0.051
 4164.00    1.20233   1.01756    0.051
 4165.00    1.24772   1.01416    0.051
 4166.00    1.19379   1.00890    0.052
 4167.00    1.11713   1.00217    0.052
 4168.00    1.00247   0.99423    0.052
 4169.00    0.89214   0.98617    0.052
 4170.00    0.78815   0.97759    0.051
 4171.00    0.73123   0.96987    0.051
 4172.00    0.73493   0.96253    0.050
 4173.00    0.82372   0.95697    0.051
 4174.00    1.00908   0.95301    0.053
 4175.00    1.07535   0.95099    0.053
 4176.00    1.02242   0.95064    0.054
 4177.00    0.99075   0.95196    0.053
 4178.00    0.97785   0.95445    0.052
 4179.00    1.02512   0.95837    0.052
 4180.00    1.11920   0.96266    0.052
 4181.00    1.08353   0.96755    0.052
 4182.00    0.95914   0.97212    0.051
 4183.00    0.96399   0.97695    0.051
 4184.00    1.04631   0.98120    0.053
 4185.00    1.15669   0.98512    0.053
 4186.00    1.28175   0.98832    0.053
 4187.00    1.31499   0.99037    0.054
 4188.00    1.30659   0.99210    0.054
 4189.00    1.22909   0.99290    0.053
 4190.00    1.12464   0.99263    0.053
 4191.00    1.01047   0.99106    0.052
 4192.00    0.89307   0.98820    0.051
 4193.00    0.85353   0.98475    0.051
 4194.00    0.83570   0.97974    0.051
 4195.00    0.88371   0.97456    0.052
 4196.00    0.94683   0.96899    0.053
 4197.00    0.89228   0.96463    0.053
 4198.00    0.81610   0.96120    0.053
 4199.00    0.85196   0.95990    0.053
 4200.00    0.90367   0.96088    0.053
 4201.00    0.95261   0.96397    0.053
 4202.00    1.00127   0.96921    0.053
 4203.00    0.95003   0.97652    0.052
 4204.00    0.89227   0.98522    0.051
 4205.00    0.88270   0.99425    0.051
 4206.00    0.87475   1.00377    0.052
 4207.00    0.96279   1.01216    0.052
 4208.00    1.04496   1.02001    0.052
 4209.00    0.95496   1.02595    0.052
 4210.00    0.88464   1.03079    0.053
 4211.00    1.10082   1.03408    0.053
 4212.00    1.29149   1.03666    0.053
 4213.00    1.24096   1.03776    0.052
 4214.00    1.20013   1.03797    0.051
 4215.00    1.22601   1.03707    0.052
 4216.00    1.22867   1.03488    0.052
 4217.00    1.10788   1.03230    0.051
 4218.00    1.00874   1.02695    0.050
 4219.00    1.00207   1.02005    0.049
 4220.00    0.98742   1.01017    0.049
 4221.00    0.94461   0.99910    0.049
 4222.00    0.93084   0.98598    0.049
 4223.00    1.00311   0.97283    0.050
 4224.00    1.03609   0.96050    0.051
 4225.00    0.96993   0.95001    0.050
 4226.00    0.91115   0.94273    0.049
 4227.00    0.86841   0.93896    0.049
 4228.00    0.86902   0.94032    0.049
 4229.00    0.95140   0.94489    0.048
 4230.00    0.98917   0.95222    0.047
 4231.00    0.95351   0.96162    0.046
 4232.00    0.93055   0.97184    0.046
 4233.00    0.92592   0.98249    0.045
 4234.00    0.94681   0.99334    0.045
 4235.00    1.00011   1.00454    0.046
 4236.00    1.02049   1.01442    0.046
 4237.00    1.00402   1.02513    0.045
 4238.00    1.02805   1.03473    0.046
 4239.00    1.09206   1.04409    0.046
 4240.00    1.08486   1.05228    0.046
 4241.00    1.01569   1.05946    0.046
 4242.00    1.01491   1.06483    0.046
 4243.00    1.06655   1.06753    0.046
 4244.00    1.06317   1.06862    0.047
 4245.00    1.02272   1.06674    0.047
 4246.00    0.94534   1.06227    0.047
 4247.00    0.84615   1.05591    0.048
 4248.00    0.90129   1.04814    0.048
 4249.00    1.03588   1.04044    0.048
 4250.00    1.10135   1.03222    0.049
 4251.00    1.13599   1.02560    0.049
 4252.00    1.09104   1.02056    0.049
 4253.00    1.01556   1.01712    0.048
 4254.00    0.96634   1.01478    0.047
 4255.00    0.92568   1.01506    0.046
 4256.00    0.88424   1.01717    0.045
 4257.00    0.84259   1.02143    0.045
 4258.00    0.93849   1.02578    0.046
 4259.00    1.06520   1.03094    0.047
 4260.00    1.07839   1.03646    0.048
 4261.00    1.07127   1.04159    0.048
 4262.00    1.01534   1.04691    0.048
 4263.00    0.95275   1.04987    0.048
 4264.00    0.92461   1.05077    0.048
 4265.00    0.89985   1.04811    0.047
 4266.00    0.97055   1.04337    0.047
 4267.00    1.04710   1.03508    0.048
 4268.00    0.93490   1.02522    0.047
 4269.00    0.81783   1.01455    0.047
 4270.00    0.74395   1.00387    0.046
 4271.00    0.67620   0.99451    0.045
 4272.00    0.77051   0.98743    0.046
 4273.00    0.85872   0.98477    0.047
 4274.00    0.86314   0.98419    0.047
 4275.00    0.86844   0.98685    0.047
 4276.00    0.88179   0.99209    0.047
 4277.00    0.90373   0.99885    0.047
 4278.00    0.98284   1.00532    0.048
 4279.00    1.06068   1.01125    0.049
 4280.00    1.13186   1.01455    0.050
 4281.00    1.18393   1.01669    0.051
 4282.00    1.15622   1.01672   -2.000
 4283.00    1.11775   1.01397   -2.000
 4284.00    1.04213   1.01012   -2.000
 4285.00    0.93819   1.00318   -2.000
 4286.00    0.75193   0.99598   -2.000
 4287.00    0.70229   0.98777   -2.000
 4288.00    0.99149   0.97940   -2.000
 4289.00    1.19606   0.97036   -2.000
 4290.00    1.21969   0.96116   -2.000
 4291.00    1.27388   0.95336   -2.000
 4292.00    1.38483   0.94456   -2.000
 4293.00    1.36760   0.93621   -2.000
 4294.00    1.14247   0.92521   -2.000
 4295.00    0.98897   0.91395   -2.000
 4296.00    0.93737   0.90172   -2.000
 4297.00    0.92825   0.88780   -2.000
 4298.00    0.97230   0.87391    0.050
 4299.00    0.96529   0.85901    0.050
 4300.00    0.90195   0.84554    0.050
 4301.00    0.87558   0.83387    0.050
 4302.00    0.88518   0.82432    0.049
 4303.00    0.85418   0.81692    0.049
 4304.00    0.78834   0.81361    0.050
 4305.00    0.79616   0.81362    0.050
 4306.00    0.85963   0.81779    0.049
 4307.00    0.89593   0.82704    0.049
 4308.00    0.91418   0.84026    0.050
 4309.00    0.83206   0.85973    0.050
 4310.00    0.69159   0.88309    0.049
 4311.00    0.84582   0.91083    0.049
 4312.00    1.14940   0.94050    0.050
 4313.00    1.10319   0.97147    0.049
 4314.00    0.90348   1.00196    0.048
 4315.00    0.97765   1.02975    0.047
 4316.00    1.15499   1.05592    0.048
 4317.00    1.16531   1.07531    0.048
 4318.00    1.12224   1.09007    0.048
 4319.00    1.13812   1.09770    0.048
 4320.00    1.16977   1.10198    0.049
 4321.00    1.20153   1.10030    0.049
 4322.00    1.23331   1.09787    0.049
 4323.00    1.14542   1.09269    0.049
 4324.00    1.03672   1.08786    0.050
 4325.00    0.98186   1.08491    0.049
 4326.00    0.93413   1.08380    0.049
 4327.00    1.09708   1.08729    0.049
 4328.00    1.27972   1.09153    0.050
 4329.00    1.22659   1.09671    0.049
 4330.00    1.15998   1.10008    0.000
 4331.00    1.21496   1.10223    0.000
 4332.00    1.27227   1.10265    0.000
 4333.00    1.27215   1.09949    0.000
 4334.00    1.26401   1.09393    0.000
 4335.00    1.06366   1.08537    0.000
 4336.00    0.87756   1.07541    0.000
 4337.00    0.87710   1.06330    0.000
 4338.00    0.88731   1.05263    0.000
 4339.00    0.99066   1.04496    0.000
 4340.00    1.08887   1.03956    0.000
 4341.00    1.15387   1.03899    0.000
 4342.00    1.19752   1.04275    0.000
 4343.00    1.13348   1.04955    0.000
 4344.00    1.06465   1.05757    0.000
 4345.00    0.97630   1.06851    0.000
 4346.00    0.92746   1.07929    0.000
 4347.00    1.01230   1.08949    0.000
 4348.00    1.09967   1.09933    0.000
 4349.00    1.19429   1.10845    0.000
 4350.00    1.26899   1.11586    0.000
 4351.00    1.29511   1.12099    0.048
 4352.00    1.27486   1.12652    0.047
 4353.00    1.15709   1.13366    0.047
 4354.00    1.07932   1.14157    0.047
 4355.00    1.07468   1.14941    0.047
 4356.00    1.14241   1.15856    0.048
 4357.00    1.32574   1.16822    0.048
 4358.00    1.43712   1.17770    0.048
 4359.00    1.44760   1.18620    0.048
 4360.00    1.45967   1.19530    0.048
 4361.00    1.47370   1.20346    0.048
 4362.00    1.42410   1.20999    0.048
 4363.00    1.30529   1.21368    0.047
 4364.00    1.22793   1.21571    0.047
 4365.00    1.19033   1.21576    0.047
 4366.00    1.15120   1.21237    0.046
 4367.00    1.11080   1.20671    0.046
 4368.00    1.11633   1.19909    0.046
 4369.00    1.15609   1.19133    0.046
 4370.00    1.19126   1.18177    0.046
 4371.00    1.22342   1.17173    0.045
 4372.00    1.15102   1.16134    0.045
 4373.00    1.01873   1.15023    0.045
 4374.00    1.03627   1.13837    0.045
 4375.00    1.12856   1.12668    0.046
 4376.00    1.15852   1.11539    0.046
 4377.00    1.16158   1.10472    0.046
 4378.00    1.14028   1.09304    0.046
 4379.00    1.10996   1.08085    0.046
 4380.00    1.10006   1.06858    0.045
 4381.00    1.09656   1.05721    0.045
 4382.00    1.06528   1.04737    0.044
 4383.00    1.02674   1.03807    0.044
 4384.00    1.00776   1.03337    0.044
 4385.00    0.99297   1.03317    0.044
 4386.00    1.03496   1.03755    0.045
 4387.00    1.08655   1.04381    0.045
 4388.00    1.10635   1.05212    0.044
 4389.00    1.12210   1.06280    0.044
 4390.00    1.12424   1.07432    0.043
 4391.00    1.12516   1.08674    0.043
 4392.00    1.16580   1.09932    0.043
 4393.00    1.20855   1.11082    0.044
 4394.00    1.22110   1.12008    0.044
 4395.00    1.23154   1.12725    0.045
 4396.00    1.11806   1.13285    0.044
 4397.00    1.01010   1.13685    0.044
 4398.00    1.02360   1.13682    0.045
 4399.00    1.03651   1.13473    0.046
 4400.00    1.04223   1.13041    0.044
 4401.00    1.04250   1.12549    0.043
 4402.00    0.99696   1.12203    0.044
 4403.00    0.96385   1.11800    0.044
 4404.00    1.00853   1.11368    0.045
 4405.00    1.05500   1.11203    0.045
 4406.00    1.11027   1.11486    0.044
 4407.00    1.16033   1.11937    0.044
 4408.00    1.18962   1.12485    0.044
 4409.00    1.18994   1.13275    0.044
 4410.00    1.09417   1.14247    0.044
 4411.00    1.03361   1.15183    0.044
 4412.00    1.07169   1.16083    0.044
 4413.00    1.12299   1.16913    0.044
 4414.00    1.20600   1.17575    0.045
 4415.00    1.24948   1.18054    0.045
 4416.00    1.21118   1.18694    0.044
 4417.00    1.19212   1.19262    0.044
 4418.00    1.20768   1.19723    0.044
 4419.00    1.22965   1.20164    0.044
 4420.00    1.26170   1.20436    0.045
 4421.00    1.26874   1.20568    0.045
 4422.00    1.24122   1.20563    0.044
 4423.00    1.21487   1.20529    0.044
 4424.00    1.18994   1.20559    0.044
 4425.00    1.18983   1.20445    0.044
 4426.00    1.21634   1.20291    0.044
 4427.00    1.23153   1.20125    0.045
 4428.00    1.23602   1.19943    0.045
 4429.00    1.23608   1.19840    0.045
 4430.00    1.23245   1.19556    0.045
 4431.00    1.24674   1.19458    0.045
 4432.00    1.27417   1.19501    0.045
 4433.00    1.29590   1.19494    0.045
 4434.00    1.31394   1.19546    0.045
 4435.00    1.25735   1.19692    0.046
 4436.00    1.15867   1.20023    0.045
 4437.00    1.18064   1.20598    0.045
 4438.00    1.26185   1.21124    0.045
 4439.00    1.30424   1.21727    0.045
 4440.00    1.33014   1.22211    0.045
 4441.00    1.27614   1.22653    0.045
 4442.00    1.19309   1.23069    0.045
 4443.00    1.15854   1.23475    0.046
 4444.00    1.13891   1.23909    0.046
 4445.00    1.22309   1.24282    0.045
 4446.00    1.33384   1.24499    0.044
 4447.00    1.39334   1.24364    0.044
 4448.00    1.44216   1.24105    0.045
 4449.00    1.41961   1.23705    0.045
 4450.00    1.38534   1.22915    0.046
 4451.00    1.27621   1.22056    0.045
 4452.00    1.15786   1.21090    0.043
 4453.00    1.14532   1.19939    0.044
 4454.00    1.14178   1.18788    0.044
 4455.00    1.08038   1.17592    0.044
 4456.00    1.01613   1.16754    0.044
 4457.00    1.09029   1.16063    0.044
 4458.00    1.16508   1.15562    0.044
 4459.00    1.14115   1.15290    0.044
 4460.00    1.11414   1.15301    0.044
 4461.00    1.02509   1.15604    0.000
 4462.00    0.95714   1.16022    0.000
 4463.00    1.13730   1.16955    0.000
 4464.00    1.29689   1.17919    0.000
 4465.00    1.28970   1.18923    0.000
 4466.00    1.27400   1.20088    0.000
 4467.00    1.20646   1.21266    0.000
 4468.00    1.15260   1.22564    0.000
 4469.00    1.16433   1.23684    0.000
 4470.00    1.18328   1.24930    0.000
 4471.00    1.23040   1.26107    0.000
 4472.00    1.28958   1.27233    0.000
 4473.00    1.38796   1.28252    0.000
 4474.00    1.43542   1.29121    0.000
 4475.00    1.34278   1.29758    0.000
 4476.00    1.26857   1.30242    0.000
 4477.00    1.23780   1.30668    0.000
 4478.00    1.19739   1.30859    0.000
 4479.00    1.13737   1.30883    0.000
 4480.00    1.11978   1.30713    0.000
 4481.00    1.17745   1.30621    0.000
 4482.00    1.23775   1.30492    0.044
 4483.00    1.30216   1.30473    0.044
 4484.00    1.33283   1.30476    0.044
 4485.00    1.31755   1.30343    0.044
 4486.00    1.32347   1.30236    0.044
 4487.00    1.35481   1.29994    0.044
 4488.00    1.35295   1.29720    0.044
 4489.00    1.31599   1.29426    0.044
 4490.00    1.24704   1.29182    0.044
 4491.00    1.14825   1.29182    0.043
 4492.00    1.16499   1.29215    0.043
 4493.00    1.27670   1.29415    0.044
 4494.00    1.31559   1.29550    0.044
 4495.00    1.30179   1.29968    0.044
 4496.00    1.29619   1.30637    0.044
 4497.00    1.29580   1.31456    0.044
 4498.00    1.38979   1.32539    0.044
 4499.00    1.53621   1.33587    0.045
 4500.00    1.51930   1.34746    0.045
 4501.00    1.42349   1.35764    0.045
 4502.00    1.34241   1.36813    0.044
 4503.00    1.26748   1.37964    0.044
 4504.00    1.26860   1.38806    0.044
 4505.00    1.29687   1.39443    0.044
 4506.00    1.30428   1.39805    0.044
 4507.00    1.30540   1.39991    0.043
 4508.00    1.32474   1.39998    0.044
 4509.00    1.34864   1.39843    0.044
 4510.00    1.33035   1.39574    0.044
 4511.00    1.30348   1.39133    0.043
 4512.00    1.30703   1.38538    0.043
 4513.00    1.31542   1.37872    0.042
 4514.00    1.36080   1.37204    0.043
 4515.00    1.41056   1.36527    0.044
 4516.00    1.39845   1.35843    0.043
 4517.00    1.38132   1.35103    0.042
 4518.00    1.33779   1.34158    0.043
 4519.00    1.29306   1.33386    0.043
 4520.00    1.26057   1.32406    0.043
 4521.00    1.23022   1.31434    0.043
 4522.00    1.30176   1.30204    0.043
 4523.00    1.36378   1.28832    0.043
 4524.00    1.24725   1.27607    0.043
 4525.00    1.14794   1.26261    0.043
 4526.00    1.24150   1.25005    0.043
 4527.00    1.32598   1.23839    0.043
 4528.00    1.33937   1.22999    0.043
 4529.00    1.33560   1.22298    0.043
 4530.00    1.23045   1.22073    0.043
 4531.00    1.15783   1.21915    0.043
 4532.00    1.23755   1.22222    0.043
 4533.00    1.29887   1.22620    0.042
 4534.00    1.28988   1.23127    0.042
 4535.00    1.27010   1.23885    0.042
 4536.00    1.21593   1.24688    0.043
 4537.00    1.20217   1.25913    0.043
 4538.00    1.29764   1.26764    0.043
 4539.00    1.34471   1.27537    0.043
 4540.00    1.27966   1.28088    0.043
 4541.00    1.25819   1.28537    0.043
 4542.00    1.32409   1.29003    0.043
 4543.00    1.37126   1.29258    0.042
 4544.00    1.38573   1.29379    0.042
 4545.00    1.36119   1.29231    0.042
 4546.00    1.27703   1.29301    0.043
 4547.00    1.27017   1.29238    0.043
 4548.00    1.36708   1.29252    0.043
 4549.00    1.36659   1.29175    0.043
 4550.00    1.25096   1.29247    0.000
 4551.00    1.21047   1.29646    0.000
 4552.00    1.24831   1.29909    0.000
 4553.00    1.27675   1.30371    0.000
 4554.00    1.29656   1.30814    0.000
 4555.00    1.35404   1.31407    0.000
 4556.00    1.44205   1.32086    0.000
 4557.00    1.42057   1.32903    0.000
 4558.00    1.32100   1.33624    0.000
 4559.00    1.31895   1.34236    0.000
 4560.00    1.37792   1.34777    0.000
 4561.00    1.36140   1.35186    0.000
 4562.00    1.30359   1.35563    0.000
 4563.00    1.27544   1.35716    0.000
 4564.00    1.26139   1.35861    0.000
 4565.00    1.25869   1.36004    0.000
 4566.00    1.26064   1.36171    0.000
 4567.00    1.29573   1.36432    0.000
 4568.00    1.34243   1.36556    0.000
 4569.00    1.39713   1.36520    0.000
 4570.00    1.45420   1.36474    0.000
 4571.00    1.41000   1.36218    0.000
 4572.00    1.34099   1.35954    0.000
 4573.00    1.40360   1.35967    0.000
 4574.00    1.49229   1.35708    0.000
 4575.00    1.46666   1.35287    0.000
 4576.00    1.42334   1.34918    0.000
 4577.00    1.39485   1.34411    0.000
 4578.00    1.36807   1.33943    0.000
 4579.00    1.40183   1.33376    0.000
 4580.00    1.44024   1.32913    0.000
 4581.00    1.38494   1.32541    0.000
 4582.00    1.32573   1.32423    0.000
 4583.00    1.23562   1.32323    0.000
 4584.00    1.14941   1.32146    0.000
 4585.00    1.24255   1.32182    0.000
 4586.00    1.33201   1.32108    0.000
 4587.00    1.35724   1.32266    0.000
 4588.00    1.37967   1.32402    0.000
 4589.00    1.37216   1.32464    0.000
 4590.00    1.36015   1.32494    0.000
 4591.00    1.31407   1.32317    0.000
 4592.00    1.26788   1.32182    0.000
 4593.00    1.22107   1.32026    0.000
 4594.00    1.17992   1.31912    0.000
 4595.00    1.16468   1.31770    0.000
 4596.00    1.14812   1.31669    0.000
 4597.00    1.12661   1.31778    0.000
 4598.00    1.12463   1.31778    0.000
 4599.00    1.18372   1.32130    0.000
 4600.00    1.25275   1.32355    0.000
 4601.00    1.34818   1.32720    0.000
 4602.00    1.41742   1.33410    0.000
 4603.00    1.42699   1.33980    0.000
 4604.00    1.39061   1.34773    0.000
 4605.00    1.26357   1.35452    0.000
 4606.00    1.20259   1.36350    0.000
 4607.00    1.25518   1.37195    0.000
 4608.00    1.31655   1.38152    0.000
 4609.00    1.39113   1.38983    0.000
 4610.00    1.45862   1.39580    0.000
 4611.00    1.51671   1.40111    0.000
 4612.00    1.48506   1.40593    0.000
 4613.00    1.34882   1.40978    0.000
 4614.00    1.30779   1.41291    0.000
 4615.00    1.36460   1.41734    0.000
 4616.00    1.39291   1.41838    0.000
 4617.00    1.39540   1.42043    0.000
 4618.00    1.40317   1.42160    0.000
 4619.00    1.41516   1.42073    0.000
 4620.00    1.41310   1.42031    0.000
 4621.00    1.40117   1.42113    0.000
 4622.00    1.39437   1.42021    0.000
 4623.00    1.39072   1.41835    0.000
 4624.00    1.39983   1.41756    0.000
 4625.00    1.41579   1.41456    0.000
 4626.00    1.39676   1.41098    0.000
 4627.00    1.36135   1.40806    0.000
 4628.00    1.34273   1.40413    0.000
 4629.00    1.33087   1.39869    0.000
 4630.00    1.37007   1.39304    0.000
 4631.00    1.42683   1.38808    0.000
 4632.00    1.45848   1.38163    0.000
 4633.00    1.48284   1.37309    0.000
 4634.00    1.48696   1.36609    0.000
 4635.00    1.48623   1.35853    0.000
 4636.00    1.42940   1.35118    0.000
 4637.00    1.36173   1.34285    0.000
 4638.00    1.32083   1.33435    0.000
 4639.00    1.28394   1.32720    0.000
 4640.00    1.22237   1.31922    0.000
 4641.00    1.15809   1.31433    0.000
 4642.00    1.20553   1.30953    0.000
 4643.00    1.26110   1.30471    0.000
 4644.00    1.19400   1.30079    0.000
 4645.00    1.12226   1.29785    0.000
 4646.00    1.18608   1.29537    0.000
 4647.00    1.24705   1.29409    0.000
 4648.00    1.17734   1.29637    0.000
 4649.00    1.11697   1.29984    0.000
 4650.00    1.20944   1.30484    0.000
 4651.00    1.29439   1.31094    0.000
 4652.00    1.30229   1.31629    0.000
 4653.00    1.30818   1.32313    0.000
 4654.00    1.29935   1.32722    0.000
 4655.00    1.29569   1.33180    0.000
 4656.00    1.32101   1.33627    0.000
 4657.00    1.34665   1.33944    0.000
 4658.00    1.37371   1.34295    0.000
 4659.00    1.39849   1.34281    0.000
 4660.00    1.41495   1.34087    0.000
 4661.00    1.41830   1.33559    0.000
 4662.00    1.38139   1.32968    0.000
 4663.00    1.33054   1.32289    0.000
 4664.00    1.24333   1.31641    0.000
 4665.00    1.20695   1.31107    0.000
 4666.00    1.28451   1.30427    0.000
 4667.00    1.35038   1.29806    0.000
 4668.00    1.39353   1.29446    0.000
 4669.00    1.38883   1.29512    0.000
 4670.00    1.30307   1.29630    0.000
 4671.00    1.24993   1.29881    0.000
 4672.00    1.24518   1.30142    0.000
 4673.00    1.25854   1.30353    0.000
 4674.00    1.29552   1.30679    0.000
 4675.00    1.33364   1.30972    0.000
 4676.00    1.37307   1.31472    0.000
 4677.00    1.33955   1.31793    0.000
 4678.00    1.23210   1.31901    0.000
 4679.00    1.19990   1.32009    0.000
 4680.00    1.23495   1.32001    0.000
 4681.00    1.27761   1.32047    0.000
 4682.00    1.32626   1.32065    0.000
 4683.00    1.35521   1.32247    0.000
 4684.00    1.37050   1.32352    0.000
 4685.00    1.29975   1.32338    0.000
 4686.00    1.17675   1.32446    0.000
 4687.00    1.19216   1.32454    0.000
 4688.00    1.28096   1.32508    0.000
 4689.00    1.30850   1.32618    0.000
 4690.00    1.30783   1.32696    0.000
 4691.00    1.33265   1.32580    0.000
 4692.00    1.36756   1.32486    0.000
 4693.00    1.35024   1.32436    0.000
 4694.00    1.31529   1.32207    0.000
 4695.00    1.33546   1.32024    0.000
 4696.00    1.37127   1.31709    0.000
 4697.00    1.39050   1.31377    0.000
 4698.00    1.40585   1.30834    0.000
 4699.00    1.31856   1.30335    0.000
 4700.00    1.21196   1.30027    0.000
 4701.00    1.21858   1.29630    0.000
 4702.00    1.24167   1.29353    0.000
 4703.00    1.24565   1.29047    0.000
 4704.00    1.24761   1.29108    0.000
 4705.00    1.23887   1.29157    0.000
 4706.00    1.22939   1.29263    0.000
 4707.00    1.26902   1.29403    0.000
 4708.00    1.31031   1.29698    0.000
 4709.00    1.33368   1.30274    0.000
 4710.00    1.35506   1.30846    0.000
 4711.00    1.31243   1.31788    0.000
 4712.00    1.27576   1.32580    0.000
 4713.00    1.33070   1.33365    0.000
 4714.00    1.38273   1.34081    0.000
 4715.00    1.40635   1.34786    0.000
 4716.00    1.42711   1.35782    0.000
 4717.00    1.42770   1.36612    0.000
 4718.00    1.43590   1.37319    0.000
 4719.00    1.48550   1.37879    0.000
 4720.00    1.50981   1.38095    0.000
 4721.00    1.42392   1.38140    0.000
 4722.00    1.34015   1.37964    0.000
 4723.00    1.26399   1.37749    0.000
 4724.00    1.22382   1.37513    0.000
 4725.00    1.29194   1.37089    0.000
 4726.00    1.33591   1.36576    0.000
 4727.00    1.31797   1.35759    0.000
 4728.00    1.30526   1.35105    0.000
 4729.00    1.30411   1.34576    0.000
 4730.00    1.31111   1.34186    0.000
 4731.00    1.33372   1.34098    0.000
 4732.00    1.35588   1.34108    0.000
 4733.00    1.37729   1.34226    0.000
 4734.00    1.37549   1.34255    0.000
 4735.00    1.33977   1.34624    0.000
 4736.00    1.34439   1.35019    0.000
 4737.00    1.40088   1.35371    0.000
 4738.00    1.42894   1.36062    0.000
 4739.00    1.42480   1.36725    0.000
 4740.00    1.42100   1.37218    0.000
 4741.00    1.41752   1.37629    0.000
 4742.00    1.45633   1.38106    0.000
 4743.00    1.53239   1.38590    0.000
 4744.00    1.47357   1.38911    0.000
 4745.00    1.31002   1.39084    0.000
 4746.00    1.25994   1.39380    0.000
 4747.00    1.28730   1.39426    0.000
 4748.00    1.30475   1.39336    0.000
 4749.00    1.31626   1.39201    0.000
 4750.00    1.34256   1.38998    0.000
 4751.00    1.37657   1.38743    0.000
 4752.00    1.41258   1.38190    0.000
 4753.00    1.44949   1.37831    0.000
 4754.00    1.43126   1.37252    0.000
 4755.00    1.39155   1.36638    0.000
 4756.00    1.33667   1.36068    0.000
 4757.00    1.27675   1.35447    0.000
 4758.00    1.28200   1.34881    0.000
 4759.00    1.30537   1.34182    0.000
 4760.00    1.29736   1.33765    0.000
 4761.00    1.28217   1.33236    0.036
 4762.00    1.30789   1.32733    0.036
 4763.00    1.34111   1.32526    0.036
 4764.00    1.32713   1.32289    0.036
 4765.00    1.30650   1.32206    0.037
 4766.00    1.30682   1.32192    0.037
 4767.00    1.30926   1.32587    0.037
 4768.00    1.26745   1.33047    0.036
 4769.00    1.22277   1.33439    0.036
 4770.00    1.31786   1.34164    0.036
 4771.00    1.41693   1.34604    0.037
 4772.00    1.38682   1.35096    0.036
 4773.00    1.35579   1.35646    0.036
 4774.00    1.29814   1.36273    0.037
 4775.00    1.24868   1.36802    0.037
 4776.00    1.31746   1.36856    0.037
 4777.00    1.37850   1.37115    0.036
 4778.00    1.36684   1.37166    0.037
 4779.00    1.35258   1.36892    0.037
 4780.00    1.32050   1.36783    0.036
 4781.00    1.29619   1.36625    0.036
 4782.00    1.31310   1.36368    0.036
 4783.00    1.32276   1.35974    0.035
 4784.00    1.30154   1.35762    0.035
 4785.00    1.28363   1.35856    0.035
 4786.00    1.27738   1.35660    0.036
 4787.00    1.29404   1.35756    0.036
 4788.00    1.37839   1.36158    0.036
 4789.00    1.42762   1.36337    0.036
 4790.00    1.38840   1.36710    0.036
 4791.00    1.37501   1.37138    0.036
 4792.00    1.41765   1.37635    0.037
 4793.00    1.42877   1.38085    0.037
 4794.00    1.38053   1.38568    0.037
 4795.00    1.35484   1.39110    0.037
 4796.00    1.36620   1.39312    0.037
 4797.00    1.34941   1.39471    0.037
 4798.00    1.29205   1.39494    0.037
 4799.00    1.26424   1.39480    0.037
 4800.00    1.27386   1.39408    0.037
 4801.00    1.30085   1.39399    0.037
 4802.00    1.34725   1.39445    0.037
 4803.00    1.33953   1.39263    0.037
 4804.00    1.27851   1.39090    0.037
 4805.00    1.27018   1.38793    0.037
 4806.00    1.30763   1.38735    0.037
 4807.00    1.30246   1.38726    0.037
 4808.00    1.26469   1.38687    0.037
 4809.00    1.28450   1.38907    0.037
 4810.00    1.34306   1.39096    0.037
 4811.00    1.39467   1.39242    0.037
 4812.00    1.44220   1.39444    0.038
 4813.00    1.39455   1.39644    0.038
 4814.00    1.29799   1.39938    0.037
 4815.00    1.28906   1.40140    0.037
 4816.00    1.31914   1.40226    0.037
 4817.00    1.31800   1.40382    0.037
 4818.00    1.30492   1.40328    0.037
 4819.00    1.36055   1.40302    0.037
 4820.00    1.43852   1.40152    0.037
 4821.00    1.47342   1.39844    0.037
 4822.00    1.49661   1.39572    0.037
 4823.00    1.51034   1.39024    0.037
 4824.00    1.52195   1.38559    0.038
 4825.00    1.47038   1.38326    0.037
 4826.00    1.40754   1.38043    0.037
 4827.00    1.36474   1.37669    0.037
 4828.00    1.32466   1.37262    0.037
 4829.00    1.29303   1.36914    0.037
 4830.00    1.26224   1.36780    0.036
 4831.00    1.33255   1.36503    0.037
 4832.00    1.40899   1.36197    0.037
 4833.00    1.35737   1.36130    0.073
 4834.00    1.30239   1.36038   -1.000
 4835.00    1.25403   1.35930   -1.000
 4836.00    1.20883   1.35648   -1.000
 4837.00    1.24615   1.35569   -1.000
 4838.00    1.28170   1.35472   -1.000
 4839.00    1.29299   1.35201   -1.000
 4840.00    1.29986   1.35090   -1.000
 4841.00    1.26666   1.34971   -1.000
 4842.00    1.23846   1.34875   -1.000
 4843.00    1.24344   1.34512   -1.000
 4844.00    1.25568   1.34212   -1.000
 4845.00    1.30533   1.34151   -1.000
 4846.00    1.35291   1.33798    0.371
 4847.00    1.39188   1.33263    0.060
 4848.00    1.41063   1.32440    0.000
 4849.00    1.35976   1.31540    0.000
 4850.00    1.31405   1.30831    0.000
 4851.00    1.28329   1.29823    0.000
 4852.00    1.25626   1.28670    0.000
 4853.00    1.23847   1.27389    0.000
 4854.00    1.21014   1.25763    0.000
 4855.00    1.15934   1.24104    0.000
 4856.00    1.12520   1.22643    0.000
 4857.00    1.12194   1.21626    0.000
 4858.00    1.14020   1.20632    0.000
 4859.00    1.19332   1.19386    0.000
 4860.00    1.21083   1.18386    0.000
 4861.00    1.17779   1.17516    0.000
 4862.00    1.15352   1.17359    0.000
 4863.00    1.14021   1.17695    0.000
 4864.00    1.15902   1.17799    0.000
 4865.00    1.21321   1.18196    0.000
 4866.00    1.26662   1.18603    0.000
 4867.00    1.31928   1.19296    0.000
 4868.00    1.33864   1.20131    0.000
 4869.00    1.32947   1.21083    0.000
 4870.00    1.30690   1.22089    0.000
 4871.00    1.27422   1.22627    0.000
 4872.00    1.23015   1.23545    0.000
 4873.00    1.17852   1.24624    0.000
 4874.00    1.20041   1.25611    0.000
 4875.00    1.26497   1.26405    0.034
 4876.00    1.31125   1.26990    0.034
 4877.00    1.34829   1.27750    0.035
 4878.00    1.37629   1.28192    0.035
 4879.00    1.40035   1.28731    0.035
 4880.00    1.39906   1.29185    0.035
 4881.00    1.38825   1.29120    0.035
 4882.00    1.36311   1.29246    0.035
 4883.00    1.33341   1.29412    0.035
 4884.00    1.31125   1.29404    0.034
 4885.00    1.29110   1.29382    0.035
 4886.00    1.25714   1.29225    0.034
 4887.00    1.22016   1.29591    0.034
 4888.00    1.22433   1.30125    0.034
 4889.00    1.23564   1.30602    0.034
 4890.00    1.32119   1.31276    0.034
 4891.00    1.41652   1.31654    0.035
 4892.00    1.40209   1.32679    0.035
 4893.00    1.37746   1.33948    0.035
 4894.00    1.39812   1.34983    0.035
 4895.00    1.42136   1.36049    0.034
 4896.00    1.42613   1.36790    0.035
 4897.00    1.43021   1.37522    0.035
 4898.00    1.40574   1.38174    0.035
 4899.00    1.38085   1.38637    0.035
 4900.00    1.34592   1.38950    0.035
 4901.00    1.31205   1.39260    0.035
 4902.00    1.29185   1.39255    0.035
 4903.00    1.27413   1.38899    0.035
 4904.00    1.27809   1.38612    0.034
 4905.00    1.28374   1.38375    0.034
 4906.00    1.30026   1.38196    0.035
 4907.00    1.31392   1.37703    0.035
 4908.00    1.31326   1.37053    0.035
 4909.00    1.31522   1.36435    0.034
 4910.00    1.32784   1.35776    0.035
 4911.00    1.34759   1.35229    0.035
 4912.00    1.39139   1.34625    0.035
 4913.00    1.39493   1.33834    0.035
 4914.00    1.28390   1.32993    0.035
 4915.00    1.21888   1.32296    0.035
 4916.00    1.26581   1.31733    0.035
 4917.00    1.30190   1.31282    0.035
 4918.00    1.31526   1.30666    0.035
 4919.00    1.32814   1.30124    0.035
 4920.00    1.34014   1.29872    0.035
 4921.00    1.33148   1.30051    0.036
 4922.00    1.28985   1.30654    0.035
 4923.00    1.27375   1.31090    0.035
 4924.00    1.29337   1.31549    0.035
 4925.00    1.30291   1.32072    0.035
 4926.00    1.30001   1.32896    0.036
 4927.00    1.29763   1.33824    0.036
 4928.00    1.29580   1.34363    0.035
 4929.00    1.31851   1.35017    0.035
 4930.00    1.36474   1.35493    0.035
 4931.00    1.36871   1.35783    0.035
 4932.00    1.33700   1.36002    0.035
 4933.00    1.27962   1.35739    0.035
 4934.00    1.20314   1.35669    0.035
 4935.00    1.19485   1.35998    0.035
 4936.00    1.23109   1.36191    0.035
 4937.00    1.26291   1.36168    0.035
 4938.00    1.29221   1.36045    0.034
 4939.00    1.30977   1.36221    0.034
 4940.00    1.32149   1.36833    0.000
 4941.00    1.32952   1.37560    0.000
 4942.00    1.33597   1.38108    0.000
 4943.00    1.35247   1.38660    0.000
 4944.00    1.37269   1.39276    0.000
 4945.00    1.38067   1.39671    0.000
 4946.00    1.38482   1.40094    0.000
 4947.00    1.41535   1.40458    0.000
 4948.00    1.45277   1.40628    0.000
 4949.00    1.37440   1.40629    0.000
 4950.00    1.27138   1.40232    0.000
 4951.00    1.36226   1.39902    0.000
 4952.00    1.48582   1.39167    0.000
 4953.00    1.41782   1.38397    0.000
 4954.00    1.32544   1.38002    0.000
 4955.00    1.30109   1.37308    0.000
 4956.00    1.28278   1.36701    0.000
 4957.00    1.28459   1.35539    0.000
 4958.00    1.28746   1.34800    0.000
 4959.00    1.29920   1.34949    0.000
 4960.00    1.31061   1.34669    0.000
 4961.00    1.28282   1.34428    0.000
 4962.00    1.25908   1.34067    0.000
 4963.00    1.32334   1.33936    0.000
 4964.00    1.38136   1.34274    0.000
 4965.00    1.36267   1.34191    0.000
 4966.00    1.34229   1.34241    0.000
 4967.00    1.30775   1.34491    0.000
 4968.00    1.27914   1.34449    0.000
 4969.00    1.28753   1.34660    0.000
 4970.00    1.30635   1.34602    0.000
 4971.00    1.37630   1.34454    0.000
 4972.00    1.42374   1.34497    0.000
 4973.00    1.38154   1.34032    0.000
 4974.00    1.33126   1.33758    0.000
 4975.00    1.25420   1.33331    0.000
 4976.00    1.20836   1.32621    0.000
 4977.00    1.24974   1.32016    0.000
 4978.00    1.27655   1.31043    0.000
 4979.00    1.26851   1.30386    0.000
 4980.00    1.24963   1.29903    0.000
 4981.00    1.20836   1.29213    0.000
 4982.00    1.17911   1.28695    0.000
 4983.00    1.17143   1.28148    0.000
 4984.00    1.19053   1.27992    0.000
 4985.00    1.25170   1.28130    0.000
 4986.00    1.29879   1.28087    0.000
 4987.00    1.32645   1.28472    0.000
 4988.00    1.32637   1.28725    0.000
 4989.00    1.29262   1.28804    0.000
 4990.00    1.26383   1.29234    0.000
 4991.00    1.24036   1.29325    0.000
 4992.00    1.23208   1.29669    0.000
 4993.00    1.23812   1.29853    0.000
 4994.00    1.26996   1.29388    0.000
 4995.00    1.32325   1.29277    0.000
 4996.00    1.31990   1.28912    0.000
 4997.00    1.27503   1.28473    0.000
 4998.00    1.25879   1.28155    0.000
 4999.00    1.26099   1.27267    0.000
 5000.00    1.25748   1.26501    0.000
 5001.00    1.25078   1.25785    0.000
 5002.00    1.27787   1.25062    0.000
 5003.00    1.32153   1.24710    0.000
 5004.00    1.31704   1.24048    0.000
 5005.00    1.29216   1.23288    0.000
 5006.00    1.26570   1.22670    0.000
 5007.00    1.23868   1.22086    0.000
 5008.00    1.27940   1.21997    0.000
 5009.00    1.34090   1.21688    0.000
 5010.00    1.29211   1.21270    0.000
 5011.00    1.21515   1.21121    0.000
 5012.00    1.23659   1.20671    0.000
 5013.00    1.27846   1.20599    0.000
 5014.00    1.26855   1.20646    0.000
 5015.00    1.25017   1.20692    0.000
 5016.00    1.26002   1.21093    0.000
 5017.00    1.27334   1.20989    0.000
 5018.00    1.25754   1.21162    0.000
 5019.00    1.23928   1.21832    0.000
 5020.00    1.25736   1.22315    0.000
 5021.00    1.27722   1.23075    0.000
 5022.00    1.29164   1.23351    0.000
 5023.00    1.30573   1.23840    0.000
 5024.00    1.30460   1.24945    0.000
 5025.00    1.30244   1.25480    0.000
 5026.00    1.27949   1.26143    0.000
 5027.00    1.25927   1.26541    0.000
 5028.00    1.27093   1.26886    0.000
 5029.00    1.28889   1.27666    0.034
 5030.00    1.35769   1.27711    0.034
 5031.00    1.40478   1.27559    0.034
 5032.00    1.32033   1.27715    0.034
 5033.00    1.25096   1.27640    0.034
 5034.00    1.25375   1.27509    0.033
 5035.00    1.25306   1.26949    0.033
 5036.00    1.23879   1.26053    0.033
 5037.00    1.21887   1.26084    0.033
 5038.00    1.18063   1.26086    0.034
 5039.00    1.16018   1.25684    0.034
 5040.00    1.18859   1.25446    0.034
 5041.00    1.18963   1.24988    0.034
 5042.00    1.12631   1.25385    0.033
 5043.00    1.11370   1.25983    0.033
 5044.00    1.20414   1.26081    0.033
 5045.00    1.25418   1.26571    0.033
 5046.00    1.23273   1.26959    0.033
 5047.00    1.23609   1.27532    0.033
 5048.00    1.27783   1.28252    0.033
 5049.00    1.29475   1.28638    0.033
 5050.00    1.27793   1.29355    0.032
 5051.00    1.26223   1.30009    0.032
 5052.00    1.24788   1.30474    0.033
 5053.00    1.25577   1.31137    0.034
 5054.00    1.28711   1.31515    0.033
 5055.00    1.29694   1.32008    0.033
 5056.00    1.28674   1.32545    0.033
 5057.00    1.26078   1.32725    0.033
 5058.00    1.22189   1.33025    0.032
 5059.00    1.24969   1.32900    0.032
 5060.00    1.32566   1.32704    0.033
 5061.00    1.32747   1.32828    0.033
 5062.00    1.28226   1.32462    0.033
 5063.00    1.22589   1.32085    0.032
 5064.00    1.16334   1.31408    0.032
 5065.00    1.17647   1.30711    0.032
 5066.00    1.22610   1.30516    0.032
 5067.00    1.25305   1.29870    0.032
 5068.00    1.27057   1.29264    0.032
 5069.00    1.28253   1.28619    0.033
 5070.00    1.29250   1.27990    0.035
 5071.00    1.28494   1.27696    0.036
 5072.00    1.27210   1.27118    0.037
 5073.00    1.26788   1.26681    0.038
 5074.00    1.26582   1.26123    0.038
 5075.00    1.29278   1.25560    0.037
 5076.00    1.32562   1.25336    0.036
 5077.00    1.32807   1.25069    0.034
 5078.00    1.32569   1.24886    0.033
 5079.00    1.20587   1.24509    0.032
 5080.00    1.07217   1.24323    0.032
 5081.00    1.12206   1.24588    0.032
 5082.00    1.18671   1.24912    0.032
 5083.00    1.18719   1.25212    0.031
 5084.00    1.18478   1.25440    0.031
 5085.00    1.14623   1.25885    0.031
 5086.00    1.10936   1.26521    0.030
 5087.00    1.17712   1.27138    0.031
 5088.00    1.23967   1.27627    0.031
 5089.00    1.20538   1.27957    0.031
 5090.00    1.17657   1.28341    0.031
 5091.00    1.20894   1.28609    0.032
 5092.00    1.24519   1.28769    0.033
 5093.00    1.31166   1.28791    0.035
 5094.00    1.36298   1.28492    0.037
 5095.00    1.32500   1.28333    0.039
 5096.00    1.30033   1.28145    0.040
 5097.00    1.33772   1.27790    0.040
 5098.00    1.36291   1.27406    0.040
 5099.00    1.34161   1.26781    0.038
 5100.00    1.30616   1.26456    0.036
 5101.00    1.22570   1.26405    0.033
 5102.00    1.16595   1.26067    0.031
 5103.00    1.16204   1.25756    0.032
 5104.00    1.16702   1.25525    0.032
 5105.00    1.19258   1.25377    0.032
 5106.00    1.20796   1.25683    0.032
 5107.00    1.20299   1.25796    0.033
 5108.00    1.20584   1.25749    0.033
 5109.00    1.22229   1.26102    0.032
 5110.00    1.23672   1.26210    0.032
 5111.00    1.24806   1.26595    0.032
 5112.00    1.25170   1.27128    0.033
 5113.00    1.24504   1.27141    0.033
 5114.00    1.25371   1.27455    0.033
 5115.00    1.28047   1.27523    0.034
 5116.00    1.30436   1.27429    0.034
 5117.00    1.32526   1.27650    0.033
 5118.00    1.31287   1.27242    0.033
 5119.00    1.26992   1.26796    0.033
 5120.00    1.25248   1.26461    0.033
 5121.00    1.25568   1.25855    0.033
 5122.00    1.23291   1.25506    0.033
 5123.00    1.19166   1.24851    0.032
 5124.00    1.18344   1.24071    0.032
 5125.00    1.19585   1.23815    0.032
 5126.00    1.19273   1.23501    0.032
 5127.00    1.18112   1.23242    0.032
 5128.00    1.18903   1.23002    0.033
 5129.00    1.20621   1.22598    0.033
 5130.00    0.95116   1.22851    0.032
 5131.00    0.58471   1.23069    0.031
 5132.00    0.71531   1.22934    0.031
 5133.00    1.01967   1.22996    0.032
 5134.00    1.10491   1.22713    0.032
 5135.00    1.12555   1.23018    0.032
 5136.00    1.14246   1.23286    0.032
 5137.00    1.15846   1.22678    0.032
 5138.00    1.23102   1.22542    0.032
 5139.00    1.31474   1.22255    0.033
 5140.00    1.27297   1.22184    0.032
 5141.00    1.21185   1.22325    0.032
 5142.00    1.21140   1.21504    0.032
 5143.00    1.21786   1.21168    0.032
 5144.00    1.24289   1.21318    0.032
 5145.00    1.26935   1.21177    0.032
 5146.00    1.26483   1.21182    0.032
 5147.00    1.25904   1.20898    0.032
 5148.00    1.22296   1.20807    0.031
 5149.00    1.18861   1.21255    0.031
 5150.00    1.23753   1.21460    0.031
 5151.00    1.28229   1.21505    0.031
 5152.00    1.25506   1.21661    0.031
 5153.00    1.23343   1.21844    0.031
 5154.00    1.27128   1.21952    0.031
 5155.00    1.30607   1.22068    0.031
 5156.00    1.31780   1.21902    0.031
 5157.00    1.32632   1.21395    0.031
 5158.00    1.31648   1.20919    0.031
 5159.00    1.29765   1.20026    0.031
 5160.00    1.23795   1.19055    0.031
 5161.00    1.19334   1.17890    0.031
 5162.00    1.20504   1.15938    0.031
 5163.00    1.20388   1.14280    0.031
 5164.00    1.16257   1.12808    0.031
 5165.00    1.11454   1.11235    0.031
 5166.00    1.04871   1.09566    0.031
 5167.00    0.99286   1.07357    0.031
 5168.00    0.95970   1.05876    0.031
 5169.00    0.94526   1.05435    0.031
 5170.00    0.96768   1.05097    0.031
 5171.00    0.99170   1.04462    0.032
 5172.00    1.01847   1.03550    0.031
 5173.00    1.05260   1.03349    0.031
 5174.00    1.09778   1.04259    0.031
 5175.00    1.13946   1.05162    0.032
 5176.00    1.17650   1.05485    0.032
 5177.00    1.17901   1.05706    0.032
 5178.00    1.14136   1.05992    0.032
 5179.00    1.12620   1.06827    0.032
 5180.00    1.13412   1.07937    0.032
 5181.00    1.11295   1.08534    0.031
 5182.00    1.06544   1.09070    0.031
 5183.00    1.05005   1.09230    0.031
 5184.00    1.06026   1.09770    0.031
 5185.00    1.09384   1.11305    0.031
 5186.00    1.14381   1.12250    0.031
 5187.00    1.15449   1.12843    0.032
 5188.00    1.14099   1.13455    0.032
 5189.00    1.14437   1.14317    0.031
 5190.00    1.15683   1.15844    0.000
 5191.00    1.15732   1.16718    0.000
 5192.00    1.15223   1.17033    0.000
 5193.00    1.18646   1.17845    0.000
 5194.00    1.23650   1.18790    0.000
 5195.00    1.23609   1.19366    0.000
 5196.00    1.21837   1.19679    0.000
 5197.00    1.19709   1.19761    0.000
 5198.00    1.17477   1.19971    0.000
 5199.00    1.18621   1.20246    0.000
 5200.00    1.20572   1.19907    0.000
 5201.00    1.19479   1.19627    0.000
 5202.00    1.17799   1.19513    0.000
 5203.00    1.17822   1.19183    0.000
 5204.00    1.18100   1.19038    0.000
 5205.00    1.14320   1.18595    0.000
 5206.00    1.10096   1.18468    0.000
 5207.00    1.13985   1.18913    0.000
 5208.00    1.18459   1.18917    0.000
 5209.00    1.18462   1.19247    0.000
 5210.00    1.18298   1.19742    0.000
 5211.00    1.19183   1.20288    0.031
 5212.00    1.20040   1.21316    0.031
 5213.00    1.19743   1.22043    0.031
 5214.00    1.19567   1.22746    0.032
 5215.00    1.21372   1.23425    0.031
 5216.00    1.23217   1.23928    0.031
 5217.00    1.25476   1.24560    0.031
 5218.00    1.27291   1.25092    0.031
 5219.00    1.25879   1.25299    0.031
 5220.00    1.24128   1.25335    0.031
 5221.00    1.20483   1.25327    0.031
 5222.00    1.18153   1.25134    0.031
 5223.00    1.21677   1.25234    0.031
 5224.00    1.24380   1.25142    0.031
 5225.00    1.24081   1.24850    0.031
 5226.00    1.23406   1.24945    0.031
 5227.00    1.21584   1.24695    0.031
 5228.00    1.19889   1.25095    0.031
 5229.00    1.18528   1.25778    0.031
 5230.00    1.17396   1.25855    0.031
 5231.00    1.16778   1.26671    0.031
 5232.00    1.16785   1.27224    0.031
 5233.00    1.18005   1.27694    0.031
 5234.00    1.19462   1.28756    0.031
 5235.00    1.21319   1.29308    0.031
 5236.00    1.23632   1.30196    0.031
 5237.00    1.26621   1.30968    0.031
 5238.00    1.28623   1.31189    0.031
 5239.00    1.29338   1.31713    0.031
 5240.00    1.26679   1.32061    0.031
 5241.00    1.20150   1.32262    0.031
 5242.00    1.18602   1.32172    0.030
 5243.00    1.22092   1.31962    0.031
 5244.00    1.24955   1.31992    0.031
 5245.00    1.27257   1.31791    0.031
 5246.00    1.28291   1.31358    0.032
 5247.00    1.28329   1.30636    0.032
 5248.00    1.26401   1.30437    0.032
 5249.00    1.23114   1.30489    0.032
 5250.00    1.25146   1.29751    0.032
 5251.00    1.30402   1.29353    0.032
 5252.00    1.28326   1.29125    0.031
 5253.00    1.22369   1.28861    0.031
 5254.00    1.23202   1.28696    0.031
 5255.00    1.27155   1.27745    0.031
 5256.00    1.27225   1.27141    0.031
 5257.00    1.25761   1.26823    0.032
 5258.00    1.25663   1.25907    0.031
 5259.00    1.26025   1.25053    0.031
 5260.00    1.27465   1.23866    0.031
 5261.00    1.29211   1.22518    0.032
 5262.00    1.28847   1.21571    0.032
 5263.00    1.27990   1.20498    0.032
 5264.00    1.24855   1.19333    0.032
 5265.00    1.21292   1.18316    0.032
 5266.00    1.13551   1.17542    0.032
 5267.00    1.05205   1.17427    0.032
 5268.00    1.08240   1.17559    0.032
 5269.00    1.12471   1.17239    0.032
 5270.00    1.14860   1.17163    0.032
 5271.00    1.17123   1.18270    0.032
 5272.00    1.15625   1.19672    0.032
 5273.00    1.14001   1.20659    0.032
 5274.00    1.14091   1.21781    0.032
 5275.00    1.14413   1.22805    0.031
 5276.00    1.22137   1.24218    0.031
 5277.00    1.29390   1.26126    0.031
 5278.00    1.29475   1.27372    0.032
 5279.00    1.29705   1.28542    0.032
 5280.00    1.31354   1.29820    0.031
 5281.00    1.32975   1.30860    0.031
 5282.00    1.34401   1.32147    0.031
 5283.00    1.35624   1.33011    0.031
 5284.00    1.35754   1.33545    0.031
 5285.00    1.36027   1.34567    0.031
 5286.00    1.36922   1.35439    0.031
 5287.00    1.36845   1.35893    0.031
 5288.00    1.33289   1.36036    0.031
 5289.00    1.31333   1.36071    0.031
 5290.00    1.34180   1.36381    0.031
 5291.00    1.35491   1.36585    0.031
 5292.00    1.32871   1.36291    0.031
 5293.00    1.31687   1.35799    0.030
 5294.00    1.33663   1.35671    0.030
 5295.00    1.32996   1.35653    0.030
 5296.00    1.27289   1.35376    0.030
 5297.00    1.23807   1.34971    0.031
 5298.00    1.24031   1.34703    0.031
 5299.00    1.25809   1.35113    0.031
 5300.00    1.29855   1.35610    0.031
 5301.00    1.33601   1.35647    0.031
 5302.00    1.36963   1.35902    0.031
 5303.00    1.39932   1.36485    0.031
 5304.00    1.42456   1.37278    0.031
 5305.00    1.40259   1.37975    0.031
 5306.00    1.33356   1.38350    0.031
 5307.00    1.30108   1.38759    0.031
 5308.00    1.30074   1.39228    0.030
 5309.00    1.31450   1.39679    0.031
 5310.00    1.33919   1.39892    0.031
 5311.00    1.32523   1.39749    0.031
 5312.00    1.28493   1.39658    0.030
 5313.00    1.31795   1.39448    0.030
 5314.00    1.39474   1.39016    0.030
 5315.00    1.40810   1.38473    0.030
 5316.00    1.38841   1.37583    0.030
 5317.00    1.37104   1.36860    0.030
 5318.00    1.35471   1.36237    0.030
 5319.00    1.37000   1.35058    0.030
 5320.00    1.39757   1.33885    0.030
 5321.00    1.36497   1.33006    0.030
 5322.00    1.31248   1.32156    0.030
 5323.00    1.27238   1.31170    0.030
 5324.00    1.23571   1.30016    0.030
 5325.00    1.24809   1.29363    0.030
 5326.00    1.27166   1.29316    0.030
 5327.00    1.25183   1.28812    0.030
 5328.00    1.22407   1.27908    0.029
 5329.00    1.22573   1.27963    0.029
 5330.00    1.23151   1.28665    0.029
 5331.00    1.23830   1.29112    0.030
 5332.00    1.24519   1.29147    0.030
 5333.00    1.28249   1.29276    0.030
 5334.00    1.32175   1.30189    0.029
 5335.00    1.30889   1.30908    0.029
 5336.00    1.29433   1.31141    0.029
 5337.00    1.22235   1.31495    0.029
 5338.00    1.15425   1.32059    0.029
 5339.00    1.19701   1.32802    0.029
 5340.00    1.23861   1.32757    0.030
 5341.00    1.26367   1.32727    0.030
 5342.00    1.28826   1.33574    0.029
 5343.00    1.30838   1.34008    0.029
 5344.00    1.32649   1.34393    0.029
 5345.00    1.33088   1.34668    0.029
 5346.00    1.33362   1.34934    0.030
 5347.00    1.32766   1.36007    0.030
 5348.00    1.32704   1.36484    0.029
 5349.00    1.34907   1.36779    0.030
 5350.00    1.36709   1.37714    0.030
 5351.00    1.37101   1.38485    0.030
 5352.00    1.37770   1.39269    0.029
 5353.00    1.39256   1.39686    0.030
 5354.00    1.40605   1.39986    0.030
 5355.00    1.41612   1.40750    0.030
 5356.00    1.41297   1.40974    0.029
 5357.00    1.38120   1.40877    0.029
 5358.00    1.35049   1.40897    0.029
 5359.00    1.32178   1.40644    0.029
 5360.00    1.30612   1.40402    0.029
 5361.00    1.31185   1.39860    0.029
 5362.00    1.31024   1.38947    0.029
 5363.00    1.29809   1.38390    0.029
 5364.00    1.29547   1.37759    0.029
 5365.00    1.30489   1.36931    0.029
 5366.00    1.30497   1.36309    0.029
 5367.00    1.29464   1.35691    0.029
 5368.00    1.30085   1.35300   -2.000
 5369.00    1.32334   1.35012   -2.000
 5370.00    1.31690   1.34642   -2.000
 5371.00    1.28537   1.34439   -2.000
 5372.00    1.28719   1.34573   -2.000
 5373.00    1.31449   1.35058   -2.000
 5374.00    1.32551   1.35346   -2.000
 5375.00    1.32562   1.35575   -2.000
 5376.00    1.34162   1.35977   -2.000
 5377.00    1.36696   1.36258   -2.000
 5378.00    1.34776   1.36618   -2.000
 5379.00    1.30571   1.36944   -2.000
 5380.00    1.26880   1.37000   -2.000
 5381.00    1.23417   1.37095   -2.000
 5382.00    1.25981   1.37135   -2.000
 5383.00    1.30846   1.36809    0.029
 5384.00    1.35231   1.36522    0.029
 5385.00    1.39460   1.36276    0.029
 5386.00    1.37598   1.35701    0.029
 5387.00    1.34082   1.35249    0.029
 5388.00    1.30239   1.34648    0.028
 5389.00    1.26322   1.33674    0.028
 5390.00    1.25239   1.33149    0.028
 5391.00    1.24660   1.32546    0.028
 5392.00    1.24693   1.31670    0.028
 5393.00    1.24809   1.31100    0.028
 5394.00    1.26499   1.30404    0.029
 5395.00    1.28341   1.29920    0.029
 5396.00    1.28367   1.29392    0.029
 5397.00    1.28284   1.28325    0.029
 5398.00    1.27202   1.28024    0.029
 5399.00    1.26086   1.28106    0.028
 5400.00    1.23584   1.27589    0.028
 5401.00    1.21120   1.27151    0.028
 5402.00    1.19647   1.27032    0.028
 5403.00    1.18384   1.27113    0.028
 5404.00    1.19964   1.27119    0.028
 5405.00    1.21403   1.26910    0.028
 5406.00    1.21581   1.27096    0.028
 5407.00    1.21676   1.27764    0.028
 5408.00    1.21216   1.28435    0.028
 5409.00    1.21286   1.28804    0.028
 5410.00    1.24082   1.29210    0.028
 5411.00    1.26628   1.30181    0.028
 5412.00    1.28137   1.31049    0.028
 5413.00    1.28680   1.31652    0.028
 5414.00    1.25901   1.32474    0.028
 5415.00    1.24325   1.33097    0.028
 5416.00    1.26230   1.33737    0.028
 5417.00    1.28187   1.34458    0.028
 5418.00    1.30269   1.34650    0.028
 5419.00    1.31019   1.35041    0.028
 5420.00    1.28931   1.35350    0.028
 5421.00    1.27774   1.34935    0.028
 5422.00    1.28339   1.35119    0.028
 5423.00    1.29143   1.35231    0.028
 5424.00    1.30335   1.34497    0.028
 5425.00    1.30034   1.34393    0.028
 5426.00    1.27618   1.34143    0.028
 5427.00    1.27231   1.33744    0.028
 5428.00    1.29376   1.33781    0.028
 5429.00    1.27616   1.32904    0.028
 5430.00    1.21566   1.32629    0.028
 5431.00    1.21660   1.33238    0.028
 5432.00    1.27710   1.32882    0.028
 5433.00    1.30997   1.32811    0.028
 5434.00    1.31919   1.33092    0.028
 5435.00    1.31529   1.33234    0.028
 5436.00    1.30151   1.33725    0.028
 5437.00    1.29825   1.33859    0.028
 5438.00    1.30196   1.33984    0.028
 5439.00    1.32274   1.34477    0.027
 5440.00    1.35342   1.34813    0.027
 5441.00    1.35359   1.34868    0.027
 5442.00    1.33837   1.34885    0.028
 5443.00    1.32420   1.34945    0.028
 5444.00    1.31049   1.34781    0.027
 5445.00    1.29739   1.34680    0.027
 5446.00    1.28452   1.34356    0.027
 5447.00    1.26011   1.33683    0.027
 5448.00    1.23202   1.33711    0.027
 5449.00    1.26638   1.33644    0.027
 5450.00    1.31735   1.33162    0.027
 5451.00    1.30609   1.33004    0.027
 5452.00    1.28129   1.32620    0.027
 5453.00    1.27419   1.32478    0.027
 5454.00    1.27014   1.32480    0.028
 5455.00    1.27235   1.31800    0.028
 5456.00    1.27538   1.31872    0.028
 5457.00    1.25230   1.32352    0.027
 5458.00    1.22682   1.32173    0.027
 5459.00    1.23950   1.32220    0.027
 5460.00    1.25433   1.32167    0.027
 5461.00    1.27421   1.32167    0.027
 5462.00    1.29419   1.32316    0.027
 5463.00    1.31239   1.31896    0.027
 5464.00    1.32985   1.31980    0.027
 5465.00    1.32991   1.32209    0.027
 5466.00    1.32957   1.31873    0.027
 5467.00    1.32409   1.31794    0.027
 5468.00    1.31912   1.31547    0.027
 5469.00    1.31854   1.31224    0.028
 5470.00    1.31411   1.30962    0.028
 5471.00    1.28508   1.30565    0.027
 5472.00    1.25821   1.30525    0.027
 5473.00    1.24215   1.30063    0.027
 5474.00    1.23181   1.29638    0.027
 5475.00    1.24463   1.29866    0.027
 5476.00    1.26185   1.29479    0.027
 5477.00    1.29386   1.29169    0.027
 5478.00    1.30721   1.29462   -2.000
 5479.00    1.26756   1.29572   -2.000
 5480.00    1.24827   1.29759   -2.000
 5481.00    1.27838   1.29774   -2.000
 5482.00    1.30360   1.29910   -2.000
 5483.00    1.31859   1.30548   -2.000
 5484.00    1.29985   1.30792   -2.000
 5485.00    1.21969   1.30983   -2.000
 5486.00    1.20804   1.31520   -2.000
 5487.00    1.30543   1.31715   -2.000
 5488.00    1.34897   1.31950   -2.000
 5489.00    1.31729   1.32302   -2.000
 5490.00    1.28661   1.32303   -2.000
 5491.00    1.25716   1.32594   -2.000
 5492.00    1.26123   1.32910   -2.000
 5493.00    1.30162   1.32743   -2.000
 5494.00    1.31011   1.32715   -2.000
 5495.00    1.28811   1.32778   -2.000
 5496.00    1.28462   1.32765   -2.000
 5497.00    1.29673   1.32590   -2.000
 5498.00    1.31208   1.32205   -2.000
 5499.00    1.32984   1.32318   -2.000
 5500.00    1.32352   1.32322   -2.000
 5501.00    1.30152   1.31705   -2.000
 5502.00    1.27308   1.31537    0.026
 5503.00    1.24096   1.31440    0.026
 5504.00    1.25605   1.31140    0.027
 5505.00    1.29458   1.31098    0.027
 5506.00    1.29594   1.30626    0.027
 5507.00    1.28133   1.30525    0.027
 5508.00    1.27712   1.30877    0.027
 5509.00    1.27675   1.30481    0.027
 5510.00    1.27355   1.30515    0.027
 5511.00    1.26946   1.30853    0.026
 5512.00    1.26403   1.30675    0.026
 5513.00    1.25825   1.30978    0.027
 5514.00    1.25374   1.31227    0.026
 5515.00    1.24950   1.31411    0.026
 5516.00    1.24955   1.31937    0.026
 5517.00    1.25031   1.32016    0.026
 5518.00    1.28009   1.32361    0.027
 5519.00    1.31354   1.32841    0.027
 5520.00    1.30563   1.32751    0.027
 5521.00    1.29408   1.32961    0.026
 5522.00    1.26074   1.33211    0.026
 5523.00    1.22627   1.33199    0.026
 5524.00    1.23762   1.33285    0.026
 5525.00    1.24980   1.33194    0.026
 5526.00    1.26101   1.33232    0.026
 5527.00    1.27162   1.33271    0.026
 5528.00    1.26917   1.32997    0.026
 5529.00    1.26772   1.33041    0.026
 5530.00    1.27858   1.33313    0.026
 5531.00    1.28961   1.33342    0.026
 5532.00    1.30212   1.33285    0.026
 5533.00    1.31119   1.33530    0.026
 5534.00    1.29888   1.33824    0.026
 5535.00    1.28814   1.33783    0.026
 5536.00    1.28516   1.34083    0.026
 5537.00    1.28538   1.34541    0.026
 5538.00    1.29830   1.34653    0.026
 5539.00    1.30786   1.35001    0.026
 5540.00    1.30637   1.35338    0.026
 5541.00    1.30024   1.35607    0.027
 5542.00    1.28119   1.35991    0.027
 5543.00    1.27586   1.35991    0.031
 5544.00    1.30325   1.36226    0.077
 5545.00    1.31456   1.36714   -1.000
 5546.00    1.29274   1.36596   -1.000
 5547.00    1.26771   1.36661   -1.000
 5548.00    1.23690   1.37049   -1.000
 5549.00    1.23814   1.36965   -1.000
 5550.00    1.28966   1.36894   -1.000
 5551.00    1.32060   1.36892   -1.000
 5552.00    1.32320   1.36716   -1.000
 5553.00    1.31282   1.36655    0.114
 5554.00    1.28671   1.36324    0.035
 5555.00    1.26425   1.35966    0.026
 5556.00    1.24570   1.35965    0.026
 5557.00    1.24855   1.35574    0.026
 5558.00    1.27157   1.35055    0.026
 5559.00    1.27697   1.34885    0.026
 5560.00    1.26773   1.34558    0.026
 5561.00    1.27327   1.34131    0.026
 5562.00    1.28961   1.33752    0.026
 5563.00    1.27912   1.33429    0.025
 5564.00    1.25139   1.33236    0.025
 5565.00    1.25312   1.32961    0.026
 5566.00    1.27140   1.32651    0.026
 5567.00    1.27288   1.32489    0.026
 5568.00    1.26616   1.32537    0.026
 5569.00    1.28710   1.32356    0.026
 5570.00    1.31973   1.32054    0.026
 5571.00    1.33433   1.32419    0.026
 5572.00    1.34240   1.32397    0.026
 5573.00    1.31268   1.31889    0.026
 5574.00    1.27138   1.32302    0.026
 5575.00    1.24384   1.32352    0.025
 5576.00    1.21980   1.31805    0.025
 5577.00    1.23449   1.32005    0.025
 5578.00    1.25720   1.31777    0.025
 5579.00    1.23542   1.31259    0.025
 5580.00    1.20638   1.31273    0.025
 5581.00    1.20141   1.30698    0.025
 5582.00    1.19938   1.30182    0.025
 5583.00    1.20879   1.29970    0.025
 5584.00    1.21916   1.29238    0.026
 5585.00    1.23605   1.28926    0.026
 5586.00    1.25326   1.28564    0.026
 5587.00    1.20856   1.27820    0.026
 5588.00    1.16357   1.27740    0.026
 5589.00    1.15584   1.27499    0.026
 5590.00    1.15085   1.27196    0.026
 5591.00    1.20025   1.27329    0.026
 5592.00    1.24508   1.27193    0.026
 5593.00    1.23688   1.27395    0.026
 5594.00    1.23167   1.27580    0.026
 5595.00    1.25041   1.27529    0.026
 5596.00    1.26876   1.28229    0.026
 5597.00    1.28478   1.28597    0.026
 5598.00    1.29594   1.28552    0.027
 5599.00    1.28401   1.29223    0.027
 5600.00    1.27268   1.29734    0.027
 5601.00    1.26369   1.30045    0.026
 5602.00    1.25791   1.30633    0.026
 5603.00    1.26249   1.30987    0.026
 5604.00    1.27317   1.31451    0.026
 5605.00    1.30057   1.31994    0.026
 5606.00    1.30695   1.32255    0.026
 5607.00    1.26400   1.32552    0.026
 5608.00    1.24084   1.32820    0.026
 5609.00    1.25785   1.32818    0.025
 5610.00    1.27293   1.32838    0.025
 5611.00    1.28460   1.32901    0.026
 5612.00    1.27677   1.32635    0.026
 5613.00    1.23882   1.32456    0.025
 5614.00    1.21534   1.32371    0.025
 5615.00    1.21151   1.31772    0.025
 5616.00    1.20306   1.31441    0.025
 5617.00    1.18910   1.31553    0.025
 5618.00    1.19015   1.31218    0.025
 5619.00    1.20701   1.30907    0.025
 5620.00    1.22375   1.30897    0.025
 5621.00    1.24036   1.30755    0.025
 5622.00    1.25614   1.30772    0.025
 5623.00    1.27124   1.30913    0.025
 5624.00    1.25812   1.30789    0.025
 5625.00    1.22465   1.30841    0.025
 5626.00    1.23151   1.31183    0.025
 5627.00    1.26390   1.31278    0.025
 5628.00    1.27988   1.31391    0.025
 5629.00    1.28678   1.31712    0.025
 5630.00    1.27420   1.31795    0.025
 5631.00    1.25224   1.31846    0.025
 5632.00    1.24133   1.31973    0.025
 5633.00    1.23502   1.31970    0.025
 5634.00    1.24480   1.31978    0.025
 5635.00    1.26029   1.31919    0.025
 5636.00    1.26856   1.31838    0.025
 5637.00    1.27466   1.31825    0.025
 5638.00    1.28399   1.31676    0.025
 5639.00    1.29411   1.31694    0.025
 5640.00    1.27598   1.31739    0.025
 5641.00    1.25214   1.31484    0.025
 5642.00    1.24713   1.31560    0.025
 5643.00    1.24512   1.31662    0.025
 5644.00    1.24598   1.31447    0.025
 5645.00    1.24718   1.31592    0.025
 5646.00    1.26030   1.31633    0.025
 5647.00    1.27437   1.31439    0.025
 5648.00    1.24699   1.31551    0.025
 5649.00    1.21778   1.31451    0.024
 5650.00    1.24936   1.31266    0.025
 5651.00    1.28035   1.31280    0.025
 5652.00    1.24919   1.31001    0.025
 5653.00    1.22060   1.30888    0.025
 5654.00    1.23932   1.30823    0.025
 5655.00    1.25721   1.30262    0.025
 5656.00    1.26581   1.30229    0.025
 5657.00    1.27009   1.30417    0.025
 5658.00    1.24084   1.29796    0.025
 5659.00    1.21753   1.29645    0.024
 5660.00    1.22912   1.30120    0.024
 5661.00    1.23411   1.30002    0.024
 5662.00    1.20845   1.29922    0.024
 5663.00    1.18746   1.30301    0.025
 5664.00    1.18422   1.30551    0.024
 5665.00    1.18560   1.30837    0.024
 5666.00    1.20165   1.31229    0.024
 5667.00    1.21664   1.31525    0.024
 5668.00    1.22880   1.31929    0.024
 5669.00    1.24459   1.32349    0.024
 5670.00    1.26879   1.32704    0.024
 5671.00    1.29492   1.33081    0.025
 5672.00    1.32489   1.33390    0.024
 5673.00    1.32916   1.33698    0.024
 5674.00    1.28874   1.33964    0.025
 5675.00    1.25902   1.34010    0.025
 5676.00    1.24560   1.34079    0.025
 5677.00    1.23555   1.34249    0.025
 5678.00    1.23001   1.34192    0.025
 5679.00    1.22206   1.33983    0.025
 5680.00    1.21125   1.33949    0.025
 5681.00    1.20470   1.33944    0.025
 5682.00    1.20257   1.33678    0.025
 5683.00    1.21316   1.33467    0.025
 5684.00    1.23538   1.33478    0.025
 5685.00    1.24749   1.33409    0.024
 5686.00    1.25142   1.33254    0.025
 5687.00    1.24639   1.33167    0.025
 5688.00    1.23499   1.33119    0.024
 5689.00    1.23882   1.33111    0.024
 5690.00    1.25216   1.33108    0.025
 5691.00    1.27147   1.33014    0.025
 5692.00    1.29403   1.32927    0.025
 5693.00    1.30558   1.32897    0.025
 5694.00    1.31191   1.32700    0.024
 5695.00    1.29408   1.32327    0.024
 5696.00    1.26639   1.32210    0.025
 5697.00    1.25101   1.31987    0.025
 5698.00    1.23994   1.31328    0.025
 5699.00    1.23412   1.31052    0.025
 5700.00    1.22984   1.30777    0.025
 5701.00    1.22908   1.30139    0.025
 5702.00    1.22917   1.29821    0.024
 5703.00    1.23606   1.29424    0.024
 5704.00    1.24430   1.29124    0.024
 5705.00    1.23229   1.29032    0.025
 5706.00    1.21716   1.28535    0.025
 5707.00    1.20519   1.28619    0.025
 5708.00    1.19357   1.28863    0.024
 5709.00    1.18870   1.28512    0.024
 5710.00    1.18435   1.29085    0.024
 5711.00    1.20493   1.29662    0.024
 5712.00    1.22652   1.29584    0.024
 5713.00    1.23664   1.30487    0.024
 5714.00    1.24677   1.31247    0.024
 5715.00    1.26084   1.31475    0.024
 5716.00    1.27506   1.32451    0.024
 5717.00    1.29197   1.33111    0.024
 5718.00    1.30720   1.33466    0.024
 5719.00    1.30470   1.34362    0.024
 5720.00    1.30151   1.34836    0.025
 5721.00    1.29314   1.35120    0.024
 5722.00    1.28886   1.35772    0.024
 5723.00    1.30788   1.36054    0.025
 5724.00    1.32412   1.36167    0.025
 5725.00    1.32774   1.36512    0.024
 5726.00    1.32871   1.36667    0.024
 5727.00    1.31988   1.36636    0.025
 5728.00    1.31253   1.36683    0.025
 5729.00    1.30978   1.36838    0.024
 5730.00    1.30957   1.36904    0.024
 5731.00    1.31606   1.36720    0.024
 5732.00    1.32040   1.36738    0.024
 5733.00    1.31986   1.36903    0.024
 5734.00    1.31534   1.36776    0.024
 5735.00    1.30299   1.36775    0.024
 5736.00    1.29581   1.36855    0.024
 5737.00    1.29746   1.36720    0.024
 5738.00    1.30366   1.36753    0.024
 5739.00    1.31668   1.36750    0.024
 5740.00    1.32390   1.36605    0.000
 5741.00    1.32347   1.36652    0.000
 5742.00    1.32344   1.36545    0.000
 5743.00    1.32385   1.36373    0.000
 5744.00    1.32699   1.36395    0.000
 5745.00    1.33293   1.36194    0.000
 5746.00    1.33917   1.36064    0.000
 5747.00    1.34571   1.36051    0.000
 5748.00    1.34631   1.35685    0.000
 5749.00    1.34218   1.35568    0.000
 5750.00    1.34047   1.35640    0.000
 5751.00    1.34044   1.35312    0.000
 5752.00    1.34624   1.35213    0.000
 5753.00    1.35561   1.35235    0.000
 5754.00    1.34013   1.34924    0.000
 5755.00    1.31131   1.34989    0.000
 5756.00    1.31074   1.35135    0.000
 5757.00    1.32335   1.34919    0.000
 5758.00    1.34751   1.35076    0.000
 5759.00    1.37632   1.35219    0.000
 5760.00    1.37220   1.35053    0.000
 5761.00    1.35680   1.35322    0.000
 5762.00    1.34498   1.35485    0.000
 5763.00    1.33419   1.35324    0.000
 5764.00    1.31179   1.35688    0.000
 5765.00    1.28663   1.35912    0.000
 5766.00    1.29004   1.35701    0.000
 5767.00    1.29893   1.35913    0.000
 5768.00    1.37652   1.36005    0.000
 5769.00    1.46435   1.35698    0.000
 5770.00    1.50527   1.35749    0.000
 5771.00    1.54107   1.35623    0.000
 5772.00    1.51281   1.35140    0.000
 5773.00    1.47995   1.35022    0.000
 5774.00    1.40297   1.34676    0.000
 5775.00    1.32437   1.34051    0.000
 5776.00    1.29448   1.33800    0.000
 5777.00    1.26577   1.33360    0.000
 5778.00    1.27194   1.32732    0.000
 5779.00    1.27731   1.32403    0.000
 5780.00    1.26969   1.32049    0.000
 5781.00    1.26407   1.31572    0.000
 5782.00    1.27860   1.31233    0.000
 5783.00    1.29069   1.31232    0.000
 5784.00    1.28510   1.31208    0.000
 5785.00    1.28166   1.30931    0.000
 5786.00    1.29013   1.31212    0.000
 5787.00    1.29999   1.31623    0.000
 5788.00    1.31599   1.31587    0.000
 5789.00    1.33236   1.32124    0.000
 5790.00    1.35006   1.32709    0.000
 5791.00    1.35698   1.32811   -2.000
 5792.00    1.33095   1.33449   -2.000
 5793.00    1.30902   1.34130   -2.000
 5794.00    1.29776   1.34360   -2.000
 5795.00    1.29478   1.34862   -2.000
 5796.00    1.31029   1.35492   -2.000
 5797.00    1.31121   1.35745   -2.000
 5798.00    1.28389   1.35945   -2.000
 5799.00    1.26678   1.36465   -2.000
 5800.00    1.26689   1.36784   -2.000
 5801.00    1.27626   1.36783   -2.000
 5802.00    1.29930   1.37093   -2.000
 5803.00    1.32190   1.37307   -2.000
 5804.00    1.34392   1.37192   -2.000
 5805.00    1.35397   1.37348   -2.000
 5806.00    1.35031   1.37453   -2.000
 5807.00    1.34403   1.37387   -2.000
 5808.00    1.33509   1.37496   -2.000
 5809.00    1.34260   1.37497   -2.000
 5810.00    1.36474   1.37476   -2.000
 5811.00    1.37570   1.37611    0.000
 5812.00    1.37787   1.37614    0.000
 5813.00    1.37234   1.37620    0.000
 5814.00    1.36149   1.37781    0.000
 5815.00    1.34162   1.37874    0.000
 5816.00    1.31629   1.37892    0.000
 5817.00    1.31483   1.38054    0.000
 5818.00    1.32597   1.38288    0.000
 5819.00    1.33708   1.38382    0.000
 5820.00    1.34818   1.38500    0.000
 5821.00    1.33869   1.38719    0.000
 5822.00    1.32108   1.38828    0.000
 5823.00    1.31803   1.38911    0.000
 5824.00    1.31988   1.39069    0.000
 5825.00    1.32272   1.39158    0.000
 5826.00    1.32583   1.39207    0.000
 5827.00    1.32248   1.39302    0.000
 5828.00    1.31764   1.39298    0.000
 5829.00    1.30953   1.39282    0.000
 5830.00    1.30080   1.39370    0.000
 5831.00    1.29648   1.39298    0.000
 5832.00    1.29279   1.39166    0.000
 5833.00    1.29900   1.39255    0.000
 5834.00    1.30624   1.39189    0.000
 5835.00    1.31648   1.38930    0.000
 5836.00    1.32692   1.38976    0.000
 5837.00    1.33375   1.38965    0.000
 5838.00    1.34045   1.38624    0.000
 5839.00    1.32000   1.38521    0.000
 5840.00    1.30048   1.38480    0.000
 5841.00    1.31098   1.38116    0.000
 5842.00    1.32088   1.37863    0.000
 5843.00    1.32154   1.37684    0.000
 5844.00    1.32071   1.37226    0.000
 5845.00    1.30547   1.36831    0.000
 5846.00    1.29141   1.36520    0.000
 5847.00    1.28554   1.35961    0.000
 5848.00    1.28224   1.35470    0.000
 5849.00    1.29285   1.35104    0.000
 5850.00    1.30281   1.34532    0.000
 5851.00    1.30994   1.34010    0.000
 5852.00    1.31542   1.33678    0.000
 5853.00    1.31500   1.33180    0.000
 5854.00    1.31295   1.32684    0.000
 5855.00    1.30605   1.32532    0.000
 5856.00    1.29529   1.32298    0.000
 5857.00    1.27466   1.31886    0.000
 5858.00    1.26332   1.31863    0.000
 5859.00    1.27238   1.31915    0.000
 5860.00    1.28434   1.31732    0.000
 5861.00    1.30182   1.31887    0.000
 5862.00    1.30535   1.32106    0.000
 5863.00    1.28571   1.32041    0.000
 5864.00    1.27871   1.32253    0.000
 5865.00    1.29012   1.32601    0.000
 5866.00    1.30050   1.32613    0.000
 5867.00    1.30957   1.32706    0.000
 5868.00    1.31999   1.32995    0.000
 5869.00    1.33194   1.33023    0.000
 5870.00    1.32687   1.32949    0.000
 5871.00    1.30486   1.32987    0.000
 5872.00    1.29220   1.32840    0.000
 5873.00    1.28773   1.32514    0.000
 5874.00    1.28478   1.32193    0.000
 5875.00    1.28298   1.31744    0.000
 5876.00    1.27426   1.31162    0.000
 5877.00    1.26083   1.30385    0.000
 5878.00    1.26220   1.29460    0.000
 5879.00    1.27239   1.28645    0.000
 5880.00    1.26587   1.27438    0.000
 5881.00    1.25065   1.25972    0.000
 5882.00    1.21973   1.25017    0.000
 5883.00    1.18174   1.23557    0.000
 5884.00    1.16452   1.21631    0.000
 5885.00    1.15537   1.20718    0.000
 5886.00    1.15499   1.19273    0.000
 5887.00    1.15750   1.17176    0.000
 5888.00    1.16214   1.16691    0.000
 5889.00    1.16737   1.15604    0.000
 5890.00    1.15516   1.13616    0.000
 5891.00    1.13899   1.13925    0.000
 5892.00    1.12103   1.13781    0.000
 5893.00    1.10275   1.12427    0.000
 5894.00    1.11131   1.13484    0.000
 5895.00    1.12361   1.14170    0.000
 5896.00    1.14612   1.13516    0.000
 5897.00    1.16965   1.15148    0.000
 5898.00    1.17458   1.16661    0.000
 5899.00    1.17832   1.16805    0.000
 5900.00    1.21267   1.18503    0.000
 5901.00    1.24784   1.20207    0.024
 5902.00    1.25446   1.20840    0.024
 5903.00    1.26055   1.22328    0.024
 5904.00    1.25137   1.23800    0.023
 5905.00    1.24312   1.24543    0.023
 5906.00    1.24808   1.25657    0.023
 5907.00    1.25373   1.26661    0.023
 5908.00    1.26583   1.27273    0.023
 5909.00    1.27637   1.28035    0.023
 5910.00    1.27633   1.28546    0.023
 5911.00    1.27633   1.28923    0.023
 5912.00    1.27649   1.29447    0.023
 5913.00    1.27783   1.29615    0.023
 5914.00    1.28415   1.29812    0.023
 5915.00    1.29022   1.30184    0.023
 5916.00    1.29543   1.30173    0.023
 5917.00    1.30137   1.30363    0.023
 5918.00    1.30947   1.30656    0.023
 5919.00    1.30853   1.30552    0.022
 5920.00    1.28496   1.30771    0.023
 5921.00    1.27491   1.30995    0.023
 5922.00    1.29406   1.30861    0.023
 5923.00    1.30564   1.31085    0.023
 5924.00    1.30299   1.31238    0.023
 5925.00    1.29759   1.31130    0.023
 5926.00    1.28770   1.31322    0.023
 5927.00    1.28807   1.31393    0.023
 5928.00    1.30318   1.31318    0.023
 5929.00    1.31935   1.31438    0.023
 5930.00    1.33686   1.31482    0.023
 5931.00    1.33761   1.31439    0.023
 5932.00    1.31969   1.31482    0.023
 5933.00    1.29879   1.31605    0.023
 5934.00    1.27497   1.31565    0.023
 5935.00    1.25672   1.31454    0.023
 5936.00    1.24332   1.31675    0.023
 5937.00    1.25420   1.31698    0.023
 5938.00    1.28359   1.31480    0.023
 5939.00    1.29624   1.31714    0.023
 5940.00    1.29768   1.31754    0.023
 5941.00    1.28683   1.31484    0.023
 5942.00    1.26878   1.31673    0.023
 5943.00    1.27383   1.31693    0.023
 5944.00    1.29072   1.31452    0.023
 5945.00    1.30058   1.31605    0.023
 5946.00    1.30734   1.31562    0.023
 5947.00    1.29610   1.31346    0.023
 5948.00    1.27800   1.31500    0.023
 5949.00    1.26836   1.31423    0.023
 5950.00    1.26144   1.31221    0.023
 5951.00    1.26480   1.31448    0.023
 5952.00    1.27095   1.31470    0.023
 5953.00    1.28400   1.31267    0.023
 5954.00    1.29858   1.31497    0.022
 5955.00    1.32028   1.31708    0.023
 5956.00    1.34324   1.31608    0.023
 5957.00    1.35482   1.31781    0.023
 5958.00    1.36486   1.32119    0.022
 5959.00    1.32498   1.32160    0.022
 5960.00    1.28030   1.32279    0.022
 5961.00    1.27537   1.32677    0.022
 5962.00    1.27281   1.32797    0.023
 5963.00    1.29085   1.32806    0.023
 5964.00    1.30918   1.33176    0.023
 5965.00    1.29020   1.33315    0.023
 5966.00    1.27175   1.33191    0.023
 5967.00    1.26687   1.33446    0.023
 5968.00    1.26370   1.33557    0.023
 5969.00    1.28371   1.33317    0.023
 5970.00    1.30257   1.33389    0.023
 5971.00    1.31113   1.33431    0.023
 5972.00    1.31633   1.33099    0.023
 5973.00    1.29940   1.32998    0.023
 5974.00    1.28223   1.32986    0.023
 5975.00    1.26379   1.32606    0.023
 5976.00    1.24784   1.32396    0.023
 5977.00    1.24219   1.32384    0.022
 5978.00    1.23666   1.32015    0.022
 5979.00    1.23149   1.31801    0.022
 5980.00    1.22881   1.31859    0.022
 5981.00    1.23331   1.31547    0.022
 5982.00    1.23736   1.31382    0.022
 5983.00    1.24030   1.31533    0.022
 5984.00    1.24463   1.31322    0.022
 5985.00    1.25190   1.31211    0.022
 5986.00    1.26016   1.31448    0.022
 5987.00    1.27024   1.31403    0.022
 5988.00    1.28592   1.31301    0.022
 5989.00    1.31064   1.31510    0.022
 5990.00    1.33147   1.31590    0.022
 5991.00    1.34680   1.31468    0.022
 5992.00    1.34335   1.31588    0.022
 5993.00    1.31651   1.31686    0.022
 5994.00    1.29763   1.31513    0.022
 5995.00    1.28748   1.31561    0.022
 5996.00    1.28287   1.31572    0.023
 5997.00    1.28363   1.31302    0.023
 5998.00    1.29284   1.31324    0.023
 5999.00    1.30927   1.31224    0.023
 6000.00    1.31724   1.30887    0.023
 6001.00    1.31885   1.30937    0.023
 6002.00    1.30565   1.30734    0.023
 6003.00    1.28265   1.30374    0.023
 6004.00    1.26031   1.30451    0.023
 6005.00    1.23834   1.30199    0.023
 6006.00    1.22575   1.29915    0.023
 6007.00    1.21790   1.29996    0.023
 6008.00    1.22764   1.29720    0.023
 6009.00    1.24506   1.29571    0.022
 6010.00    1.26151   1.29646    0.022
 6011.00    1.27761   1.29409    0.022
 6012.00    1.27937   1.29411    0.022
 6013.00    1.27659   1.29451    0.022
 6014.00    1.27122   1.29268    0.023
 6015.00    1.26515   1.29425    0.023
 6016.00    1.26793   1.29519    0.023
 6017.00    1.27262   1.29423    0.022
 6018.00    1.27927   1.29654    0.022
 6019.00    1.28627   1.29877    0.022
 6020.00    1.29287   1.29946    0.022
 6021.00    1.29941   1.30179    0.022
 6022.00    1.29140   1.30540    0.022
 6023.00    1.28205   1.30823    0.022
 6024.00    1.27717   1.31034    0.022
 6025.00    1.27255   1.31470    0.023
 6026.00    1.27770   1.31927    0.023
 6027.00    1.28309   1.32118    0.023
 6028.00    1.29137   1.32535    0.023
 6029.00    1.29935   1.33068    0.023
 6030.00    1.30025   1.33245    0.023
 6031.00    1.30147   1.33572    0.023
 6032.00    1.30674   1.34076    0.023
 6033.00    1.31329   1.34218    0.023
 6034.00    1.33084   1.34439    0.022
 6035.00    1.34352   1.34865    0.022
 6036.00    1.32511   1.34944    0.022
 6037.00    1.30900   1.35066    0.022
 6038.00    1.30435   1.35417    0.022
 6039.00    1.30208   1.35431    0.022
 6040.00    1.30940   1.35470    0.022
 6041.00    1.31206   1.35754    0.022
 6042.00    1.29905   1.35719    0.022
 6043.00    1.29160   1.35686    0.022
 6044.00    1.29988   1.35890    0.022
 6045.00    1.31369   1.35824    0.022
 6046.00    1.34087   1.35717    0.022
 6047.00    1.35646   1.35805    0.022
 6048.00    1.34781   1.35716    0.022
 6049.00    1.33484   1.35556    0.022
 6050.00    1.31399   1.35498    0.022
 6051.00    1.30346   1.35391    0.022
 6052.00    1.30930   1.35230    0.022
 6053.00    1.31607   1.35035    0.022
 6054.00    1.32413   1.34918    0.023
 6055.00    1.32018   1.34825    0.023
 6056.00    1.30149   1.34555    0.022
 6057.00    1.29362   1.34451    0.022
 6058.00    1.29747   1.34491    0.022
 6059.00    1.30218   1.34217    0.022
 6060.00    1.30772   1.34152    0.023
 6061.00    1.30777   1.34357    0.023
 6062.00    1.30320   1.34137    0.023
 6063.00    1.29351   1.34112    0.023
 6064.00    1.28001   1.34453    0.023
 6065.00    1.26835   1.34333    0.023
 6066.00    1.25789   1.34319    0.022
 6067.00    1.26544   1.34675    0.022
 6068.00    1.28324   1.34656    0.023
 6069.00    1.30167   1.34604    0.022
 6070.00    1.32041   1.34814    0.022
 6071.00    1.32898   1.34846    0.022
 6072.00    1.33318   1.34710    0.022
 6073.00    1.33525   1.34663    0.022
 6074.00    1.33655   1.34702    0.022
 6075.00    1.33602   1.34469    0.022
 6076.00    1.33492   1.34144    0.022
 6077.00    1.33633   1.34174    0.022
 6078.00    1.33838   1.33888    0.022
 6079.00    1.32256   1.33375    0.022
 6080.00    1.30295   1.33408    0.022
 6081.00    1.27573   1.33129    0.022
 6082.00    1.24724   1.32583    0.022
 6083.00    1.24462   1.32653    0.022
 6084.00    1.24527   1.32394    0.022
 6085.00    1.26475   1.31945    0.022
 6086.00    1.28589   1.32103    0.022
 6087.00    1.28249   1.31836    0.022
 6088.00    1.27783   1.31516    0.022
 6089.00    1.25984   1.31802    0.022
 6090.00    1.24183   1.31492    0.022
 6091.00    1.23986   1.31252    0.022
 6092.00    1.23901   1.31673    0.022
 6093.00    1.26197   1.31302    0.022
 6094.00    1.28549   1.31062    0.022
 6095.00    1.31564   1.31598    0.022
 6096.00    1.34263   1.31180    0.022
 6097.00    1.34344   1.30897    0.022
 6098.00    1.34050   1.31525    0.022
 6099.00    1.31427   1.31109    0.022
 6100.00    1.28940   1.30794    0.022
 6101.00    1.27115   1.31479    0.022
 6102.00    1.25575   1.31125    0.022
 6103.00    1.25165   1.30847    0.022
 6104.00    1.24844   1.31520    0.022
 6105.00    1.24817   1.31256    0.022
 6106.00    1.25049   1.31073    0.022
 6107.00    1.26006   1.31630    0.022
 6108.00    1.27281   1.31437    0.022
 6109.00    1.29314   1.31372    0.022
 6110.00    1.31375   1.31687    0.022
 6111.00    1.33496   1.31506    0.022
 6112.00    1.35063   1.31559    0.022
 6113.00    1.35639   1.31541    0.022
 6114.00    1.35643   1.31317    0.022
 6115.00    1.34751   1.31489    0.022
 6116.00    1.33193   1.31137    0.022
 6117.00    1.30720   1.30850    0.022
 6118.00    1.29263   1.31160    0.022
 6119.00    1.29034   1.30571    0.022
 6120.00    1.29043   1.30234    0.022
 6121.00    1.29304   1.30683    0.022
 6122.00    1.28850   1.30006    0.022
 6123.00    1.27724   1.29641    0.022
 6124.00    1.27426   1.30184    0.022
 6125.00    1.27816   1.29533    0.022
 6126.00    1.28212   1.29153    0.022
 6127.00    1.28613   1.29701    0.022
 6128.00    1.28271   1.29134    0.022
 6129.00    1.27453   1.28750    0.021
 6130.00    1.25748   1.29229    0.021
 6131.00    1.23547   1.28770    0.021
 6132.00    1.22665   1.28414    0.021
 6133.00    1.22427   1.28806    0.022
 6134.00    1.23148   1.28491    0.022
 6135.00    1.24273   1.28222    0.022
 6136.00    1.25748   1.28554    0.022
 6137.00    1.27350   1.28426    0.022
 6138.00    1.27281   1.28300    0.022
 6139.00    1.26703   1.28578    0.022
 6140.00    1.26028   1.28626    0.022
 6141.00    1.25328   1.28651    0.022
 6142.00    1.26207   1.28829    0.022
 6143.00    1.27412   1.28949    0.022
 6144.00    1.29039   1.29063    0.022
 6145.00    1.30735   1.29061    0.022
 6146.00    1.31417   1.29081    0.022
 6147.00    1.31977   1.29189    0.022
 6148.00    1.31586   1.28951    0.022
 6149.00    1.31115   1.28703    0.021
 6150.00    1.28218   1.28702    0.022
 6151.00    1.25206   1.28240    0.022
 6152.00    1.21837   1.27663    0.022
 6153.00    1.18516   1.27509    0.021
 6154.00    1.18230   1.26893    0.021
 6155.00    1.18046   1.26058    0.022
 6156.00    1.19874   1.25792    0.022
 6157.00    1.21622   1.25128    0.022
 6158.00    1.22465   1.24205    0.022
 6159.00    1.23220   1.23950    0.022
 6160.00    1.23271   1.23363    0.022
 6161.00    1.23230   1.22551    0.022
 6162.00    1.22637   1.22472    0.022
 6163.00    1.21812   1.22071    0.022
 6164.00    1.19894   1.21500    0.022
 6165.00    1.18478   1.21720    0.022
 6166.00    1.19007   1.21591    0.022
 6167.00    1.20042   1.21276    0.022
 6168.00    1.22708   1.21787    0.021
 6169.00    1.25222   1.21971    0.021
 6170.00    1.27318   1.21830    0.022
 6171.00    1.28535   1.22450    0.022
 6172.00    1.27692   1.22927    0.022
 6173.00    1.26083   1.22903    0.022
 6174.00    1.22922   1.23387    0.022
 6175.00    1.20184   1.24023    0.022
 6176.00    1.18189   1.24086    0.022
 6177.00    1.16890   1.24265    0.022
 6178.00    1.16663   1.24860    0.022
 6179.00    1.16892   1.24959    0.022
 6180.00    1.17740   1.24829    0.022
 6181.00    1.18302   1.25253    0.021
 6182.00    1.18521   1.25306    0.021
 6183.00    1.19023   1.24969    0.021
 6184.00    1.19824   1.25229    0.021
 6185.00    1.21567   1.25176    0.021
 6186.00    1.24185   1.24771    0.022
 6187.00    1.25117   1.24985    0.022
 6188.00    1.24671   1.24836    0.022
 6189.00    1.23523   1.24482    0.022
 6190.00    1.21872   1.24780    0.021
 6191.00    1.21701   1.24615    0.021
 6192.00    1.22465   1.24368    0.021
 6193.00    1.21646   1.24784    0.021
 6194.00    1.19952   1.24709    0.021
 6195.00    1.14055   1.24581    0.022
 6196.00    1.06139   1.25017   -2.000
 6197.00    1.09325   1.25046   -2.000
 6198.00    1.17112   1.25008   -2.000
 6199.00    1.34000   1.25343   -2.000
 6200.00    1.54115   1.25400   -2.000
 6201.00    1.63610   1.25352   -2.000
 6202.00    1.69928   1.25523   -2.000
 6203.00    1.59363   1.25549   -2.000
 6204.00    1.44605   1.25362   -2.000
 6205.00    1.35058   1.25308   -2.000
 6206.00    1.26560   1.25275   -2.000
 6207.00    1.25551   1.24890   -2.000
 6208.00    1.25723   1.24612    0.023
 6209.00    1.25099   1.24525    0.022
 6210.00    1.24381   1.23976    0.022
 6211.00    1.21492   1.23545    0.022
 6212.00    1.18431   1.23438    0.021
 6213.00    1.16731   1.22838    0.021
 6214.00    1.15091   1.22364    0.021
 6215.00    1.16133   1.22259    0.021
 6216.00    1.17232   1.21753    0.021
 6217.00    1.19592   1.21369    0.021
 6218.00    1.21904   1.21257    0.021
 6219.00    1.23338   1.20928    0.021
 6220.00    1.24599   1.20708    0.021
 6221.00    1.23957   1.20525    0.021
 6222.00    1.23420   1.20389    0.021
 6223.00    1.23697   1.20395    0.021
 6224.00    1.24239   1.20082    0.022
 6225.00    1.26335   1.20045    0.022
 6226.00    1.27929   1.20292    0.022
 6227.00    1.27195   1.19871    0.022
 6228.00    1.26204   1.19812    0.022
 6229.00    1.24241   1.20265    0.022
 6230.00    1.22283   1.19802    0.022
 6231.00    1.20343   1.19602    0.022
 6232.00    1.18899   1.20201    0.022
 6233.00    1.18786   1.19830    0.022
 6234.00    1.18891   1.19429    0.022
 6235.00    1.19493   1.20061    0.021
 6236.00    1.20372   1.19872    0.021
 6237.00    1.21799   1.19225    0.021
 6238.00    1.22003   1.19775    0.021
 6239.00    1.20081   1.19820    0.021
 6240.00    1.18213   1.18959    0.021
 6241.00    1.16425   1.19359    0.020
 6242.00    1.15616   1.19651    0.020
 6243.00    1.16116   1.18671    0.021
 6244.00    1.16884   1.18864    0.021
 6245.00    1.17968   1.19338    0.021
 6246.00    1.19109   1.18386    0.021
 6247.00    1.20311   1.18378    0.021
 6248.00    1.20462   1.18942    0.021
 6249.00    1.19653   1.18128    0.021
 6250.00    1.17908   1.17973    0.021
 6251.00    1.15411   1.18564    0.021
 6252.00    1.14724   1.17945    0.021
 6253.00    1.15321   1.17722    0.021
 6254.00    1.16508   1.18372    0.022
 6255.00    1.18062   1.18018    0.022
 6256.00    1.18010   1.17802    0.022
 6257.00    1.17084   1.18546    0.022
 6258.00    1.17073   1.18459    0.022
 6259.00    1.17495   1.18272    0.022
 6260.00    1.21400   1.19128    0.024
 6261.00    1.26725   1.19329    0.025
 6262.00    1.31375   1.19147    0.026
 6263.00    1.35791   1.19987    0.027
 6264.00    1.36358   1.20442    0.026
 6265.00    1.35796   1.20251    0.026
 6266.00    1.32664   1.20908    0.025
 6267.00    1.28906   1.21516    0.023
 6268.00    1.27234   1.21372    0.022
 6269.00    1.25971   1.21788    0.021
 6270.00    1.26603   1.22387    0.021
 6271.00    1.27525   1.22286    0.021
 6272.00    1.28302   1.22524    0.021
 6273.00    1.29063   1.23044    0.021
 6274.00    1.28635   1.22958    0.021
 6275.00    1.28117   1.23091    0.021
 6276.00    1.27535   1.23513    0.021
 6277.00    1.26951   1.23446    0.021
 6278.00    1.26728   1.23550    0.021
 6279.00    1.26465   1.23878    0.021
 6280.00    1.24500   1.23828    0.000
 6281.00    1.22699   1.23925    0.000
 6282.00    1.23710   1.24161    0.000
 6283.00    1.24712   1.24156    0.000
 6284.00    1.25625   1.24239    0.000
 6285.00    1.26459   1.24348    0.000
 6286.00    1.26710   1.24361    0.000
 6287.00    1.27020   1.24365    0.000
 6288.00    1.27661   1.24358    0.000
 6289.00    1.27994   1.24381    0.000
 6290.00    1.26931   1.24255    0.000
 6291.00    1.25841   1.24134    0.000
 6292.00    1.24655   1.24153    0.000
 6293.00    1.23834   1.23926    0.000
 6294.00    1.24145   1.23761    0.000
 6295.00    1.24762   1.23805    0.000
 6296.00    1.26185   1.23537    0.000
 6297.00    1.27074   1.23371    0.000
 6298.00    1.26750   1.23456    0.000
 6299.00    1.26532   1.23235    0.000
 6300.00    1.26519   1.23144    0.000
 6301.00    1.26066   1.23304    0.000
 6302.00    1.24858   1.23093    0.000
 6303.00    1.23998   1.23026    0.000
 6304.00    1.23657   1.23341    0.000
 6305.00    1.23733   1.23169    0.000
 6306.00    1.24360   1.22986    0.000
 6307.00    1.24815   1.23400    0.000
 6308.00    1.25071   1.23319    0.000
 6309.00    1.25281   1.22962    0.000
 6310.00    1.25444   1.23377    0.000
 6311.00    1.25422   1.23410    0.000
 6312.00    1.25235   1.22885    0.000
 6313.00    1.25305   1.23268    0.000
 6314.00    1.25578   1.23513    0.000
 6315.00    1.24177   1.22902    0.000
 6316.00    1.21606   1.23171    0.000
 6317.00    1.20073   1.23664    0.000
 6318.00    1.19176   1.23165    0.000
 6319.00    1.19806   1.23269    0.000
 6320.00    1.21254   1.23902    0.000
 6321.00    1.22791   1.23680    0.021
 6322.00    1.24369   1.23669    0.020
 6323.00    1.25308   1.24241    0.021
 6324.00    1.25992   1.24226    0.021
 6325.00    1.25758   1.24194    0.021
 6326.00    1.25210   1.24622    0.021
 6327.00    1.24697   1.24628    0.021
 6328.00    1.24195   1.24602    0.021
 6329.00    1.24288   1.24872    0.021
 6330.00    1.24524   1.24804    0.021
 6331.00    1.24274   1.24790    0.021
 6332.00    1.23932   1.24894    0.021
 6333.00    1.23600   1.24751    0.021
 6334.00    1.23269   1.24794    0.021
 6335.00    1.24648   1.24769    0.021
 6336.00    1.26211   1.24526    0.021
 6337.00    1.26334   1.24630    0.021
 6338.00    1.26354   1.24643    0.021
 6339.00    1.25138   1.24406    0.021
 6340.00    1.23877   1.24500    0.021
 6341.00    1.23844   1.24520    0.021
 6342.00    1.23799   1.24368    0.021
 6343.00    1.23179   1.24427    0.021
 6344.00    1.22677   1.24364    0.021
 6345.00    1.24053   1.24273    0.020
 6346.00    1.25480   1.24318    0.020
 6347.00    1.27411   1.24200    0.020
 6348.00    1.29231   1.24068    0.021
 6349.00    1.30241   1.23995    0.021
 6350.00    1.31207   1.23846    0.021
 6351.00    1.31928   1.23664    0.021
 6352.00    1.32000   1.23416    0.021
 6353.00    1.29199   1.23255    0.021
 6354.00    1.26794   1.23103    0.021
 6355.00    1.25823   1.22711    0.021
 6356.00    1.24973   1.22544    0.021
 6357.00    1.24489   1.22571    0.021
 6358.00    1.23693   1.22226    0.021
 6359.00    1.22085   1.22040    0.021
 6360.00    1.20773   1.22248    0.021
 6361.00    1.20120   1.22168    0.021
 6362.00    1.20272   1.22086    0.022
 6363.00    1.21981   1.22403    0.021
 6364.00    1.23881   1.22609    0.021
 6365.00    1.26100   1.22736    0.022
 6366.00    1.27782   1.23116    0.022
 6367.00    1.28673   1.23487    0.021
 6368.00    1.28789   1.23766    0.021
 6369.00    1.27902   1.24145    0.021
 6370.00    1.27532   1.24561    0.021
 6371.00    1.27753   1.24856    0.021
 6372.00    1.28049   1.25137    0.020
 6373.00    1.28421   1.25549    0.020
 6374.00    1.28353   1.25811    0.020
 6375.00    1.27894   1.25875    0.021
 6376.00    1.27815   1.26183    0.021
 6377.00    1.28034   1.26434    0.021
 6378.00    1.27204   1.26296    0.021
 6379.00    1.25652   1.26441    0.021
 6380.00    1.24830   1.26671    0.021
 6381.00    1.24448   1.26415    0.021
 6382.00    1.25309   1.26435    0.021
 6383.00    1.26826   1.26642    0.021
 6384.00    1.28060   1.26316    0.021
 6385.00    1.29164   1.26224    0.021
 6386.00    1.29487   1.26415    0.021
 6387.00    1.29502   1.26073    0.021
 6388.00    1.28823   1.25920    0.021
 6389.00    1.27911   1.26122    0.020
 6390.00    1.26130   1.25750    0.021
 6391.00    1.24104   1.25550    0.021
 6392.00    1.24287   1.25856    0.021
 6393.00    1.24984   1.25475    0.021
 6394.00    1.27166   1.25142    0.021
 6395.00    1.29625   1.25611    0.021
 6396.00    1.29625   1.25449    0.021
 6397.00    1.29273   1.24987    0.021
 6398.00    1.27697   1.25438    0.021
 6399.00    1.25995   1.25493    0.021
 6400.00    1.25082   1.24966    0.021
 6401.00    1.24221   1.25291    0.021
 6402.00    1.24318   1.25537    0.021
 6403.00    1.24445   1.25238    0.021
 6404.00    1.25922   1.25383    0.021
 6405.00    1.27366   1.25448    0.021
 6406.00    1.27769   1.25414    0.021
 6407.00    1.28143   1.25561    0.021
 6408.00    1.28065   1.25312    0.021
 6409.00    1.27938   1.25399    0.021
 6410.00    1.27344   1.25760    0.021
 6411.00    1.26613   1.25338    0.021
 6412.00    1.24918   1.25276    0.021
 6413.00    1.23610   1.25800    0.021
 6414.00    1.24381   1.25491    0.021
 6415.00    1.25103   1.25254    0.020
 6416.00    1.25616   1.25786    0.020
 6417.00    1.26020   1.25713    0.020
 6418.00    1.26038   1.25370    0.021
 6419.00    1.25927   1.25774    0.021
 6420.00    1.25430   1.25934    0.021
 6421.00    1.25351   1.25566    0.021
 6422.00    1.26332   1.25795    0.021
 6423.00    1.27460   1.26196    0.020
 6424.00    1.28909   1.25943    0.021
 6425.00    1.29860   1.25923    0.021
 6426.00    1.29864   1.26327    0.021
 6427.00    1.29623   1.26233    0.021
 6428.00    1.28975   1.26120    0.022
 6429.00    1.28943   1.26439    0.022
 6430.00    1.29807   1.26404    0.022
 6431.00    1.30632   1.26252    0.021
 6432.00    1.31410   1.26485    0.021
 6433.00    1.31105   1.26536    0.021
 6434.00    1.29582   1.26515    0.021
 6435.00    1.28366   1.26636    0.021
 6436.00    1.27457   1.26580    0.021
 6437.00    1.27300   1.26684    0.021
 6438.00    1.27805   1.26797    0.021
 6439.00    1.28034   1.26570    0.021
 6440.00    1.28050   1.26640    0.021
 6441.00    1.27280   1.26889    0.021
 6442.00    1.25975   1.26716    0.021
 6443.00    1.24374   1.26540    0.021
 6444.00    1.22597   1.26701    0.021
 6445.00    1.21980   1.26735    0.021
 6446.00    1.21964   1.26373    0.020
 6447.00    1.21289   1.26345    0.021
 6448.00    1.20316   1.26659    0.021
 6449.00    1.19527   1.26211    0.021
 6450.00    1.18809   1.25865    0.021
 6451.00    1.18748   1.26422    0.021
 6452.00    1.18903   1.26239    0.021
 6453.00    1.18692   1.25761    0.021
 6454.00    1.18379   1.26317    0.021
 6455.00    1.19379   1.26360    0.021
 6456.00    1.20678   1.25774    0.021
 6457.00    1.21380   1.26216    0.021
 6458.00    1.21975   1.26621    0.021
 6459.00    1.20818   1.26049    0.021
 6460.00    1.19417   1.26221    0.021
 6461.00    1.20053   1.26875    0.021
 6462.00    1.20893   1.26363    0.020
 6463.00    1.22258   1.26175    0.020
 6464.00    1.23657   1.26967    0.021
 6465.00    1.23411   1.26751    0.021
 6466.00    1.23121   1.26340    0.020
 6467.00    1.23493   1.26984    0.020
 6468.00    1.23936   1.26968    0.020
 6469.00    1.26332   1.26423    0.020
 6470.00    1.28717   1.26860    0.020
 6471.00    1.30923   1.26968    0.021
 6472.00    1.32934   1.26350    0.021
 6473.00    1.33132   1.26578    0.021
 6474.00    1.33185   1.26799    0.021
 6475.00    1.32256   1.26138    0.021
 6476.00    1.31212   1.26028    0.022
 6477.00    1.29568   1.26303    0.021
 6478.00    1.27872   1.25734    0.021
 6479.00    1.25959   1.25299    0.021
 6480.00    1.24456   1.25447    0.021
 6481.00    1.24384   1.24985    0.021
 6482.00    1.24445   1.24330    0.021
 6483.00    1.24899   1.24226    0.020
 6484.00    1.25716   1.23863    0.020
 6485.00    1.27440   1.23210    0.021
 6486.00    1.28824   1.22897    0.021
 6487.00    1.29472   1.22486    0.021
 6488.00    1.29447   1.21850    0.020
 6489.00    1.28163   1.21489    0.020
 6490.00    1.26576   1.21094    0.020
 6491.00    1.24493   1.20483    0.021
 6492.00    1.22419   1.20227    0.021
 6493.00    1.20357   1.20016    0.020
 6494.00    1.19233   1.19518    0.020
 6495.00    1.19289   1.19391    0.020
 6496.00    1.19021   1.19434    0.020
 6497.00    1.18393   1.19348    0.020
 6498.00    1.19366   1.19524    0.020
 6499.00    1.21908   1.19683    0.021
 6500.00    1.24708   1.19907    0.021
 6501.00    1.27729   1.20354    0.021
 6502.00    1.29293   1.20632    0.021
 6503.00    1.29745   1.21007    0.021
 6504.00    1.29745   1.21571    0.021
 6505.00    1.29442   1.21904    0.021
 6506.00    1.28920   1.22260    0.021
 6507.00    1.28270   1.22822    0.021
 6508.00    1.28355   1.23140    0.021
 6509.00    1.28814   1.23319    0.021
 6510.00    1.28462   1.23771    0.021
 6511.00    1.27750   1.24119    0.021
 6512.00    1.27430   1.24133    0.020
 6513.00    1.27260   1.24369    0.020
 6514.00    1.28129   1.24718    0.020
 6515.00    1.29333   1.24661    0.020
 6516.00    1.30902   1.24677    0.020
 6517.00    1.32570   1.24981    0.020
 6518.00    1.32579   1.24969    0.020
 6519.00    1.32221   1.24884    0.021
 6520.00    1.31004   1.25100    0.021
 6521.00    1.29635   1.25179    0.021
 6522.00    1.28924   1.25140    0.021
 6523.00    1.28302   1.25199    0.021
 6524.00    1.27696   1.25258    0.021
 6525.00    1.27091   1.25342    0.021
 6526.00    1.28204   1.25342    0.021
 6527.00    1.29418   1.25294    0.021
 6528.00    1.30144   1.25407    0.000
 6529.00    1.30852   1.25456    0.000
 6530.00    1.30784   1.25376    0.000
 6531.00    1.30748   1.25416    0.000
 6532.00    1.31505   1.25448    0.000
 6533.00    1.32193   1.25321    0.000
 6534.00    1.31944   1.25256    0.000
 6535.00    1.31658   1.25297    0.000
 6536.00    1.31037   1.25170    0.000
 6537.00    1.30531   1.24949    0.000
 6538.00    1.30785   1.24853    0.000
 6539.00    1.30903   1.24675    0.000
 6540.00    1.30330   1.24356    0.000
 6541.00    1.29733   1.24147    0.000
 6542.00    1.29032   1.23846    0.000
 6543.00    1.28570   1.23321    0.000
 6544.00    1.28927   1.23017    0.000
 6545.00    1.29762   1.22689    0.000
 6546.00    1.31974   1.21910    0.000
 6547.00    1.33664   1.21394    0.000
 6548.00    1.34072   1.21114    0.000
 6549.00    1.33782   1.20266    0.000
 6550.00    1.32015   1.19457    0.000
 6551.00    1.30599   1.19140    0.000
 6552.00    1.29831   1.18363    0.000
 6553.00    1.29109   1.17299    0.000
 6554.00    1.28464   1.16961    0.000
 6555.00    1.27263   1.16430    0.000
 6556.00    1.25278   1.15164    0.000
 6557.00    1.24038   1.14780    0.000
 6558.00    1.23723   1.14842    0.000
 6559.00    1.24211   1.13634    0.000
 6560.00    1.25581   1.12996    0.000
 6561.00    1.25751   1.13731    0.000
 6562.00    1.24762   1.12961    0.000
 6563.00    1.23210   1.11904    0.000
 6564.00    1.21178   1.13083    0.000
 6565.00    1.19764   1.13517    0.000
 6566.00    1.18813   1.12683    0.000
 6567.00    1.19677   1.13541    0.000
 6568.00    1.21738   1.14554    0.000
 6569.00    1.23536   1.14181    0.000
 6570.00    1.25183   1.14696    0.000
 6571.00    1.26447   1.15947    0.000
 6572.00    1.27518   1.16100    0.000
 6573.00    1.26963   1.16352    0.000
 6574.00    1.25701   1.17429    0.000
 6575.00    1.26203   1.17895    0.000
 6576.00    1.27364   1.18096    0.000
 6577.00    1.31169   1.18886    0.000
 6578.00    1.35812   1.19446    0.000
 6579.00    1.38167   1.19622    0.000
 6580.00    1.39917   1.19986    0.000
 6581.00    1.39327   1.20414    0.000
 6582.00    1.38231   1.20661    0.000
 6583.00    1.37142   1.20758    0.000
 6584.00    1.36054   1.21017    0.000
 6585.00    1.34737   1.21261    0.000
 6586.00    1.33390   1.21124    0.000
 6587.00    1.31051   1.21188    0.000
 6588.00    1.28623   1.21495    0.000
 6589.00    1.28107   1.21336    0.000
 6590.00    1.27696   1.21161    0.000
 6591.00    1.26010   1.21443    0.000
 6592.00    1.24297   1.21389    0.000
 6593.00    1.22735   1.20983    0.000
 6594.00    1.21310   1.21170    0.000
 6595.00    1.23027   1.21410    0.000
 6596.00    1.24797   1.21088    0.000
 6597.00    1.27250   1.21134    0.000
 6598.00    1.29548   1.21412    0.000
 6599.00    1.30514   1.21201    0.000
 6600.00    1.31112   1.21192    0.000
 6601.00    1.29373   1.21506    0.000
 6602.00    1.27600   1.21460    0.000
 6603.00    1.25660   1.21367    0.000
 6604.00    1.24356   1.21602    0.000
 6605.00    1.25625   1.21697    0.000
 6606.00    1.26678   1.21582    0.000
 6607.00    1.27011   1.21749    0.000
 6608.00    1.27104   1.21979    0.000
 6609.00    1.26520   1.21890    0.020
 6610.00    1.26048   1.21950    0.020
 6611.00    1.25850   1.22218    0.020
 6612.00    1.25771   1.22288    0.020
 6613.00    1.25942   1.22273    0.020
 6614.00    1.26153   1.22334    0.020
 6615.00    1.26434   1.22480    0.021
 6616.00    1.26502   1.22535    0.021
 6617.00    1.26232   1.22435    0.020
 6618.00    1.26241   1.22440    0.020
 6619.00    1.26638   1.22502    0.021
 6620.00    1.26553   1.22388    0.021
 6621.00    1.25879   1.22225    0.020
 6622.00    1.25502   1.22206    0.021
 6623.00    1.25447   1.22137    0.021
 6624.00    1.25688   1.21832    0.021
 6625.00    1.26209   1.21685    0.020
 6626.00    1.26294   1.21698    0.020
 6627.00    1.26012   1.21391    0.020
 6628.00    1.26591   1.21197    0.020
 6629.00    1.27808   1.21242    0.020
 6630.00    1.28310   1.20929    0.020
 6631.00    1.28348   1.20699    0.020
 6632.00    1.27336   1.20833    0.020
 6633.00    1.25728   1.20608    0.020
 6634.00    1.24303   1.20297    0.020
 6635.00    1.22969   1.20510    0.020
 6636.00    1.23915   1.20521    0.020
 6637.00    1.25837   1.20191    0.021
 6638.00    1.25872   1.20356    0.021
 6639.00    1.25215   1.20525    0.020
 6640.00    1.25690   1.20164    0.020
 6641.00    1.26518   1.20242    0.021
 6642.00    1.27919   1.20618    0.021
 6643.00    1.29468   1.20295    0.021
 6644.00    1.29578   1.20098    0.021
 6645.00    1.29384   1.20534    0.021
 6646.00    1.29387   1.20504    0.021
 6647.00    1.29423   1.20133    0.020
 6648.00    1.29862   1.20337    0.020
 6649.00    1.30351   1.20518    0.020
 6650.00    1.28692   1.20167    0.020
 6651.00    1.26846   1.20108    0.020
 6652.00    1.24827   1.20335    0.020
 6653.00    1.22799   1.20044    0.020
 6654.00    1.23911   1.19800    0.020
 6655.00    1.25082   1.20033    0.020
 6656.00    1.26535   1.19873    0.020
 6657.00    1.27852   1.19483    0.020
 6658.00    1.26279   1.19604    0.020
 6659.00    1.24675   1.19648    0.021
 6660.00    1.22709   1.19249    0.021
 6661.00    1.20984   1.19191    0.020
 6662.00    1.21250   1.19366    0.020
 6663.00    1.21635   1.19071    0.021
 6664.00    1.22750   1.18863    0.021
 6665.00    1.23589   1.19058    0.021
 6666.00    1.23090   1.19034    0.021
 6667.00    1.22623   1.18817    0.021
 6668.00    1.22283   1.18799    0.020
 6669.00    1.22201   1.18940    0.020
 6670.00    1.22959   1.18921    0.020
 6671.00    1.24023   1.18761    0.021
 6672.00    1.25936   1.18833    0.020
 6673.00    1.27897   1.18976    0.020
 6674.00    1.29973   1.18803    0.021
 6675.00    1.30886   1.18699    0.021
 6676.00    1.29413   1.18982    0.020
 6677.00    1.27365   1.18940    0.020
 6678.00    1.24292   1.18552    0.020
 6679.00    1.22565   1.18795    0.020
 6680.00    1.22941   1.19113    0.021
 6681.00    1.23638   1.18793    0.021
 6682.00    1.24777   1.18749    0.021
 6683.00    1.24622   1.19081    0.021
 6684.00    1.22905   1.19009    0.020
 6685.00    1.22284   1.18818    0.020
 6686.00    1.22831   1.18996    0.021
 6687.00    1.23538   1.19087    0.021
 6688.00    1.24395   1.18876    0.021
 6689.00    1.23595   1.18897    0.020
 6690.00    1.21422   1.19043    0.020
 6691.00    1.20745   1.18922    0.020
 6692.00    1.21156   1.18806    0.020
 6693.00    1.22182   1.18840    0.020
 6694.00    1.23602   1.18831    0.020
 6695.00    1.23720   1.18702    0.020
 6696.00    1.23109   1.18565    0.000
 6697.00    1.22451   1.18551    0.000
 6698.00    1.21770   1.18489    0.000
 6699.00    1.20773   1.18365    0.000
 6700.00    1.19643   1.18301    0.000
 6701.00    1.19666   1.18215    0.000
 6702.00    1.20103   1.18130    0.000
 6703.00    1.19717   1.17995    0.000
 6704.00    1.19079   1.17793    0.000
 6705.00    1.18731   1.17720    0.000
 6706.00    1.18456   1.17661    0.000
 6707.00    1.19174   1.17406    0.000
 6708.00    1.20097   1.17254    0.000
 6709.00    1.22400   1.17270    0.000
 6710.00    1.24926   1.17028    0.000
 6711.00    1.27995   1.16792    0.000
 6712.00    1.31130   1.16821    0.000
 6713.00    1.32853   1.16701    0.000
 6714.00    1.34459   1.16445    0.000
 6715.00    1.32549   1.16407    0.000
 6716.00    1.30472   1.16443    0.000
 6717.00    1.27135   1.16262    0.000
 6718.00    1.23822   1.16172    0.000
 6719.00    1.22855   1.16357    0.000
 6720.00    1.21861   1.16398    0.000
 6721.00    1.20339   1.16340    0.000
 6722.00    1.18994   1.16403    0.000
 6723.00    1.19689   1.16523    0.000
 6724.00    1.20609   1.16630    0.000
 6725.00    1.23318   1.16651    0.000
 6726.00    1.26011   1.16685    0.000
 6727.00    1.28608   1.16831    0.000
 6728.00    1.30835   1.16899    0.000
 6729.00    1.31312   1.16874    0.000
 6730.00    1.31719   1.16959    0.000
 6731.00    1.31856   1.17077    0.000
 6732.00    1.31324   1.16988    0.000
 6733.00    1.28643   1.16884    0.000
 6734.00    1.25694   1.16994    0.000
 6735.00    1.22016   1.16956    0.000
 6736.00    1.19406   1.16745    0.000
 6737.00    1.19294   1.16750    0.000
 6738.00    1.19593   1.16776    0.000
 6739.00    1.20723   1.16514    0.000
 6740.00    1.21647   1.16358    0.000
 6741.00    1.22207   1.16551    0.000
 6742.00    1.22332   1.16420    0.000
 6743.00    1.21787   1.16049    0.000
 6744.00    1.21795   1.16223    0.000
 6745.00    1.22552   1.16361    0.000
 6746.00    1.22741   1.16036    0.000
 6747.00    1.22256   1.16044    0.000
 6748.00    1.22281   1.16335    0.000
 6749.00    1.22842   1.16208    0.000
 6750.00    1.23143   1.16053    0.000
 6751.00    1.23203   1.16435    0.000
 6752.00    1.23786   1.16549    0.000
 6753.00    1.24795   1.16308    0.022
 6754.00    1.25338   1.16607    0.023
 6755.00    1.25546   1.16905    0.023
 6756.00    1.24174   1.16778    0.023
 6757.00    1.21805   1.16866    0.023
 6758.00    1.21597   1.17149    0.023
 6759.00    1.22580   1.17209    0.023
 6760.00    1.26124   1.17185    0.023
 6761.00    1.30894   1.17330    0.024
 6762.00    1.35747   1.17438    0.024
 6763.00    1.40634   1.17425    0.025
 6764.00    1.43173   1.17465    0.025
 6765.00    1.44881   1.17570    0.025
 6766.00    1.45912   1.17630    0.024
 6767.00    1.46741   1.17534    0.024
 6768.00    1.44234   1.17519    0.024
 6769.00    1.40900   1.17721    0.024
 6770.00    1.36437   1.17702    0.023
 6771.00    1.31747   1.17545    0.023
 6772.00    1.30652   1.17645    0.022
 6773.00    1.30121   1.17717    0.022
 6774.00    1.31139   1.17577    0.022
 6775.00    1.32337   1.17588    0.022
 6776.00    1.30025   1.17666    0.022
 6777.00    1.27437   1.17507    0.021
 6778.00    1.30638   1.17446    0.022
 6779.00    1.34090   1.17522    0.023
 6780.00    1.33309   1.17370    0.023
 6781.00    1.32435   1.17264    0.023
 6782.00    1.29321   1.17282    0.023
 6783.00    1.26407   1.17081    0.023
 6784.00    1.27133   1.16940    0.023
 6785.00    1.27780   1.17026    0.022
 6786.00    1.27565   1.16875    0.022
 6787.00    1.27484   1.16713    0.022
 6788.00    1.28431   1.16872    0.023
 6789.00    1.29513   1.16821    0.023
 6790.00    1.31384   1.16575    0.023
 6791.00    1.32765   1.16715    0.023
 6792.00    1.31886   1.16859    0.023
 6793.00    1.31052   1.16593    0.022
 6794.00    1.30395   1.16578    0.022
 6795.00    1.29363   1.16878    0.022
 6796.00    1.27152   1.16768    0.022
 6797.00    1.26134   1.16640    0.022
 6798.00    1.28314   1.16938    0.022
 6799.00    1.30174   1.17000    0.022
 6800.00    1.31296   1.16770    0.022
 6801.00    1.31793   1.16918    0.022
 6802.00    1.31045   1.17168    0.022
 6803.00    1.29597   1.16991    0.023
 6804.00    1.26937   1.16883    0.022
 6805.00    1.24820   1.17146    0.022
 6806.00    1.23526   1.17172    0.022
 6807.00    1.22304   1.16976    0.022
 6808.00    1.21177   1.17140    0.022
 6809.00    1.20957   1.17286    0.022
 6810.00    1.21801   1.17102    0.022
 6811.00    1.22617   1.17117    0.022
 6812.00    1.23406   1.17322    0.022
 6813.00    1.25155   1.17323    0.023
 6814.00    1.27781   1.17220    0.023
 6815.00    1.28441   1.17292    0.023
 6816.00    1.27519   1.17439    0.022
 6817.00    1.26024   1.17428    0.022
 6818.00    1.24123   1.17425    0.022
 6819.00    1.24955   1.17518    0.021
 6820.00    1.27483   1.17526    0.021
 6821.00    1.29364   1.17517    0.021
 6822.00    1.30893   1.17573    0.021
 6823.00    1.32335   1.17645    0.022
 6824.00    1.33735   1.17631    0.022
 6825.00    1.32507   1.17562    0.022
 6826.00    1.30210   1.17591    0.022
 6827.00    1.30021   1.17612    0.022
 6828.00    1.30563   1.17497    0.022
 6829.00    1.32447   1.17388    0.022
 6830.00    1.34724   1.17370    0.023
 6831.00    1.34223   1.17332    0.023
 6832.00    1.33049   1.17184    0.022
 6833.00    1.31533   1.17057    0.022
 6834.00    1.29951   1.17023    0.022
 6835.00    1.29283   1.16934    0.022
 6836.00    1.28755   1.16764    0.022
 6837.00    1.28862   1.16672    0.023
 6838.00    1.29039   1.16602    0.023
 6839.00    1.29246   1.16438    0.023
 6840.00    1.29454   1.16331    0.023
 6841.00    1.28514   1.16276    0.023
 6842.00    1.27527   1.16179    0.022
 6843.00    1.25664   1.16116    0.022
 6844.00    1.23945   1.16078    0.022
 6845.00    1.28169   1.16016    0.022
 6846.00    1.31972   1.16000    0.021
 6847.00    1.28658   1.15951    0.022
 6848.00    1.25598   1.15805    0.022
 6849.00    1.25192   1.15805    0.022
 6850.00    1.24995   1.15857    0.021
 6851.00    1.26350   1.15626    0.022
 6852.00    1.27633   1.15509    0.022
 6853.00    1.28504   1.15738    0.022
 6854.00    1.29194   1.15612    0.021
 6855.00    1.29074   1.15231    0.021
 6856.00    1.28409   1.15422    0.021
 6857.00    1.25724   1.15553    0.021
 6858.00    1.23223   1.15108    0.021
 6859.00    1.21295   1.15123    0.021
 6860.00    1.20662   1.15477    0.021
 6861.00    1.23433   1.15130    0.021
 6862.00    1.25662   1.14814    0.021
 6863.00    1.26666   1.15275    0.021
 6864.00    1.27312   1.15384    0.022
 6865.00    1.27255   1.14904    0.022
 6866.00    1.27212   1.15072    0.022
 6867.00    1.27193   1.15462    0.022
 6868.00    1.26293   1.15117    0.022
 6869.00    1.24076   1.14997    0.022
 6870.00    1.22299   1.15539    0.022
 6871.00    1.21102   1.15574    0.022
 6872.00    1.20369   1.15184    0.022
 6873.00    1.20173   1.15452    0.021
 6874.00    1.21011   1.15905    0.021
 6875.00    1.22904   1.15689    0.022
 6876.00    1.24267   1.15568    0.022
 6877.00    1.25155   1.16070    0.022
 6878.00    1.25454   1.16237    0.022
 6879.00    1.25285   1.15971    0.022
 6880.00    1.24848   1.16252    0.022
 6881.00    1.24224   1.16710    0.022
 6882.00    1.23188   1.16529    0.022
 6883.00    1.21901   1.16439    0.022
 6884.00    1.22142   1.17013    0.021
 6885.00    1.23200   1.17227    0.021
 6886.00    1.23550   1.16934    0.021
 6887.00    1.23572   1.17243    0.021
 6888.00    1.24143   1.17731    0.021
 6889.00    1.24932   1.17565    0.022
 6890.00    1.27261   1.17531    0.022
 6891.00    1.30113   1.18035    0.022
 6892.00    1.31102   1.18139    0.022
 6893.00    1.31556   1.17893    0.022
 6894.00    1.29608   1.18191    0.022
 6895.00    1.27090   1.18516    0.022
 6896.00    1.26360   1.18335    0.022
 6897.00    1.25972   1.18328    0.022
 6898.00    1.25897   1.18668    0.022
 6899.00    1.25869   1.18718    0.022
 6900.00    1.24440   1.18517    0.022
 6901.00    1.22860   1.18638    0.022
 6902.00    1.22334   1.18862    0.022
 6903.00    1.21882   1.18749    0.022
 6904.00    1.23181   1.18631    0.022
 6905.00    1.24543   1.18763    0.021
 6906.00    1.25174   1.18806    0.022
 6907.00    1.25810   1.18620    0.022
 6908.00    1.26690   1.18596    0.022
 6909.00    1.27449   1.18727    0.022
 6910.00    1.26299   1.18594    0.022
 6911.00    1.25151   1.18404    0.022
 6912.00    1.24023   1.18493    0.022
 6913.00    1.22798   1.18495    0.022
 6914.00    1.20878   1.18206    0.022
 6915.00    1.19471   1.18176    0.021
 6916.00    1.20897   1.18296    0.021
 6917.00    1.22353   1.18097    0.021
 6918.00    1.23941   1.17950    0.022
 6919.00    1.24949   1.18033    0.022
 6920.00    1.23856   1.18024    0.022
 6921.00    1.23196   1.17868    0.022
 6922.00    1.23850   1.17863    0.022
 6923.00    1.24719   1.17907    0.022
 6924.00    1.26148   1.17789    0.022
 6925.00    1.26733   1.17728    0.022
 6926.00    1.25442   1.17734    0.022
 6927.00    1.25117   1.17776    0.022
 6928.00    1.26651   1.17821    0.022
 6929.00    1.27479   1.17789    0.022
 6930.00    1.27121   1.17789    0.022
 6931.00    1.26638   1.17846    0.022
 6932.00    1.25972   1.17864    0.022
 6933.00    1.25542   1.17783    0.022
 6934.00    1.25417   1.17812    0.022
 6935.00    1.25593   1.17926    0.022
 6936.00    1.26111   1.17904    0.022
 6937.00    1.26416   1.17863    0.022
 6938.00    1.26505   1.17869    0.022
 6939.00    1.25994   1.17927    0.022
 6940.00    1.24950   1.17946    0.022
 6941.00    1.22984   1.17883    0.022
 6942.00    1.20298   1.17901    0.022
 6943.00    1.20672   1.17963    0.022
 6944.00    1.23150   1.17863    0.022
 6945.00    1.24250   1.17748    0.022
 6946.00    1.24519   1.17902    0.022
 6947.00    1.24732   1.18008    0.022
 6948.00    1.24917   1.17860    0.022
 6949.00    1.24768   1.17946    0.023
 6950.00    1.24466   1.18149    0.022
 6951.00    1.24006   1.18019    0.022
 6952.00    1.23483   1.17978    0.023
 6953.00    1.22859   1.18238    0.022
 6954.00    1.22200   1.18308    0.022
 6955.00    1.24381   1.18220    0.022
 6956.00    1.27360   1.18427    0.022
 6957.00    1.25790   1.18664    0.022
 6958.00    1.23168   1.18592    0.022
 6959.00    1.22749   1.18627    0.022
 6960.00    1.22739   1.18838    0.022
 6961.00    1.23255   1.18864    0.022
 6962.00    1.23846   1.18822    0.022
 6963.00    1.24280   1.18970    0.022
 6964.00    1.24699   1.19025    0.022
 6965.00    1.27570   1.18899    0.022
 6966.00    1.30605   1.18942    0.023
 6967.00    1.30098   1.19004    0.023
 6968.00    1.29478   1.18825    0.023
 6969.00    1.27413   1.18769    0.023
 6970.00    1.25428   1.18869    0.023
 6971.00    1.25892   1.18586    0.023
 6972.00    1.26356   1.18327    0.022
 6973.00    1.26827   1.18583    0.023
 6974.00    1.26773   1.18577    0.023
 6975.00    1.21669   1.18157    0.022
 6976.00    1.17616   1.18214    0.022
 6977.00    1.20873   1.18481    0.022
 6978.00    1.23656   1.18114    0.022
 6979.00    1.23896   1.17870    0.022
 6980.00    1.23473   1.18341    0.022
 6981.00    1.20196   1.18469    0.022
 6982.00    1.18414   1.18141    0.022
 6983.00    1.21940   1.18330    0.022
 6984.00    1.25583   1.18701    0.022
 6985.00    1.29573   1.18549    0.023
 6986.00    1.31811   1.18451    0.023
 6987.00    1.29599   1.18800    0.023
 6988.00    1.27609   1.18939    0.023
 6989.00    1.26106   1.18741    0.023
 6990.00    1.24669   1.18825    0.023
 6991.00    1.23359   1.19090    0.023
 6992.00    1.22785   1.19040    0.023
 6993.00    1.23428   1.18885    0.023
 6994.00    1.24572   1.18944    0.023
 6995.00    1.26441   1.19026    0.023
 6996.00    1.27724   1.18886    0.023
 6997.00    1.28258   1.18754    0.023
 6998.00    1.28031   1.18825    0.023
 6999.00    1.26951   1.18758    0.023
 7000.00    1.24940   1.18511    0.023
 7001.00    1.22008   1.18446    0.023
 7002.00    1.22293   1.18527    0.023
 7003.00    1.25394   1.18432    0.023
 7004.00    1.26821   1.18218    0.023
 7005.00    1.26957   1.18171    0.023
 7006.00    1.26131   1.18140    0.023
 7007.00    1.24654   1.18043    0.024
 7008.00    1.23695   1.17978    0.024
 7009.00    1.23045   1.17885    0.024
 7010.00    1.22485   1.17839    0.023
 7011.00    1.21972   1.17870    0.023
 7012.00    1.20763   1.17814    0.023
 7013.00    1.19241   1.17720    0.024
 7014.00    1.19837   1.17838    0.024
 7015.00    1.21251   1.17905    0.024
 7016.00    1.22632   1.17603    0.024
 7017.00    1.24002   1.17533    0.024
 7018.00    1.23266   1.17905    0.024
 7019.00    1.21950   1.17999    0.024
 7020.00    1.22735   1.17813    0.024
 7021.00    1.23996   1.17974    0.024
 7022.00    1.23768   1.18265    0.024
 7023.00    1.23271   1.18118    0.024
 7024.00    1.23155   1.17971    0.023
 7025.00    1.23093   1.18332    0.023
 7026.00    1.22427   1.18684    0.024
 7027.00    1.21701   1.18587    0.024
 7028.00    1.22947   1.18602    0.024
 7029.00    1.24316   1.19058    0.024
 7030.00    1.24191   1.19255    0.024
 7031.00    1.24017   1.18997    0.025
 7032.00    1.21982   1.19181    0.024
 7033.00    1.20143   1.19778    0.024
 7034.00    1.23708   1.19809    0.024
 7035.00    1.27002   1.19637    0.024
 7036.00    1.26501   1.20155    0.024
 7037.00    1.25761   1.20528    0.024
 7038.00    1.22828   1.20078    0.024
 7039.00    1.20260   1.20073    0.024
 7040.00    1.20146   1.20736    0.024
 7041.00    1.20730   1.20746    0.024
 7042.00    1.24953   1.20370    0.024
 7043.00    1.28690   1.20641    0.024
 7044.00    1.30382   1.20846    0.024
 7045.00    1.31253   1.20233    0.024
 7046.00    1.29267   1.19911    0.025
 7047.00    1.27871   1.20183    0.025
 7048.00    1.28202   1.19952    0.025
 7049.00    1.29112   1.19347    0.025
 7050.00    1.31467   1.19199   -2.000
 7051.00    1.32126   1.19109   -2.000
 7052.00    1.29135   1.18385   -2.000
 7053.00    1.26341   1.17727   -2.000
 7054.00    1.23917   1.17598   -2.000
 7055.00    1.24445   1.17245   -2.000
 7056.00    1.29791   1.16612   -2.000
 7057.00    1.31956   1.16334   -2.000
 7058.00    1.29571   1.16173   -2.000
 7059.00    1.30877   1.15592   -2.000
 7060.00    1.36830   1.15044   -2.000
 7061.00    1.38663   1.14891   -2.000
 7062.00    1.35928   1.14678   -2.000
 7063.00    1.37023   1.14367   -2.000
 7064.00    1.41863   1.14310   -2.000
 7065.00    1.41442   1.14243   -2.000
 7066.00    1.36485   1.13984   -2.000
 7067.00    1.32966   1.13855   -2.000
 7068.00    1.30539   1.13799   -2.000
 7069.00    1.31697   1.13674   -2.000
 7070.00    1.35251   1.13676   -2.000
 7071.00    1.38384   1.13793   -2.000
 7072.00    1.41271   1.13701   -2.000
 7073.00    1.41091   1.13546   -2.000
 7074.00    1.39346   1.13564   -2.000
 7075.00    1.37784   1.13482   -2.000
 7076.00    1.36303   1.13229   -2.000
 7077.00    1.39077   1.13057   -2.000
 7078.00    1.43465   1.13004   -2.000
 7079.00    1.39105   1.12818   -2.000
 7080.00    1.31929   1.12491   -2.000
 7081.00    1.35628   1.12251   -2.000
 7082.00    1.42257   1.12047   -2.000
 7083.00    1.41167   1.11661   -2.000
 7084.00    1.38373   1.11188   -2.000
 7085.00    1.36808   1.10957   -2.000
 7086.00    1.35458   1.10776   -2.000
 7087.00    1.35495   1.10406   -2.000
 7088.00    1.35717   1.10052   -2.000
 7089.00    1.31084   1.09874   -2.000
 7090.00    1.25990   1.09607   -2.000
 7091.00    1.28260   1.09269   -2.000
 7092.00    1.30962   1.09203   -2.000
 7093.00    1.30414   1.09103   -2.000
 7094.00    1.29793   1.08951   -2.000
 7095.00    1.30294   1.08863   -2.000
 7096.00    1.30696   1.08814   -2.000
 7097.00    1.28644   1.08735   -2.000
 7098.00    1.26633   1.08750   -2.000
 7099.00    1.25167   1.08906   -2.000
 7100.00    1.23731   1.08814   -2.000
 7101.00    1.22569   1.08818   -2.000
 7102.00    1.21389   1.09001   -2.000
 7103.00    1.20096   1.08986   -2.000
 7104.00    1.19022   1.08871   -2.000
 7105.00    1.19060   1.09043   -2.000
 7106.00    1.19401   1.09279   -2.000
 7107.00    1.20986   1.09118   -2.000
 7108.00    1.21768   1.09028   -2.000
 7109.00    1.19812   1.09291   -2.000
 7110.00    1.18891   1.09328   -2.000
 7111.00    1.20944   1.09046   -2.000
 7112.00    1.22218   1.09071   -2.000
 7113.00    1.21583   1.09320   -2.000
 7114.00    1.21244   1.09211   -2.000
 7115.00    1.21533   1.08900   -2.000
 7116.00    1.21058   1.09005   -2.000
 7117.00    1.19180   1.09145   -2.000
 7118.00    1.19355   1.08821   -2.000
 7119.00    1.22831   1.08566   -2.000
 7120.00    1.26455   1.08709   -2.000
 7121.00    1.30287   1.08734   -2.000
 7122.00    1.31630   1.08331   -2.000
 7123.00    1.29887   1.08200   -2.000
 7124.00    1.30585   1.08347   -2.000
 7125.00    1.33953   1.08141   -2.000
 7126.00    1.33610   1.07815   -2.000
 7127.00    1.29688   1.07875   -2.000
 7128.00    1.27982   1.07984   -2.000
 7129.00    1.28159   1.07719   -2.000
 7130.00    1.27396   1.07610   -2.000
 7131.00    1.25928   1.07732   -2.000
 7132.00    1.28562   1.07667   -2.000
 7133.00    1.33895   1.07537   -2.000
 7134.00    1.30667   1.07669   -2.000
 7135.00    1.22507   1.07797   -2.000
 7136.00    1.21642   1.07714   -2.000
 7137.00    1.24438   1.07758   -2.000
 7138.00    1.26723   1.07883   -2.000
 7139.00    1.28787   1.07931   -2.000
 7140.00    1.29154   1.07944   -2.000
 7141.00    1.28890   1.08009   -2.000
 7142.00    1.24977   1.08159   -2.000
 7143.00    1.19911   1.08286   -2.000
 7144.00    1.18409   1.08280   -2.000
 7145.00    1.17847   1.08306   -2.000
 7146.00    1.17049   1.08561   -2.000
 7147.00    1.16200   1.08659   -2.000
 7148.00    1.19858   1.08454   -2.000
 7149.00    1.24287   1.08604   -2.000
 7150.00    1.23873   1.09000   -2.000
 7151.00    1.22832   1.08897   -2.000
 7152.00    1.23397   1.08762   -2.000
 7153.00    1.24108   1.09128   -2.000
 7154.00    1.24617   1.09314   -2.000
 7155.00    1.25116   1.09023   -2.000
 7156.00    1.19097   1.09082   -2.000
 7157.00    1.12981   1.09481   -2.000
 7158.00    1.10538   1.09380   -2.000
 7159.00    1.08810   1.09229   -2.000
 7160.00    1.23310   1.09492   -2.000
 7161.00    1.37325   1.09655   -2.000
 7162.00    1.45221   1.09491   -2.000
 7163.00    1.52165   1.09490   -2.000
 7164.00    1.50990   1.09711   -2.000
 7165.00    1.47942   1.09645   -2.000
 7166.00    1.33030   1.09567   -2.000
 7167.00    1.22560   1.09742   -2.000
 7168.00    1.34143   1.09880   -2.000
 7169.00    1.43490   1.09767   -2.000
 7170.00    1.43839   1.09701   -2.000
 7171.00    1.42305   1.09881   -2.000
 7172.00    1.34483   1.09891   -2.000
 7173.00    1.27561   1.09710   -2.000
 7174.00    1.23182   1.09712   -2.000
 7175.00    1.20556   1.09862   -2.000
 7176.00    1.22157   1.09744   -2.000
 7177.00    1.24619   1.09546   -2.000
 7178.00    1.28875   1.09669   -2.000
 7179.00    1.31309   1.09731   -2.000
 7180.00    1.30443   1.09414   -2.000
 7181.00    1.28520   1.09199   -2.000
 7182.00    1.24924   1.09301   -2.000
 7183.00    1.20358   1.09281   -2.000
 7184.00    1.14443   1.09141   -2.000
 7185.00    1.11794   1.09144   -2.000
 7186.00    1.13139   1.09132   -2.000
 7187.00    1.16353   1.08910   -2.000
 7188.00    1.21581   1.08802   -2.000
 7189.00    1.23286   1.08849   -2.000
 7190.00    1.21640   1.08839   -2.000
 7191.00    1.22676   1.08927   -2.000
 7192.00    1.25960   1.08986   -2.000
 7193.00    1.23521   1.08861   -2.000
 7194.00    1.16857   1.08775   -2.000
 7195.00    1.12087   1.08910   -2.000
 7196.00    1.08546   1.08963   -2.000
 7197.00    1.08722   1.08906   -2.000
 7198.00    1.11007   1.09083   -2.000
 7199.00    1.15858   1.09202   -2.000
 7200.00    1.21975   1.09062   -2.000
 7201.00    1.27186   1.09052   -2.000
 7202.00    1.32010   1.09195   -2.000
 7203.00    1.30675   1.09251   -2.000
 7204.00    1.27085   1.09349   -2.000
 7205.00    1.19280   1.09518   -2.000
 7206.00    1.10170   1.09526   -2.000
 7207.00    1.09232   1.09448   -2.000
 7208.00    1.10404   1.09582   -2.000
 7209.00    1.10415   1.09689   -2.000
 7210.00    1.10182   1.09777   -2.000
 7211.00    1.12878   1.10107   -2.000
 7212.00    1.16060   1.10277   -2.000
 7213.00    1.20905   1.10227   -2.000
 7214.00    1.25956   1.10327   -2.000
 7215.00    1.25862   1.10599   -2.000
 7216.00    1.25322   1.10697   -2.000
 7217.00    1.21416   1.10861   -2.000
 7218.00    1.17339   1.11291   -2.000
