###################################################################
## OUTPUT of StarlightChains_v04.for    [Cid@UFSC - 01/Apr/2007] ##
###################################################################

## Some input info
KUG0210-078._53_26.txt                   [arq_obs]
Base.CB07.vall.4m                        [arq_base]
Masks.EmLines.NEW.gm                     [arq_masks]
StCv04.C11.config                        [arq_config]
   66                                    [N_base]
    0                                    [N_YAV_components = # of components with extra extinction!]
    0                                    [i_FitPowerLaw (1/0 = Yes/No)]
-9.99                                    [alpha_PowerLaw]
CCM                                      [red_law_option]
 1.458241                                [q_norm = A(l_norm)/A(V)]

## (Re)Sampling Parameters
 3741.00                                 [l_ini (A)]
 7218.00                                 [l_fin (A)]
    1.00                                 [dl    (A)]     (OBS: dl_cushion =    50.00 A)

## Normalization info
 4020.00                                 [l_norm (A) - for base]
 4010.00                                 [llow_norm (A) - window for f_obs]
 4060.00                                 [lupp_norm (A) - window for f_obs]
6.194737E-18                             [fobs_norm (in input units)]

## S/N
 3691.00                                 [llow_SN (A) - window for S/N]
 7268.00                                 [lupp_SN (A) - window for S/N]
   2.153                                 [S/N in S/N window]
   2.667                                 [S/N in norm. window]
   0.006                                 [S/N_err in S/N window]
   0.007                                 [S/N_err in norm. window]
  1.0000                                 [fscale_chi2]

## etc...
    -2007989                             [idum_orig]
  2384                                   [NOl_eff]
  2371                                   [Nl_eff]
    13    NSIGMA                         [Ntot_cliped & clip_method]
   945070                                [Nglobal_steps]
   7                                     [N_chains]
  43                                     [NEX0s_base = N_base in EX0s-fits]
 0   0   1       13   2.0   9.316E+02    [Clip-Bug, RC-Crash & Burn-In warning-flags, n_censored_weights, wei_nsig_threshold & wei_limit]
    25     24.280     23.780      0.500  [idt_all, wdt_TotTime, wdt_UsrTime & wdt_SysTime (sec)]

## Synthesis Results - Best model ##

 2.73633E-05                             [chi2/Nl_eff]
    38.41349                             [adev (%)]

   130.00000                             [sum-of-x (%)]
 1.19149E-17                             [Flux_tot (units of input spectrum!)]
 1.70669E-13                             [Mini_tot (???)]
 8.53053E-14                             [Mcor_tot (???)]

 401.42                                  [v0_min  (km/s)]
  30.89                                  [vd_min  (km/s)]
 0.2917                                  [AV_min  (mag)]
 0.0000                                  [YAV_min (mag)]

# j     x_j(%)      Mini_j(%)     Mcor_j(%)     age_j(yr)     Z_j      (L/M)_j    YAV?  Mstars   component_j        a/Fe...       SSP_chi2r SSP_adev(%)   SSP_AV   SSP_x(%)
  1      4.6267     2.2712E-02    4.5439E-02    1.000000E+06  0.00400  1.094E-02    0   1.0000   age020_m42            0.0000     2.7684E-05    43.2843   1.2712   125.3708
  2      0.0000     0.0000E+00    0.0000E+00    3.160000E+06  0.00400  4.007E-02    0   0.9999   age045_m42            0.0000     2.9673E-05    45.7098   0.4339   135.3427
  3      0.0000     0.0000E+00    0.0000E+00    5.010000E+06  0.00400  2.539E-02    0   0.9488   age055_m42            0.0000     2.8874E-05    44.4384   0.8153   131.1543
  4      0.0000     0.0000E+00    0.0000E+00    6.610000E+06  0.00400  2.620E-02    0   0.9220   age061_m42            0.0000     3.0003E-05    45.3525   0.3805   135.0672
  5      8.5009     3.4533E-02    6.1226E-02    1.000000E+07  0.00400  1.322E-02    0   0.8862   age070_m42            0.0000     2.9490E-05    43.2489   0.2235   134.9319
  6      0.0000     0.0000E+00    0.0000E+00    1.445000E+07  0.00400  7.883E-03    0   0.8571   age078_m42            0.0000     2.8943E-05    42.8734   0.5645   131.5113
  7      0.0000     0.0000E+00    0.0000E+00    2.512000E+07  0.00400  5.251E-03    0   0.8174   age090_m42            0.0000     2.9638E-05    43.0601   0.1089   135.1571
  8      0.0000     0.0000E+00    0.0000E+00    4.000000E+07  0.00400  3.649E-03    0   0.7851   age104_m42            0.0000     3.0043E-05    43.7152  -0.1510   136.8325
  9      0.0478     8.2788E-04    1.2636E-03    5.500000E+07  0.00400  3.098E-03    0   0.7629   age110_m42            0.0000     3.0933E-05    45.0083  -0.0718   138.3346
 10      0.0004     1.0270E-05    1.4809E-05    1.015200E+08  0.00400  2.228E-03    0   0.7207   age116_m42            0.0000     3.1770E-05    45.7511  -0.0946   139.4112
 11      0.0000     0.0000E+00    0.0000E+00    2.861200E+08  0.00400  1.093E-03    0   0.6648   age125_m42            0.0000     3.2486E-05    45.6049  -0.6443   142.5549
 12      0.0000     0.0000E+00    0.0000E+00    5.088000E+08  0.00400  6.597E-04    0   0.6365   age130_m42            0.0000     3.3767E-05    46.8868  -0.7295   145.3253
 13      0.0000     0.0000E+00    0.0000E+00    1.434000E+09  0.00400  2.132E-04    0   0.5798   age139_m42            0.0000     3.4496E-05    37.8878  -1.0000   139.4328
 14      0.0000     0.0000E+00    0.0000E+00    4.250000E+09  0.00400  5.895E-05    0   0.5377   age158_m42            0.0000     3.5190E-05    43.0524  -1.0000   127.0890
 15      0.0027     4.1056E-03    4.2811E-03    7.500000E+09  0.00400  3.510E-05    0   0.5212   age171_m42            0.0000     3.6722E-05    46.9816  -1.0000   122.2478
 16      0.0000     0.0000E+00    0.0000E+00    1.300000E+10  0.00400  2.005E-05    0   0.5034   age193_m42            0.0000     3.8264E-05    50.5827  -1.0000   117.7539
 17      0.0000     0.0000E+00    0.0000E+00    1.800000E+10  0.00400  1.525E-05    0   0.4967   age213_m42            0.0000     3.8201E-05    51.1956  -1.0000   116.7617
 18     13.9475     6.0502E-02    1.2105E-01    1.000000E+06  0.00800  1.238E-02    0   1.0000   age020_m52            0.0000     2.7666E-05    43.3796   1.2624   125.7159
 19      0.0000     0.0000E+00    0.0000E+00    3.160000E+06  0.00800  3.074E-02    0   0.9966   age045_m52            0.0000     2.7830E-05    43.5833   1.1789   126.9059
 20      0.2197     4.4231E-04    8.3564E-04    5.010000E+06  0.00800  2.668E-02    0   0.9443   age055_m52            0.0000     2.8514E-05    44.0387   0.9194   129.6418
 21      0.0000     0.0000E+00    0.0000E+00    6.610000E+06  0.00800  2.136E-02    0   0.9177   age061_m52            0.0000     2.8728E-05    43.5173  -0.2902   136.9148
 22      0.0000     0.0000E+00    0.0000E+00    1.000000E+07  0.00800  1.215E-02    0   0.8827   age070_m52            0.0000     2.8957E-05    42.5730   0.4435   133.7566
 23      0.0000     0.0000E+00    0.0000E+00    1.445000E+07  0.00800  8.717E-03    0   0.8552   age078_m52            0.0000     2.9099E-05    43.1326   0.5202   133.3542
 24      0.0000     0.0000E+00    0.0000E+00    2.512000E+07  0.00800  5.592E-03    0   0.8162   age090_m52            0.0000     2.9786E-05    43.1860   0.1711   136.6485
 25      0.0000     0.0000E+00    0.0000E+00    4.000000E+07  0.00800  3.896E-03    0   0.7841   age104_m52            0.0000     3.0437E-05    44.8056  -0.0003   138.8307
 26      0.0000     0.0000E+00    0.0000E+00    1.015200E+08  0.00800  2.148E-03    0   0.7226   age116_m52            0.0000     3.1327E-05    45.4545  -0.1010   139.7222
 27      2.3177     1.2540E-01    1.6767E-01    2.861200E+08  0.00800  9.925E-04    0   0.6683   age125_m52            0.0000     3.3797E-05    46.8452  -0.6575   146.3503
 28      0.0000     0.0000E+00    0.0000E+00    9.047900E+08  0.00800  3.141E-04    0   0.6138   age135_m52            0.0000     3.5682E-05    39.6208  -1.0000   147.5386
 29      0.0000     0.0000E+00    0.0000E+00    1.434000E+09  0.00800  1.719E-04    0   0.5853   age139_m52            0.0000     3.5766E-05    41.1609  -1.0000   134.8368
 30      2.7691     1.8891E+00    2.1165E+00    2.500000E+09  0.00800  7.872E-05    0   0.5600   age150_m52            0.0000     3.7616E-05    46.4652  -1.0000   125.9711
 31      3.3982     4.2088E+00    4.5689E+00    4.250000E+09  0.00800  4.336E-05    0   0.5426   age158_m52            0.0000     3.7610E-05    46.7611  -1.0000   124.4301
 32      0.0000     0.0000E+00    0.0000E+00    6.250000E+09  0.00800  3.159E-05    0   0.5319   age166_m52            0.0000     4.0083E-05    50.8041  -1.0000   119.3027
 33      0.0000     0.0000E+00    0.0000E+00    1.300000E+10  0.00800  1.361E-05    0   0.5073   age193_m52            0.0000     4.5730E-05    59.9202  -1.0000   105.5125
 34      1.0284     5.5865E+00    5.5772E+00    1.800000E+10  0.00800  9.886E-06    0   0.4990   age213_m52            0.0000     4.8056E-05    61.2272  -1.0000   101.4600
 35      3.3387     1.1612E-02    2.3233E-02    1.000000E+06  0.02000  1.544E-02    0   1.0000   age020_m62            0.0000     2.7607E-05    43.1584   1.2703   125.9080
 36     13.2060     1.8852E-02    3.7180E-02    3.160000E+06  0.02000  3.762E-02    0   0.9858   age045_m62            0.0000     2.7740E-05    43.2581   1.2077   127.0141
 37      0.0000     0.0000E+00    0.0000E+00    5.010000E+06  0.02000  3.296E-02    0   0.9342   age055_m62            0.0000     2.9346E-05    45.0333   0.7450   133.2697
 38      0.0000     0.0000E+00    0.0000E+00    8.710000E+06  0.02000  1.154E-02    0   0.8861   age067_m62            0.0000     2.7673E-05    39.2801   0.1397   132.0125
 39      0.0000     0.0000E+00    0.0000E+00    1.445000E+07  0.02000  7.663E-03    0   0.8472   age078_m62            0.0000     2.8660E-05    41.5166   0.1616   135.0705
 40      0.0000     0.0000E+00    0.0000E+00    2.512000E+07  0.02000  4.532E-03    0   0.8099   age090_m62            0.0000     2.8955E-05    41.5551   0.1552   134.3517
 41      0.0000     0.0000E+00    0.0000E+00    5.500000E+07  0.02000  2.733E-03    0   0.7595   age110_m62            0.0000     3.0217E-05    44.4081  -0.0007   137.5371
 42      0.8178     3.2080E-02    4.4831E-02    1.609000E+08  0.02000  1.369E-03    0   0.6985   age120_m62            0.0000     3.2674E-05    45.6448  -0.2325   142.8575
 43      0.0000     0.0000E+00    0.0000E+00    2.861200E+08  0.02000  9.013E-04    0   0.6714   age125_m62            0.0000     3.4657E-05    47.0039  -0.5542   148.0421
 44      0.0000     0.0000E+00    0.0000E+00    5.088000E+08  0.02000  5.028E-04    0   0.6449   age130_m62            0.0000     3.6053E-05    48.3658  -1.0000   154.3546
 45      0.0000     0.0000E+00    0.0000E+00    9.047900E+08  0.02000  2.428E-04    0   0.6179   age135_m62            0.0000     3.5575E-05    39.3258  -1.0000   146.3286
 46      0.0000     0.0000E+00    0.0000E+00    1.434000E+09  0.02000  1.263E-04    0   0.5908   age139_m62            0.0000     3.6314E-05    40.0475  -1.0000   136.4692
 47      0.0000     0.0000E+00    0.0000E+00    2.500000E+09  0.02000  5.985E-05    0   0.5673   age150_m62            0.0000     3.8825E-05    46.5555  -1.0000   126.8199
 48      0.0000     0.0000E+00    0.0000E+00    4.250000E+09  0.02000  3.271E-05    0   0.5468   age158_m62            0.0000     4.2554E-05    52.4586  -1.0000   117.6953
 49      0.0000     0.0000E+00    0.0000E+00    1.000000E+10  0.02000  1.360E-05    0   0.5167   age181_m62            0.0000     4.7999E-05    58.2475  -1.0000   106.6364
 50      0.0000     0.0000E+00    0.0000E+00    1.800000E+10  0.02000  7.124E-06    0   0.5013   age213_m62            0.0000     5.1952E-05    60.8770  -1.0000    98.8886
 51     57.7192     1.1959E-01    2.3921E-01    1.000000E+06  0.05000  2.592E-02    0   0.9998   age020_m72            0.0000     2.7442E-05    42.9212   1.2757   125.7717
 52      3.7684     4.1770E-03    8.0033E-03    3.160000E+06  0.05000  4.845E-02    0   0.9577   age045_m72            0.0000     2.8354E-05    44.0297   1.0532   129.1712
 53      0.0000     0.0000E+00    0.0000E+00    5.010000E+06  0.05000  3.072E-02    0   0.9147   age055_m72            0.0000     2.8319E-05    42.1339   0.6970   131.4354
 54      0.0000     0.0000E+00    0.0000E+00    6.610000E+06  0.05000  1.455E-02    0   0.8877   age061_m72            0.0000     2.7436E-05    39.6658   0.2712   130.9416
 55      3.8286     2.2659E-02    3.8642E-02    1.000000E+07  0.05000  9.074E-03    0   0.8524   age070_m72            0.0000     2.8445E-05    42.3362   0.8751   130.9179
 56      3.0553     3.8606E-02    6.1034E-02    2.512000E+07  0.05000  4.250E-03    0   0.7902   age090_m72            0.0000     2.9530E-05    42.9294   0.5448   133.5952
 57      0.0000     0.0000E+00    0.0000E+00    4.000000E+07  0.05000  3.087E-03    0   0.7618   age104_m72            0.0000     3.0051E-05    43.0095   0.3178   135.5378
 58      0.0000     0.0000E+00    0.0000E+00    1.015200E+08  0.05000  1.700E-03    0   0.7096   age116_m72            0.0000     3.2214E-05    44.9143  -0.0459   141.1971
 59      0.0033     2.3915E-04    3.1737E-04    2.861200E+08  0.05000  7.384E-04    0   0.6633   age125_m72            0.0000     3.5650E-05    48.5188  -0.7608   151.5943
 60      0.0000     0.0000E+00    0.0000E+00    5.088000E+08  0.05000  3.819E-04    0   0.6372   age130_m72            0.0000     3.5660E-05    44.0732  -1.0000   152.7235
 61      0.0000     0.0000E+00    0.0000E+00    9.047900E+08  0.05000  1.676E-04    0   0.6110   age135_m72            0.0000     3.6926E-05    39.4776  -1.0000   139.4833
 62      0.0000     0.0000E+00    0.0000E+00    1.434000E+09  0.05000  8.837E-05    0   0.5874   age139_m72            0.0000     3.9501E-05    46.5596  -1.0000   128.4161
 63      0.0000     0.0000E+00    0.0000E+00    2.500000E+09  0.05000  4.233E-05    0   0.5598   age150_m72            0.0000     4.3156E-05    52.3296  -1.0000   118.5784
 64      0.0008     3.0482E-03    3.2011E-03    6.250000E+09  0.05000  1.435E-05    0   0.5249   age166_m72            0.0000     4.9334E-05    59.8947  -1.0000   103.3095
 65      0.0000     0.0000E+00    0.0000E+00    1.300000E+10  0.05000  6.513E-06    0   0.5036   age193_m72            0.0000     5.4548E-05    62.9629  -1.0000    94.7189
 66      7.4027     8.7816E+01    8.6880E+01    1.800000E+10  0.05000  4.527E-06    0   0.4945   age213_m72            0.0000     5.7676E-05    64.2709  -1.0000    88.9645


## Synthesis Results - Average & Chains ##

# j      x_j: min, <> & last-chain-values for 1 ...  7 chains
  1      4.6267     32.0298     33.6457     21.3931     55.2614     38.7318     28.1929     34.8399     68.8307
  2      0.0000      1.1838      0.4643      2.2701      0.3250      0.6458      1.2092      1.7389      0.8269
  3      0.0000      1.0446      1.0069      0.0000      1.0109      0.0000      0.5890      2.6601      1.0957
  4      0.0000      0.9795      1.3658      0.0000      0.2055      1.1357      0.6286      1.9609      0.0000
  5      8.5009      0.9390      0.6961      0.0000      0.3334      0.4209      2.3562      0.3643      0.3237
  6      0.0000      1.0637      1.2552      3.9481      0.0000      0.1783      1.1293      0.0000      0.0000
  7      0.0000      1.2136      0.0887      0.0000      0.9488      0.6378      2.9140      1.5379      0.0000
  8      0.0000      1.2182      0.9091      0.0000      1.9433      0.0698      0.6360      0.8708      0.0000
  9      0.0478      1.2804      2.0351      0.7389      0.0000      0.2143      0.6466      2.3840      0.2852
 10      0.0004      0.9642      0.4782      1.3876      0.0000      2.3025      0.1340      2.4077      0.2095
 11      0.0000      1.1251      0.2661      0.5844      0.4278      0.5788      1.7387      0.0000      1.2020
 12      0.0000      1.5485      3.4683      0.4570      1.3307      0.9886      1.5444      0.0000      0.6625
 13      0.0000      1.2188      3.0331      0.0000      0.0000      1.1711      0.0000      2.6383      2.0299
 14      0.0000      1.0975      5.8006      0.0000      2.5003      1.7256      2.3655      0.4322      0.7351
 15      0.0027      1.0452      5.1818      1.6217      2.4051      2.0873      0.8286      0.0000      1.0148
 16      0.0000      1.2271      1.8351      8.9704      0.6876      0.9340      0.0000      2.2924      1.2562
 17      0.0000      1.0504      0.2187      3.8658      0.1678      0.1972      2.3359      0.0000      1.2322
 18     13.9475      1.9720      1.6309      0.7766      0.8501      1.9529      4.0295      3.7372      3.2818
 19      0.0000      1.5353      3.3186      5.0467      0.0000      1.8364      3.9147      0.0000      0.2301
 20      0.2197      1.1975      1.0058      0.8463      1.5261      1.0326      0.0000      0.2422      3.5980
 21      0.0000      1.0802      0.0000      1.8439      0.6651      0.0000      1.8771      0.0000      1.3499
 22      0.0000      1.0500      0.0000      0.9841      0.5847      0.6688      0.2664      1.2242      0.7699
 23      0.0000      1.2489      1.6708      5.4201      0.3137      2.3692      1.2963      1.1370      0.0000
 24      0.0000      1.7933      0.0000      0.0658      0.0000      0.0022      0.0000      1.6364      0.4441
 25      0.0000      1.6030      1.2162      0.0000      2.1002      1.8107      1.1190      0.5466      0.4393
 26      0.0000      1.2025      0.0000      0.0000      2.9923      1.4937      1.9017      0.8757      0.0000
 27      2.3177      1.0456      2.9545      0.0000      0.0439      0.0000      1.9185      0.7837      0.1012
 28      0.0000      1.5137      0.0000      1.8896      0.0140      0.0000      1.0550      1.9065      2.4020
 29      0.0000      0.9955      0.0000      0.6668      0.3598      1.6579      1.4108      0.1122      0.1362
 30      2.7691      1.2869      0.5129      0.0000      1.6216      0.2505      1.6811      2.9278      0.0000
 31      3.3982      1.3140      1.6014      1.6648      2.0551      0.0000      3.2031      0.8777      0.1874
 32      0.0000      0.9867      0.0000      0.0000      0.0000      0.9379      3.3399      0.7522      1.1784
 33      0.0000      1.3145      0.2601      1.4719      0.6587      2.0644      1.0813      2.3713      0.0000
 34      1.0284      1.1794      0.5700      2.6597      1.9490      1.7516      1.4302      1.8210      0.0000
 35      3.3387      0.9833      1.2004      0.0000      0.9992      1.6988      0.2111      1.7520      0.2475
 36     13.2060      1.0682      2.5074      0.0000      0.0000      0.8072      0.0886      2.6994      0.3674
 37      0.0000      1.1529      1.2302      0.4169      3.0797      0.5057      1.5107      1.8471      0.8204
 38      0.0000      1.3332      3.2569      1.4791      0.0000      0.4857      2.6437      1.4977      0.0000
 39      0.0000      1.4452      0.0000      1.2501      0.0000      0.0000      0.6471      1.5598      2.4926
 40      0.0000      1.2418      0.2323      0.9262      0.6638      3.1105      1.6079      0.0000      0.0609
 41      0.0000      0.9393      0.0000      0.9523      0.7590      0.6606      2.0473      1.1304      0.0000
 42      0.8178      1.2414      1.1426      1.1516      0.5147      0.4008      0.0000      0.0000      0.1576
 43      0.0000      1.4247      1.3329      0.0000      0.6492      1.2340      1.1205      0.7127      0.4673
 44      0.0000      0.9477      0.4356      0.0000      0.1719      0.6169      0.5076      0.0000      0.0149
 45      0.0000      1.2090      0.0000      0.0000      1.0765      1.5101      0.5447      0.4259      0.1892
 46      0.0000      1.0237      0.0000      1.1984      2.6402      0.7202      0.0000      0.3468      0.6064
 47      0.0000      1.1123      1.3100      5.3920      0.5038      2.0782      1.3584      1.1991      1.0404
 48      0.0000      0.8224      0.0000      5.2049      0.0696      0.5199      1.3315      1.3938      1.4144
 49      0.0000      0.9800      1.8537      0.0000      0.1583      0.6285      0.3465      0.4328      0.1494
 50      0.0000      1.3403      0.4938      0.0000      1.1615      0.3783      2.4097      2.1366      0.4037
 51     57.7192      1.0313      1.3676      0.0000      0.4756      1.4691      0.0000      1.0234      0.0000
 52      3.7684      1.5027      0.9046      5.8622      1.8098      1.8304      0.4586      1.3121      0.9878
 53      0.0000      1.1665      0.0000      0.2235      2.7244      0.0000      0.6932      2.2641      0.5672
 54      0.0000      1.4270      0.0000      1.5583      0.2296      2.7183      3.3826      3.3025      0.3432
 55      3.8286      1.3451      0.8063      0.0000      0.0000      3.6220      1.5712      4.2369      0.0705
 56      3.0553      1.4205      1.6368      2.5075      1.3704      0.5370      1.1454      1.6628      1.2652
 57      0.0000      1.3352      1.5743      0.6694      1.3982      3.9234      0.0000      0.0000      0.0000
 58      0.0000      1.1069      2.4528      1.9621      0.2258      1.5222      0.7925      0.0990      0.0926
 59      0.0033      1.1563      1.1286      0.4307      0.3457      0.0000      1.3284      1.1536      0.5038
 60      0.0000      1.0985      1.0233      0.6252      0.2064      1.0538      0.4263      2.7574      0.6373
 61      0.0000      0.9836      0.0000      2.7413      0.0000      0.0000      1.0158      0.4516      0.9271
 62      0.0000      1.6040      5.6306      4.5580      0.3645      1.9856      3.5503      1.5106      0.5343
 63      0.0000      1.2954      0.1087      0.0000      1.2269      4.1860      1.0876      0.0000      0.0000
 64      0.0008      0.7733      1.1290      4.1138      1.6363      0.6912      0.1405      0.8857      0.4042
 65      0.0000      0.9328      1.7240      0.2461      1.8707      1.0714      1.1401      0.0000      2.4522
 66      7.4027      1.6909      1.8584      0.5143      0.8595      1.4279      1.1998      0.0000      0.0875

# j      m_j: min, <> & last-chain-values for 1 ...  7 chains
  1  4.5439E-02  3.9150E-01  3.8200E-01  1.9361E-01  7.4245E-01  5.0484E-01  3.0771E-01  5.6788E-01  1.4654E+00
  2  0.0000E+00  3.9502E-03  1.4392E-03  5.6085E-03  1.1922E-03  2.2981E-03  3.6029E-03  7.7376E-03  4.8056E-03
  3  0.0000E+00  5.2198E-03  4.6735E-03  0.0000E+00  5.5526E-03  0.0000E+00  2.6283E-03  1.7726E-02  9.5363E-03
  4  0.0000E+00  4.6095E-03  5.9698E-03  0.0000E+00  1.0628E-03  5.6987E-03  2.6412E-03  1.2305E-02  0.0000E+00
  5  6.1226E-02  8.4173E-03  5.7956E-03  0.0000E+00  3.2849E-03  4.0232E-03  1.8859E-02  4.3545E-03  5.0536E-03
  6  0.0000E+00  1.5466E-02  1.6951E-02  4.2500E-02  0.0000E+00  2.7649E-03  1.4661E-02  0.0000E+00  0.0000E+00
  7  0.0000E+00  2.5261E-02  1.7159E-03  0.0000E+00  2.1709E-02  1.4156E-02  5.4162E-02  4.2688E-02  0.0000E+00
  8  0.0000E+00  3.5047E-02  2.4294E-02  0.0000E+00  6.1454E-02  2.1409E-03  1.6339E-02  3.3410E-02  0.0000E+00
  9  1.2636E-03  4.2163E-02  6.2246E-02  1.8016E-02  0.0000E+00  7.5233E-03  1.9012E-02  1.0469E-01  1.6357E-02
 10  1.4809E-05  4.1705E-02  1.9214E-02  4.4441E-02  0.0000E+00  1.0620E-01  5.1755E-03  1.3888E-01  1.5781E-02
 11  0.0000E+00  9.1505E-02  2.0104E-02  3.5190E-02  3.8248E-02  5.0202E-02  1.2627E-01  0.0000E+00  1.7028E-01
 12  0.0000E+00  1.9979E-01  4.1564E-01  4.3652E-02  1.8871E-01  1.3602E-01  1.7792E-01  0.0000E+00  1.4887E-01
 13  0.0000E+00  4.4323E-01  1.0245E+00  0.0000E+00  0.0000E+00  4.5414E-01  0.0000E+00  1.2794E+00  1.2857E+00
 14  0.0000E+00  1.3386E+00  6.5717E+00  0.0000E+00  3.3521E+00  2.2443E+00  2.5763E+00  7.0298E-01  1.5617E+00
 15  4.2811E-03  2.0755E+00  9.5570E+00  2.3842E+00  5.2491E+00  4.4196E+00  1.4691E+00  0.0000E+00  3.5095E+00
 16  0.0000E+00  4.1196E+00  5.7228E+00  2.2299E+01  2.5375E+00  3.3438E+00  0.0000E+00  1.0263E+01  7.3460E+00
 17  0.0000E+00  4.5749E+00  8.8459E-01  1.2466E+01  8.0319E-01  9.1592E-01  9.0844E+00  0.0000E+00  9.3470E+00
 18  1.2105E-01  2.1300E-02  1.6362E-02  6.2111E-03  1.0093E-02  2.2493E-02  3.8864E-02  5.3830E-02  6.1742E-02
 19  0.0000E+00  6.6559E-03  1.3363E-02  1.6199E-02  0.0000E+00  8.4894E-03  1.5154E-02  0.0000E+00  1.7374E-03
 20  8.3564E-04  5.6678E-03  4.4216E-03  2.9658E-03  7.9389E-03  5.2112E-03  0.0000E+00  1.5286E-03  2.9660E-02
 21  0.0000E+00  6.2060E-03  0.0000E+00  7.8433E-03  4.1998E-03  0.0000E+00  9.6295E-03  0.0000E+00  1.3508E-02
 22  0.0000E+00  1.0201E-02  0.0000E+00  7.0785E-03  6.2434E-03  6.9286E-03  2.3107E-03  1.5859E-02  1.3028E-02
 23  0.0000E+00  1.6385E-02  2.0359E-02  5.2647E-02  4.5229E-03  3.3144E-02  1.5186E-02  1.9891E-02  0.0000E+00
 24  0.0000E+00  3.5000E-02  0.0000E+00  9.5129E-04  0.0000E+00  4.4808E-05  0.0000E+00  4.2590E-02  1.5096E-02
 25  0.0000E+00  4.3140E-02  3.0402E-02  0.0000E+00  6.2127E-02  5.1962E-02  2.6890E-02  1.9618E-02  2.0594E-02
 26  0.0000E+00  5.4092E-02  0.0000E+00  0.0000E+00  1.4796E-01  7.1651E-02  7.6385E-02  5.2532E-02  0.0000E+00
 27  1.6767E-01  9.4150E-02  2.4710E-01  0.0000E+00  4.3493E-03  0.0000E+00  1.5425E-01  9.4099E-02  1.5875E-02
 28  0.0000E+00  3.9555E-01  0.0000E+00  3.6558E-01  4.0207E-03  0.0000E+00  2.4616E-01  6.6434E-01  1.0932E+00
 29  0.0000E+00  4.5325E-01  0.0000E+00  2.2478E-01  1.8007E-01  8.0493E-01  5.7358E-01  6.8099E-02  1.0798E-01
 30  2.1165E+00  1.2242E+00  4.5317E-01  0.0000E+00  1.6956E+00  2.5412E-01  1.4279E+00  3.7140E+00  0.0000E+00
 31  4.5689E+00  2.1988E+00  2.4891E+00  2.0627E+00  3.7799E+00  0.0000E+00  4.7861E+00  1.9585E+00  5.4633E-01
 32  0.0000E+00  2.2216E+00  0.0000E+00  0.0000E+00  0.0000E+00  2.2517E+00  6.7147E+00  2.2586E+00  4.6214E+00
 33  0.0000E+00  6.5519E+00  1.2041E+00  5.4320E+00  3.6089E+00  1.0972E+01  4.8123E+00  1.5761E+01  0.0000E+00
 34  5.5772E+00  7.9604E+00  3.5737E+00  1.3291E+01  1.4459E+01  1.2607E+01  8.6199E+00  1.6390E+01  0.0000E+00
 35  2.3233E-02  8.5158E-03  9.6568E-03  0.0000E+00  9.5123E-03  1.5689E-02  1.6322E-03  2.0234E-02  3.7330E-03
 36  3.7180E-02  3.7431E-03  8.1610E-03  0.0000E+00  0.0000E+00  3.0161E-03  2.7722E-04  1.2614E-02  2.2425E-03
 37  0.0000E+00  4.3695E-03  4.3308E-03  1.1698E-03  1.2830E-02  2.0438E-03  5.1126E-03  9.3357E-03  5.4158E-03
 38  0.0000E+00  1.3689E-02  3.1062E-02  1.1245E-02  0.0000E+00  5.3181E-03  2.4238E-02  2.0506E-02  0.0000E+00
 39  0.0000E+00  2.1365E-02  0.0000E+00  1.3684E-02  0.0000E+00  0.0000E+00  8.5425E-03  3.0750E-02  6.4182E-02
 40  0.0000E+00  2.9675E-02  5.1560E-03  1.6387E-02  1.7436E-02  7.9263E-02  3.4310E-02  0.0000E+00  2.5333E-03
 41  0.0000E+00  3.4906E-02  0.0000E+00  2.6201E-02  3.1001E-02  2.6176E-02  6.7932E-02  5.6015E-02  0.0000E+00
 42  4.4831E-02  8.4700E-02  7.2411E-02  5.8173E-02  3.8599E-02  2.9163E-02  0.0000E+00  0.0000E+00  1.8730E-02
 43  0.0000E+00  1.4191E-01  1.2332E-01  0.0000E+00  7.1078E-02  1.3108E-01  9.9668E-02  9.4667E-02  8.1079E-02
 44  0.0000E+00  1.6254E-01  6.9388E-02  0.0000E+00  3.2399E-02  1.1282E-01  7.7736E-02  0.0000E+00  4.4435E-03
 45  0.0000E+00  4.1144E-01  0.0000E+00  0.0000E+00  4.0266E-01  5.4800E-01  1.6552E-01  1.9327E-01  1.1216E-01
 46  0.0000E+00  6.4035E-01  0.0000E+00  5.5504E-01  1.8152E+00  4.8039E-01  0.0000E+00  2.8928E-01  6.6071E-01
 47  0.0000E+00  1.4098E+00  1.5423E+00  5.0602E+00  7.0189E-01  2.8089E+00  1.5375E+00  2.0268E+00  2.2969E+00
 48  0.0000E+00  1.8384E+00  0.0000E+00  8.6144E+00  1.7094E-01  1.2394E+00  2.6578E+00  4.1546E+00  5.5068E+00
 49  0.0000E+00  4.9788E+00  8.7476E+00  0.0000E+00  8.8394E-01  3.4051E+00  1.5717E+00  2.9323E+00  1.3219E+00
 50  0.0000E+00  1.2612E+01  4.3158E+00  0.0000E+00  1.2013E+01  3.7961E+00  2.0246E+01  2.6810E+01  6.6165E+00
 51  2.3921E-01  5.3195E-03  6.5520E-03  0.0000E+00  2.6964E-03  8.0802E-03  0.0000E+00  7.0389E-03  0.0000E+00
 52  8.0033E-03  3.9719E-03  2.2209E-03  1.1473E-02  5.2583E-03  5.1591E-03  1.0824E-03  4.6250E-03  4.5475E-03
 53  0.0000E+00  4.6444E-03  0.0000E+00  6.5891E-04  1.1923E-02  0.0000E+00  2.4646E-03  1.2021E-02  3.9334E-03
 54  0.0000E+00  1.1642E-02  0.0000E+00  9.4129E-03  2.0592E-03  2.3649E-02  2.4642E-02  3.5929E-02  4.8766E-03
 55  3.8642E-02  1.6896E-02  9.4080E-03  0.0000E+00  0.0000E+00  4.8517E-02  1.7623E-02  7.0972E-02  1.5417E-03
 56  6.1034E-02  3.5317E-02  3.7799E-02  4.6159E-02  3.7452E-02  1.4236E-02  2.5428E-02  5.5130E-02  5.4786E-02
 57  0.0000E+00  4.4059E-02  4.8254E-02  1.6357E-02  5.0717E-02  1.3806E-01  0.0000E+00  0.0000E+00  0.0000E+00
 58  0.0000E+00  6.1785E-02  1.2717E-01  8.1087E-02  1.3854E-02  9.0599E-02  3.9501E-02  7.3715E-03  8.9988E-03
 59  3.1737E-04  1.3889E-01  1.2593E-01  3.8304E-02  4.5648E-02  0.0000E+00  1.4249E-01  1.8478E-01  1.0541E-01
 60  0.0000E+00  2.4509E-01  2.1206E-01  1.0328E-01  5.0622E-02  2.5072E-01  8.4931E-02  8.2038E-01  2.4766E-01
 61  0.0000E+00  4.7950E-01  0.0000E+00  9.8944E-01  0.0000E+00  0.0000E+00  4.4218E-01  2.9358E-01  7.8722E-01
 62  0.0000E+00  1.4257E+00  4.6487E+00  2.9997E+00  3.5609E-01  1.8820E+00  2.8178E+00  1.7905E+00  8.2719E-01
 63  0.0000E+00  2.2907E+00  1.7849E-01  0.0000E+00  2.3849E+00  7.8938E+00  1.7173E+00  0.0000E+00  0.0000E+00
 64  3.2011E-03  3.7824E+00  5.1296E+00  1.4898E+01  8.7972E+00  3.6052E+00  6.1359E-01  5.7771E+00  3.4437E+00
 65  0.0000E+00  9.6451E+00  1.6557E+01  1.8843E+00  2.1260E+01  1.1813E+01  1.0526E+01  0.0000E+00  4.4162E+01
 66  8.6880E+01  2.4698E+01  2.5214E+01  5.5625E+00  1.3800E+01  2.2241E+01  1.5648E+01  0.0000E+00  2.2250E+00

# AV, chi2 & Mass for <> & i_chain = 1 ...  7 solutions
AV       0.2917     -0.8853     -0.7884     -0.7893     -0.7756     -0.7280     -0.7549     -0.8299     -0.8041
chi2 2.7363E-05  3.2875E-05  3.1884E-05  3.2072E-05  3.1973E-05  3.1931E-05  3.2279E-05  3.1986E-05  3.2185E-05
Mass 8.5305E-14  1.4107E-14  1.7298E-14  2.1675E-14  1.4872E-14  1.6340E-14  1.8823E-14  1.1395E-14  9.0331E-15
 401.42                                  [v0_min (km/s) before EX0s...]
  30.89                                  [vd_min (km/s) before EX0s...]


## Synthetic spectrum (Best Model) ##l_obs f_obs f_syn wei
 3478    [Nl_obs]
 3741.00    1.61116   1.17066    0.000
 3742.00    1.24157   1.22690    0.000
 3743.00    0.25476   1.28354    0.000
 3744.00    1.61403   1.33023    0.000
 3745.00    4.34023   1.36043    0.026
 3746.00    4.01313   1.37477    0.025
 3747.00    2.13553   1.37369    0.024
 3748.00    1.30466   1.36136    0.024
 3749.00    0.93405   1.34167    0.024
 3750.00    1.43661   1.31330    0.023
 3751.00    2.26881   1.27917    0.023
 3752.00    1.77372   1.23803    0.023
 3753.00    0.85327   1.17764    0.023
 3754.00   -0.84176   1.10863    0.000
 3755.00   -2.74436   1.07693    0.000
 3756.00   -2.52325   1.11162    0.000
 3757.00   -1.83601   1.18217    0.000
 3758.00    0.56195   1.23870    0.022
 3759.00    3.25854   1.26700    0.023
 3760.00    2.55177   1.29192    0.023
 3761.00    1.39290   1.31572    0.024
 3762.00    0.47276   1.31761    0.022
 3763.00   -0.42494   1.31226    0.000
 3764.00    0.64985   1.30280    0.020
 3765.00    1.83843   1.30407    0.020
 3766.00    0.59670   1.33296    0.020
 3767.00   -0.70055   1.35377    0.000
 3768.00   -1.73729   1.35472    0.000
 3769.00   -2.66891   1.35032    0.000
 3770.00   -1.04727   1.33647    0.000
 3771.00    0.42457   1.30452    0.020
 3772.00   -0.06654   1.25990    0.000
 3773.00   -0.36808   1.20693    0.000
 3774.00    0.99466   1.13767    0.020
 3775.00    2.13283   1.06937    0.020
 3776.00    1.81491   1.05558    0.020
 3777.00    1.46975   1.11009    0.019
 3778.00    0.98669   1.17995    0.019
 3779.00    0.42869   1.23594    0.019
 3780.00   -0.43609   1.28913    0.000
 3781.00   -1.05885   1.33322    0.000
 3782.00   -0.86079   1.36017    0.000
 3783.00   -0.78896   1.37801    0.000
 3784.00   -1.07819   1.39516    0.000
 3785.00   -0.76891   1.41144    0.000
 3786.00    1.00266   1.42103    0.020
 3787.00    2.19156   1.42436    0.020
 3788.00    2.15236   1.42660    0.020
 3789.00    1.96397   1.42620    0.020
 3790.00    1.50229   1.41757    0.019
 3791.00    1.37497   1.40348    0.019
 3792.00    1.78285   1.39146    0.019
 3793.00    1.73215   1.38221    0.019
 3794.00    1.03730   1.36972    0.019
 3795.00    0.96108   1.34661    0.019
 3796.00    1.64950   1.31830    0.019
 3797.00    1.54407   1.30031    0.019
 3798.00    0.57376   1.28188    0.019
 3799.00    0.17504   1.24180    0.019
 3800.00    0.32559   1.18012    0.019
 3801.00    0.30842   1.09926    0.019
 3802.00    0.14912   1.01228    0.020
 3803.00   -0.11655   0.96995    0.000
 3804.00   -0.46157   1.01256    0.000
 3805.00    0.24326   1.10653    0.019
 3806.00    1.63633   1.19498    0.019
 3807.00    2.40531   1.25845    0.019
 3808.00    2.81616   1.30341    0.019
 3809.00    2.38846   1.33345    0.019
 3810.00    1.54165   1.34612    0.019
 3811.00    0.34327   1.34717    0.019
 3812.00   -1.00714   1.35436    0.000
 3813.00   -1.03766   1.37338    0.000
 3814.00   -0.57868   1.39122    0.000
 3815.00    0.06703   1.40012    0.018
 3816.00    0.77143   1.40131    0.019
 3817.00    0.67056   1.39617    0.018
 3818.00    0.35844   1.38618    0.018
 3819.00   -0.48070   1.37740    0.000
 3820.00   -1.43275   1.37208    0.000
 3821.00   -1.54730   1.36790    0.000
 3822.00   -1.51971   1.35994    0.000
 3823.00    0.78780   1.32820    0.018
 3824.00    3.38787   1.27009    0.018
 3825.00    2.68694   1.24429    0.018
 3826.00    1.68971   1.28243    0.019
 3827.00   -0.37754   1.33314    0.000
 3828.00   -2.50229   1.35515    0.000
 3829.00   -1.52655   1.35127    0.000
 3830.00   -0.48888   1.33873    0.000
 3831.00    0.53056   1.32813    0.018
 3832.00    1.54569   1.31803    0.018
 3833.00    2.46505   1.30415    0.019
 3834.00    3.21331   1.28504    0.020
 3835.00    1.83417   1.25934    0.019
 3836.00    0.58428   1.22070    0.019
 3837.00    0.42692   1.16263    0.019
 3838.00    0.43815   1.08467    0.019
 3839.00    1.50995   0.99143    0.019
 3840.00    2.16617   0.91809    0.019
 3841.00    0.77183   0.92020    0.019
 3842.00   -0.21300   0.99294    0.000
 3843.00    0.44142   1.07949    0.019
 3844.00    0.90934   1.15126    0.019
 3845.00    0.75723   1.20587    0.019
 3846.00    0.56270   1.24798    0.019
 3847.00    0.24908   1.28297    0.000
 3848.00    0.33414   1.30992    0.000
 3849.00    1.37678   1.32751    0.000
 3850.00    2.18734   1.33792    0.000
 3851.00    2.51659   1.34594    0.000
 3852.00    2.24633   1.35364    0.000
 3853.00    0.89476   1.35801    0.000
 3854.00    0.19574   1.35628    0.000
 3855.00    0.52584   1.35222    0.000
 3856.00    1.00494   1.35524    0.000
 3857.00    1.69032   1.36371    0.000
 3858.00    1.72274   1.36621    0.000
 3859.00    0.95956   1.36117    0.000
 3860.00    0.62478   1.35203    0.000
 3861.00    0.75019   1.34228    0.000
 3862.00    1.02389   1.33940    0.000
 3863.00    1.43810   1.34010    0.000
 3864.00    1.30673   1.33733    0.000
 3865.00    0.71960   1.33551    0.000
 3866.00    0.33533   1.34121    0.000
 3867.00    0.10029   1.34991    0.000
 3868.00    0.16095   1.35396    0.000
 3869.00    0.41262   1.35231    0.000
 3870.00    0.67600   1.34891    0.000
 3871.00    0.94599   1.34390    0.000
 3872.00    1.09231   1.33448    0.000
 3873.00    1.17780   1.33224    0.000
 3874.00    1.02871   1.34070    0.000
 3875.00    0.77986   1.34071    0.000
 3876.00    0.58828   1.32376    0.000
 3877.00    0.41756   1.30709    0.000
 3878.00    1.09100   1.30933    0.000
 3879.00    2.02468   1.32282    0.000
 3880.00    2.11329   1.32615    0.000
 3881.00    1.98496   1.31736    0.017
 3882.00    1.61474   1.30764    0.017
 3883.00    1.19395   1.29963    0.018
 3884.00    0.39070   1.29417    0.017
 3885.00   -0.47562   1.29010    0.000
 3886.00    0.64609   1.27717    0.017
 3887.00    2.01400   1.25324    0.018
 3888.00    2.19548   1.22953    0.018
 3889.00    2.27543   1.20650    0.017
 3890.00    2.33180   1.16549    0.017
 3891.00    2.38698   1.09891    0.017
 3892.00    2.51038   1.01524    0.017
 3893.00    2.62955   0.92190    0.017
 3894.00    2.40283   0.86304    0.017
 3895.00    2.14751   0.89568    0.017
 3896.00    1.30732   0.99606    0.016
 3897.00    0.54657   1.09491    0.016
 3898.00    0.72537   1.16415    0.015
 3899.00    0.80616   1.20899    0.015
 3900.00    0.08847   1.23774    0.015
 3901.00   -0.55013   1.26065    0.000
 3902.00   -0.70568   1.28110    0.000
 3903.00   -0.64630   1.29143    0.000
 3904.00    0.44736   1.29342    0.014
 3905.00    1.16645   1.30003    0.014
 3906.00    0.41857   1.31390    0.014
 3907.00   -0.04017   1.32304    0.000
 3908.00    0.44350   1.32389    0.014
 3909.00    0.83211   1.32461    0.015
 3910.00    0.95861   1.32388    0.015
 3911.00    0.85702   1.32212    0.016
 3912.00    0.21684   1.32776    0.016
 3913.00   -0.10280   1.33995    0.000
 3914.00    0.23176   1.34960    0.017
 3915.00    0.65236   1.35217    0.017
 3916.00    1.22581   1.34912    0.017
 3917.00    1.29320   1.34553    0.017
 3918.00    0.57428   1.34539    0.017
 3919.00    0.56025   1.34749    0.017
 3920.00    1.50801   1.34859    0.017
 3921.00    1.91744   1.34561    0.017
 3922.00    1.68021   1.33843    0.017
 3923.00    1.63502   1.32459    0.017
 3924.00    1.79323   1.30264    0.017
 3925.00    1.83084   1.28246    0.017
 3926.00    1.75579   1.27480    0.017
 3927.00    1.01018   1.27580    0.017
 3928.00   -0.28767   1.27339    0.000
 3929.00   -0.13355   1.27073    0.000
 3930.00    1.07315   1.27147    0.017
 3931.00    1.96242   1.26769    0.017
 3932.00    2.64968   1.26373    0.017
 3933.00    2.50453   1.26542    0.017
 3934.00    1.89612   1.26673    0.017
 3935.00    1.56476   1.26434    0.017
 3936.00    1.36753   1.25681    0.016
 3937.00    1.32054   1.24309    0.016
 3938.00    1.33637   1.22414    0.016
 3939.00    1.32568   1.20913    0.016
 3940.00    1.30550   1.21278    0.016
 3941.00    1.10666   1.23390    0.016
 3942.00    0.85382   1.25702    0.016
 3943.00    1.07708   1.27273    0.016
 3944.00    1.41992   1.28333    0.017
 3945.00    1.76571   1.29198    0.017
 3946.00    2.11211   1.29588    0.016
 3947.00    1.47473   1.29449    0.016
 3948.00    0.67982   1.28904    0.017
 3949.00    0.76719   1.28110    0.016
 3950.00    0.95990   1.28042    0.016
 3951.00    1.51895   1.29126    0.017
 3952.00    2.10784   1.29809    0.017
 3953.00    3.00953   1.29513    0.017
 3954.00    3.92561   1.29635    0.017
 3955.00    3.07336   1.30507    0.017
 3956.00    2.20062   1.31007    0.017
 3957.00    1.43399   1.30496    0.017
 3958.00    0.72230   1.29603    0.017
 3959.00    1.05135   1.29139    0.017
 3960.00    1.33303   1.28900    0.000
 3961.00    1.08096   1.28300    0.000
 3962.00    0.84697   1.27609    0.000
 3963.00    0.75501   1.27318    0.000
 3964.00    0.75488   1.26932    0.000
 3965.00    1.29957   1.25078    0.000
 3966.00    1.69331   1.21190    0.000
 3967.00    1.37826   1.17641    0.000
 3968.00    1.12539   1.15946    0.000
 3969.00    1.11079   1.13745    0.000
 3970.00    1.28776   1.10152    0.000
 3971.00    2.07700   1.06257    0.000
 3972.00    2.60859   1.00972    0.000
 3973.00    2.44236   0.92964    0.000
 3974.00    2.23845   0.83387    0.000
 3975.00    1.94705   0.77068    0.000
 3976.00    1.77382   0.79315    0.000
 3977.00    1.83793   0.88497    0.000
 3978.00    1.64362   0.98301    0.000
 3979.00    0.99727   1.05939    0.000
 3980.00    0.44822   1.11793    0.000
 3981.00    0.04812   1.16025    0.016
 3982.00    0.28492   1.19003    0.016
 3983.00    1.37823   1.21459    0.016
 3984.00    2.06502   1.23586    0.016
 3985.00    2.27038   1.25244    0.016
 3986.00    2.14175   1.26110    0.016
 3987.00    1.66434   1.26069    0.016
 3988.00    1.74926   1.25921    0.016
 3989.00    2.35211   1.26508    0.016
 3990.00    2.59256   1.27590    0.016
 3991.00    2.53879   1.28455    0.015
 3992.00    1.94876   1.29067    0.015
 3993.00    0.97561   1.29742    0.015
 3994.00    0.30707   1.30002    0.015
 3995.00   -0.17048   1.29695    0.000
 3996.00    0.25752   1.29667    0.016
 3997.00    1.18177   1.30171    0.016
 3998.00    1.67735   1.30506    0.016
 3999.00    1.96873   1.30017    0.016
 4000.00    1.33161   1.29104    0.016
 4001.00    0.31286   1.28668    0.016
 4002.00    0.11556   1.28475    0.016
 4003.00    0.20676   1.28199    0.015
 4004.00    0.56093   1.28719    0.016
 4005.00    0.99301   1.30021    0.016
 4006.00    0.91901   1.30776    0.016
 4007.00    0.72070   1.30664    0.016
 4008.00    0.29704   1.30086    0.016
 4009.00   -0.17141   1.28920    0.000
 4010.00    0.04882   1.27323    0.016
 4011.00    0.37606   1.26489    0.016
 4012.00    1.01665   1.26868    0.016
 4013.00    1.69328   1.27064    0.016
 4014.00    1.00000   1.26379    0.016
 4015.00    0.20080   1.26295    0.016
 4016.00    0.71181   1.27503    0.016
 4017.00    1.27798   1.28819    0.016
 4018.00    1.81336   1.29555    0.016
 4019.00    2.31994   1.29925    0.016
 4020.00    1.57696   1.30225    0.016
 4021.00    0.86755   1.30335    0.015
 4022.00    0.74983   1.29937    0.015
 4023.00    0.64999   1.29568    0.015
 4024.00    0.74253   1.29835    0.015
 4025.00    0.78541   1.29989    0.015
 4026.00    0.45124   1.29276    0.015
 4027.00    0.22458   1.28000    0.015
 4028.00    0.61805   1.26108    0.015
 4029.00    0.92912   1.22379    0.015
 4030.00    0.86253   1.16296    0.015
 4031.00    0.96106   1.11250    0.015
 4032.00    1.67896   1.12537    0.015
 4033.00    2.14220   1.19069    0.015
 4034.00    1.80708   1.24403    0.015
 4035.00    1.34924   1.25748    0.014
 4036.00    0.56493   1.25056    0.014
 4037.00    0.16666   1.24474    0.014
 4038.00    0.64988   1.24293    0.014
 4039.00    0.97914   1.24405    0.015
 4040.00    1.00400   1.25158    0.015
 4041.00    1.08263   1.26804    0.015
 4042.00    1.25388   1.28783    0.015
 4043.00    1.27680   1.29946    0.015
 4044.00    1.07596   1.29878    0.015
 4045.00    1.06678   1.28993    0.015
 4046.00    1.31166   1.28069    0.015
 4047.00    1.27952   1.27839    0.015
 4048.00    0.92396   1.27625    0.015
 4049.00    0.80764   1.26074    0.016
 4050.00    0.93763   1.23660    0.016
 4051.00    1.09850   1.22446    0.016
 4052.00    1.28742   1.23549    0.016
 4053.00    0.83668   1.25731    0.016
 4054.00   -0.12603   1.27291    0.000
 4055.00    0.26558   1.28102    0.015
 4056.00    1.61085   1.28473    0.015
 4057.00    1.85447   1.28211    0.015
 4058.00    1.41762   1.27409    0.016
 4059.00    1.25097   1.26375    0.016
 4060.00    1.23012   1.25385    0.015
 4061.00    1.08171   1.24836    0.016
 4062.00    0.87351   1.24698    0.016
 4063.00    1.37812   1.24604    0.016
 4064.00    2.17072   1.24717    0.016
 4065.00    1.71394   1.25155    0.015
 4066.00    0.82636   1.25382    0.015
 4067.00    0.63412   1.24632    0.015
 4068.00    0.64379   1.22923    0.015
 4069.00    0.72413   1.21871    0.015
 4070.00    0.82145   1.22662    0.015
 4071.00    0.86875   1.23700    0.015
 4072.00    0.90636   1.22677    0.015
 4073.00    0.72198   1.20050    0.015
 4074.00    0.50415   1.17926    0.015
 4075.00    0.45788   1.17081    0.015
 4076.00    0.43058   1.17224    0.015
 4077.00    0.60134   1.18292    0.014
 4078.00    0.78661   1.20425    0.014
 4079.00    0.62727   1.22382    0.014
 4080.00    0.45475   1.22027    0.014
 4081.00    1.18788   1.20011    0.014
 4082.00    1.91375   1.18969    0.014
 4083.00    2.17670   1.19558    0.014
 4084.00    2.40251   1.20908    0.014
 4085.00    2.01639   1.22477    0.014
 4086.00    1.62886   1.23774    0.014
 4087.00    1.22679   1.24207    0.014
 4088.00    0.90489   1.23583    0.014
 4089.00    1.17134   1.22370    0.014
 4090.00    1.39561   1.21511    0.014
 4091.00    1.38322   1.21524    0.014
 4092.00    1.37730   1.21717    0.000
 4093.00    1.40027   1.20405    0.000
 4094.00    1.45801   1.18101    0.000
 4095.00    1.64339   1.17929    0.000
 4096.00    1.64138   1.19604    0.000
 4097.00    1.06304   1.20012    0.000
 4098.00    0.75815   1.19046    0.000
 4099.00    1.16797   1.17870    0.000
 4100.00    1.46434   1.15644    0.000
 4101.00    1.50591   1.11425    0.000
 4102.00    1.41696   1.06064    0.000
 4103.00    1.07404   1.01607    0.000
 4104.00    0.84432   0.97918    0.000
 4105.00    0.80668   0.91753    0.000
 4106.00    0.84161   0.82662    0.000
 4107.00    0.98441   0.76458    0.000
 4108.00    1.12096   0.78754    0.000
 4109.00    1.24933   0.87619    0.000
 4110.00    1.26379   0.97260    0.000
 4111.00    1.14714   1.04727    0.000
 4112.00    1.11277   1.09663    0.000
 4113.00    1.16192   1.12507    0.014
 4114.00    1.37534   1.14045    0.014
 4115.00    1.73582   1.14843    0.014
 4116.00    1.45584   1.15388    0.014
 4117.00    0.67056   1.16227    0.014
 4118.00    1.04605   1.17488    0.014
 4119.00    2.22705   1.18528    0.015
 4120.00    2.52852   1.18140    0.015
 4121.00    2.29479   1.16734    0.014
 4122.00    1.79328   1.16686    0.021
 4123.00    1.14950   1.17736    0.089
 4124.00    0.86924   1.17429   -1.000
 4125.00    0.75659   1.15926   -1.000
 4126.00    1.20768   1.14994   -1.000
 4127.00    1.88261   1.15710   -1.000
 4128.00    1.14349   1.17748   -1.000
 4129.00   -0.07420   1.19750    0.000
 4130.00   -0.18478   1.21029    0.000
 4131.00    0.01963   1.21341    0.015
 4132.00    0.70419   1.20529    0.014
 4133.00    1.50148   1.19266    0.013
 4134.00    1.59673   1.18641    0.013
 4135.00    1.55947   1.18497    0.013
 4136.00    1.49235   1.17863    0.014
 4137.00    1.42088   1.16923    0.014
 4138.00    1.78598   1.16592    0.014
 4139.00    2.19747   1.17206    0.014
 4140.00    1.31793   1.18501    0.013
 4141.00    0.34908   1.19903    0.013
 4142.00    0.22330   1.20587    0.013
 4143.00    0.12659   1.20576    0.013
 4144.00    0.96248   1.20558    0.013
 4145.00    1.77700   1.20535    0.013
 4146.00    1.82435   1.19951    0.013
 4147.00    1.84843   1.17848    0.013
 4148.00    1.51272   1.13940    0.013
 4149.00    1.21067   1.10881    0.013
 4150.00    1.24042   1.11818    0.013
 4151.00    1.22815   1.15334    0.013
 4152.00    0.91764   1.17916    0.013
 4153.00    0.59023   1.18805    0.013
 4154.00    0.17052   1.18620    0.013
 4155.00   -0.06800   1.17886    0.000
 4156.00    0.48544   1.17437    0.013
 4157.00    0.92691   1.17229    0.013
 4158.00    0.96562   1.16723    0.013
 4159.00    0.96768   1.16404    0.013
 4160.00    0.85914   1.16593    0.013
 4161.00    0.75708   1.16641    0.013
 4162.00    0.67163   1.16574    0.013
 4163.00    0.63268   1.17232    0.013
 4164.00    0.69645   1.18419    0.013
 4165.00    0.65623   1.19134    0.013
 4166.00    0.41681   1.19109    0.013
 4167.00    0.51242   1.18796    0.013
 4168.00    1.16799   1.18533    0.013
 4169.00    1.34579   1.18322    0.013
 4170.00    0.82374   1.18125    0.013
 4171.00    0.79280   1.17912    0.013
 4172.00    1.39440   1.17417    0.013
 4173.00    1.48848   1.16681    0.014
 4174.00    1.00663   1.16437    0.014
 4175.00    0.71081   1.16916    0.014
 4176.00    0.60118   1.17085    0.014
 4177.00    0.89052   1.16026    0.013
 4178.00    1.53205   1.14648    0.013
 4179.00    1.46242   1.14376    0.013
 4180.00    0.83970   1.15016    0.013
 4181.00    0.92182   1.15583    0.013
 4182.00    1.48596   1.15648    0.013
 4183.00    1.47883   1.15456    0.013
 4184.00    1.12927   1.15576    0.013
 4185.00    1.10365   1.16101    0.013
 4186.00    1.24745   1.16368    0.013
 4187.00    1.01767   1.16118    0.013
 4188.00    0.61844   1.15963    0.013
 4189.00    0.83900   1.16238    0.013
 4190.00    1.30140   1.16467    0.013
 4191.00    1.57981   1.15840    0.013
 4192.00    1.79711   1.14297    0.013
 4193.00    1.32811   1.13457    0.013
 4194.00    0.66783   1.14125    0.013
 4195.00    0.59251   1.14934    0.013
 4196.00    0.65140   1.15269    0.013
 4197.00    0.75803   1.15716    0.013
 4198.00    0.87343   1.16495    0.013
 4199.00    1.07659   1.16908    0.013
 4200.00    1.29216   1.15997    0.013
 4201.00    1.21668   1.14155    0.013
 4202.00    1.11152   1.12432    0.013
 4203.00    0.99232   1.10610    0.012
 4204.00    0.87220   1.08115    0.012
 4205.00    0.63326   1.06227    0.012
 4206.00    0.39160   1.06564    0.012
 4207.00    0.74756   1.08562    0.012
 4208.00    1.09697   1.10886    0.012
 4209.00    1.25363   1.12867    0.012
 4210.00    1.39680   1.14158    0.012
 4211.00    1.34363   1.14973    0.012
 4212.00    1.27691   1.15723    0.012
 4213.00    1.08198   1.16294    0.012
 4214.00    0.94113   1.16395    0.012
 4215.00    1.17206   1.15921    0.012
 4216.00    1.34289   1.15308    0.012
 4217.00    1.19425   1.14867    0.012
 4218.00    0.96161   1.14570    0.012
 4219.00    0.37022   1.14311    0.012
 4220.00   -0.02976   1.13571    0.000
 4221.00    0.24468   1.12766    0.012
 4222.00    0.46956   1.13465    0.012
 4223.00    0.54768   1.15380    0.012
 4224.00    0.66325   1.16773    0.012
 4225.00    0.87328   1.17261    0.012
 4226.00    0.99142   1.17276    0.012
 4227.00    0.90989   1.16663    0.012
 4228.00    0.77554   1.15297    0.012
 4229.00    0.54158   1.13623    0.012
 4230.00    0.36833   1.11652    0.011
 4231.00    0.29503   1.09230    0.011
 4232.00    0.27949   1.07363    0.011
 4233.00    0.34732   1.07833    0.011
 4234.00    0.41631   1.10593    0.011
 4235.00    0.48675   1.13406    0.011
 4236.00    0.40200   1.14993    0.011
 4237.00    0.14364   1.15322    0.011
 4238.00    0.25326   1.14386    0.011
 4239.00    0.72600   1.13280    0.011
 4240.00    0.90549   1.12961    0.011
 4241.00    0.82978   1.12618    0.012
 4242.00    0.85305   1.12099    0.012
 4243.00    0.95222   1.12294    0.012
 4244.00    1.00715   1.12832    0.012
 4245.00    1.03228   1.13158    0.012
 4246.00    0.81925   1.13562    0.012
 4247.00    0.46561   1.13971    0.012
 4248.00    0.35298   1.14282    0.012
 4249.00    0.36445   1.15067    0.013
 4250.00    0.79847   1.16089    0.013
 4251.00    1.42101   1.16012    0.013
 4252.00    1.39109   1.14661    0.012
 4253.00    1.11101   1.13243    0.012
 4254.00    0.93227   1.12408    0.012
 4255.00    0.78654   1.11634    0.013
 4256.00    0.79788   1.10993    0.012
 4257.00    0.85210   1.11360    0.012
 4258.00    1.13664   1.11919    0.012
 4259.00    1.47280   1.11275    0.012
 4260.00    1.42743   1.10442    0.012
 4261.00    1.31382   1.11028    0.012
 4262.00    1.13614   1.12635    0.012
 4263.00    0.94970   1.13442    0.012
 4264.00    0.56576   1.12504    0.012
 4265.00    0.16252   1.10778    0.012
 4266.00   -0.02444   1.09720    0.000
 4267.00   -0.19818   1.10310    0.000
 4268.00    0.54667   1.12263    0.012
 4269.00    1.31019   1.14018    0.012
 4270.00    0.87984   1.14635    0.012
 4271.00    0.46299   1.14043    0.012
 4272.00    0.40280   1.12172    0.012
 4273.00    0.36551   1.10372    0.012
 4274.00    0.64301   1.10255    0.012
 4275.00    0.89988   1.10461    0.012
 4276.00    0.96933   1.09189    0.012
 4277.00    1.03697   1.07426    0.012
 4278.00    1.09258   1.07008    0.012
 4279.00    1.06192   1.07546    0.012
 4280.00    0.58470   1.07599    0.012
 4281.00    0.25297   1.07766    0.012
 4282.00    0.52861   1.09154   -2.000
 4283.00    0.77106   1.11101   -2.000
 4284.00    0.89893   1.12328   -2.000
 4285.00    1.09371   1.12094   -2.000
 4286.00    1.48296   1.11022   -2.000
 4287.00    1.68352   1.10358   -2.000
 4288.00    1.41609   1.10170   -2.000
 4289.00    1.04747   1.10152   -2.000
 4290.00    0.46252   1.09955   -2.000
 4291.00    0.10377   1.09514   -2.000
 4292.00    0.16499   1.09522   -2.000
 4293.00    0.23631   1.09631   -2.000
 4294.00    0.32401   1.08583   -2.000
 4295.00    0.48120   1.06738   -2.000
 4296.00    0.73726   1.05996   -2.000
 4297.00    0.86076   1.07187   -2.000
 4298.00    0.81834   1.09048    0.012
 4299.00    0.78472   1.09699    0.012
 4300.00    0.76080   1.09008    0.011
 4301.00    0.79686   1.08646    0.011
 4302.00    0.89128   1.08736    0.011
 4303.00    0.86822   1.08159    0.011
 4304.00    0.74437   1.06604    0.011
 4305.00    0.56438   1.04780    0.011
 4306.00    0.34198   1.04070    0.011
 4307.00    0.36939   1.04470    0.011
 4308.00    0.56269   1.04553    0.011
 4309.00    0.72140   1.04320    0.011
 4310.00    0.86001   1.04561    0.011
 4311.00    0.55944   1.04734    0.011
 4312.00    0.03630   1.04146    0.011
 4313.00    0.10326   1.02967    0.011
 4314.00    0.42917   1.02159    0.011
 4315.00    0.60517   1.02554    0.011
 4316.00    0.72470   1.03831    0.011
 4317.00    0.49605   1.05097    0.011
 4318.00    0.15607   1.05840    0.011
 4319.00    0.33067   1.06157    0.011
 4320.00    0.64279   1.06840    0.011
 4321.00    0.80325   1.08718    0.011
 4322.00    0.93054   1.11019    0.011
 4323.00    0.77109   1.12045    0.011
 4324.00    0.56177   1.11707    0.011
 4325.00    0.81129   1.10913    0.011
 4326.00    1.12151   1.10232    0.011
 4327.00    0.91941   1.09812    0.011
 4328.00    0.66944   1.09069    0.011
 4329.00    0.56446   1.07024    0.011
 4330.00    0.46776   1.03927    0.000
 4331.00    0.86440   1.01449    0.000
 4332.00    1.26917   1.01519    0.000
 4333.00    1.28870   1.04114    0.000
 4334.00    1.30045   1.06851    0.000
 4335.00    1.12532   1.07800    0.000
 4336.00    0.96888   1.07034    0.000
 4337.00    1.05574   1.05882    0.000
 4338.00    1.10314   1.05055    0.000
 4339.00    0.80582   1.04277    0.000
 4340.00    0.56692   1.03355    0.000
 4341.00    0.70535   1.01493    0.000
 4342.00    0.82744   0.97001    0.000
 4343.00    0.86708   0.89611    0.000
 4344.00    0.84131   0.81128    0.000
 4345.00    0.54862   0.73033    0.000
 4346.00    0.37125   0.68272    0.000
 4347.00    0.58407   0.71300    0.000
 4348.00    0.80772   0.80324    0.000
 4349.00    1.06231   0.88515    0.000
 4350.00    1.10854   0.93591    0.000
 4351.00    0.64681   0.97247    0.012
 4352.00    0.31719   0.99877    0.012
 4353.00    0.26548   1.01671    0.011
 4354.00    0.32481   1.03559    0.011
 4355.00    0.58715   1.04968    0.011
 4356.00    0.80087   1.04257    0.014
 4357.00    0.93693   1.02051    0.038
 4358.00    0.90979   1.01363   -1.000
 4359.00    0.65385   1.03129   -1.000
 4360.00    0.50396   1.05236   -1.000
 4361.00    0.48492   1.06557   -1.000
 4362.00    0.41580   1.07610   -1.000
 4363.00    0.29221   1.08242   -1.000
 4364.00    0.44704   1.07781   -1.000
 4365.00    0.86896   1.07039   -1.000
 4366.00    0.93346   1.07400    0.042
 4367.00    0.69565   1.08556    0.015
 4368.00    0.76217   1.09296    0.012
 4369.00    1.05538   1.09584    0.012
 4370.00    0.81642   1.10117    0.012
 4371.00    0.22926   1.10381    0.012
 4372.00    0.17534   1.09236    0.012
 4373.00    0.42685   1.07468    0.012
 4374.00    0.65393   1.06804    0.011
 4375.00    0.86884   1.07267    0.011
 4376.00    0.95841   1.07689    0.011
 4377.00    0.99390   1.07711    0.012
 4378.00    0.81695   1.07359    0.012
 4379.00    0.56140   1.06360    0.012
 4380.00    0.51865   1.04893    0.011
 4381.00    0.54265   1.04215    0.011
 4382.00    0.38625   1.05282    0.011
 4383.00    0.18266   1.07203    0.011
 4384.00    0.12384   1.08051    0.011
 4385.00    0.09595   1.07553    0.011
 4386.00    0.58271   1.06881    0.011
 4387.00    1.15651   1.05897    0.011
 4388.00    0.84915   1.03303    0.011
 4389.00    0.42921   0.99867    0.011
 4390.00    0.96984   0.98408    0.011
 4391.00    1.59619   0.99881    0.011
 4392.00    1.53397   1.01620    0.011
 4393.00    1.43508   1.01163    0.011
 4394.00    0.99913   1.00333    0.011
 4395.00    0.56345   1.01340    0.011
 4396.00    0.68540   1.03145    0.011
 4397.00    0.80012   1.04754    0.011
 4398.00    0.75580   1.06057    0.011
 4399.00    0.72335   1.06316    0.011
 4400.00    0.83749   1.05487    0.011
 4401.00    0.97627   1.05031    0.011
 4402.00    1.32242   1.06240    0.011
 4403.00    1.53649   1.08075    0.011
 4404.00    0.92276   1.08456    0.011
 4405.00    0.42099   1.07151    0.011
 4406.00    0.46994   1.05606    0.011
 4407.00    0.56798   1.05467    0.011
 4408.00    0.86203   1.06232    0.011
 4409.00    1.05540   1.05234    0.011
 4410.00    0.91488   1.02474    0.011
 4411.00    0.80135   1.01188    0.011
 4412.00    0.76346   1.02288    0.011
 4413.00    0.80352   1.03459    0.011
 4414.00    1.03040   1.03924    0.011
 4415.00    1.17826   1.05015    0.011
 4416.00    1.16254   1.06636    0.011
 4417.00    1.20443   1.07693    0.011
 4418.00    1.35004   1.08194    0.011
 4419.00    1.35183   1.07413    0.011
 4420.00    1.12723   1.04578    0.010
 4421.00    0.88424   1.01938    0.010
 4422.00    0.61583   1.01859    0.010
 4423.00    0.57649   1.03555    0.010
 4424.00    0.81579   1.05588    0.010
 4425.00    0.91166   1.07241    0.010
 4426.00    0.85375   1.07742    0.011
 4427.00    0.80925   1.06851    0.011
 4428.00    0.77745   1.05415    0.010
 4429.00    0.89484   1.04933    0.010
 4430.00    1.13665   1.05442    0.010
 4431.00    1.13634   1.05677    0.010
 4432.00    0.95828   1.05394    0.010
 4433.00    0.74954   1.05349    0.010
 4434.00    0.52103   1.05804    0.010
 4435.00    0.62914   1.05738    0.010
 4436.00    0.92714   1.04827    0.011
 4437.00    0.68785   1.04614    0.010
 4438.00    0.18478   1.05105    0.010
 4439.00    0.32355   1.04589    0.010
 4440.00    0.73466   1.03015    0.011
 4441.00    0.84462   1.01837    0.011
 4442.00    0.84513   1.02167    0.011
 4443.00    0.95464   1.03798    0.010
 4444.00    1.09766   1.05818    0.010
 4445.00    1.13770   1.06970    0.010
 4446.00    1.15138   1.06160    0.011
 4447.00    0.97189   1.03995    0.011
 4448.00    0.75214   1.02344    0.010
 4449.00    1.12248   1.02301    0.010
 4450.00    1.58977   1.03811    0.010
 4451.00    1.33928   1.05797    0.010
 4452.00    1.00031   1.06512    0.010
 4453.00    0.87482   1.05975    0.010
 4454.00    0.76748   1.05837    0.010
 4455.00    0.95688   1.06079    0.010
 4456.00    1.16091   1.05794    0.010
 4457.00    1.18447   1.05433    0.010
 4458.00    1.20623   1.05184    0.010
 4459.00    1.29495   1.04375    0.010
 4460.00    1.36322   1.02874    0.010
 4461.00    1.01713   1.01629    0.000
 4462.00    0.69859   1.01695    0.000
 4463.00    0.70375   1.02361    0.000
 4464.00    0.76022   1.02404    0.000
 4465.00    1.23281   1.01973    0.000
 4466.00    1.55820   1.01538    0.000
 4467.00    0.98783   1.00966    0.000
 4468.00    0.53173   1.01023    0.000
 4469.00    0.62382   1.02465    0.000
 4470.00    0.70021   1.03789    0.000
 4471.00    0.71531   1.03774    0.000
 4472.00    0.74482   1.03207    0.000
 4473.00    0.82120   1.02721    0.000
 4474.00    0.89530   1.01838    0.000
 4475.00    0.96313   0.99885    0.000
 4476.00    0.96829   0.96450    0.000
 4477.00    0.82575   0.93144    0.000
 4478.00    0.74757   0.94209    0.000
 4479.00    0.80046   0.99468    0.000
 4480.00    0.99656   1.03616    0.000
 4481.00    1.44653   1.04889    0.000
 4482.00    1.55972   1.05528    0.010
 4483.00    1.15057   1.06495    0.010
 4484.00    0.75660   1.06591    0.010
 4485.00    0.38330   1.04668    0.010
 4486.00    0.21337   1.01305    0.010
 4487.00    0.28731   0.98991    0.010
 4488.00    0.36326   0.99658    0.010
 4489.00    0.44132   1.02456    0.010
 4490.00    0.59546   1.04989    0.010
 4491.00    0.82055   1.06387    0.010
 4492.00    0.79072   1.06813    0.010
 4493.00    0.55131   1.06150    0.010
 4494.00    0.41884   1.04468    0.010
 4495.00    0.36377   1.02750    0.010
 4496.00    0.63347   1.02272    0.010
 4497.00    1.10947   1.03227    0.010
 4498.00    1.24139   1.04379    0.010
 4499.00    1.18219   1.04290    0.010
 4500.00    1.28003   1.02874    0.010
 4501.00    1.45374   1.01695    0.010
 4502.00    1.22885   1.01786    0.010
 4503.00    0.83766   1.02855    0.010
 4504.00    0.99508   1.04232    0.010
 4505.00    1.34829   1.05089    0.010
 4506.00    1.33943   1.04817    0.010
 4507.00    1.22139   1.03898    0.010
 4508.00    0.94991   1.04041    0.010
 4509.00    0.63999   1.05760    0.010
 4510.00    0.57576   1.07248    0.010
 4511.00    0.56146   1.07313    0.010
 4512.00    0.61643   1.06452    0.010
 4513.00    0.68244   1.05541    0.010
 4514.00    0.64550   1.05125    0.010
 4515.00    0.59633   1.05189    0.010
 4516.00    0.56346   1.05126    0.010
 4517.00    0.53190   1.04604    0.010
 4518.00    0.87530   1.03804    0.010
 4519.00    1.23575   1.02872    0.010
 4520.00    1.45705   1.01798    0.010
 4521.00    1.66377   1.01452    0.010
 4522.00    1.21339   1.02172    0.010
 4523.00    0.78130   1.02628    0.010
 4524.00    0.69244   1.02564    0.010
 4525.00    0.63719   1.03190    0.010
 4526.00    0.95838   1.04357    0.010
 4527.00    1.24132   1.04936    0.010
 4528.00    1.22486   1.04100    0.010
 4529.00    1.21420   1.02644    0.010
 4530.00    1.23781   1.01915    0.011
 4531.00    1.21247   1.01475    0.011
 4532.00    0.95799   1.00536    0.011
 4533.00    0.72017   0.99294    0.011
 4534.00    0.54598   0.98110    0.011
 4535.00    0.49075   0.97593    0.010
 4536.00    0.81479   0.98113    0.010
 4537.00    1.01626   0.99220    0.010
 4538.00    0.88652   1.00264    0.010
 4539.00    0.86623   1.00131    0.010
 4540.00    1.09956   0.98796    0.010
 4541.00    1.21508   0.97992    0.010
 4542.00    1.09444   0.99172    0.010
 4543.00    0.96326   1.01547    0.010
 4544.00    0.81369   1.02506    0.010
 4545.00    0.72228   1.00865    0.010
 4546.00    0.71972   0.97432    0.010
 4547.00    0.60550   0.94416    0.010
 4548.00    0.34138   0.94493    0.010
 4549.00    0.23252   0.97163    0.010
 4550.00    0.30720   0.99140    0.000
 4551.00    0.54187   0.99679    0.000
 4552.00    0.94332   1.00249    0.000
 4553.00    0.97747   1.00893    0.000
 4554.00    0.67392   1.00671    0.000
 4555.00    0.54692   0.99762    0.000
 4556.00    0.56299   0.99647    0.000
 4557.00    0.72668   1.00263    0.000
 4558.00    0.99565   0.99934    0.000
 4559.00    1.02195   0.99103    0.000
 4560.00    0.89637   0.98834    0.000
 4561.00    0.85715   0.99117    0.000
 4562.00    0.86515   1.00150    0.000
 4563.00    0.92865   1.01742    0.000
 4564.00    1.01853   1.02850    0.000
 4565.00    1.01617   1.03151    0.000
 4566.00    0.97599   1.03080    0.000
 4567.00    0.98125   1.03064    0.000
 4568.00    1.00244   1.02901    0.000
 4569.00    0.88289   1.01894    0.000
 4570.00    0.72176   1.00421    0.000
 4571.00    0.75720   0.99731    0.000
 4572.00    0.84080   1.00271    0.000
 4573.00    0.93710   1.01346    0.000
 4574.00    1.03591   1.01888    0.000
 4575.00    0.81090   1.01795    0.000
 4576.00    0.53575   1.01337    0.000
 4577.00    0.81778   1.00407    0.000
 4578.00    1.16357   1.00127    0.000
 4579.00    1.15628   1.01281    0.000
 4580.00    1.12187   1.02093    0.000
 4581.00    1.10715   1.01821    0.000
 4582.00    1.09326   1.01692    0.000
 4583.00    0.68478   1.01803    0.000
 4584.00    0.28420   1.01325    0.000
 4585.00    0.37024   1.00095    0.000
 4586.00    0.44983   0.98885    0.000
 4587.00    0.41682   0.98669    0.000
 4588.00    0.36551   0.99365    0.000
 4589.00    0.11854   0.99832    0.000
 4590.00   -0.04290   0.99613    0.000
 4591.00    0.44228   0.99227    0.000
 4592.00    0.77818   0.99080    0.000
 4593.00    0.25612   0.99549    0.000
 4594.00   -0.06678   1.00614    0.000
 4595.00    0.52027   1.01409    0.000
 4596.00    1.02896   1.00980    0.000
 4597.00    1.24449   0.99648    0.000
 4598.00    1.36742   0.98764    0.000
 4599.00    1.20079   0.98815    0.000
 4600.00    1.04240   0.98918    0.000
 4601.00    0.90589   0.98442    0.000
 4602.00    0.89777   0.98032    0.000
 4603.00    1.18224   0.98265    0.000
 4604.00    1.34149   0.98948    0.000
 4605.00    1.25367   0.99448    0.000
 4606.00    1.03586   0.99114    0.000
 4607.00    0.59451   0.98407    0.000
 4608.00    0.52668   0.98370    0.000
 4609.00    1.02129   0.98762    0.000
 4610.00    1.28183   0.98924    0.000
 4611.00    1.23266   0.98725    0.000
 4612.00    1.07578   0.98690    0.000
 4613.00    0.79337   0.99468    0.000
 4614.00    0.65899   1.00856    0.000
 4615.00    0.67675   1.01698    0.000
 4616.00    0.68879   1.01235    0.000
 4617.00    0.69565   1.00370    0.000
 4618.00    0.77408   0.99967    0.000
 4619.00    0.90967   0.99775    0.000
 4620.00    0.83092   0.99965    0.000
 4621.00    0.60153   1.00634    0.000
 4622.00    0.57949   1.00979    0.000
 4623.00    0.68529   1.00971    0.000
 4624.00    0.88555   1.00532    0.000
 4625.00    1.13667   0.99599    0.000
 4626.00    1.07825   0.99387    0.000
 4627.00    0.87505   1.00160    0.000
 4628.00    0.75440   1.00615    0.000
 4629.00    0.66702   1.00640    0.000
 4630.00    0.85723   1.00690    0.000
 4631.00    1.14294   1.00420    0.000
 4632.00    1.28104   0.99977    0.000
 4633.00    1.37638   0.99980    0.000
 4634.00    1.25520   1.00000    0.000
 4635.00    1.08215   0.99308    0.000
 4636.00    0.98402   0.98437    0.000
 4637.00    0.90036   0.98325    0.000
 4638.00    0.70684   0.98637    0.000
 4639.00    0.49682   0.98488    0.000
 4640.00    0.73075   0.98135    0.000
 4641.00    1.01354   0.98192    0.000
 4642.00    0.85170   0.98379    0.000
 4643.00    0.65753   0.97917    0.000
 4644.00    0.68408   0.96923    0.000
 4645.00    0.71897   0.96088    0.000
 4646.00    0.82790   0.95753    0.000
 4647.00    0.93700   0.96098    0.000
 4648.00    1.03837   0.96865    0.000
 4649.00    1.12825   0.97374    0.000
 4650.00    1.03015   0.97329    0.000
 4651.00    0.92167   0.96323    0.000
 4652.00    0.70701   0.93717    0.000
 4653.00    0.53817   0.90978    0.000
 4654.00    0.70421   0.90456    0.000
 4655.00    0.80136   0.91482    0.000
 4656.00    0.51339   0.92152    0.000
 4657.00    0.31217   0.92920    0.000
 4658.00    0.49799   0.94682    0.000
 4659.00    0.70746   0.96053    0.000
 4660.00    1.00357   0.95605    0.000
 4661.00    1.23272   0.94780    0.000
 4662.00    1.25638   0.95127    0.000
 4663.00    1.19114   0.96275    0.000
 4664.00    0.89403   0.97842    0.000
 4665.00    0.73539   0.99399    0.000
 4666.00    0.88710   1.00037    0.000
 4667.00    0.96911   0.99284    0.000
 4668.00    0.91576   0.97742    0.000
 4669.00    0.91702   0.96409    0.000
 4670.00    1.01076   0.95686    0.000
 4671.00    1.02862   0.95086    0.000
 4672.00    0.93390   0.93789    0.000
 4673.00    0.82338   0.92093    0.000
 4674.00    0.69225   0.91499    0.000
 4675.00    0.62707   0.92765    0.000
 4676.00    0.63768   0.95017    0.000
 4677.00    0.59262   0.96809    0.000
 4678.00    0.49116   0.97107    0.000
 4679.00    0.58364   0.96112    0.000
 4680.00    0.84946   0.95260    0.000
 4681.00    0.81315   0.95449    0.000
 4682.00    0.53889   0.96308    0.000
 4683.00    0.47135   0.96819    0.000
 4684.00    0.54700   0.96447    0.000
 4685.00    0.70139   0.95600    0.000
 4686.00    0.90360   0.94848    0.000
 4687.00    1.06351   0.94297    0.000
 4688.00    1.20098   0.94035    0.000
 4689.00    1.18426   0.93950    0.000
 4690.00    1.09659   0.92525    0.000
 4691.00    1.23495   0.89179    0.000
 4692.00    1.46287   0.87131    0.000
 4693.00    1.34365   0.88792    0.000
 4694.00    1.10722   0.91974    0.000
 4695.00    1.26387   0.94099    0.000
 4696.00    1.53208   0.94897    0.000
 4697.00    1.37473   0.94868    0.000
 4698.00    1.11776   0.94856    0.000
 4699.00    0.94470   0.95226    0.000
 4700.00    0.78742   0.95724    0.000
 4701.00    0.81293   0.96345    0.000
 4702.00    0.86502   0.96836    0.000
 4703.00    0.85452   0.96456    0.000
 4704.00    0.83741   0.94884    0.000
 4705.00    0.70551   0.93356    0.000
 4706.00    0.56574   0.93161    0.000
 4707.00    0.51435   0.93612    0.000
 4708.00    0.46597   0.93478    0.000
 4709.00    0.47813   0.93036    0.000
 4710.00    0.50087   0.93175    0.000
 4711.00    0.86466   0.93754    0.000
 4712.00    1.20089   0.94014    0.000
 4713.00    1.11419   0.93782    0.000
 4714.00    1.00945   0.93375    0.000
 4715.00    0.72793   0.93108    0.000
 4716.00    0.51694   0.93452    0.000
 4717.00    0.80464   0.94330    0.000
 4718.00    1.07596   0.93935    0.000
 4719.00    1.25815   0.92004    0.000
 4720.00    1.36298   0.90903    0.000
 4721.00    1.13064   0.91899    0.000
 4722.00    0.94898   0.93767    0.000
 4723.00    0.94913   0.95305    0.000
 4724.00    0.99112   0.96224    0.000
 4725.00    1.15907   0.96864    0.000
 4726.00    1.17436   0.97325    0.000
 4727.00    0.79848   0.97265    0.000
 4728.00    0.61879   0.96670    0.000
 4729.00    0.87159   0.96224    0.000
 4730.00    1.06593   0.96544    0.000
 4731.00    1.14852   0.97137    0.000
 4732.00    1.18494   0.96809    0.000
 4733.00    1.14434   0.95068    0.000
 4734.00    1.04104   0.93016    0.000
 4735.00    0.84607   0.92080    0.000
 4736.00    0.82331   0.92231    0.000
 4737.00    1.02198   0.92770    0.000
 4738.00    1.05061   0.93483    0.000
 4739.00    0.88664   0.94155    0.000
 4740.00    0.71689   0.94550    0.000
 4741.00    0.54136   0.94729    0.000
 4742.00    0.52361   0.94379    0.000
 4743.00    0.64488   0.93833    0.000
 4744.00    0.62629   0.94301    0.000
 4745.00    0.49911   0.95262    0.000
 4746.00    0.56152   0.95287    0.000
 4747.00    0.75336   0.94657    0.000
 4748.00    0.95209   0.94491    0.000
 4749.00    1.15494   0.94943    0.000
 4750.00    1.19201   0.95236    0.000
 4751.00    1.14256   0.95060    0.000
 4752.00    1.19135   0.95164    0.000
 4753.00    1.28461   0.95697    0.000
 4754.00    1.18688   0.95880    0.000
 4755.00    1.01479   0.95711    0.000
 4756.00    0.88619   0.95650    0.000
 4757.00    0.77201   0.95495    0.000
 4758.00    0.82494   0.94947    0.000
 4759.00    0.92432   0.94298    0.000
 4760.00    0.73264   0.93839    0.000
 4761.00    0.47439   0.93641    0.009
 4762.00    0.57113   0.93629    0.009
 4763.00    0.73287   0.93698    0.009
 4764.00    0.69152   0.93842    0.009
 4765.00    0.62156   0.94118    0.009
 4766.00    0.70350   0.94407    0.009
 4767.00    0.80084   0.94086    0.009
 4768.00    1.01995   0.93020    0.009
 4769.00    1.24693   0.92097    0.009
 4770.00    1.05199   0.91657    0.009
 4771.00    0.84494   0.91157    0.009
 4772.00    0.96213   0.90649    0.009
 4773.00    1.07596   0.90846    0.009
 4774.00    1.09217   0.91796    0.009
 4775.00    1.11606   0.92965    0.009
 4776.00    1.25095   0.93752    0.009
 4777.00    1.34565   0.93558    0.008
 4778.00    1.06222   0.92792    0.008
 4779.00    0.82063   0.92670    0.008
 4780.00    0.86558   0.93499    0.008
 4781.00    0.91686   0.94327    0.008
 4782.00    1.00160   0.94422    0.008
 4783.00    1.05898   0.94337    0.008
 4784.00    0.99980   0.94417    0.008
 4785.00    0.96213   0.94170    0.008
 4786.00    1.00005   0.93695    0.008
 4787.00    1.04385   0.93406    0.008
 4788.00    1.10499   0.92966    0.008
 4789.00    1.05269   0.92134    0.008
 4790.00    0.71473   0.91710    0.008
 4791.00    0.52831   0.91893    0.008
 4792.00    0.67052   0.91690    0.008
 4793.00    0.67126   0.91298    0.008
 4794.00    0.40570   0.91513    0.008
 4795.00    0.37844   0.91737    0.008
 4796.00    0.74275   0.91670    0.008
 4797.00    0.93186   0.91841    0.008
 4798.00    0.86850   0.92307    0.008
 4799.00    0.90476   0.93088    0.008
 4800.00    1.06726   0.94199    0.008
 4801.00    1.11756   0.95033    0.008
 4802.00    1.04254   0.94987    0.008
 4803.00    1.08344   0.94211    0.008
 4804.00    1.23851   0.93134    0.008
 4805.00    1.28771   0.92085    0.008
 4806.00    1.24494   0.91580    0.008
 4807.00    1.09222   0.92068    0.008
 4808.00    0.85536   0.93157    0.008
 4809.00    0.85226   0.93862    0.008
 4810.00    1.00641   0.93627    0.008
 4811.00    1.03078   0.92735    0.008
 4812.00    0.97867   0.91987    0.008
 4813.00    0.90756   0.91602    0.008
 4814.00    0.82667   0.91263    0.008
 4815.00    0.90679   0.91232    0.008
 4816.00    1.05859   0.91698    0.008
 4817.00    0.97774   0.92155    0.008
 4818.00    0.80788   0.92176    0.008
 4819.00    0.73702   0.91921    0.008
 4820.00    0.69834   0.91793    0.008
 4821.00    0.73009   0.91944    0.008
 4822.00    0.78103   0.92327    0.008
 4823.00    0.77109   0.92855    0.008
 4824.00    0.74754   0.93260    0.008
 4825.00    0.71821   0.93346    0.008
 4826.00    0.68785   0.93225    0.008
 4827.00    0.69906   0.93058    0.008
 4828.00    0.71594   0.92549    0.008
 4829.00    0.77614   0.91246    0.008
 4830.00    0.84054   0.90032    0.008
 4831.00    0.83750   0.90265    0.008
 4832.00    0.83036   0.91385    0.008
 4833.00    0.87224   0.91871    0.008
 4834.00    0.91529   0.91344    0.008
 4835.00    0.93432   0.90685    0.008
 4836.00    0.95016   0.90667    0.008
 4837.00    0.88299   0.90695    0.008
 4838.00    0.81528   0.90109    0.008
 4839.00    0.74029   0.89844    0.008
 4840.00    0.66692   0.90540    0.008
 4841.00    0.60821   0.91241    0.008
 4842.00    0.56699   0.91296    0.008
 4843.00    0.64183   0.91133    0.008
 4844.00    0.71053   0.90885    0.008
 4845.00    0.74757   0.90164    0.008
 4846.00    0.78881   0.89286    0.008
 4847.00    0.84755   0.89051    0.008
 4848.00    0.88624   0.89265    0.000
 4849.00    0.85588   0.89090    0.000
 4850.00    0.81350   0.88865    0.000
 4851.00    0.73631   0.89414    0.000
 4852.00    0.71584   0.90151    0.000
 4853.00    0.83579   0.89964    0.000
 4854.00    0.94349   0.88740    0.000
 4855.00    1.02505   0.87545    0.000
 4856.00    1.07137   0.87380    0.000
 4857.00    1.05241   0.87629    0.000
 4858.00    1.02462   0.87319    0.000
 4859.00    0.98252   0.86564    0.000
 4860.00    0.90301   0.85176    0.000
 4861.00    0.77036   0.82749    0.000
 4862.00    0.79040   0.80371    0.000
 4863.00    1.00119   0.78898    0.000
 4864.00    1.16442   0.76776    0.000
 4865.00    1.27531   0.72245    0.000
 4866.00    1.27951   0.65546    0.000
 4867.00    1.18010   0.59147    0.000
 4868.00    1.20427   0.57377    0.000
 4869.00    1.33429   0.62001    0.000
 4870.00    1.22040   0.69048    0.000
 4871.00    0.92253   0.74469    0.000
 4872.00    0.90242   0.77929    0.000
 4873.00    1.06643   0.80092    0.000
 4874.00    1.16718   0.81578    0.000
 4875.00    1.23122   0.82988    0.008
 4876.00    1.12787   0.83660    0.008
 4877.00    0.93987   0.82766    0.008
 4878.00    0.81507   0.81823    0.008
 4879.00    0.71795   0.82676    0.008
 4880.00    0.70561   0.84529    0.008
 4881.00    0.72512   0.85670    0.008
 4882.00    0.76170   0.86184    0.008
 4883.00    0.80372   0.86816    0.008
 4884.00    0.80881   0.87517    0.008
 4885.00    0.80407   0.88388    0.008
 4886.00    0.89668   0.89115    0.008
 4887.00    1.01052   0.88659    0.008
 4888.00    1.01778   0.87667    0.008
 4889.00    1.00657   0.87593    0.008
 4890.00    0.88940   0.87874    0.008
 4891.00    0.75828   0.87265    0.008
 4892.00    0.86961   0.86218    0.008
 4893.00    1.00347   0.85936    0.008
 4894.00    0.95346   0.86459    0.009
 4895.00    0.89302   0.86785    0.009
 4896.00    0.73618   0.86047    0.009
 4897.00    0.58139   0.84598    0.008
 4898.00    0.89089   0.84431    0.008
 4899.00    1.18249   0.86527    0.008
 4900.00    1.04906   0.89148    0.008
 4901.00    0.93564   0.90849    0.009
 4902.00    1.08080   0.91580    0.009
 4903.00    1.18385   0.91604    0.009
 4904.00    0.92066   0.91281    0.009
 4905.00    0.71087   0.90518    0.008
 4906.00    0.84464   0.89392    0.008
 4907.00    0.93599   0.88888    0.008
 4908.00    0.81393   0.89080    0.008
 4909.00    0.74450   0.88837    0.008
 4910.00    0.88922   0.88332    0.009
 4911.00    0.97303   0.88736    0.009
 4912.00    0.85132   0.89854    0.009
 4913.00    0.79050   0.90363    0.009
 4914.00    0.90304   0.89731    0.008
 4915.00    0.99997   0.88470    0.008
 4916.00    1.05892   0.87218    0.008
 4917.00    1.06875   0.86647    0.008
 4918.00    0.97547   0.87110    0.008
 4919.00    0.85690   0.88019    0.008
 4920.00    0.69220   0.88754    0.008
 4921.00    0.61061   0.89427    0.008
 4922.00    0.66159   0.89924    0.008
 4923.00    0.79652   0.89438    0.008
 4924.00    1.04894   0.87490    0.008
 4925.00    1.19461   0.84550    0.008
 4926.00    1.20881   0.81818    0.008
 4927.00    1.06684   0.80292    0.008
 4928.00    0.75532   0.80586    0.008
 4929.00    0.77985   0.82318    0.008
 4930.00    1.12616   0.83834    0.008
 4931.00    1.22103   0.84588    0.008
 4932.00    1.10358   0.85759    0.008
 4933.00    0.94861   0.87591    0.008
 4934.00    0.76575   0.88919    0.008
 4935.00    0.69597   0.89719    0.008
 4936.00    0.70004   0.90276    0.008
 4937.00    0.80455   0.90370    0.008
 4938.00    0.96645   0.89916    0.008
 4939.00    1.04603   0.88591    0.008
 4940.00    1.08462   0.86995    0.000
 4941.00    1.08186   0.86793    0.000
 4942.00    1.06128   0.87651    0.000
 4943.00    1.05841   0.87461    0.000
 4944.00    1.06206   0.85770    0.000
 4945.00    1.02804   0.84233    0.000
 4946.00    0.98222   0.84469    0.000
 4947.00    0.95700   0.86248    0.000
 4948.00    0.93715   0.87812    0.000
 4949.00    0.82032   0.88522    0.000
 4950.00    0.68283   0.89071    0.000
 4951.00    0.71846   0.89237    0.000
 4952.00    0.78325   0.88776    0.000
 4953.00    0.76587   0.88574    0.000
 4954.00    0.73805   0.89037    0.000
 4955.00    0.88841   0.89463    0.000
 4956.00    1.05457   0.89605    0.000
 4957.00    1.02235   0.89785    0.000
 4958.00    0.97965   0.89833    0.000
 4959.00    1.17699   0.89321    0.000
 4960.00    1.37611   0.88555    0.000
 4961.00    1.35464   0.87914    0.000
 4962.00    1.31697   0.86768    0.000
 4963.00    0.92700   0.84312    0.000
 4964.00    0.57349   0.82029    0.000
 4965.00    0.66758   0.82671    0.000
 4966.00    0.77258   0.85536    0.000
 4967.00    0.96901   0.87529    0.000
 4968.00    1.13052   0.87839    0.000
 4969.00    1.07408   0.87698    0.000
 4970.00    1.01061   0.87551    0.000
 4971.00    0.91264   0.86730    0.000
 4972.00    0.85430   0.85449    0.000
 4973.00    0.95371   0.84824    0.000
 4974.00    1.01936   0.84933    0.000
 4975.00    0.97330   0.85228    0.000
 4976.00    0.90845   0.85604    0.000
 4977.00    0.79108   0.86043    0.000
 4978.00    0.70402   0.86618    0.000
 4979.00    0.68943   0.87203    0.000
 4980.00    0.71344   0.87580    0.000
 4981.00    0.81719   0.87723    0.000
 4982.00    0.94439   0.87504    0.000
 4983.00    1.11371   0.86963    0.000
 4984.00    1.19999   0.86137    0.000
 4985.00    1.15579   0.85211    0.000
 4986.00    1.09538   0.84724    0.000
 4987.00    1.01261   0.84303    0.000
 4988.00    0.92592   0.82974    0.000
 4989.00    0.83446   0.81250    0.000
 4990.00    0.89396   0.80723    0.000
 4991.00    1.11503   0.81586    0.000
 4992.00    1.16544   0.82844    0.000
 4993.00    1.05473   0.84183    0.000
 4994.00    0.97908   0.85366    0.000
 4995.00    0.93262   0.85723    0.000
 4996.00    0.89050   0.85297    0.000
 4997.00    0.85154   0.84662    0.000
 4998.00    0.86336   0.84499    0.000
 4999.00    0.90784   0.84864    0.000
 5000.00    1.05778   0.84893    0.000
 5001.00    1.26709   0.84804    0.000
 5002.00    1.21517   0.85199    0.000
 5003.00    1.03528   0.85531    0.000
 5004.00    1.03977   0.85340    0.000
 5005.00    1.12233   0.84553    0.000
 5006.00    1.05319   0.83217    0.000
 5007.00    0.92903   0.82066    0.000
 5008.00    0.90488   0.81713    0.000
 5009.00    0.91139   0.81998    0.000
 5010.00    0.93887   0.82304    0.000
 5011.00    0.97171   0.81810    0.000
 5012.00    0.95646   0.80631    0.000
 5013.00    0.93122   0.80096    0.000
 5014.00    0.74691   0.81213    0.000
 5015.00    0.53657   0.82970    0.000
 5016.00    0.53400   0.83741    0.000
 5017.00    0.55692   0.83378    0.000
 5018.00    0.70987   0.82351    0.000
 5019.00    0.87381   0.80914    0.000
 5020.00    0.79775   0.79443    0.000
 5021.00    0.70995   0.78149    0.000
 5022.00    0.74724   0.77728    0.000
 5023.00    0.78498   0.78662    0.000
 5024.00    0.73175   0.79813    0.000
 5025.00    0.68059   0.80540    0.000
 5026.00    0.67102   0.81283    0.000
 5027.00    0.67710   0.81882    0.000
 5028.00    0.86597   0.81667    0.000
 5029.00    1.03171   0.81296    0.008
 5030.00    1.01074   0.81798    0.008
 5031.00    0.99087   0.82680    0.008
 5032.00    0.97773   0.82938    0.008
 5033.00    0.96768   0.82443    0.008
 5034.00    0.97243   0.81745    0.008
 5035.00    0.96885   0.81937    0.008
 5036.00    0.93284   0.82964    0.008
 5037.00    0.87623   0.83702    0.008
 5038.00    0.75281   0.84158    0.008
 5039.00    0.69335   0.84838    0.008
 5040.00    0.80945   0.85315    0.008
 5041.00    0.88577   0.84589    0.008
 5042.00    0.86858   0.82767    0.008
 5043.00    0.87563   0.81596    0.008
 5044.00    0.93195   0.81775    0.008
 5045.00    0.95463   0.81600    0.008
 5046.00    0.91780   0.79925    0.008
 5047.00    0.88217   0.77655    0.008
 5048.00    0.84843   0.76939    0.008
 5049.00    0.81103   0.78891    0.008
 5050.00    0.76867   0.81730    0.008
 5051.00    0.77239   0.83577    0.008
 5052.00    0.83127   0.84640    0.008
 5053.00    0.87928   0.84751    0.008
 5054.00    0.91582   0.83400    0.007
 5055.00    0.97019   0.81517    0.007
 5056.00    1.04116   0.80611    0.007
 5057.00    1.06950   0.80743    0.007
 5058.00    1.06284   0.81074    0.007
 5059.00    1.01253   0.81626    0.007
 5060.00    0.93069   0.82560    0.007
 5061.00    0.92208   0.83294    0.007
 5062.00    0.95991   0.83299    0.007
 5063.00    0.95378   0.83150    0.007
 5064.00    0.92329   0.83490    0.008
 5065.00    0.92335   0.84052    0.008
 5066.00    0.93814   0.84292    0.007
 5067.00    0.86345   0.84573    0.007
 5068.00    0.75150   0.84969    0.008
 5069.00    0.86323   0.84826    0.008
 5070.00    1.05461   0.83549    0.008
 5071.00    0.99619   0.81585    0.008
 5072.00    0.86264   0.80567    0.008
 5073.00    0.80236   0.80998    0.008
 5074.00    0.76040   0.81382    0.008
 5075.00    0.84006   0.81255    0.008
 5076.00    0.94438   0.81600    0.008
 5077.00    0.95612   0.82224    0.008
 5078.00    0.95315   0.81963    0.008
 5079.00    0.84615   0.81242    0.008
 5080.00    0.72686   0.81348    0.008
 5081.00    0.72126   0.81856    0.008
 5082.00    0.72481   0.81794    0.007
 5083.00    0.67626   0.81669    0.007
 5084.00    0.62536   0.81754    0.008
 5085.00    0.88167   0.80849    0.007
 5086.00    1.13410   0.78792    0.007
 5087.00    1.01212   0.77682    0.008
 5088.00    0.89137   0.78312    0.008
 5089.00    0.79363   0.79246    0.007
 5090.00    0.72175   0.79666    0.007
 5091.00    0.93784   0.80228    0.008
 5092.00    1.12122   0.81038    0.008
 5093.00    1.04977   0.81470    0.008
 5094.00    0.98356   0.81485    0.008
 5095.00    0.94816   0.81590    0.008
 5096.00    0.92038   0.81883    0.008
 5097.00    0.92817   0.82020    0.008
 5098.00    0.91859   0.82137    0.008
 5099.00    0.84279   0.82605    0.008
 5100.00    0.77643   0.83092    0.008
 5101.00    0.74015   0.82913    0.007
 5102.00    0.70875   0.82095    0.007
 5103.00    0.69055   0.81101    0.007
 5104.00    0.66544   0.79988    0.007
 5105.00    0.62439   0.78754    0.008
 5106.00    0.62331   0.78181    0.008
 5107.00    0.70222   0.79079    0.008
 5108.00    0.75817   0.80590    0.008
 5109.00    0.77413   0.81283    0.008
 5110.00    0.82787   0.81006    0.008
 5111.00    0.93925   0.80507    0.008
 5112.00    0.95584   0.80233    0.008
 5113.00    0.84543   0.79836    0.008
 5114.00    0.77431   0.79192    0.008
 5115.00    0.74954   0.78877    0.008
 5116.00    0.78123   0.78837    0.008
 5117.00    0.87166   0.78847    0.008
 5118.00    0.97789   0.79426    0.008
 5119.00    1.09863   0.80235    0.008
 5120.00    1.01580   0.80621    0.008
 5121.00    0.76830   0.80922    0.008
 5122.00    0.78232   0.81296    0.008
 5123.00    0.98252   0.81738    0.008
 5124.00    1.02128   0.82282    0.007
 5125.00    0.95919   0.82484    0.008
 5126.00    0.89734   0.82063    0.008
 5127.00    0.83563   0.81218    0.007
 5128.00    0.83203   0.80216    0.007
 5129.00    0.85600   0.79094    0.007
 5130.00    0.81859   0.77873    0.007
 5131.00    0.75605   0.77263    0.007
 5132.00    0.83963   0.77541    0.007
 5133.00    0.97429   0.77849    0.007
 5134.00    1.09512   0.77741    0.007
 5135.00    1.21188   0.77592    0.007
 5136.00    1.09759   0.77721    0.007
 5137.00    0.92687   0.78256    0.007
 5138.00    1.00867   0.79050    0.007
 5139.00    1.14034   0.79508    0.007
 5140.00    0.99552   0.79598    0.007
 5141.00    0.80805   0.79983    0.007
 5142.00    0.81767   0.80557    0.007
 5143.00    0.84974   0.80265    0.007
 5144.00    0.89662   0.79149    0.007
 5145.00    0.94463   0.78046    0.007
 5146.00    0.90474   0.77583    0.007
 5147.00    0.86124   0.78191    0.007
 5148.00    0.75565   0.78622    0.007
 5149.00    0.65158   0.77819    0.007
 5150.00    0.63240   0.77333    0.007
 5151.00    0.61471   0.77820    0.007
 5152.00    0.62278   0.77953    0.007
 5153.00    0.64039   0.77486    0.007
 5154.00    0.75933   0.77232    0.007
 5155.00    0.85753   0.77496    0.007
 5156.00    0.79958   0.77941    0.008
 5157.00    0.77278   0.77811    0.008
 5158.00    0.92449   0.77232    0.008
 5159.00    1.05992   0.76859    0.008
 5160.00    1.12120   0.76828    0.008
 5161.00    1.16123   0.77121    0.008
 5162.00    1.12197   0.77885    0.008
 5163.00    1.10757   0.78992    0.008
 5164.00    1.17072   0.80023    0.008
 5165.00    1.16925   0.80534    0.008
 5166.00    0.99659   0.80428    0.008
 5167.00    0.81159   0.80302    0.008
 5168.00    0.59851   0.79994    0.008
 5169.00    0.49450   0.79169    0.008
 5170.00    0.60529   0.78359    0.008
 5171.00    0.70535   0.77367    0.008
 5172.00    0.78698   0.75202    0.008
 5173.00    0.83552   0.72061    0.008
 5174.00    0.83431   0.69488    0.008
 5175.00    0.78319   0.69153    0.008
 5176.00    0.66612   0.70999    0.008
 5177.00    0.68634   0.72615    0.008
 5178.00    0.86628   0.71608    0.008
 5179.00    0.97598   0.69107    0.007
 5180.00    1.01360   0.68797    0.007
 5181.00    0.96915   0.71680    0.007
 5182.00    0.85043   0.74939    0.007
 5183.00    0.83041   0.76507    0.007
 5184.00    0.88911   0.77032    0.007
 5185.00    0.84368   0.77314    0.007
 5186.00    0.72519   0.77116    0.007
 5187.00    0.66520   0.76297    0.007
 5188.00    0.64120   0.74677    0.007
 5189.00    0.68119   0.71845    0.007
 5190.00    0.75559   0.68856    0.000
 5191.00    0.82304   0.68509    0.000
 5192.00    0.88725   0.71537    0.000
 5193.00    0.85968   0.75210    0.000
 5194.00    0.79520   0.77173    0.000
 5195.00    0.79538   0.77630    0.000
 5196.00    0.81776   0.77940    0.000
 5197.00    0.79486   0.77982    0.000
 5198.00    0.75888   0.76458    0.000
 5199.00    0.84650   0.74473    0.000
 5200.00    0.96364   0.74243    0.000
 5201.00    0.96962   0.75226    0.000
 5202.00    0.95421   0.75813    0.000
 5203.00    0.98032   0.76274    0.000
 5204.00    1.01265   0.77069    0.000
 5205.00    0.76432   0.77824    0.000
 5206.00    0.48526   0.78305    0.000
 5207.00    0.66358   0.78347    0.000
 5208.00    0.87493   0.78012    0.000
 5209.00    0.92981   0.77522    0.000
 5210.00    0.97884   0.76756    0.000
 5211.00    0.97215   0.75115    0.007
 5212.00    0.96684   0.73211    0.007
 5213.00    1.02126   0.72405    0.007
 5214.00    1.06400   0.72438    0.007
 5215.00    0.91738   0.72275    0.007
 5216.00    0.76701   0.72546    0.007
 5217.00    0.57839   0.73889    0.007
 5218.00    0.41605   0.75706    0.007
 5219.00    0.44491   0.77371    0.008
 5220.00    0.48021   0.78408    0.008
 5221.00    0.55139   0.78324    0.008
 5222.00    0.61897   0.77225    0.007
 5223.00    0.67061   0.76283    0.007
 5224.00    0.73774   0.76519    0.007
 5225.00    0.86146   0.77639    0.008
 5226.00    0.94922   0.78697    0.008
 5227.00    0.92688   0.79219    0.008
 5228.00    0.89487   0.79401    0.008
 5229.00    0.83772   0.79088    0.008
 5230.00    0.74819   0.77987    0.008
 5231.00    0.58624   0.76225    0.007
 5232.00    0.56070   0.74165    0.007
 5233.00    0.79955   0.72337    0.008
 5234.00    0.92522   0.72006    0.008
 5235.00    0.85959   0.74011    0.007
 5236.00    0.91225   0.76690    0.007
 5237.00    1.14008   0.78167    0.007
 5238.00    1.20718   0.78420    0.008
 5239.00    1.06500   0.77538    0.007
 5240.00    0.99614   0.76179    0.007
 5241.00    1.01138   0.75753    0.007
 5242.00    0.99234   0.76532    0.007
 5243.00    0.93862   0.77916    0.007
 5244.00    0.84580   0.79091    0.007
 5245.00    0.71810   0.79467    0.007
 5246.00    0.73134   0.79220    0.007
 5247.00    0.85539   0.78969    0.007
 5248.00    0.81887   0.78946    0.007
 5249.00    0.67134   0.78885    0.007
 5250.00    0.77276   0.78878    0.007
 5251.00    1.02510   0.79305    0.008
 5252.00    1.07146   0.79418    0.007
 5253.00    1.00882   0.78040    0.007
 5254.00    0.95616   0.76172    0.007
 5255.00    0.90808   0.75644    0.007
 5256.00    0.99073   0.75872    0.007
 5257.00    1.12507   0.75504    0.007
 5258.00    1.06852   0.75330    0.007
 5259.00    0.94767   0.76042    0.007
 5260.00    1.06796   0.76694    0.007
 5261.00    1.25651   0.76454    0.008
 5262.00    1.19910   0.76045    0.007
 5263.00    1.08428   0.76874    0.007
 5264.00    0.91376   0.78615    0.007
 5265.00    0.73279   0.79787    0.008
 5266.00    0.83514   0.79771    0.008
 5267.00    0.97853   0.78769    0.008
 5268.00    0.88771   0.77128    0.008
 5269.00    0.77225   0.75149    0.008
 5270.00    0.75800   0.73207    0.008
 5271.00    0.75066   0.71720    0.008
 5272.00    0.62417   0.70812    0.008
 5273.00    0.49369   0.70907    0.008
 5274.00    0.73083   0.72130    0.008
 5275.00    0.95988   0.72412    0.008
 5276.00    0.91717   0.70398    0.008
 5277.00    0.87771   0.69043    0.008
 5278.00    0.88779   0.70846    0.008
 5279.00    0.88919   0.73706    0.008
 5280.00    0.80599   0.75109    0.008
 5281.00    0.73423   0.75219    0.007
 5282.00    0.74297   0.74909    0.008
 5283.00    0.75761   0.75315    0.008
 5284.00    0.80424   0.77039    0.008
 5285.00    0.82391   0.78684    0.008
 5286.00    0.72646   0.78902    0.007
 5287.00    0.67007   0.77904    0.007
 5288.00    0.76064   0.76591    0.007
 5289.00    0.85762   0.75538    0.007
 5290.00    0.97385   0.74866    0.007
 5291.00    1.01799   0.75085    0.008
 5292.00    0.87785   0.76762    0.007
 5293.00    0.81667   0.78871    0.007
 5294.00    0.92919   0.79796    0.008
 5295.00    0.91731   0.79517    0.008
 5296.00    0.66807   0.79233    0.008
 5297.00    0.59244   0.79513    0.008
 5298.00    0.80590   0.79794    0.008
 5299.00    0.90812   0.79511    0.008
 5300.00    0.84798   0.78924    0.008
 5301.00    0.78510   0.78545    0.008
 5302.00    0.71869   0.77992    0.007
 5303.00    0.78974   0.76449    0.007
 5304.00    1.01622   0.74248    0.007
 5305.00    1.02088   0.73144    0.007
 5306.00    0.80432   0.74097    0.007
 5307.00    0.73137   0.75583    0.007
 5308.00    0.78474   0.76008    0.007
 5309.00    0.78132   0.76110    0.007
 5310.00    0.73391   0.77057    0.007
 5311.00    0.77436   0.78534    0.007
 5312.00    0.87470   0.79469    0.007
 5313.00    0.86751   0.79342    0.007
 5314.00    0.79611   0.78664    0.007
 5315.00    0.68295   0.78457    0.007
 5316.00    0.54803   0.78959    0.007
 5317.00    0.63297   0.79430    0.007
 5318.00    0.81723   0.79381    0.007
 5319.00    0.83585   0.78966    0.007
 5320.00    0.79012   0.78483    0.007
 5321.00    0.85184   0.78168    0.007
 5322.00    0.94907   0.77848    0.007
 5323.00    0.95210   0.77312    0.007
 5324.00    0.92900   0.76999    0.007
 5325.00    0.93469   0.77212    0.007
 5326.00    0.94695   0.77396    0.007
 5327.00    0.80395   0.77215    0.007
 5328.00    0.63262   0.77036    0.007
 5329.00    0.75828   0.76800    0.007
 5330.00    0.92560   0.76059    0.007
 5331.00    0.82506   0.75056    0.007
 5332.00    0.69750   0.74792    0.007
 5333.00    0.84002   0.74570    0.007
 5334.00    0.99987   0.72589    0.007
 5335.00    0.84612   0.69748    0.007
 5336.00    0.68405   0.69433    0.007
 5337.00    0.93499   0.72135    0.007
 5338.00    1.17205   0.74906    0.007
 5339.00    1.01214   0.75907    0.007
 5340.00    0.86363   0.76023    0.007
 5341.00    0.87885   0.76637    0.007
 5342.00    0.88810   0.77501    0.007
 5343.00    0.84138   0.77712    0.007
 5344.00    0.81051   0.77391    0.007
 5345.00    0.88781   0.76937    0.007
 5346.00    0.94140   0.75870    0.007
 5347.00    0.86986   0.74173    0.007
 5348.00    0.78563   0.73435    0.007
 5349.00    0.64751   0.74531    0.007
 5350.00    0.58209   0.76048    0.007
 5351.00    0.77148   0.76609    0.007
 5352.00    0.91441   0.76112    0.007
 5353.00    0.92037   0.75498    0.007
 5354.00    0.92258   0.75440    0.007
 5355.00    0.91534   0.75270    0.007
 5356.00    0.91676   0.74770    0.007
 5357.00    0.93689   0.75053    0.007
 5358.00    0.94129   0.76298    0.007
 5359.00    0.91615   0.77360    0.007
 5360.00    0.85525   0.77748    0.007
 5361.00    0.73572   0.78159    0.007
 5362.00    0.73778   0.78839    0.007
 5363.00    0.91473   0.79229    0.007
 5364.00    1.01164   0.79241    0.007
 5365.00    1.00729   0.79137    0.007
 5366.00    0.92412   0.78971    0.007
 5367.00    0.75310   0.78591    0.007
 5368.00    0.74400   0.77823   -2.000
 5369.00    0.89411   0.76954   -2.000
 5370.00    0.88588   0.76482   -2.000
 5371.00    0.74034   0.76190   -2.000
 5372.00    0.80040   0.75748   -2.000
 5373.00    1.01753   0.75493   -2.000
 5374.00    1.11629   0.75488   -2.000
 5375.00    1.13557   0.75328   -2.000
 5376.00    1.05872   0.74456   -2.000
 5377.00    0.92532   0.72694   -2.000
 5378.00    0.88208   0.71233   -2.000
 5379.00    0.88506   0.71762   -2.000
 5380.00    0.79373   0.74140   -2.000
 5381.00    0.66048   0.76423   -2.000
 5382.00    0.65385   0.77462   -2.000
 5383.00    0.69554   0.77386    0.007
 5384.00    0.81118   0.76912    0.007
 5385.00    0.95079   0.76866    0.007
 5386.00    0.98242   0.77110    0.007
 5387.00    0.98473   0.76959    0.007
 5388.00    0.87368   0.76456    0.007
 5389.00    0.73739   0.75958    0.007
 5390.00    0.69186   0.75572    0.007
 5391.00    0.66245   0.75652    0.007
 5392.00    0.62995   0.76215    0.007
 5393.00    0.59704   0.76568    0.007
 5394.00    0.61055   0.76426    0.007
 5395.00    0.62854   0.75983    0.007
 5396.00    0.74837   0.75264    0.007
 5397.00    0.87432   0.74453    0.007
 5398.00    0.88660   0.73956    0.007
 5399.00    0.89575   0.73836    0.007
 5400.00    0.87898   0.73839    0.007
 5401.00    0.86498   0.73812    0.007
 5402.00    0.92290   0.73583    0.007
 5403.00    0.96693   0.72636    0.007
 5404.00    0.82267   0.71405    0.007
 5405.00    0.70096   0.71651    0.007
 5406.00    0.78199   0.73242    0.007
 5407.00    0.84579   0.74242    0.007
 5408.00    0.79567   0.74395    0.007
 5409.00    0.76145   0.74522    0.007
 5410.00    0.80901   0.74084    0.007
 5411.00    0.86432   0.72357    0.007
 5412.00    0.95183   0.70238    0.007
 5413.00    1.00389   0.69396    0.007
 5414.00    0.93422   0.70291    0.007
 5415.00    0.85710   0.71326    0.007
 5416.00    0.75849   0.70679    0.007
 5417.00    0.72911   0.68741    0.007
 5418.00    0.87072   0.67825    0.007
 5419.00    0.92925   0.69082    0.007
 5420.00    0.81088   0.71325    0.007
 5421.00    0.69981   0.72954    0.007
 5422.00    0.60227   0.73810    0.007
 5423.00    0.58562   0.74742    0.007
 5424.00    0.69968   0.75744    0.007
 5425.00    0.76432   0.76077    0.007
 5426.00    0.75892   0.75608    0.007
 5427.00    0.79523   0.74870    0.007
 5428.00    0.88358   0.74589    0.007
 5429.00    0.95565   0.74872    0.007
 5430.00    1.00984   0.74743    0.007
 5431.00    1.03877   0.73916    0.007
 5432.00    1.04321   0.73757    0.007
 5433.00    1.02209   0.74849    0.007
 5434.00    0.97911   0.75898    0.007
 5435.00    0.96092   0.75295    0.007
 5436.00    0.96138   0.73014    0.007
 5437.00    1.01627   0.71480    0.007
 5438.00    1.10716   0.72143    0.007
 5439.00    1.04966   0.73012    0.007
 5440.00    0.90619   0.72521    0.007
 5441.00    0.81706   0.71526    0.007
 5442.00    0.75536   0.71148    0.007
 5443.00    0.79072   0.71645    0.007
 5444.00    0.86849   0.72812    0.007
 5445.00    0.76073   0.74343    0.007
 5446.00    0.58339   0.75721    0.007
 5447.00    0.62501   0.76500    0.007
 5448.00    0.73630   0.76712    0.007
 5449.00    0.74304   0.76673    0.007
 5450.00    0.72198   0.76517    0.007
 5451.00    0.74614   0.75864    0.007
 5452.00    0.78014   0.74249    0.007
 5453.00    0.81610   0.71944    0.007
 5454.00    0.85240   0.70419    0.007
 5455.00    0.87750   0.71036    0.007
 5456.00    0.90113   0.72917    0.007
 5457.00    0.76505   0.74236    0.007
 5458.00    0.61422   0.74493    0.007
 5459.00    0.63979   0.74133    0.007
 5460.00    0.67529   0.73401    0.006
 5461.00    0.77678   0.72154    0.006
 5462.00    0.87838   0.70589    0.007
 5463.00    0.83619   0.70032    0.007
 5464.00    0.79573   0.71335    0.006
 5465.00    0.79573   0.73335    0.006
 5466.00    0.78935   0.74407    0.006
 5467.00    0.70094   0.74214    0.006
 5468.00    0.62091   0.73410    0.007
 5469.00    0.61344   0.72492    0.007
 5470.00    0.62327   0.71734    0.006
 5471.00    0.74398   0.71807    0.006
 5472.00    0.84289   0.72626    0.006
 5473.00    0.83246   0.73125    0.006
 5474.00    0.83363   0.73202    0.006
 5475.00    0.88188   0.73405    0.007
 5476.00    0.91316   0.73433    0.007
 5477.00    0.88734   0.72959    0.007
 5478.00    0.84339   0.72563   -2.000
 5479.00    0.74796   0.72466   -2.000
 5480.00    0.73612   0.72082   -2.000
 5481.00    0.92724   0.71563   -2.000
 5482.00    1.02276   0.71190   -2.000
 5483.00    0.91803   0.70267   -2.000
 5484.00    0.88909   0.69300   -2.000
 5485.00    0.99818   0.69966   -2.000
 5486.00    1.26375   0.71697   -2.000
 5487.00    1.77839   0.72292   -2.000
 5488.00    2.00806   0.71351   -2.000
 5489.00    1.83960   0.70580   -2.000
 5490.00    1.57388   0.71065   -2.000
 5491.00    1.18858   0.72310   -2.000
 5492.00    0.69192   0.73428   -2.000
 5493.00    0.07456   0.73589   -2.000
 5494.00   -0.03151   0.72651   -2.000
 5495.00    0.35115   0.71750   -2.000
 5496.00    0.58388   0.71766   -2.000
 5497.00    0.69022   0.72165   -2.000
 5498.00    0.80754   0.72519   -2.000
 5499.00    0.93301   0.72814   -2.000
 5500.00    0.95974   0.72686   -2.000
 5501.00    0.92211   0.72349   -2.000
 5502.00    0.82446   0.72424    0.006
 5503.00    0.69256   0.72478    0.006
 5504.00    0.66834   0.71955    0.006
 5505.00    0.69762   0.71754    0.006
 5506.00    0.76540   0.72526    0.006
 5507.00    0.84974   0.73062    0.006
 5508.00    0.81452   0.72405    0.006
 5509.00    0.73527   0.71464    0.006
 5510.00    0.75604   0.71266    0.006
 5511.00    0.80803   0.71553    0.006
 5512.00    0.84258   0.71475    0.006
 5513.00    0.87259   0.70753    0.006
 5514.00    0.87558   0.70291    0.006
 5515.00    0.87284   0.70894    0.006
 5516.00    0.86220   0.71721    0.006
 5517.00    0.85023   0.71861    0.006
 5518.00    0.82692   0.71344    0.006
 5519.00    0.80218   0.70401    0.006
 5520.00    0.78493   0.69656    0.006
 5521.00    0.76833   0.69638    0.006
 5522.00    0.81523   0.70139    0.006
 5523.00    0.86544   0.70763    0.006
 5524.00    0.82940   0.71449    0.006
 5525.00    0.79232   0.72353    0.006
 5526.00    0.79754   0.73160    0.006
 5527.00    0.80584   0.73345    0.006
 5528.00    0.88030   0.73082    0.007
 5529.00    0.95052   0.72866    0.007
 5530.00    0.96911   0.72809    0.007
 5531.00    0.97724   0.72727    0.006
 5532.00    0.89820   0.72408    0.006
 5533.00    0.82513   0.71765    0.006
 5534.00    0.78923   0.70756    0.006
 5535.00    0.76111   0.69697    0.006
 5536.00    0.77100   0.69585    0.006
 5537.00    0.74874   0.70703    0.006
 5538.00    0.59885   0.71860    0.006
 5539.00    0.47957   0.72157    0.006
 5540.00    0.46126   0.71913    0.006
 5541.00    0.47764   0.71555    0.006
 5542.00    0.59078   0.71176    0.006
 5543.00    0.69306   0.71084    0.006
 5544.00    0.76938   0.71335    0.006
 5545.00    0.80734   0.71531    0.006
 5546.00    0.76620   0.71786    0.006
 5547.00    0.73077   0.72364    0.006
 5548.00    0.70557   0.72891    0.006
 5549.00    0.76950   0.72832    0.006
 5550.00    0.97322   0.72225    0.006
 5551.00    1.05059   0.71751    0.006
 5552.00    0.95398   0.71701    0.006
 5553.00    0.87446   0.71686    0.006
 5554.00    0.81564   0.71787    0.006
 5555.00    0.77030   0.72366    0.006
 5556.00    0.73935   0.73041    0.006
 5557.00    0.74923   0.73315    0.006
 5558.00    0.79761   0.73266    0.006
 5559.00    0.83814   0.72996    0.006
 5560.00    0.87216   0.72447    0.006
 5561.00    0.87786   0.71808    0.006
 5562.00    0.86285   0.71516    0.006
 5563.00    0.85186   0.71659    0.006
 5564.00    0.84345   0.71782    0.006
 5565.00    0.87156   0.71697    0.006
 5566.00    0.92018   0.71698    0.006
 5567.00    0.89677   0.71777    0.006
 5568.00    0.83813   0.71651    0.006
 5569.00    0.81546   0.71242    0.006
 5570.00    0.80798   0.70804    0.006
 5571.00    0.82744   0.70684    0.006
 5572.00    0.85666   0.70656    0.006
 5573.00    0.84435   0.70350    0.006
 5574.00    0.81935   0.70124    0.006
 5575.00    0.73566   0.70202    0.006
 5576.00    0.63703   0.70189    0.006
 5577.00    0.56556   0.70194    0.006
 5578.00    0.49971   0.70570    0.006
 5579.00    0.65002   0.70601    0.006
 5580.00    0.83559   0.70035    0.006
 5581.00    0.82322   0.70079    0.006
 5582.00    0.78668   0.70786    0.006
 5583.00    0.75558   0.71089    0.006
 5584.00    0.72494   0.71094    0.006
 5585.00    0.73193   0.71185    0.006
 5586.00    0.74074   0.71194    0.006
 5587.00    0.77716   0.71270    0.006
 5588.00    0.81147   0.71340    0.006
 5589.00    0.69588   0.71086    0.006
 5590.00    0.59052   0.70816    0.006
 5591.00    0.68833   0.70663    0.006
 5592.00    0.79068   0.70167    0.006
 5593.00    0.94584   0.69081    0.006
 5594.00    1.07642   0.67706    0.006
 5595.00    1.00948   0.66745    0.006
 5596.00    0.95084   0.66648    0.006
 5597.00    0.94234   0.67186    0.006
 5598.00    0.91154   0.67534    0.006
 5599.00    0.77438   0.67310    0.006
 5600.00    0.63329   0.67123    0.006
 5601.00    0.47687   0.67618    0.006
 5602.00    0.37895   0.68740    0.006
 5603.00    0.47030   0.70087    0.006
 5604.00    0.54757   0.70786    0.006
 5605.00    0.58625   0.70117    0.006
 5606.00    0.64724   0.69040    0.006
 5607.00    0.76060   0.68563    0.006
 5608.00    0.81225   0.68273    0.006
 5609.00    0.73869   0.67809    0.006
 5610.00    0.65234   0.67693    0.006
 5611.00    0.54338   0.68496    0.006
 5612.00    0.52051   0.69904    0.006
 5613.00    0.63066   0.71073    0.006
 5614.00    0.68711   0.71638    0.006
 5615.00    0.67069   0.71715    0.006
 5616.00    0.65519   0.71546    0.006
 5617.00    0.64078   0.71374    0.006
 5618.00    0.58509   0.71404    0.006
 5619.00    0.48591   0.71653    0.006
 5620.00    0.54154   0.71685    0.006
 5621.00    0.74103   0.70676    0.006
 5622.00    0.82351   0.68500    0.006
 5623.00    0.81013   0.66847    0.006
 5624.00    0.79570   0.67238    0.006
 5625.00    0.78051   0.68581    0.006
 5626.00    0.75629   0.69193    0.006
 5627.00    0.72637   0.69167    0.006
 5628.00    0.70383   0.69378    0.006
 5629.00    0.68538   0.69883    0.006
 5630.00    0.76650   0.69829    0.006
 5631.00    0.89553   0.68715    0.006
 5632.00    0.91564   0.67460    0.006
 5633.00    0.89049   0.67395    0.006
 5634.00    0.86208   0.68311    0.006
 5635.00    0.83250   0.69146    0.006
 5636.00    0.82050   0.69749    0.006
 5637.00    0.81377   0.70346    0.006
 5638.00    0.78905   0.70727    0.006
 5639.00    0.75983   0.70740    0.006
 5640.00    0.74085   0.70487    0.006
 5641.00    0.72392   0.70087    0.006
 5642.00    0.72299   0.69624    0.006
 5643.00    0.72459   0.69131    0.006
 5644.00    0.76287   0.68647    0.006
 5645.00    0.80546   0.68413    0.006
 5646.00    0.77542   0.68544    0.006
 5647.00    0.73957   0.68650    0.006
 5648.00    0.75931   0.68380    0.006
 5649.00    0.78152   0.68126    0.006
 5650.00    0.77402   0.68314    0.006
 5651.00    0.76589   0.68634    0.006
 5652.00    0.74352   0.68830    0.006
 5653.00    0.72190   0.68988    0.006
 5654.00    0.71407   0.69169    0.006
 5655.00    0.71233   0.69290    0.006
 5656.00    0.77811   0.69202    0.006
 5657.00    0.83447   0.69058    0.006
 5658.00    0.81784   0.69242    0.006
 5659.00    0.79253   0.69749    0.006
 5660.00    0.71625   0.70054    0.006
 5661.00    0.65934   0.69702    0.006
 5662.00    0.69253   0.69009    0.006
 5663.00    0.69916   0.68749    0.006
 5664.00    0.60485   0.68570    0.006
 5665.00    0.54179   0.67418    0.006
 5666.00    0.57786   0.66130    0.006
 5667.00    0.61223   0.66392    0.006
 5668.00    0.64204   0.67460    0.006
 5669.00    0.70222   0.67652    0.006
 5670.00    0.83251   0.67343    0.006
 5671.00    0.91347   0.67718    0.006
 5672.00    0.89596   0.68607    0.006
 5673.00    0.86791   0.69057    0.006
 5674.00    0.82152   0.68760    0.006
 5675.00    0.77112   0.68223    0.006
 5676.00    0.71461   0.68057    0.006
 5677.00    0.72660   0.68239    0.006
 5678.00    0.83022   0.68476    0.006
 5679.00    0.86213   0.68907    0.006
 5680.00    0.80957   0.69639    0.006
 5681.00    0.74768   0.70167    0.006
 5682.00    0.67610   0.70059    0.006
 5683.00    0.65457   0.69794    0.006
 5684.00    0.67890   0.69902    0.006
 5685.00    0.64198   0.69977    0.006
 5686.00    0.55562   0.69598    0.006
 5687.00    0.52773   0.69181    0.006
 5688.00    0.54139   0.68995    0.006
 5689.00    0.60546   0.68597    0.006
 5690.00    0.70097   0.67989    0.006
 5691.00    0.74765   0.67902    0.006
 5692.00    0.76774   0.68351    0.006
 5693.00    0.83990   0.68469    0.006
 5694.00    0.93672   0.67930    0.006
 5695.00    1.03429   0.67358    0.006
 5696.00    1.13216   0.67422    0.006
 5697.00    1.13206   0.68081    0.006
 5698.00    1.09778   0.68851    0.006
 5699.00    0.97058   0.69455    0.006
 5700.00    0.81606   0.69836    0.006
 5701.00    0.79647   0.69829    0.006
 5702.00    0.80974   0.69512    0.006
 5703.00    0.77148   0.69262    0.006
 5704.00    0.72308   0.69120    0.006
 5705.00    0.64897   0.68721    0.006
 5706.00    0.57091   0.68150    0.006
 5707.00    0.62967   0.67773    0.006
 5708.00    0.70395   0.67361    0.006
 5709.00    0.73938   0.66867    0.006
 5710.00    0.77187   0.66840    0.006
 5711.00    0.72950   0.67404    0.006
 5712.00    0.68409   0.67854    0.006
 5713.00    0.68768   0.67563    0.006
 5714.00    0.69210   0.66751    0.006
 5715.00    0.71446   0.65937    0.006
 5716.00    0.73846   0.65298    0.006
 5717.00    0.79063   0.65082    0.006
 5718.00    0.83326   0.65304    0.006
 5719.00    0.77499   0.65581    0.006
 5720.00    0.72017   0.66194    0.006
 5721.00    0.69127   0.67309    0.006
 5722.00    0.68299   0.68193    0.006
 5723.00    0.79240   0.68589    0.006
 5724.00    0.88208   0.68747    0.006
 5725.00    0.88209   0.68745    0.006
 5726.00    0.86681   0.68799    0.006
 5727.00    0.79459   0.69036    0.006
 5728.00    0.74916   0.69278    0.006
 5729.00    0.78708   0.69515    0.006
 5730.00    0.82748   0.69772    0.006
 5731.00    0.87445   0.69888    0.006
 5732.00    0.88750   0.69792    0.006
 5733.00    0.82356   0.69381    0.006
 5734.00    0.76772   0.68582    0.006
 5735.00    0.72782   0.68035    0.006
 5736.00    0.70053   0.68358    0.006
 5737.00    0.69484   0.68894    0.006
 5738.00    0.70518   0.68649    0.006
 5739.00    0.73957   0.68020    0.006
 5740.00    0.75088   0.68076    0.000
 5741.00    0.73176   0.68755    0.000
 5742.00    0.74671   0.69252    0.000
 5743.00    0.80122   0.69283    0.000
 5744.00    0.75646   0.69012    0.000
 5745.00    0.61004   0.68705    0.000
 5746.00    0.55840   0.68503    0.000
 5747.00    0.59238   0.68408    0.000
 5748.00    0.64628   0.68418    0.000
 5749.00    0.71604   0.68425    0.000
 5750.00    0.72359   0.68307    0.000
 5751.00    0.68758   0.68311    0.000
 5752.00    0.65846   0.68754    0.000
 5753.00    0.63358   0.69252    0.000
 5754.00    0.63665   0.69100    0.000
 5755.00    0.65472   0.68247    0.000
 5756.00    0.71910   0.67649    0.000
 5757.00    0.80505   0.68032    0.000
 5758.00    0.82367   0.68718    0.000
 5759.00    0.81526   0.68615    0.000
 5760.00    0.75878   0.67610    0.000
 5761.00    0.68585   0.66534    0.000
 5762.00    0.64872   0.66356    0.000
 5763.00    0.62191   0.67279    0.000
 5764.00    0.62615   0.68481    0.000
 5765.00    0.63779   0.69143    0.000
 5766.00    0.70602   0.69082    0.000
 5767.00    0.78511   0.68413    0.000
 5768.00    0.85501   0.67412    0.000
 5769.00    0.92354   0.66447    0.000
 5770.00    0.86590   0.65973    0.000
 5771.00    0.79450   0.66475    0.000
 5772.00    0.91815   0.67717    0.000
 5773.00    1.05579   0.68692    0.000
 5774.00    1.00529   0.69004    0.000
 5775.00    0.94786   0.69009    0.000
 5776.00    0.86545   0.68902    0.000
 5777.00    0.78556   0.68698    0.000
 5778.00    0.79966   0.68458    0.000
 5779.00    0.80774   0.68172    0.000
 5780.00    0.71915   0.67920    0.000
 5781.00    0.64041   0.67794    0.000
 5782.00    0.66151   0.67710    0.000
 5783.00    0.68544   0.67777    0.000
 5784.00    0.72996   0.68067    0.000
 5785.00    0.75515   0.68259    0.000
 5786.00    0.67299   0.68067    0.000
 5787.00    0.60513   0.67265    0.000
 5788.00    0.60070   0.65836    0.000
 5789.00    0.61966   0.64590    0.000
 5790.00    0.72386   0.64365    0.000
 5791.00    0.80933   0.64687   -2.000
 5792.00    0.83758   0.64609   -2.000
 5793.00    0.85717   0.64428   -2.000
 5794.00    0.85424   0.65051   -2.000
 5795.00    0.88214   0.66210   -2.000
 5796.00    0.97884   0.67035   -2.000
 5797.00    1.03511   0.67212   -2.000
 5798.00    1.01314   0.66816   -2.000
 5799.00    0.98281   0.66518   -2.000
 5800.00    0.93837   0.66894   -2.000
 5801.00    0.88268   0.67575   -2.000
 5802.00    0.81037   0.68128   -2.000
 5803.00    0.72560   0.68332   -2.000
 5804.00    0.62463   0.67858   -2.000
 5805.00    0.63779   0.66984   -2.000
 5806.00    0.78162   0.66698   -2.000
 5807.00    0.86958   0.67155   -2.000
 5808.00    0.90112   0.67439   -2.000
 5809.00    0.85460   0.67490   -2.000
 5810.00    0.73855   0.67740   -2.000
 5811.00    0.69804   0.67852    0.000
 5812.00    0.71682   0.67424    0.000
 5813.00    0.70036   0.67073    0.000
 5814.00    0.65959   0.67168    0.000
 5815.00    0.62582   0.67418    0.000
 5816.00    0.59629   0.67583    0.000
 5817.00    0.59671   0.67616    0.000
 5818.00    0.61295   0.67402    0.000
 5819.00    0.63983   0.66984    0.000
 5820.00    0.67159   0.66786    0.000
 5821.00    0.68479   0.66976    0.000
 5822.00    0.69068   0.67075    0.000
 5823.00    0.69455   0.66634    0.000
 5824.00    0.69774   0.66320    0.000
 5825.00    0.76542   0.66731    0.000
 5826.00    0.85130   0.67590    0.000
 5827.00    0.84263   0.68212    0.000
 5828.00    0.81194   0.68409    0.000
 5829.00    0.83069   0.68316    0.000
 5830.00    0.85868   0.68055    0.000
 5831.00    0.88928   0.67851    0.000
 5832.00    0.92025   0.67933    0.000
 5833.00    0.81040   0.68238    0.000
 5834.00    0.68581   0.68399    0.000
 5835.00    0.66818   0.68299    0.000
 5836.00    0.65779   0.68165    0.000
 5837.00    0.75841   0.68180    0.000
 5838.00    0.86271   0.68176    0.000
 5839.00    0.82080   0.68053    0.000
 5840.00    0.77977   0.67935    0.000
 5841.00    0.76939   0.67720    0.000
 5842.00    0.76261   0.67351    0.000
 5843.00    0.80998   0.67219    0.000
 5844.00    0.85405   0.67438    0.000
 5845.00    0.86613   0.67468    0.000
 5846.00    0.87807   0.67205    0.000
 5847.00    0.88894   0.67231    0.000
 5848.00    0.89771   0.67682    0.000
 5849.00    0.89514   0.68122    0.000
 5850.00    0.88538   0.68308    0.000
 5851.00    0.84447   0.68255    0.000
 5852.00    0.79411   0.67964    0.000
 5853.00    0.71005   0.67479    0.000
 5854.00    0.65556   0.66910    0.000
 5855.00    0.68967   0.66441    0.000
 5856.00    0.73443   0.66319    0.000
 5857.00    0.80631   0.66477    0.000
 5858.00    0.86762   0.66566    0.000
 5859.00    0.90570   0.66262    0.000
 5860.00    0.92706   0.65553    0.000
 5861.00    0.91657   0.64958    0.000
 5862.00    0.84353   0.65024    0.000
 5863.00    0.66652   0.65318    0.000
 5864.00    0.52739   0.64935    0.000
 5865.00    0.44342   0.64036    0.000
 5866.00    0.42729   0.63715    0.000
 5867.00    0.49806   0.64333    0.000
 5868.00    0.57624   0.65191    0.000
 5869.00    0.66279   0.65621    0.000
 5870.00    0.73143   0.65527    0.000
 5871.00    0.78225   0.65434    0.000
 5872.00    0.79547   0.65624    0.000
 5873.00    0.77568   0.65647    0.000
 5874.00    0.75732   0.65280    0.000
 5875.00    0.74006   0.65120    0.000
 5876.00    0.76256   0.65583    0.000
 5877.00    0.81209   0.66229    0.000
 5878.00    0.84691   0.66552    0.000
 5879.00    0.87298   0.66430    0.000
 5880.00    0.84635   0.65971    0.000
 5881.00    0.79232   0.65018    0.000
 5882.00    0.76645   0.63123    0.000
 5883.00    0.75328   0.61233    0.000
 5884.00    0.71581   0.60872    0.000
 5885.00    0.66893   0.62298    0.000
 5886.00    0.61057   0.64017    0.000
 5887.00    0.54842   0.64389    0.000
 5888.00    0.55661   0.64160    0.000
 5889.00    0.58426   0.64265    0.000
 5890.00    0.59416   0.64619    0.000
 5891.00    0.60002   0.64623    0.000
 5892.00    0.60851   0.64376    0.000
 5893.00    0.61748   0.64335    0.000
 5894.00    0.66723   0.64203    0.000
 5895.00    0.72268   0.62994    0.000
 5896.00    0.72623   0.59840    0.000
 5897.00    0.72456   0.55518    0.000
 5898.00    0.71089   0.53078    0.000
 5899.00    0.69645   0.54458    0.000
 5900.00    0.73992   0.57620    0.000
 5901.00    0.78499   0.59598    0.006
 5902.00    0.79449   0.59209    0.006
 5903.00    0.80121   0.56903    0.006
 5904.00    0.72943   0.55389    0.006
 5905.00    0.66920   0.56905    0.006
 5906.00    0.77352   0.59826    0.006
 5907.00    0.86922   0.61831    0.006
 5908.00    0.88459   0.62943    0.006
 5909.00    0.88570   0.63711    0.006
 5910.00    0.78983   0.64120    0.006
 5911.00    0.71616   0.64291    0.006
 5912.00    0.75926   0.64316    0.006
 5913.00    0.79848   0.64138    0.006
 5914.00    0.82128   0.64006    0.006
 5915.00    0.83348   0.64203    0.006
 5916.00    0.80863   0.64525    0.006
 5917.00    0.78695   0.64664    0.006
 5918.00    0.77459   0.64715    0.006
 5919.00    0.76316   0.64844    0.005
 5920.00    0.75405   0.64757    0.005
 5921.00    0.74137   0.64132    0.005
 5922.00    0.72095   0.63325    0.005
 5923.00    0.71308   0.62953    0.005
 5924.00    0.72872   0.63122    0.005
 5925.00    0.72291   0.63602    0.005
 5926.00    0.68197   0.64062    0.005
 5927.00    0.68840   0.64366    0.005
 5928.00    0.76286   0.64543    0.005
 5929.00    0.79387   0.64446    0.005
 5930.00    0.77002   0.64201    0.005
 5931.00    0.71374   0.64191    0.005
 5932.00    0.62137   0.64427    0.005
 5933.00    0.59121   0.64671    0.005
 5934.00    0.62212   0.64795    0.006
 5935.00    0.67600   0.64646    0.006
 5936.00    0.74975   0.64195    0.006
 5937.00    0.77757   0.63644    0.006
 5938.00    0.77036   0.63412    0.006
 5939.00    0.78410   0.63836    0.006
 5940.00    0.81187   0.64445    0.006
 5941.00    0.81332   0.64434    0.006
 5942.00    0.79931   0.63846    0.006
 5943.00    0.79503   0.63525    0.006
 5944.00    0.79573   0.63870    0.006
 5945.00    0.73180   0.64363    0.006
 5946.00    0.63921   0.64657    0.006
 5947.00    0.61675   0.64717    0.005
 5948.00    0.62101   0.64316    0.005
 5949.00    0.65603   0.63645    0.005
 5950.00    0.70101   0.63386    0.005
 5951.00    0.68545   0.63694    0.005
 5952.00    0.65349   0.64213    0.005
 5953.00    0.63475   0.64686    0.005
 5954.00    0.61893   0.64902    0.005
 5955.00    0.61518   0.64607    0.005
 5956.00    0.61357   0.63871    0.005
 5957.00    0.63282   0.63361    0.005
 5958.00    0.65490   0.63548    0.005
 5959.00    0.69403   0.63869    0.005
 5960.00    0.73481   0.63605    0.005
 5961.00    0.73199   0.63210    0.005
 5962.00    0.72657   0.63400    0.005
 5963.00    0.73483   0.63693    0.005
 5964.00    0.74333   0.63414    0.005
 5965.00    0.73226   0.62963    0.005
 5966.00    0.72207   0.63004    0.005
 5967.00    0.73413   0.63536    0.006
 5968.00    0.74465   0.64179    0.006
 5969.00    0.73457   0.64624    0.006
 5970.00    0.72176   0.64782    0.006
 5971.00    0.68463   0.64715    0.006
 5972.00    0.65393   0.64504    0.006
 5973.00    0.66556   0.64138    0.006
 5974.00    0.68336   0.63905    0.006
 5975.00    0.73279   0.64121    0.006
 5976.00    0.77671   0.64503    0.006
 5977.00    0.79776   0.64757    0.006
 5978.00    0.81583   0.64931    0.006
 5979.00    0.82368   0.65032    0.005
 5980.00    0.84820   0.64993    0.005
 5981.00    0.92087   0.64842    0.005
 5982.00    0.96779   0.64508    0.005
 5983.00    0.95122   0.63885    0.005
 5984.00    0.89077   0.63171    0.005
 5985.00    0.73704   0.62729    0.005
 5986.00    0.63117   0.62699    0.005
 5987.00    0.61363   0.63085    0.005
 5988.00    0.62602   0.63689    0.005
 5989.00    0.68668   0.64051    0.005
 5990.00    0.74736   0.63790    0.005
 5991.00    0.80809   0.62934    0.005
 5992.00    0.81400   0.62084    0.005
 5993.00    0.75168   0.62059    0.005
 5994.00    0.69583   0.62721    0.005
 5995.00    0.64711   0.63249    0.005
 5996.00    0.62659   0.63504    0.005
 5997.00    0.63337   0.63754    0.005
 5998.00    0.67482   0.63844    0.005
 5999.00    0.74584   0.63616    0.005
 6000.00    0.78250   0.63515    0.005
 6001.00    0.79335   0.63917    0.005
 6002.00    0.78002   0.64392    0.005
 6003.00    0.75073   0.64406    0.005
 6004.00    0.75301   0.63912    0.006
 6005.00    0.77354   0.63233    0.006
 6006.00    0.77354   0.62835    0.006
 6007.00    0.76320   0.62929    0.006
 6008.00    0.76672   0.63283    0.006
 6009.00    0.77627   0.63442    0.006
 6010.00    0.71410   0.63149    0.005
 6011.00    0.62509   0.62818    0.005
 6012.00    0.59423   0.62943    0.005
 6013.00    0.58183   0.63128    0.005
 6014.00    0.63972   0.62802    0.005
 6015.00    0.71625   0.62061    0.005
 6016.00    0.73714   0.61537    0.005
 6017.00    0.74597   0.61943    0.005
 6018.00    0.72221   0.62985    0.005
 6019.00    0.69284   0.63521    0.005
 6020.00    0.70107   0.63110    0.005
 6021.00    0.71422   0.62426    0.005
 6022.00    0.73764   0.62265    0.005
 6023.00    0.76201   0.62494    0.005
 6024.00    0.73780   0.62479    0.005
 6025.00    0.71088   0.62319    0.005
 6026.00    0.67048   0.62367    0.005
 6027.00    0.63031   0.62322    0.005
 6028.00    0.64240   0.62016    0.005
 6029.00    0.65653   0.61865    0.005
 6030.00    0.71811   0.62047    0.005
 6031.00    0.77523   0.62313    0.005
 6032.00    0.77549   0.62549    0.005
 6033.00    0.78078   0.62896    0.005
 6034.00    0.82938   0.63169    0.005
 6035.00    0.86779   0.63223    0.005
 6036.00    0.84110   0.63394    0.005
 6037.00    0.80896   0.63700    0.005
 6038.00    0.74960   0.63796    0.005
 6039.00    0.71740   0.63718    0.005
 6040.00    0.79512   0.63791    0.005
 6041.00    0.86041   0.63995    0.005
 6042.00    0.88394   0.64083    0.005
 6043.00    0.88440   0.64033    0.005
 6044.00    0.81948   0.63982    0.005
 6045.00    0.77127   0.63969    0.005
 6046.00    0.76357   0.63923    0.005
 6047.00    0.76645   0.63748    0.005
 6048.00    0.79142   0.63521    0.005
 6049.00    0.83007   0.63408    0.005
 6050.00    0.89357   0.63454    0.005
 6051.00    0.91392   0.63720    0.005
 6052.00    0.86570   0.64079    0.005
 6053.00    0.83491   0.64294    0.005
 6054.00    0.82840   0.64381    0.005
 6055.00    0.84574   0.64383    0.005
 6056.00    0.89232   0.64256    0.005
 6057.00    0.89320   0.64114    0.005
 6058.00    0.84463   0.64184    0.005
 6059.00    0.81706   0.64279    0.005
 6060.00    0.80953   0.64084    0.005
 6061.00    0.76655   0.63676    0.005
 6062.00    0.69376   0.63343    0.005
 6063.00    0.64922   0.63084    0.006
 6064.00    0.62561   0.62804    0.006
 6065.00    0.60911   0.62678    0.006
 6066.00    0.59723   0.62876    0.005
 6067.00    0.59242   0.63302    0.005
 6068.00    0.59165   0.63659    0.005
 6069.00    0.60980   0.63701    0.005
 6070.00    0.63731   0.63385    0.005
 6071.00    0.67762   0.62817    0.005
 6072.00    0.72341   0.62082    0.005
 6073.00    0.71494   0.61446    0.005
 6074.00    0.68653   0.61634    0.005
 6075.00    0.62670   0.62749    0.005
 6076.00    0.55709   0.63815    0.005
 6077.00    0.55405   0.64226    0.005
 6078.00    0.56829   0.64243    0.005
 6079.00    0.67931   0.64224    0.005
 6080.00    0.81081   0.64260    0.005
 6081.00    0.86257   0.64279    0.005
 6082.00    0.90100   0.64242    0.005
 6083.00    0.90974   0.64113    0.005
 6084.00    0.91473   0.63839    0.005
 6085.00    0.89033   0.63384    0.005
 6086.00    0.86335   0.62775    0.005
 6087.00    0.75085   0.62357    0.005
 6088.00    0.63392   0.62336    0.005
 6089.00    0.60073   0.62232    0.005
 6090.00    0.57013   0.61891    0.005
 6091.00    0.61833   0.61856    0.005
 6092.00    0.66834   0.62134    0.005
 6093.00    0.75713   0.62222    0.005
 6094.00    0.83735   0.62198    0.005
 6095.00    0.81365   0.62394    0.006
 6096.00    0.79203   0.62625    0.006
 6097.00    0.78763   0.62434    0.005
 6098.00    0.78924   0.61862    0.005
 6099.00    0.82806   0.61509    0.005
 6100.00    0.84021   0.61581    0.005
 6101.00    0.72239   0.61804    0.005
 6102.00    0.61464   0.62200    0.005
 6103.00    0.54674   0.62733    0.005
 6104.00    0.49940   0.62922    0.005
 6105.00    0.51976   0.62717    0.005
 6106.00    0.55481   0.62637    0.006
 6107.00    0.63075   0.62892    0.006
 6108.00    0.70413   0.63047    0.006
 6109.00    0.77141   0.62344    0.005
 6110.00    0.80271   0.60670    0.005
 6111.00    0.76001   0.59451    0.005
 6112.00    0.71983   0.60048    0.005
 6113.00    0.68417   0.61564    0.005
 6114.00    0.67773   0.62432    0.005
 6115.00    0.71700   0.62412    0.005
 6116.00    0.73850   0.62201    0.005
 6117.00    0.73559   0.62387    0.005
 6118.00    0.72170   0.62652    0.005
 6119.00    0.69454   0.62459    0.005
 6120.00    0.69601   0.62231    0.005
 6121.00    0.72801   0.62535    0.005
 6122.00    0.73469   0.63029    0.005
 6123.00    0.71755   0.63053    0.005
 6124.00    0.70220   0.62569    0.005
 6125.00    0.68832   0.62216    0.005
 6126.00    0.70898   0.62241    0.005
 6127.00    0.75486   0.62034    0.005
 6128.00    0.82273   0.61251    0.005
 6129.00    0.90471   0.60169    0.005
 6130.00    0.89372   0.59349    0.005
 6131.00    0.83060   0.59680    0.005
 6132.00    0.78198   0.61023    0.005
 6133.00    0.74045   0.61951    0.005
 6134.00    0.74398   0.61907    0.005
 6135.00    0.76651   0.61483    0.005
 6136.00    0.74252   0.61174    0.005
 6137.00    0.70174   0.61244    0.005
 6138.00    0.66821   0.61757    0.005
 6139.00    0.63690   0.62347    0.005
 6140.00    0.63804   0.62642    0.005
 6141.00    0.64742   0.62598    0.005
 6142.00    0.68261   0.62062    0.005
 6143.00    0.72314   0.60756    0.005
 6144.00    0.71960   0.58782    0.005
 6145.00    0.70890   0.57171    0.005
 6146.00    0.71778   0.57466    0.005
 6147.00    0.72905   0.59559    0.005
 6148.00    0.68870   0.61333    0.005
 6149.00    0.64405   0.61443    0.005
 6150.00    0.61026   0.60879    0.005
 6151.00    0.57699   0.61139    0.005
 6152.00    0.60910   0.62083    0.005
 6153.00    0.64171   0.62677    0.005
 6154.00    0.64755   0.62645    0.005
 6155.00    0.65317   0.62275    0.005
 6156.00    0.65432   0.61712    0.005
 6157.00    0.65609   0.61044    0.005
 6158.00    0.66498   0.60563    0.005
 6159.00    0.66744   0.60582    0.005
 6160.00    0.61842   0.61042    0.005
 6161.00    0.57937   0.61434    0.005
 6162.00    0.60037   0.61261    0.005
 6163.00    0.62071   0.60774    0.005
 6164.00    0.63790   0.60588    0.005
 6165.00    0.64372   0.60633    0.005
 6166.00    0.60547   0.60566    0.005
 6167.00    0.58784   0.60256    0.005
 6168.00    0.63674   0.59278    0.005
 6169.00    0.66493   0.57347    0.005
 6170.00    0.63652   0.55467    0.005
 6171.00    0.61075   0.55077    0.005
 6172.00    0.59114   0.56222    0.005
 6173.00    0.56116   0.57710    0.005
 6174.00    0.51020   0.58656    0.005
 6175.00    0.48750   0.59104    0.005
 6176.00    0.51463   0.58920    0.005
 6177.00    0.54444   0.57808    0.005
 6178.00    0.57837   0.56855    0.005
 6179.00    0.59359   0.57367    0.005
 6180.00    0.58346   0.58658    0.005
 6181.00    0.58154   0.59333    0.005
 6182.00    0.58942   0.59412    0.005
 6183.00    0.61791   0.59464    0.005
 6184.00    0.66807   0.59445    0.005
 6185.00    0.70321   0.59371    0.005
 6186.00    0.72443   0.59586    0.005
 6187.00    0.72166   0.59919    0.005
 6188.00    0.69927   0.59965    0.005
 6189.00    0.66779   0.59997    0.005
 6190.00    0.62977   0.60272    0.005
 6191.00    0.59656   0.60454    0.005
 6192.00    0.56639   0.60399    0.005
 6193.00    0.61033   0.60176    0.005
 6194.00    0.69518   0.59657    0.005
 6195.00    0.98251   0.58989    0.005
 6196.00    1.36706   0.58581   -2.000
 6197.00    1.86247   0.58440   -2.000
 6198.00    2.40382   0.58030   -2.000
 6199.00    2.38320   0.57065   -2.000
 6200.00    2.16339   0.56553   -2.000
 6201.00    1.33563   0.57408   -2.000
 6202.00    0.32594   0.58754   -2.000
 6203.00   -0.20091   0.59543   -2.000
 6204.00   -0.60782   0.59888   -2.000
 6205.00   -0.34658   0.60085   -2.000
 6206.00    0.04920   0.59864   -2.000
 6207.00    0.35145   0.59021   -2.000
 6208.00    0.63894   0.58208    0.006
 6209.00    0.67847   0.58303    0.006
 6210.00    0.68893   0.59151    0.005
 6211.00    0.62371   0.59863    0.005
 6212.00    0.55248   0.60035    0.005
 6213.00    0.61898   0.59939    0.005
 6214.00    0.69154   0.59922    0.005
 6215.00    0.74625   0.59991    0.005
 6216.00    0.79903   0.60011    0.005
 6217.00    0.76937   0.59934    0.005
 6218.00    0.73969   0.59710    0.005
 6219.00    0.70973   0.59365    0.005
 6220.00    0.68247   0.58875    0.005
 6221.00    0.68481   0.58005    0.005
 6222.00    0.68658   0.56949    0.005
 6223.00    0.68382   0.56334    0.005
 6224.00    0.68367   0.56424    0.005
 6225.00    0.69870   0.57048    0.005
 6226.00    0.72077   0.57619    0.005
 6227.00    0.77547   0.57521    0.005
 6228.00    0.82227   0.57028    0.005
 6229.00    0.83912   0.56912    0.005
 6230.00    0.83525   0.57340    0.005
 6231.00    0.76578   0.57792    0.005
 6232.00    0.71013   0.57862    0.005
 6233.00    0.69159   0.57821    0.005
 6234.00    0.67536   0.57996    0.005
 6235.00    0.66444   0.58199    0.005
 6236.00    0.64580   0.58136    0.005
 6237.00    0.61177   0.57514    0.005
 6238.00    0.58216   0.56265    0.005
 6239.00    0.56021   0.55208    0.005
 6240.00    0.55652   0.55236    0.005
 6241.00    0.58059   0.56131    0.005
 6242.00    0.60787   0.57329    0.005
 6243.00    0.63946   0.58433    0.005
 6244.00    0.66496   0.58954    0.005
 6245.00    0.68330   0.58743    0.005
 6246.00    0.70591   0.58094    0.005
 6247.00    0.73297   0.57302    0.005
 6248.00    0.73575   0.56649    0.005
 6249.00    0.71633   0.56497    0.005
 6250.00    0.68280   0.56549    0.005
 6251.00    0.63789   0.56183    0.005
 6252.00    0.61271   0.55814    0.005
 6253.00    0.60151   0.55941    0.005
 6254.00    0.61187   0.56246    0.005
 6255.00    0.63564   0.56753    0.005
 6256.00    0.68565   0.57604    0.005
 6257.00    0.74994   0.58249    0.005
 6258.00    0.85145   0.58286    0.005
 6259.00    0.97054   0.57755    0.006
 6260.00    1.04057   0.56786    0.006
 6261.00    1.09061   0.55930    0.006
 6262.00    0.92237   0.55721    0.007
 6263.00    0.67817   0.55898    0.007
 6264.00    0.44576   0.55812    0.007
 6265.00    0.21681   0.55252    0.007
 6266.00    0.25292   0.54630    0.006
 6267.00    0.35341   0.54634    0.006
 6268.00    0.45527   0.55485    0.005
 6269.00    0.55739   0.56524    0.005
 6270.00    0.56596   0.57344    0.005
 6271.00    0.56022   0.58067    0.005
 6272.00    0.62883   0.58301    0.005
 6273.00    0.70582   0.57778    0.005
 6274.00    0.76316   0.57291    0.005
 6275.00    0.81902   0.57462    0.005
 6276.00    0.78477   0.57768    0.005
 6277.00    0.74691   0.57678    0.005
 6278.00    0.67267   0.57471    0.005
 6279.00    0.59825   0.57526    0.005
 6280.00    0.52738   0.57832    0.000
 6281.00    0.46529   0.58130    0.000
 6282.00    0.55277   0.58172    0.000
 6283.00    0.63532   0.58053    0.000
 6284.00    0.66595   0.58032    0.000
 6285.00    0.68736   0.58089    0.000
 6286.00    0.63997   0.58074    0.000
 6287.00    0.59594   0.57839    0.000
 6288.00    0.57104   0.57309    0.000
 6289.00    0.55574   0.56873    0.000
 6290.00    0.58386   0.56974    0.000
 6291.00    0.61201   0.57478    0.000
 6292.00    0.64020   0.57968    0.000
 6293.00    0.65202   0.58135    0.000
 6294.00    0.61298   0.58146    0.000
 6295.00    0.58919   0.58405    0.000
 6296.00    0.60562   0.58855    0.000
 6297.00    0.63448   0.59154    0.000
 6298.00    0.69149   0.59033    0.000
 6299.00    0.74066   0.58535    0.000
 6300.00    0.77449   0.58029    0.000
 6301.00    0.79552   0.57786    0.000
 6302.00    0.79465   0.57866    0.000
 6303.00    0.77690   0.57969    0.000
 6304.00    0.73385   0.57589    0.000
 6305.00    0.69686   0.56884    0.000
 6306.00    0.66782   0.56593    0.000
 6307.00    0.65925   0.56918    0.000
 6308.00    0.67438   0.57232    0.000
 6309.00    0.67103   0.56976    0.000
 6310.00    0.64880   0.56476    0.000
 6311.00    0.64873   0.56471    0.000
 6312.00    0.66865   0.56967    0.000
 6313.00    0.68220   0.57351    0.000
 6314.00    0.69069   0.57531    0.000
 6315.00    0.67144   0.57951    0.000
 6316.00    0.63281   0.58554    0.000
 6317.00    0.59812   0.58769    0.000
 6318.00    0.56585   0.58387    0.000
 6319.00    0.55950   0.57737    0.000
 6320.00    0.56703   0.57309    0.000
 6321.00    0.59755   0.57287    0.005
 6322.00    0.63875   0.57245    0.005
 6323.00    0.67370   0.56852    0.005
 6324.00    0.70616   0.56558    0.005
 6325.00    0.74930   0.56517    0.005
 6326.00    0.79608   0.56204    0.005
 6327.00    0.79278   0.55899    0.005
 6328.00    0.77508   0.56307    0.005
 6329.00    0.74419   0.57047    0.005
 6330.00    0.71017   0.57408    0.005
 6331.00    0.68266   0.57524    0.005
 6332.00    0.65639   0.57836    0.005
 6333.00    0.63505   0.58223    0.005
 6334.00    0.61443   0.58364    0.005
 6335.00    0.60975   0.58275    0.005
 6336.00    0.60680   0.58235    0.005
 6337.00    0.65291   0.58369    0.005
 6338.00    0.70252   0.58345    0.005
 6339.00    0.70490   0.58156    0.005
 6340.00    0.70557   0.58254    0.005
 6341.00    0.64000   0.58561    0.005
 6342.00    0.57493   0.58417    0.005
 6343.00    0.53635   0.57442    0.005
 6344.00    0.50227   0.56276    0.005
 6345.00    0.54000   0.55984    0.005
 6346.00    0.57910   0.56570    0.005
 6347.00    0.63212   0.57201    0.005
 6348.00    0.67800   0.57635    0.005
 6349.00    0.67235   0.58034    0.005
 6350.00    0.66410   0.58092    0.005
 6351.00    0.64146   0.57543    0.005
 6352.00    0.62060   0.56782    0.005
 6353.00    0.60768   0.56487    0.005
 6354.00    0.59187   0.56750    0.005
 6355.00    0.56553   0.57132    0.005
 6356.00    0.55200   0.57475    0.005
 6357.00    0.57752   0.57863    0.005
 6358.00    0.60096   0.58156    0.005
 6359.00    0.61901   0.58245    0.005
 6360.00    0.63522   0.58254    0.005
 6361.00    0.64732   0.58098    0.005
 6362.00    0.66965   0.57568    0.005
 6363.00    0.71172   0.56907    0.005
 6364.00    0.75632   0.56668    0.005
 6365.00    0.80517   0.56742    0.005
 6366.00    0.81711   0.56411    0.005
 6367.00    0.77460   0.55682    0.005
 6368.00    0.74086   0.55236    0.005
 6369.00    0.71848   0.55127    0.005
 6370.00    0.69321   0.54955    0.005
 6371.00    0.66464   0.54838    0.005
 6372.00    0.65123   0.55119    0.005
 6373.00    0.65311   0.55708    0.005
 6374.00    0.67026   0.56309    0.005
 6375.00    0.70100   0.56867    0.005
 6376.00    0.71185   0.57441    0.005
 6377.00    0.70712   0.57808    0.005
 6378.00    0.69253   0.57708    0.005
 6379.00    0.67114   0.57474    0.005
 6380.00    0.63401   0.57649    0.005
 6381.00    0.58737   0.58163    0.005
 6382.00    0.55785   0.58514    0.005
 6383.00    0.53735   0.58497    0.005
 6384.00    0.53423   0.58404    0.005
 6385.00    0.53905   0.58358    0.005
 6386.00    0.51112   0.58080    0.005
 6387.00    0.47031   0.57592    0.005
 6388.00    0.49086   0.57276    0.005
 6389.00    0.53199   0.57261    0.005
 6390.00    0.61701   0.57455    0.005
 6391.00    0.71439   0.57696    0.005
 6392.00    0.74973   0.57709    0.005
 6393.00    0.77067   0.57571    0.005
 6394.00    0.75648   0.57659    0.005
 6395.00    0.73574   0.57947    0.005
 6396.00    0.75643   0.58103    0.005
 6397.00    0.78308   0.58106    0.005
 6398.00    0.79459   0.58138    0.005
 6399.00    0.80453   0.58075    0.005
 6400.00    0.75809   0.57512    0.005
 6401.00    0.70788   0.56416    0.005
 6402.00    0.62239   0.55645    0.005
 6403.00    0.53575   0.56042    0.005
 6404.00    0.49783   0.57168    0.005
 6405.00    0.46217   0.58025    0.005
 6406.00    0.49639   0.58139    0.005
 6407.00    0.52763   0.57317    0.005
 6408.00    0.51416   0.55910    0.005
 6409.00    0.49617   0.55323    0.005
 6410.00    0.43453   0.56286    0.005
 6411.00    0.38416   0.57636    0.005
 6412.00    0.41254   0.58281    0.005
 6413.00    0.45158   0.58292    0.005
 6414.00    0.54803   0.57955    0.005
 6415.00    0.62936   0.57341    0.005
 6416.00    0.64540   0.56693    0.005
 6417.00    0.64638   0.56627    0.005
 6418.00    0.59373   0.57102    0.005
 6419.00    0.54797   0.57167    0.005
 6420.00    0.52282   0.56724    0.005
 6421.00    0.50620   0.56588    0.005
 6422.00    0.51131   0.56851    0.005
 6423.00    0.52158   0.57129    0.005
 6424.00    0.54316   0.57412    0.005
 6425.00    0.57561   0.57647    0.005
 6426.00    0.62873   0.57577    0.005
 6427.00    0.66680   0.57099    0.005
 6428.00    0.67988   0.56299    0.005
 6429.00    0.66998   0.55608    0.005
 6430.00    0.62665   0.55733    0.005
 6431.00    0.59106   0.56755    0.005
 6432.00    0.56535   0.57741    0.005
 6433.00    0.54816   0.57999    0.005
 6434.00    0.54057   0.57947    0.005
 6435.00    0.54263   0.58122    0.005
 6436.00    0.55428   0.58352    0.005
 6437.00    0.56286   0.58115    0.005
 6438.00    0.56877   0.57162    0.005
 6439.00    0.58419   0.55995    0.005
 6440.00    0.60695   0.55617    0.005
 6441.00    0.62135   0.56269    0.005
 6442.00    0.63006   0.57174    0.005
 6443.00    0.61846   0.57736    0.005
 6444.00    0.59477   0.57934    0.005
 6445.00    0.60089   0.57780    0.005
 6446.00    0.62249   0.57077    0.005
 6447.00    0.65616   0.56088    0.005
 6448.00    0.69526   0.55867    0.005
 6449.00    0.70726   0.56814    0.005
 6450.00    0.70877   0.57959    0.005
 6451.00    0.67074   0.58481    0.005
 6452.00    0.61970   0.58515    0.005
 6453.00    0.60909   0.58484    0.005
 6454.00    0.60963   0.58581    0.005
 6455.00    0.62789   0.58621    0.005
 6456.00    0.65018   0.58070    0.005
 6457.00    0.67857   0.56507    0.005
 6458.00    0.70807   0.54601    0.005
 6459.00    0.70818   0.53962    0.005
 6460.00    0.70421   0.55031    0.005
 6461.00    0.66798   0.56552    0.005
 6462.00    0.62854   0.57382    0.005
 6463.00    0.57936   0.57240    0.005
 6464.00    0.52956   0.56630    0.005
 6465.00    0.54108   0.56506    0.005
 6466.00    0.55452   0.57164    0.005
 6467.00    0.61286   0.58025    0.005
 6468.00    0.66977   0.58488    0.005
 6469.00    0.68713   0.58175    0.005
 6470.00    0.70432   0.56918    0.005
 6471.00    0.71928   0.55468    0.005
 6472.00    0.73307   0.55191    0.005
 6473.00    0.73611   0.56141    0.005
 6474.00    0.73147   0.57159    0.005
 6475.00    0.67484   0.57719    0.005
 6476.00    0.62146   0.57943    0.005
 6477.00    0.58507   0.57850    0.005
 6478.00    0.55382   0.57470    0.005
 6479.00    0.54431   0.57002    0.005
 6480.00    0.52750   0.56745    0.005
 6481.00    0.48526   0.56939    0.005
 6482.00    0.44687   0.57257    0.005
 6483.00    0.41977   0.57153    0.005
 6484.00    0.41798   0.56902    0.005
 6485.00    0.47949   0.57033    0.005
 6486.00    0.55118   0.57326    0.005
 6487.00    0.64483   0.57374    0.005
 6488.00    0.72623   0.57198    0.005
 6489.00    0.78470   0.56714    0.005
 6490.00    0.79676   0.55819    0.005
 6491.00    0.73297   0.55086    0.005
 6492.00    0.68956   0.55160    0.005
 6493.00    0.67535   0.55825    0.005
 6494.00    0.67379   0.56440    0.005
 6495.00    0.68818   0.56782    0.005
 6496.00    0.68861   0.56961    0.005
 6497.00    0.67351   0.56948    0.005
 6498.00    0.65505   0.56614    0.005
 6499.00    0.63329   0.56109    0.005
 6500.00    0.61209   0.55639    0.005
 6501.00    0.59137   0.54886    0.005
 6502.00    0.59672   0.53360    0.005
 6503.00    0.62189   0.51594    0.005
 6504.00    0.66545   0.50797    0.005
 6505.00    0.72132   0.51199    0.005
 6506.00    0.76276   0.52104    0.005
 6507.00    0.79576   0.52901    0.005
 6508.00    0.75291   0.53535    0.005
 6509.00    0.67133   0.54315    0.005
 6510.00    0.61496   0.55120    0.005
 6511.00    0.56975   0.55651    0.005
 6512.00    0.56096   0.55962    0.005
 6513.00    0.56601   0.56205    0.005
 6514.00    0.58655   0.56432    0.005
 6515.00    0.61208   0.56512    0.005
 6516.00    0.63434   0.56281    0.005
 6517.00    0.65572   0.55942    0.005
 6518.00    0.68793   0.55916    0.005
 6519.00    0.72253   0.56227    0.005
 6520.00    0.73352   0.56497    0.005
 6521.00    0.74035   0.56550    0.005
 6522.00    0.72455   0.56479    0.005
 6523.00    0.70571   0.56247    0.005
 6524.00    0.69309   0.55842    0.005
 6525.00    0.68107   0.55467    0.005
 6526.00    0.64451   0.55195    0.005
 6527.00    0.60650   0.55025    0.005
 6528.00    0.61876   0.55227    0.000
 6529.00    0.63231   0.55809    0.000
 6530.00    0.65008   0.56285    0.000
 6531.00    0.66528   0.56400    0.000
 6532.00    0.61584   0.56357    0.000
 6533.00    0.56678   0.56346    0.000
 6534.00    0.52286   0.56156    0.000
 6535.00    0.48350   0.55653    0.000
 6536.00    0.48474   0.55291    0.000
 6537.00    0.48831   0.55467    0.000
 6538.00    0.50718   0.55904    0.000
 6539.00    0.53681   0.56092    0.000
 6540.00    0.62138   0.55829    0.000
 6541.00    0.70312   0.55384    0.000
 6542.00    0.77320   0.55272    0.000
 6543.00    0.82013   0.55678    0.000
 6544.00    0.78797   0.56201    0.000
 6545.00    0.75256   0.56341    0.000
 6546.00    0.70782   0.56166    0.000
 6547.00    0.67802   0.56171    0.000
 6548.00    0.68495   0.56482    0.000
 6549.00    0.68743   0.56660    0.000
 6550.00    0.68044   0.56405    0.000
 6551.00    0.67021   0.55904    0.000
 6552.00    0.65399   0.55429    0.000
 6553.00    0.64593   0.54942    0.000
 6554.00    0.65101   0.54263    0.000
 6555.00    0.65674   0.53698    0.000
 6556.00    0.66338   0.53803    0.000
 6557.00    0.71712   0.54374    0.000
 6558.00    0.82936   0.54708    0.000
 6559.00    0.96843   0.54522    0.000
 6560.00    1.13687   0.54058    0.000
 6561.00    1.26911   0.53609    0.000
 6562.00    1.36637   0.53085    0.000
 6563.00    1.34681   0.52332    0.000
 6564.00    1.22774   0.51598    0.000
 6565.00    1.09279   0.51183    0.000
 6566.00    0.94592   0.50898    0.000
 6567.00    0.84594   0.50268    0.000
 6568.00    0.77688   0.49037    0.000
 6569.00    0.72277   0.46819    0.000
 6570.00    0.67728   0.43010    0.000
 6571.00    0.67588   0.38725    0.000
 6572.00    0.69666   0.37501    0.000
 6573.00    0.67217   0.40866    0.000
 6574.00    0.62798   0.45835    0.000
 6575.00    0.60967   0.49431    0.000
 6576.00    0.60102   0.51281    0.000
 6577.00    0.60904   0.51908    0.000
 6578.00    0.62234   0.51971    0.000
 6579.00    0.61752   0.52164    0.000
 6580.00    0.60791   0.52450    0.000
 6581.00    0.64521   0.52384    0.000
 6582.00    0.69267   0.52053    0.000
 6583.00    0.73660   0.51924    0.000
 6584.00    0.77992   0.52318    0.000
 6585.00    0.79902   0.53162    0.000
 6586.00    0.81496   0.53992    0.000
 6587.00    0.82819   0.54415    0.000
 6588.00    0.84118   0.54360    0.000
 6589.00    0.81311   0.53988    0.000
 6590.00    0.78277   0.53684    0.000
 6591.00    0.67128   0.53808    0.000
 6592.00    0.55878   0.54226    0.000
 6593.00    0.51508   0.54541    0.000
 6594.00    0.47336   0.54605    0.000
 6595.00    0.47695   0.54602    0.000
 6596.00    0.48059   0.54856    0.000
 6597.00    0.48499   0.55241    0.000
 6598.00    0.49611   0.55423    0.000
 6599.00    0.56486   0.55250    0.000
 6600.00    0.62477   0.54466    0.000
 6601.00    0.62849   0.53097    0.000
 6602.00    0.62958   0.52077    0.000
 6603.00    0.61758   0.52330    0.000
 6604.00    0.61057   0.53401    0.000
 6605.00    0.62374   0.54146    0.000
 6606.00    0.62870   0.54193    0.000
 6607.00    0.60619   0.53977    0.000
 6608.00    0.56950   0.54078    0.000
 6609.00    0.49269   0.54613    0.005
 6610.00    0.44397   0.55139    0.005
 6611.00    0.46315   0.55263    0.005
 6612.00    0.51058   0.55015    0.005
 6613.00    0.61695   0.54595    0.005
 6614.00    0.69036   0.54204    0.005
 6615.00    0.70401   0.53932    0.005
 6616.00    0.69673   0.53632    0.005
 6617.00    0.65627   0.53184    0.005
 6618.00    0.61413   0.52964    0.005
 6619.00    0.56966   0.53474    0.005
 6620.00    0.53753   0.54377    0.005
 6621.00    0.52054   0.54815    0.005
 6622.00    0.51020   0.54666    0.005
 6623.00    0.50707   0.54583    0.005
 6624.00    0.52483   0.54866    0.005
 6625.00    0.56251   0.55087    0.005
 6626.00    0.60022   0.55004    0.005
 6627.00    0.63795   0.54899    0.005
 6628.00    0.62835   0.54990    0.005
 6629.00    0.58376   0.55171    0.005
 6630.00    0.55767   0.55216    0.005
 6631.00    0.54358   0.54948    0.005
 6632.00    0.55492   0.54324    0.005
 6633.00    0.58070   0.53602    0.005
 6634.00    0.57900   0.53329    0.005
 6635.00    0.56368   0.53664    0.005
 6636.00    0.55087   0.54081    0.005
 6637.00    0.53914   0.54192    0.005
 6638.00    0.53711   0.54081    0.005
 6639.00    0.53863   0.53898    0.005
 6640.00    0.55379   0.53643    0.005
 6641.00    0.57317   0.53194    0.005
 6642.00    0.58286   0.52661    0.005
 6643.00    0.59003   0.52507    0.005
 6644.00    0.61715   0.52962    0.005
 6645.00    0.64849   0.53646    0.005
 6646.00    0.67797   0.54090    0.005
 6647.00    0.70714   0.54125    0.005
 6648.00    0.69170   0.53907    0.005
 6649.00    0.67066   0.53823    0.005
 6650.00    0.60566   0.53950    0.005
 6651.00    0.53683   0.53799    0.005
 6652.00    0.45528   0.53270    0.005
 6653.00    0.37308   0.53052    0.004
 6654.00    0.40444   0.53400    0.005
 6655.00    0.43818   0.53738    0.005
 6656.00    0.49834   0.53746    0.005
 6657.00    0.55401   0.53713    0.005
 6658.00    0.51528   0.53809    0.005
 6659.00    0.47806   0.53816    0.005
 6660.00    0.45908   0.53630    0.005
 6661.00    0.44034   0.53448    0.005
 6662.00    0.42349   0.53415    0.005
 6663.00    0.42081   0.53497    0.005
 6664.00    0.50561   0.53576    0.005
 6665.00    0.59198   0.53545    0.005
 6666.00    0.68595   0.53500    0.005
 6667.00    0.74972   0.53533    0.005
 6668.00    0.69423   0.53492    0.005
 6669.00    0.64863   0.53284    0.005
 6670.00    0.63551   0.52968    0.005
 6671.00    0.62228   0.52500    0.005
 6672.00    0.60876   0.52010    0.005
 6673.00    0.59139   0.51953    0.005
 6674.00    0.56487   0.52292    0.005
 6675.00    0.54442   0.52516    0.005
 6676.00    0.53644   0.52547    0.005
 6677.00    0.53570   0.52698    0.005
 6678.00    0.54789   0.53099    0.005
 6679.00    0.54935   0.53522    0.005
 6680.00    0.53403   0.53716    0.005
 6681.00    0.51567   0.53695    0.005
 6682.00    0.49315   0.53634    0.005
 6683.00    0.50223   0.53619    0.005
 6684.00    0.54947   0.53464    0.005
 6685.00    0.58262   0.52708    0.005
 6686.00    0.60076   0.51313    0.005
 6687.00    0.59715   0.50285    0.005
 6688.00    0.57312   0.50549    0.005
 6689.00    0.53219   0.51542    0.005
 6690.00    0.47726   0.52146    0.005
 6691.00    0.45847   0.52300    0.005
 6692.00    0.46603   0.52477    0.005
 6693.00    0.50683   0.52741    0.005
 6694.00    0.56892   0.52931    0.005
 6695.00    0.62661   0.52977    0.005
 6696.00    0.68183   0.52913    0.000
 6697.00    0.67295   0.52858    0.000
 6698.00    0.63285   0.52932    0.000
 6699.00    0.57689   0.53075    0.000
 6700.00    0.51425   0.53144    0.000
 6701.00    0.52356   0.53122    0.000
 6702.00    0.55877   0.53066    0.000
 6703.00    0.57813   0.52902    0.000
 6704.00    0.59267   0.52483    0.000
 6705.00    0.58281   0.51967    0.000
 6706.00    0.56678   0.51762    0.000
 6707.00    0.53720   0.51964    0.000
 6708.00    0.50483   0.52402    0.000
 6709.00    0.47878   0.52867    0.000
 6710.00    0.45376   0.53078    0.000
 6711.00    0.49361   0.52917    0.000
 6712.00    0.54131   0.52524    0.000
 6713.00    0.61238   0.52204    0.000
 6714.00    0.68539   0.52230    0.000
 6715.00    0.75358   0.52519    0.000
 6716.00    0.82155   0.52753    0.000
 6717.00    0.82129   0.52801    0.000
 6718.00    0.81841   0.52688    0.000
 6719.00    0.72140   0.52481    0.000
 6720.00    0.62397   0.52363    0.000
 6721.00    0.51820   0.52311    0.000
 6722.00    0.42542   0.52101    0.000
 6723.00    0.48162   0.51699    0.000
 6724.00    0.53575   0.51194    0.000
 6725.00    0.57352   0.50646    0.000
 6726.00    0.61447   0.50266    0.000
 6727.00    0.67453   0.50454    0.000
 6728.00    0.73160   0.51185    0.000
 6729.00    0.77444   0.51800    0.000
 6730.00    0.79930   0.51940    0.000
 6731.00    0.75464   0.51927    0.000
 6732.00    0.70931   0.52104    0.000
 6733.00    0.66176   0.52277    0.000
 6734.00    0.61931   0.52122    0.000
 6735.00    0.59074   0.51815    0.000
 6736.00    0.56917   0.51753    0.000
 6737.00    0.56394   0.51954    0.000
 6738.00    0.56296   0.52176    0.000
 6739.00    0.57054   0.52331    0.000
 6740.00    0.58007   0.52379    0.000
 6741.00    0.59301   0.52279    0.000
 6742.00    0.60709   0.52119    0.000
 6743.00    0.62291   0.52071    0.000
 6744.00    0.62441   0.52188    0.000
 6745.00    0.60654   0.52293    0.000
 6746.00    0.59155   0.52116    0.000
 6747.00    0.57997   0.51705    0.000
 6748.00    0.57499   0.51439    0.000
 6749.00    0.57695   0.51524    0.000
 6750.00    0.53634   0.51683    0.000
 6751.00    0.45633   0.51546    0.000
 6752.00    0.43890   0.51266    0.000
 6753.00    0.47257   0.51278    0.005
 6754.00    0.52423   0.51481    0.005
 6755.00    0.58882   0.51531    0.006
 6756.00    0.61969   0.51413    0.006
 6757.00    0.62929   0.51249    0.006
 6758.00    0.59645   0.51102    0.006
 6759.00    0.54020   0.51042    0.005
 6760.00    0.58658   0.51127    0.005
 6761.00    0.68213   0.51161    0.006
 6762.00    0.68409   0.51099    0.006
 6763.00    0.64734   0.51230    0.005
 6764.00    0.67902   0.51532    0.005
 6765.00    0.73490   0.51843    0.005
 6766.00    0.79560   0.52168    0.005
 6767.00    0.85773   0.52442    0.005
 6768.00    0.80211   0.52578    0.005
 6769.00    0.71733   0.52582    0.005
 6770.00    0.69070   0.52450    0.005
 6771.00    0.67575   0.52277    0.005
 6772.00    0.62630   0.52240    0.005
 6773.00    0.57142   0.52285    0.005
 6774.00    0.50290   0.52150    0.005
 6775.00    0.43279   0.51721    0.005
 6776.00    0.42023   0.51254    0.005
 6777.00    0.41221   0.51148    0.005
 6778.00    0.43653   0.51354    0.005
 6779.00    0.46226   0.51425    0.005
 6780.00    0.48983   0.51299    0.005
 6781.00    0.51864   0.51384    0.005
 6782.00    0.60418   0.51810    0.005
 6783.00    0.68590   0.52288    0.005
 6784.00    0.69818   0.52581    0.005
 6785.00    0.70421   0.52666    0.005
 6786.00    0.64180   0.52626    0.005
 6787.00    0.59368   0.52618    0.005
 6788.00    0.65549   0.52683    0.005
 6789.00    0.70444   0.52644    0.005
 6790.00    0.67848   0.52329    0.005
 6791.00    0.64668   0.51709    0.005
 6792.00    0.58784   0.50944    0.005
 6793.00    0.55137   0.50372    0.005
 6794.00    0.59953   0.50246    0.005
 6795.00    0.63408   0.50531    0.005
 6796.00    0.62565   0.51034    0.005
 6797.00    0.61900   0.51488    0.005
 6798.00    0.61713   0.51647    0.005
 6799.00    0.62851   0.51620    0.005
 6800.00    0.67035   0.51642    0.005
 6801.00    0.70089   0.51604    0.005
 6802.00    0.70897   0.51372    0.005
 6803.00    0.71863   0.51159    0.005
 6804.00    0.73105   0.51142    0.005
 6805.00    0.70890   0.51240    0.005
 6806.00    0.63433   0.51394    0.005
 6807.00    0.58182   0.51534    0.005
 6808.00    0.55872   0.51605    0.005
 6809.00    0.53449   0.51689    0.005
 6810.00    0.50895   0.51825    0.005
 6811.00    0.47027   0.51900    0.005
 6812.00    0.41797   0.51806    0.005
 6813.00    0.43729   0.51654    0.005
 6814.00    0.52199   0.51614    0.006
 6815.00    0.58765   0.51584    0.006
 6816.00    0.63799   0.51499    0.005
 6817.00    0.64937   0.51496    0.005
 6818.00    0.63315   0.51500    0.005
 6819.00    0.60737   0.51428    0.005
 6820.00    0.57566   0.51453    0.005
 6821.00    0.57678   0.51568    0.005
 6822.00    0.59572   0.51529    0.005
 6823.00    0.61262   0.51259    0.005
 6824.00    0.62856   0.51041    0.005
 6825.00    0.63636   0.51224    0.005
 6826.00    0.64085   0.51657    0.005
 6827.00    0.64545   0.51854    0.005
 6828.00    0.65010   0.51658    0.005
 6829.00    0.60800   0.51369    0.005
 6830.00    0.55221   0.51359    0.005
 6831.00    0.54219   0.51667    0.005
 6832.00    0.54325   0.52009    0.005
 6833.00    0.57300   0.52176    0.005
 6834.00    0.60836   0.52187    0.005
 6835.00    0.55832   0.52064    0.005
 6836.00    0.49525   0.51726    0.005
 6837.00    0.56502   0.51283    0.005
 6838.00    0.64970   0.51104    0.006
 6839.00    0.72974   0.51338    0.006
 6840.00    0.80944   0.51675    0.006
 6841.00    0.71328   0.51779    0.006
 6842.00    0.61013   0.51717    0.005
 6843.00    0.50843   0.51779    0.005
 6844.00    0.41234   0.51961    0.005
 6845.00    0.53883   0.51985    0.005
 6846.00    0.65515   0.51757    0.005
 6847.00    0.59986   0.51385    0.005
 6848.00    0.54841   0.50909    0.005
 6849.00    0.53708   0.50360    0.005
 6850.00    0.52687   0.49891    0.005
 6851.00    0.52501   0.49749    0.005
 6852.00    0.52612   0.50090    0.005
 6853.00    0.54411   0.50748    0.005
 6854.00    0.56706   0.51327    0.005
 6855.00    0.61240   0.51584    0.005
 6856.00    0.63405   0.51640    0.005
 6857.00    0.56800   0.51668    0.005
 6858.00    0.51752   0.51635    0.005
 6859.00    0.51527   0.51521    0.005
 6860.00    0.53046   0.51437    0.005
 6861.00    0.59150   0.51437    0.005
 6862.00    0.62855   0.51360    0.005
 6863.00    0.61137   0.50954    0.005
 6864.00    0.57177   0.50348    0.005
 6865.00    0.48829   0.50074    0.005
 6866.00    0.45738   0.50255    0.005
 6867.00    0.51616   0.50536    0.005
 6868.00    0.58842   0.50685    0.005
 6869.00    0.68081   0.50543    0.005
 6870.00    0.69985   0.50149    0.005
 6871.00    0.62254   0.50029    0.005
 6872.00    0.58057   0.50539    0.005
 6873.00    0.57951   0.51244    0.005
 6874.00    0.58137   0.51522    0.005
 6875.00    0.58622   0.51262    0.005
 6876.00    0.58705   0.50684    0.005
 6877.00    0.58427   0.50180    0.005
 6878.00    0.55405   0.50195    0.005
 6879.00    0.50206   0.50599    0.005
 6880.00    0.46943   0.50753    0.005
 6881.00    0.45033   0.50523    0.005
 6882.00    0.45161   0.50387    0.005
 6883.00    0.46537   0.50540    0.005
 6884.00    0.49450   0.50716    0.005
 6885.00    0.53185   0.50827    0.005
 6886.00    0.53621   0.51051    0.005
 6887.00    0.52527   0.51353    0.005
 6888.00    0.53941   0.51479    0.005
 6889.00    0.56358   0.51319    0.005
 6890.00    0.54696   0.50924    0.005
 6891.00    0.51644   0.50460    0.005
 6892.00    0.46048   0.50247    0.005
 6893.00    0.39724   0.50458    0.005
 6894.00    0.40203   0.50795    0.005
 6895.00    0.42293   0.50927    0.005
 6896.00    0.46484   0.51014    0.005
 6897.00    0.51076   0.51201    0.005
 6898.00    0.56795   0.51325    0.005
 6899.00    0.62680   0.51367    0.005
 6900.00    0.63009   0.51424    0.005
 6901.00    0.62739   0.51418    0.005
 6902.00    0.61655   0.51357    0.005
 6903.00    0.60514   0.51350    0.005
 6904.00    0.51863   0.51326    0.005
 6905.00    0.42943   0.51264    0.005
 6906.00    0.50779   0.51337    0.005
 6907.00    0.58432   0.51528    0.005
 6908.00    0.57848   0.51564    0.005
 6909.00    0.57254   0.51396    0.005
 6910.00    0.56524   0.51366    0.005
 6911.00    0.55962   0.51626    0.005
 6912.00    0.57079   0.51853    0.005
 6913.00    0.58019   0.51803    0.005
 6914.00    0.57695   0.51654    0.005
 6915.00    0.56469   0.51675    0.005
 6916.00    0.50269   0.51865    0.005
 6917.00    0.45043   0.52023    0.005
 6918.00    0.44111   0.52072    0.005
 6919.00    0.43069   0.52032    0.005
 6920.00    0.41630   0.51876    0.005
 6921.00    0.42206   0.51608    0.005
 6922.00    0.48907   0.51255    0.005
 6923.00    0.51938   0.50910    0.005
 6924.00    0.45484   0.50816    0.005
 6925.00    0.42648   0.50962    0.005
 6926.00    0.47852   0.51085    0.005
 6927.00    0.50558   0.51194    0.005
 6928.00    0.48450   0.51399    0.005
 6929.00    0.45988   0.51657    0.005
 6930.00    0.42929   0.51876    0.005
 6931.00    0.42768   0.51918    0.005
 6932.00    0.46873   0.51621    0.005
 6933.00    0.48131   0.50992    0.005
 6934.00    0.45702   0.50394    0.005
 6935.00    0.46159   0.50242    0.005
 6936.00    0.49908   0.50572    0.005
 6937.00    0.50631   0.51034    0.005
 6938.00    0.48308   0.51320    0.005
 6939.00    0.47371   0.51408    0.005
 6940.00    0.47665   0.51354    0.005
 6941.00    0.45468   0.51130    0.005
 6942.00    0.41324   0.50829    0.005
 6943.00    0.45241   0.50797    0.005
 6944.00    0.54701   0.51102    0.005
 6945.00    0.54364   0.51355    0.005
 6946.00    0.48120   0.51352    0.005
 6947.00    0.47934   0.51291    0.005
 6948.00    0.50936   0.51395    0.005
 6949.00    0.51557   0.51653    0.005
 6950.00    0.51091   0.51842    0.005
 6951.00    0.47017   0.51715    0.005
 6952.00    0.41525   0.51262    0.005
 6953.00    0.46204   0.50665    0.005
 6954.00    0.54285   0.50205    0.005
 6955.00    0.60769   0.50243    0.005
 6956.00    0.66804   0.50779    0.005
 6957.00    0.65368   0.51346    0.005
 6958.00    0.62203   0.51622    0.005
 6959.00    0.55729   0.51553    0.005
 6960.00    0.48641   0.51174    0.005
 6961.00    0.49034   0.50758    0.005
 6962.00    0.50498   0.50540    0.005
 6963.00    0.54263   0.50498    0.005
 6964.00    0.58267   0.50666    0.005
 6965.00    0.60473   0.51035    0.005
 6966.00    0.62558   0.51371    0.005
 6967.00    0.55266   0.51495    0.005
 6968.00    0.47674   0.51491    0.005
 6969.00    0.45858   0.51514    0.005
 6970.00    0.44223   0.51606    0.005
 6971.00    0.48131   0.51715    0.005
 6972.00    0.52036   0.51808    0.005
 6973.00    0.55890   0.51842    0.005
 6974.00    0.59388   0.51707    0.005
 6975.00    0.59460   0.51491    0.005
 6976.00    0.60231   0.51543    0.005
 6977.00    0.65872   0.51906    0.005
 6978.00    0.70167   0.52154    0.005
 6979.00    0.67235   0.51998    0.005
 6980.00    0.63090   0.51652    0.005
 6981.00    0.53719   0.51554    0.005
 6982.00    0.47146   0.51789    0.005
 6983.00    0.50508   0.51900    0.005
 6984.00    0.53024   0.51580    0.005
 6985.00    0.53017   0.51017    0.005
 6986.00    0.53438   0.50292    0.005
 6987.00    0.54946   0.49354    0.005
 6988.00    0.56786   0.48744    0.005
 6989.00    0.59352   0.49141    0.005
 6990.00    0.61031   0.50231    0.005
 6991.00    0.61027   0.51217    0.005
 6992.00    0.59315   0.51812    0.005
 6993.00    0.54771   0.52080    0.005
 6994.00    0.53169   0.52132    0.005
 6995.00    0.55835   0.52087    0.005
 6996.00    0.57843   0.51977    0.005
 6997.00    0.59010   0.51725    0.005
 6998.00    0.56216   0.51340    0.005
 6999.00    0.48965   0.51097    0.005
 7000.00    0.45193   0.51241    0.005
 7001.00    0.44871   0.51617    0.005
 7002.00    0.49547   0.51852    0.005
 7003.00    0.58595   0.51782    0.005
 7004.00    0.61174   0.51603    0.005
 7005.00    0.58765   0.51570    0.005
 7006.00    0.55591   0.51646    0.005
 7007.00    0.51900   0.51552    0.005
 7008.00    0.47655   0.51118    0.005
 7009.00    0.43081   0.50619    0.005
 7010.00    0.40479   0.50566    0.005
 7011.00    0.38896   0.50971    0.005
 7012.00    0.47141   0.51270    0.005
 7013.00    0.59797   0.51100    0.005
 7014.00    0.64466   0.50732    0.005
 7015.00    0.66052   0.50581    0.005
 7016.00    0.62299   0.50708    0.005
 7017.00    0.56794   0.50980    0.005
 7018.00    0.54682   0.51277    0.005
 7019.00    0.53503   0.51426    0.005
 7020.00    0.52278   0.51335    0.005
 7021.00    0.51043   0.51245    0.005
 7022.00    0.52672   0.51346    0.005
 7023.00    0.54819   0.51309    0.005
 7024.00    0.55837   0.50670    0.005
 7025.00    0.56698   0.49632    0.005
 7026.00    0.59790   0.49171    0.005
 7027.00    0.63103   0.49854    0.005
 7028.00    0.65041   0.51007    0.005
 7029.00    0.66894   0.51761    0.005
 7030.00    0.57619   0.51960    0.005
 7031.00    0.48064   0.51694    0.005
 7032.00    0.47822   0.51013    0.005
 7033.00    0.47726   0.50287    0.005
 7034.00    0.51639   0.50063    0.005
 7035.00    0.55070   0.50413    0.005
 7036.00    0.51734   0.50879    0.005
 7037.00    0.48686   0.51152    0.005
 7038.00    0.48287   0.51324    0.005
 7039.00    0.47670   0.51489    0.005
 7040.00    0.45586   0.51564    0.005
 7041.00    0.45603   0.51488    0.005
 7042.00    0.56604   0.51349    0.005
 7043.00    0.66149   0.51308    0.005
 7044.00    0.69569   0.51440    0.005
 7045.00    0.68901   0.51627    0.005
 7046.00    0.54015   0.51455    0.005
 7047.00    0.44821   0.50728    0.005
 7048.00    0.52284   0.50211    0.005
 7049.00    0.57308   0.50754    0.005
 7050.00    0.56243   0.51963   -2.000
 7051.00    0.55397   0.52867   -2.000
 7052.00    0.55024   0.53089   -2.000
 7053.00    0.55565   0.52745   -2.000
 7054.00    0.57811   0.52174   -2.000
 7055.00    0.56496   0.51907   -2.000
 7056.00    0.49373   0.52193   -2.000
 7057.00    0.47096   0.52725   -2.000
 7058.00    0.51749   0.53084   -2.000
 7059.00    0.55646   0.53072   -2.000
 7060.00    0.58590   0.52643   -2.000
 7061.00    0.65368   0.51734   -2.000
 7062.00    0.76399   0.50479   -2.000
 7063.00    0.74226   0.49368   -2.000
 7064.00    0.59139   0.48824   -2.000
 7065.00    0.59600   0.48919   -2.000
 7066.00    0.73470   0.49368   -2.000
 7067.00    0.80450   0.49631   -2.000
 7068.00    0.82195   0.49331   -2.000
 7069.00    0.77996   0.48671   -2.000
 7070.00    0.69828   0.48248   -2.000
 7071.00    0.60608   0.48330   -2.000
 7072.00    0.50774   0.48663   -2.000
 7073.00    0.53811   0.49004   -2.000
 7074.00    0.63411   0.49184   -2.000
 7075.00    0.59105   0.48967   -2.000
 7076.00    0.48660   0.48368   -2.000
 7077.00    0.48653   0.47742   -2.000
 7078.00    0.52605   0.47568   -2.000
 7079.00    0.52337   0.48109   -2.000
 7080.00    0.50712   0.48990   -2.000
 7081.00    0.61614   0.49578   -2.000
 7082.00    0.75892   0.49729   -2.000
 7083.00    0.64844   0.49695   -2.000
 7084.00    0.48204   0.49623   -2.000
 7085.00    0.47974   0.49545   -2.000
 7086.00    0.50629   0.49533   -2.000
 7087.00    0.48556   0.49632   -2.000
 7088.00    0.45851   0.49789   -2.000
 7089.00    0.45007   0.49981   -2.000
 7090.00    0.44340   0.50151   -2.000
 7091.00    0.47338   0.50013   -2.000
 7092.00    0.50550   0.49330   -2.000
 7093.00    0.56330   0.48285   -2.000
 7094.00    0.62113   0.47462   -2.000
 7095.00    0.59827   0.47298   -2.000
 7096.00    0.57286   0.47455   -2.000
 7097.00    0.48404   0.47344   -2.000
 7098.00    0.40756   0.46994   -2.000
 7099.00    0.49492   0.46707   -2.000
 7100.00    0.56659   0.46637   -2.000
 7101.00    0.49925   0.46759   -2.000
 7102.00    0.45435   0.46862   -2.000
 7103.00    0.55608   0.46869   -2.000
 7104.00    0.65280   0.46880   -2.000
 7105.00    0.72400   0.46918   -2.000
 7106.00    0.78461   0.47008   -2.000
 7107.00    0.80161   0.47211   -2.000
 7108.00    0.79633   0.47533   -2.000
 7109.00    0.71508   0.47814   -2.000
 7110.00    0.66656   0.47838   -2.000
 7111.00    0.71209   0.47599   -2.000
 7112.00    0.70421   0.47352   -2.000
 7113.00    0.56526   0.47412   -2.000
 7114.00    0.45153   0.47741   -2.000
 7115.00    0.39115   0.47920   -2.000
 7116.00    0.40290   0.47741   -2.000
 7117.00    0.54731   0.47518   -2.000
 7118.00    0.61471   0.47493   -2.000
 7119.00    0.55836   0.47415   -2.000
 7120.00    0.55882   0.47089   -2.000
 7121.00    0.63933   0.46833   -2.000
 7122.00    0.71859   0.46986   -2.000
 7123.00    0.79631   0.47385   -2.000
 7124.00    0.74881   0.47687   -2.000
 7125.00    0.56441   0.47838   -2.000
 7126.00    0.52152   0.47913   -2.000
 7127.00    0.61510   0.47890   -2.000
 7128.00    0.62434   0.47796   -2.000
 7129.00    0.56187   0.47698   -2.000
 7130.00    0.64707   0.47576   -2.000
 7131.00    0.84285   0.47395   -2.000
 7132.00    0.84633   0.47312   -2.000
 7133.00    0.72327   0.47409   -2.000
 7134.00    0.63725   0.47322   -2.000
 7135.00    0.57257   0.46839   -2.000
 7136.00    0.58056   0.46375   -2.000
 7137.00    0.62503   0.46309   -2.000
 7138.00    0.63681   0.46363   -2.000
 7139.00    0.63440   0.46075   -2.000
 7140.00    0.57483   0.45592   -2.000
 7141.00    0.49397   0.45489   -2.000
 7142.00    0.51812   0.45905   -2.000
 7143.00    0.57544   0.46487   -2.000
 7144.00    0.57839   0.46903   -2.000
 7145.00    0.56700   0.47089   -2.000
 7146.00    0.51457   0.47212   -2.000
 7147.00    0.45330   0.47244   -2.000
 7148.00    0.42942   0.46985   -2.000
 7149.00    0.41193   0.46699   -2.000
 7150.00    0.42010   0.46822   -2.000
 7151.00    0.43159   0.47163   -2.000
 7152.00    0.49811   0.47287   -2.000
 7153.00    0.56963   0.47213   -2.000
 7154.00    0.53766   0.47136   -2.000
 7155.00    0.50002   0.47061   -2.000
 7156.00    0.50362   0.46803   -2.000
 7157.00    0.50949   0.46259   -2.000
 7158.00    0.64485   0.45853   -2.000
 7159.00    0.77351   0.45997   -2.000
 7160.00    0.75001   0.46463   -2.000
 7161.00    0.73872   0.46975   -2.000
 7162.00    0.88125   0.47489   -2.000
 7163.00    0.97909   0.47766   -2.000
 7164.00    0.69568   0.47610   -2.000
 7165.00    0.45939   0.47390   -2.000
 7166.00    0.52176   0.47568   -2.000
 7167.00    0.58733   0.47850   -2.000
 7168.00    0.66875   0.47702   -2.000
 7169.00    0.72819   0.47271   -2.000
 7170.00    0.69920   0.47071   -2.000
 7171.00    0.66741   0.47238   -2.000
 7172.00    0.62630   0.47318   -2.000
 7173.00    0.55825   0.46826   -2.000
 7174.00    0.41422   0.46041   -2.000
 7175.00    0.31162   0.45802   -2.000
 7176.00    0.30895   0.46413   -2.000
 7177.00    0.32340   0.47298   -2.000
 7178.00    0.37354   0.47776   -2.000
 7179.00    0.45097   0.47764   -2.000
 7180.00    0.57783   0.47696   -2.000
 7181.00    0.64685   0.47899   -2.000
 7182.00    0.62433   0.48209   -2.000
 7183.00    0.60613   0.48283   -2.000
 7184.00    0.59396   0.48005   -2.000
 7185.00    0.61541   0.47551   -2.000
 7186.00    0.67799   0.47324   -2.000
 7187.00    0.66164   0.47550   -2.000
 7188.00    0.56022   0.47769   -2.000
 7189.00    0.56771   0.47376   -2.000
 7190.00    0.67874   0.46590   -2.000
 7191.00    0.63020   0.46274   -2.000
 7192.00    0.44787   0.46852   -2.000
 7193.00    0.42252   0.47751   -2.000
 7194.00    0.51305   0.48171   -2.000
 7195.00    0.57104   0.47904   -2.000
 7196.00    0.60794   0.47142   -2.000
 7197.00    0.69612   0.46303   -2.000
 7198.00    0.81339   0.45921   -2.000
 7199.00    0.81909   0.46159   -2.000
 7200.00    0.76968   0.46707   -2.000
 7201.00    0.71148   0.47078   -2.000
 7202.00    0.64951   0.47051   -2.000
 7203.00    0.65251   0.46964   -2.000
 7204.00    0.67929   0.47170   -2.000
 7205.00    0.59661   0.47428   -2.000
 7206.00    0.48003   0.47334   -2.000
 7207.00    0.43656   0.47078   -2.000
 7208.00    0.41197   0.47107   -2.000
 7209.00    0.43201   0.47335   -2.000
 7210.00    0.46144   0.47381   -2.000
 7211.00    0.58029   0.47211   -2.000
 7212.00    0.71398   0.47205   -2.000
 7213.00    0.60763   0.47584   -2.000
 7214.00    0.47129   0.47967   -2.000
 7215.00    0.46812   0.47734   -2.000
 7216.00    0.47649   0.46775   -2.000
 7217.00    0.39096   0.45822   -2.000
 7218.00    0.30065   0.45674   -2.000
