###################################################################
## OUTPUT of StarlightChains_v04.for    [Cid@UFSC - 01/Apr/2007] ##
###################################################################

## Some input info
KUG0210-078._38_43.txt                   [arq_obs]
Base.CB07.vall.4m                        [arq_base]
Masks.EmLines.NEW.gm                     [arq_masks]
StCv04.C11.config                        [arq_config]
   66                                    [N_base]
    0                                    [N_YAV_components = # of components with extra extinction!]
    0                                    [i_FitPowerLaw (1/0 = Yes/No)]
-9.99                                    [alpha_PowerLaw]
CCM                                      [red_law_option]
 1.458241                                [q_norm = A(l_norm)/A(V)]

## (Re)Sampling Parameters
 3741.00                                 [l_ini (A)]
 7218.00                                 [l_fin (A)]
    1.00                                 [dl    (A)]     (OBS: dl_cushion =    50.00 A)

## Normalization info
 4020.00                                 [l_norm (A) - for base]
 4010.00                                 [llow_norm (A) - window for f_obs]
 4060.00                                 [lupp_norm (A) - window for f_obs]
1.440244E-17                             [fobs_norm (in input units)]

## S/N
 3691.00                                 [llow_SN (A) - window for S/N]
 7268.00                                 [lupp_SN (A) - window for S/N]
   4.772                                 [S/N in S/N window]
   4.425                                 [S/N in norm. window]
   0.020                                 [S/N_err in S/N window]
   0.019                                 [S/N_err in norm. window]
  1.0000                                 [fscale_chi2]

## etc...
    -2007668                             [idum_orig]
  2427                                   [NOl_eff]
  2389                                   [Nl_eff]
    38    NSIGMA                         [Ntot_cliped & clip_method]
  6224820                                [Nglobal_steps]
   7                                     [N_chains]
   7                                     [NEX0s_base = N_base in EX0s-fits]
 0   0   1       38   2.0   3.743E+03    [Clip-Bug, RC-Crash & Burn-In warning-flags, n_censored_weights, wei_nsig_threshold & wei_limit]
    47     47.355     46.929      0.425  [idt_all, wdt_TotTime, wdt_UsrTime & wdt_SysTime (sec)]

## Synthesis Results - Best model ##

 9.73407E-06                             [chi2/Nl_eff]
    31.49689                             [adev (%)]

   110.75024                             [sum-of-x (%)]
 4.35217E-18                             [Flux_tot (units of input spectrum!)]
 5.04337E-13                             [Mini_tot (???)]
 2.54512E-13                             [Mcor_tot (???)]

  10.75                                  [v0_min  (km/s)]
 311.75                                  [vd_min  (km/s)]
-0.9670                                  [AV_min  (mag)]
 0.0000                                  [YAV_min (mag)]

# j     x_j(%)      Mini_j(%)     Mcor_j(%)     age_j(yr)     Z_j      (L/M)_j    YAV?  Mstars   component_j        a/Fe...       SSP_chi2r SSP_adev(%)   SSP_AV   SSP_x(%)
  1      0.0000     0.0000E+00    0.0000E+00    1.000000E+06  0.00400  1.094E-02    0   1.0000   age020_m42            0.0000     2.2456E-05    44.8571   3.4043    89.3973
  2      0.0000     0.0000E+00    0.0000E+00    3.160000E+06  0.00400  4.007E-02    0   0.9999   age045_m42            0.0000     1.8783E-05    41.5814   2.6570    96.4400
  3      0.0000     0.0000E+00    0.0000E+00    5.010000E+06  0.00400  2.539E-02    0   0.9488   age055_m42            0.0000     2.0429E-05    43.5552   2.9882    93.6559
  4      0.0000     0.0000E+00    0.0000E+00    6.610000E+06  0.00400  2.620E-02    0   0.9220   age061_m42            0.0000     1.8730E-05    41.9339   2.5839    96.6786
  5      0.0000     0.0000E+00    0.0000E+00    1.000000E+07  0.00400  1.322E-02    0   0.8862   age070_m42            0.0000     2.0399E-05    44.2299   2.3304    97.9165
  6      0.0000     0.0000E+00    0.0000E+00    1.445000E+07  0.00400  7.883E-03    0   0.8571   age078_m42            0.0000     2.1211E-05    44.9566   2.6593    95.2918
  7      0.0000     0.0000E+00    0.0000E+00    2.512000E+07  0.00400  5.251E-03    0   0.8174   age090_m42            0.0000     2.0513E-05    44.4052   2.2048    98.3789
  8      0.0000     0.0000E+00    0.0000E+00    4.000000E+07  0.00400  3.649E-03    0   0.7851   age104_m42            0.0000     1.9610E-05    43.5357   1.9705    99.4805
  9      0.0000     0.0000E+00    0.0000E+00    5.500000E+07  0.00400  3.098E-03    0   0.7629   age110_m42            0.0000     1.8312E-05    41.6059   2.1071   100.0270
 10      0.0000     0.0000E+00    0.0000E+00    1.015200E+08  0.00400  2.228E-03    0   0.7207   age116_m42            0.0000     1.7473E-05    40.2739   2.1153   100.6171
 11      0.0000     0.0000E+00    0.0000E+00    2.861200E+08  0.00400  1.093E-03    0   0.6648   age125_m42            0.0000     1.7079E-05    40.2260   1.5470   103.6409
 12      0.0000     0.0000E+00    0.0000E+00    5.088000E+08  0.00400  6.597E-04    0   0.6365   age130_m42            0.0000     1.5611E-05    37.9668   1.5182   105.1786
 13      0.0000     0.0000E+00    0.0000E+00    1.434000E+09  0.00400  2.132E-04    0   0.5798   age139_m42            0.0000     1.3353E-05    36.7722   0.5403   107.6346
 14      0.0000     0.0000E+00    0.0000E+00    4.250000E+09  0.00400  5.895E-05    0   0.5377   age158_m42            0.0000     1.2767E-05    37.6634   0.0880   103.7716
 15      0.0000     0.0000E+00    0.0000E+00    7.500000E+09  0.00400  3.510E-05    0   0.5212   age171_m42            0.0000     1.2305E-05    37.0046  -0.1080   103.3234
 16      0.0000     0.0000E+00    0.0000E+00    1.300000E+10  0.00400  2.005E-05    0   0.5034   age193_m42            0.0000     1.2010E-05    36.6515  -0.2813   102.9989
 17      0.0000     0.0000E+00    0.0000E+00    1.800000E+10  0.00400  1.525E-05    0   0.4967   age213_m42            0.0000     1.2211E-05    36.9961  -0.3018   102.4571
 18      0.0000     0.0000E+00    0.0000E+00    1.000000E+06  0.00800  1.238E-02    0   1.0000   age020_m52            0.0000     2.2461E-05    44.9388   3.4007    89.5744
 19      0.0000     0.0000E+00    0.0000E+00    3.160000E+06  0.00800  3.074E-02    0   0.9966   age045_m52            0.0000     2.2154E-05    44.9094   3.3230    90.4316
 20      0.0000     0.0000E+00    0.0000E+00    5.010000E+06  0.00800  2.668E-02    0   0.9443   age055_m52            0.0000     2.0945E-05    44.2469   3.0747    92.6825
 21      0.0000     0.0000E+00    0.0000E+00    6.610000E+06  0.00800  2.136E-02    0   0.9177   age061_m52            0.0000     1.9779E-05    44.5987   1.8321    99.0038
 22      0.0000     0.0000E+00    0.0000E+00    1.000000E+07  0.00800  1.215E-02    0   0.8827   age070_m52            0.0000     2.1514E-05    45.4790   2.5182    97.3833
 23      0.0000     0.0000E+00    0.0000E+00    1.445000E+07  0.00800  8.717E-03    0   0.8552   age078_m52            0.0000     2.0887E-05    44.7579   2.6237    96.6868
 24      0.0000     0.0000E+00    0.0000E+00    2.512000E+07  0.00800  5.592E-03    0   0.8162   age090_m52            0.0000     2.0362E-05    44.3359   2.2669    99.6102
 25      0.0000     0.0000E+00    0.0000E+00    4.000000E+07  0.00800  3.896E-03    0   0.7841   age104_m52            0.0000     1.9210E-05    43.0477   2.1692   100.7385
 26      0.0000     0.0000E+00    0.0000E+00    1.015200E+08  0.00800  2.148E-03    0   0.7226   age116_m52            0.0000     1.7726E-05    41.2780   2.0902   101.1842
 27      0.0000     0.0000E+00    0.0000E+00    2.861200E+08  0.00800  9.925E-04    0   0.6683   age125_m52            0.0000     1.5483E-05    37.8429   1.5831   106.1771
 28      0.0000     0.0000E+00    0.0000E+00    9.047900E+08  0.00800  3.141E-04    0   0.6138   age135_m52            0.0000     1.2197E-05    34.8498   0.7582   111.6144
 29     28.2325     1.2797E+00    1.4842E+00    1.434000E+09  0.00800  1.719E-04    0   0.5853   age139_m52            0.0000     1.2220E-05    36.2920   0.1819   109.1248
 30      0.0000     0.0000E+00    0.0000E+00    2.500000E+09  0.00800  7.872E-05    0   0.5600   age150_m52            0.0000     1.1426E-05    35.6073  -0.1009   106.7053
 31      0.0000     0.0000E+00    0.0000E+00    4.250000E+09  0.00800  4.336E-05    0   0.5426   age158_m52            0.0000     1.1546E-05    35.8870  -0.1163   105.6919
 32      0.0000     0.0000E+00    0.0000E+00    6.250000E+09  0.00800  3.159E-05    0   0.5319   age166_m52            0.0000     1.0903E-05    34.7125  -0.3339   106.2186
 33      0.0000     0.0000E+00    0.0000E+00    1.300000E+10  0.00800  1.361E-05    0   0.5073   age193_m52            0.0000     1.0310E-05    33.6171  -0.8213   106.1992
 34      0.0000     0.0000E+00    0.0000E+00    1.800000E+10  0.00800  9.886E-06    0   0.4990   age213_m52            0.0000     9.9999E-06    32.5929  -0.9481   106.3081
 35      0.0000     0.0000E+00    0.0000E+00    1.000000E+06  0.02000  1.544E-02    0   1.0000   age020_m62            0.0000     2.2582E-05    45.1069   3.3984    89.7312
 36      0.0000     0.0000E+00    0.0000E+00    3.160000E+06  0.02000  3.762E-02    0   0.9858   age045_m62            0.0000     2.2491E-05    45.2644   3.3349    90.5990
 37      0.0000     0.0000E+00    0.0000E+00    5.010000E+06  0.02000  3.296E-02    0   0.9342   age055_m62            0.0000     1.9596E-05    42.8632   2.9394    95.1401
 38      0.0000     0.0000E+00    0.0000E+00    8.710000E+06  0.02000  1.154E-02    0   0.8861   age067_m62            0.0000     2.7802E-05    51.4899   2.0162    98.5666
 39      0.0000     0.0000E+00    0.0000E+00    1.445000E+07  0.02000  7.663E-03    0   0.8472   age078_m62            0.0000     2.2659E-05    47.0316   2.1760    99.2266
 40      0.0000     0.0000E+00    0.0000E+00    2.512000E+07  0.02000  4.532E-03    0   0.8099   age090_m62            0.0000     2.2805E-05    47.1712   2.1678    98.9827
 41      0.0000     0.0000E+00    0.0000E+00    5.500000E+07  0.02000  2.733E-03    0   0.7595   age110_m62            0.0000     1.9456E-05    43.6791   2.1523    99.9820
 42      0.0000     0.0000E+00    0.0000E+00    1.609000E+08  0.02000  1.369E-03    0   0.6985   age120_m62            0.0000     1.6937E-05    39.8477   1.9623   103.8284
 43      0.0000     0.0000E+00    0.0000E+00    2.861200E+08  0.02000  9.013E-04    0   0.6714   age125_m62            0.0000     1.5396E-05    36.9801   1.6946   107.5408
 44      0.0000     0.0000E+00    0.0000E+00    5.088000E+08  0.02000  5.028E-04    0   0.6449   age130_m62            0.0000     1.2992E-05    33.6468   1.2898   111.4002
 45      0.0000     0.0000E+00    0.0000E+00    9.047900E+08  0.02000  2.428E-04    0   0.6179   age135_m62            0.0000     1.1535E-05    34.3135   0.6945   111.0436
 46      0.0000     0.0000E+00    0.0000E+00    1.434000E+09  0.02000  1.263E-04    0   0.5908   age139_m62            0.0000     1.1382E-05    35.0302   0.2492   109.4219
 47      0.0000     0.0000E+00    0.0000E+00    2.500000E+09  0.02000  5.985E-05    0   0.5673   age150_m62            0.0000     1.0877E-05    34.5917  -0.1323   108.4300
 48      0.0000     0.0000E+00    0.0000E+00    4.250000E+09  0.02000  3.271E-05    0   0.5468   age158_m62            0.0000     1.0225E-05    33.4480  -0.4602   108.2984
 49      0.0000     0.0000E+00    0.0000E+00    1.000000E+10  0.02000  1.360E-05    0   0.5167   age181_m62            0.0000     9.8074E-06    31.7275  -0.8378   108.8831
 50      0.0000     0.0000E+00    0.0000E+00    1.800000E+10  0.02000  7.124E-06    0   0.5013   age213_m62            0.0000     9.9961E-06    29.8831  -1.0000   106.5372
 51      0.0000     0.0000E+00    0.0000E+00    1.000000E+06  0.05000  2.592E-02    0   0.9998   age020_m72            0.0000     2.3032E-05    45.5684   3.3925    89.6693
 52      0.0000     0.0000E+00    0.0000E+00    3.160000E+06  0.05000  4.845E-02    0   0.9577   age045_m72            0.0000     2.1291E-05    44.4538   3.2077    92.1770
 53      0.0000     0.0000E+00    0.0000E+00    5.010000E+06  0.05000  3.072E-02    0   0.9147   age055_m72            0.0000     2.2496E-05    46.5867   2.7480    95.6521
 54      0.0000     0.0000E+00    0.0000E+00    6.610000E+06  0.05000  1.455E-02    0   0.8877   age061_m72            0.0000     3.2346E-05    54.4013   2.0591    99.0532
 55      0.0000     0.0000E+00    0.0000E+00    1.000000E+07  0.05000  9.074E-03    0   0.8524   age070_m72            0.0000     2.3160E-05    46.7005   2.9156    95.5578
 56      0.0000     0.0000E+00    0.0000E+00    2.512000E+07  0.05000  4.250E-03    0   0.7902   age090_m72            0.0000     2.1378E-05    45.2984   2.6164    97.6861
 57      0.0000     0.0000E+00    0.0000E+00    4.000000E+07  0.05000  3.087E-03    0   0.7618   age104_m72            0.0000     2.1086E-05    44.9797   2.3889    99.4013
 58      0.0000     0.0000E+00    0.0000E+00    1.015200E+08  0.05000  1.700E-03    0   0.7096   age116_m72            0.0000     1.7965E-05    41.0036   2.1130   103.0742
 59      0.0000     0.0000E+00    0.0000E+00    2.861200E+08  0.05000  7.384E-04    0   0.6633   age125_m72            0.0000     1.4042E-05    34.9813   1.5490   109.5409
 60      0.0000     0.0000E+00    0.0000E+00    5.088000E+08  0.05000  3.819E-04    0   0.6372   age130_m72            0.0000     1.1970E-05    33.6814   1.0369   112.0643
 61      0.0000     0.0000E+00    0.0000E+00    9.047900E+08  0.05000  1.676E-04    0   0.6110   age135_m72            0.0000     1.0785E-05    34.0547   0.3222   110.7019
 62      0.0000     0.0000E+00    0.0000E+00    1.434000E+09  0.05000  8.837E-05    0   0.5874   age139_m72            0.0000     1.0651E-05    34.2148  -0.1408   110.3364
 63      0.0000     0.0000E+00    0.0000E+00    2.500000E+09  0.05000  4.233E-05    0   0.5598   age150_m72            0.0000     1.0046E-05    33.0326  -0.4719   109.6441
 64      0.0000     0.0000E+00    0.0000E+00    6.250000E+09  0.05000  1.435E-05    0   0.5249   age166_m72            0.0000     9.8573E-06    31.4830  -0.9443   108.7636
 65     82.5177     9.8720E+01    9.8516E+01    1.300000E+10  0.05000  6.513E-06    0   0.5036   age193_m72            0.0000     1.1360E-05    28.5442  -1.0000   102.4909
 66      0.0000     0.0000E+00    0.0000E+00    1.800000E+10  0.05000  4.527E-06    0   0.4945   age213_m72            0.0000     1.3878E-05    27.6466  -1.0000    96.9506


## Synthesis Results - Average & Chains ##

# j      x_j: min, <> & last-chain-values for 1 ...  7 chains
  1      0.0000      0.2360      0.0002      0.0751      0.0000      0.0992      0.0630      0.0000      0.0477
  2      0.0000      0.2435      0.0000      0.4442      0.3206      0.2758      0.1700      0.0885      0.2681
  3      0.0000      0.2230      0.0000      0.0000      0.1003      0.0000      0.0996      0.0009      0.2251
  4      0.0000      0.2371      0.0000      0.0000      0.0000      0.0199      0.0196      0.0000      0.2058
  5      0.0000      0.2336      0.0001      0.0022      0.0454      0.1145      0.0384      0.0000      0.0000
  6      0.0000      0.2232      0.0000      0.0064      0.0500      0.0665      0.0491      0.0004      0.0656
  7      0.0000      0.2230      0.0000      0.2696      0.0535      0.0263      0.0662      0.0010      0.0870
  8      0.0000      0.1817      0.0015      0.0287      0.0363      0.0605      0.0377      0.0024      0.1630
  9      0.0000      0.2767      0.0002      0.0410      0.0691      0.0000      0.2193      0.0000      0.3266
 10      0.0000      0.2815      0.0000      0.0534      0.0116      0.0257      0.0000      0.0001      1.0053
 11      0.0000      0.2461      0.0000      0.0000      0.0667      0.0470      0.0289      0.0000      0.0000
 12      0.0000      0.1918      0.0000      0.0339      0.0000      0.0423      0.0503      0.0000      0.0694
 13      0.0000      0.1785      0.0025      0.0549      0.1601      0.0726      0.0578      0.0000      0.4884
 14      0.0000      1.4400      0.1292      2.3319      2.3235      2.0174      1.9587      0.0487      1.1710
 15      0.0000      0.2679      0.0017      0.0519      0.0000      0.0530      0.1393      0.0004      0.0000
 16      0.0000      0.1783      0.0000      0.0458      0.0000      0.0530      0.0195      0.0000      0.1806
 17      0.0000      0.1959      0.0008      0.0000      0.0000      0.1506      0.0597      0.0010      0.1531
 18      0.0000      0.2269      0.0014      0.0116      0.0079      0.0583      0.0898      0.0011      0.0887
 19      0.0000      0.2227      0.0000      0.0000      0.1294      0.0000      0.0000      0.0000      0.7339
 20      0.0000      0.2094      0.0000      0.0978      0.0254      0.0088      0.0187      0.0000      0.3226
 21      0.0000      0.1899      0.0001      0.0156      0.0507      0.0393      0.0651      0.0000      0.7980
 22      0.0000      0.2151      0.0000      0.0199      0.0707      0.0042      0.0000      0.0000      0.2097
 23      0.0000      0.2020      0.0000      0.0000      0.0126      0.1004      0.0293      0.0000      0.0000
 24      0.0000      0.2273      0.0000      0.1406      0.1841      0.1123      0.1237      0.0001      0.0000
 25      0.0000      0.1751      0.0002      0.0427      0.0000      0.0399      0.0000      0.0002      0.0000
 26      0.0000      0.1785      0.0005      0.0987      0.0387      0.0162      0.0000      0.0002      0.0840
 27      0.0000      0.1948      0.0000      0.0294      0.0125      0.0561      0.1214      0.0000      0.9614
 28      0.0000      0.3147      0.0000      0.0256      0.0000      0.0790      0.0574      0.0000      0.3212
 29     28.2325    100.0908    114.6643    108.1921    108.6566    108.2758    108.4929    114.7689    102.2761
 30      0.0000      0.2220      0.0002      0.0582      0.0070      0.0614      0.0000      0.0019      0.6940
 31      0.0000      0.2362      0.0040      0.0455      0.0074      0.0767      0.1132      0.0093      0.0000
 32      0.0000      0.1735      0.0024      0.0689      0.0000      0.0327      0.0482      0.0003      0.1970
 33      0.0000      0.1838      0.0004      0.0202      0.0146      0.0310      0.0641      0.0009      0.0000
 34      0.0000      0.1947      0.0022      0.0000      0.0477      0.0616      0.0957      0.0030      0.1412
 35      0.0000      0.2770      0.0000      0.0174      0.0000      0.0614      0.0000      0.0006      0.2177
 36      0.0000      0.2016      0.0000      0.0000      0.0164      0.0639      0.0212      0.0000      0.0000
 37      0.0000      0.1682      0.0000      0.0000      0.0000      0.0643      0.0218      0.0000      0.0000
 38      0.0000      0.2167      0.0029      0.0415      0.0000      0.0000      0.0530      0.0006      0.2322
 39      0.0000      0.5621      0.0000      0.5897      0.3948      0.4835      0.4978      0.2052      0.2686
 40      0.0000      0.2459      0.0000      0.0706      0.0603      0.0552      0.0642      0.0000      0.1730
 41      0.0000      0.1778      0.0008      0.0000      0.0268      0.0000      0.0405      0.0000      0.0000
 42      0.0000      0.2350      0.0000      0.0614      0.1214      0.0000      0.0167      0.0006      0.6788
 43      0.0000      0.2484      0.0000      0.0045      0.0629      0.0485      0.0129      0.0000      0.0000
 44      0.0000      0.1743      0.0000      0.0059      0.0000      0.0541      0.0000      0.0000      0.2509
 45      0.0000      0.2046      0.0000      0.0000      0.0138      0.0094      0.0164      0.0000      0.3035
 46      0.0000      0.2058      0.0006      0.0013      0.0367      0.1443      0.0501      0.0086      0.4351
 47      0.0000      0.2715      0.0083      0.0864      0.0479      0.0592      0.0620      0.0016      0.2389
 48      0.0000      0.2584      0.0092      0.0460      0.1589      0.0728      0.0216      0.0158      0.2679
 49      0.0000      0.1478      0.0507      0.0793      0.0025      0.0167      0.0336      0.0075      0.0000
 50      0.0000      0.1980      0.0037      0.0599      0.0318      0.0487      0.0638      0.0032      0.2985
 51      0.0000      0.1858      0.0009      0.0000      0.0000      0.0000      0.0029      0.0000      0.1589
 52      0.0000      0.2611      0.0000      0.1257      0.0975      0.1617      0.0000      0.0000      0.2564
 53      0.0000      0.2237      0.0000      0.0297      0.0411      0.0046      0.0247      0.0020      0.0643
 54      0.0000     13.3119     13.3614     14.1606     14.2751     14.0669     14.2854     13.0138     11.4534
 55      0.0000      0.2091      0.0000      0.0331      0.0000      0.0409      0.0000      0.0000      0.2482
 56      0.0000      0.2271      0.0000      0.0320      0.0274      0.0845      0.0000      0.0001      0.2337
 57      0.0000      0.7025      0.4346      0.7392      0.7903      0.7362      0.7956      0.8201      0.6249
 58      0.0000      0.2404      0.0003      0.1343      0.0232      0.0425      0.0449      0.0000      0.0000
 59      0.0000      0.1805      0.0000      0.0445      0.0000      0.1531      0.2121      0.0000      0.1112
 60      0.0000      0.1910      0.0000      0.0164      0.1394      0.0392      0.0201      0.0009      0.1586
 61      0.0000      0.2679      0.0056      0.1030      0.0000      0.1198      0.0473      0.0008      0.3094
 62      0.0000      0.2224      0.0092      0.0000      0.0269      0.0471      0.0340      0.0046      0.3032
 63      0.0000      0.1944      0.0123      0.1070      0.0777      0.0519      0.0594      0.0061      0.0000
 64      0.0000      0.2361      0.0522      0.1751      0.0623      0.1284      0.1421      0.0482      0.5822
 65     82.5177      0.5280      0.7890      0.5414      0.4767      0.5690      0.4865      0.6235      0.3855
 66      0.0000      0.3768      0.4467      0.3697      0.3405      0.3941      0.4609      0.3071      0.2450

# j      m_j: min, <> & last-chain-values for 1 ...  7 chains
  1  0.0000E+00  4.1407E-03  3.5144E-06  1.3850E-03  0.0000E+00  1.8053E-03  1.1414E-03  0.0000E+00  8.7108E-04
  2  0.0000E+00  1.1663E-03  0.0000E+00  2.2373E-03  1.6682E-03  1.3710E-03  8.4103E-04  4.6271E-04  1.3361E-03
  3  0.0000E+00  1.5995E-03  0.0000E+00  0.0000E+00  7.8183E-04  0.0000E+00  7.3739E-04  7.1530E-06  1.6801E-03
  4  0.0000E+00  1.6018E-03  0.0000E+00  0.0000E+00  0.0000E+00  1.3921E-04  1.3699E-04  0.0000E+00  1.4461E-03
  5  0.0000E+00  3.0054E-03  8.6379E-07  3.0014E-05  6.3399E-04  1.5293E-03  5.1029E-04  0.0000E+00  0.0000E+00
  6  0.0000E+00  4.6576E-03  0.0000E+00  1.3990E-04  1.1341E-03  1.4412E-03  1.0588E-03  8.4438E-06  1.4242E-03
  7  0.0000E+00  6.6648E-03  0.0000E+00  8.4716E-03  1.7369E-03  8.1630E-04  2.0426E-03  3.1158E-05  2.7057E-03
  8  0.0000E+00  7.5035E-03  6.4836E-05  1.2463E-03  1.6275E-03  2.5948E-03  1.6091E-03  1.0725E-04  7.0046E-03
  9  0.0000E+00  1.3079E-02  8.6451E-06  2.0385E-03  3.5509E-03  0.0000E+00  1.0702E-02  0.0000E+00  1.6064E-02
 10  0.0000E+00  1.7478E-02  0.0000E+00  3.4840E-03  7.7915E-04  1.6586E-03  0.0000E+00  8.1019E-06  6.4941E-02
 11  0.0000E+00  2.8732E-02  0.0000E+00  0.0000E+00  8.4621E-03  5.6892E-03  3.4866E-03  7.4919E-07  0.0000E+00
 12  0.0000E+00  3.5518E-02  0.0000E+00  6.5955E-03  0.0000E+00  8.1265E-03  9.6113E-03  0.0000E+00  1.3371E-02
 13  0.0000E+00  9.3205E-02  1.3182E-03  3.0138E-02  9.0792E-02  3.9323E-02  3.1169E-02  0.0000E+00  2.6525E-01
 14  0.0000E+00  2.5213E+00  2.3229E-01  4.2930E+00  4.4197E+00  3.6653E+00  3.5412E+00  9.3035E-02  2.1331E+00
 15  0.0000E+00  7.6359E-01  5.0985E-03  1.5546E-01  1.1910E-04  1.5663E-01  4.0997E-01  1.1562E-03  0.0000E+00
 16  0.0000E+00  8.5954E-01  0.0000E+00  2.3204E-01  0.0000E+00  2.6490E-01  9.7191E-02  0.0000E+00  9.0568E-01
 17  0.0000E+00  1.2248E+00  5.1397E-03  0.0000E+00  0.0000E+00  9.7702E-01  3.8516E-01  7.1101E-03  9.9594E-01
 18  0.0000E+00  3.5186E-03  2.1525E-05  1.8841E-04  1.3307E-04  9.3842E-04  1.4379E-03  1.8770E-05  1.4313E-03
 19  0.0000E+00  1.3857E-03  0.0000E+00  0.0000E+00  8.7485E-04  0.0000E+00  0.0000E+00  0.0000E+00  4.7515E-03
 20  0.0000E+00  1.4230E-03  0.0000E+00  6.9861E-04  1.8755E-04  6.2390E-05  1.3148E-04  0.0000E+00  2.2805E-03
 21  0.0000E+00  1.5661E-03  1.0144E-06  1.3499E-04  4.5443E-04  3.3645E-04  5.5410E-04  0.0000E+00  6.8468E-03
 22  0.0000E+00  2.9995E-03  0.0000E+00  2.9144E-04  1.0706E-03  6.0735E-05  0.0000E+00  0.0000E+00  3.0431E-03
 23  0.0000E+00  3.8033E-03  0.0000E+00  0.0000E+00  2.5714E-04  1.9613E-03  5.6967E-04  0.0000E+00  0.0000E+00
 24  0.0000E+00  6.3693E-03  0.0000E+00  4.1434E-03  5.6049E-03  3.2654E-03  3.5786E-03  3.3094E-06  0.0000E+00
 25  0.0000E+00  6.7650E-03  6.8599E-06  1.7365E-03  0.0000E+00  1.5992E-03  0.0000E+00  7.3713E-06  0.0000E+00
 26  0.0000E+00  1.1528E-02  3.0003E-05  6.6991E-03  2.7180E-03  1.0850E-03  0.0000E+00  1.1845E-05  5.6436E-03
 27  0.0000E+00  2.5173E-02  0.0000E+00  4.0019E-03  1.7496E-03  7.5245E-03  1.6198E-02  0.0000E+00  1.2928E-01
 28  0.0000E+00  1.1804E-01  0.0000E+00  1.0116E-02  0.0000E+00  3.0753E-02  2.2249E-02  0.0000E+00  1.2534E-01
 29  1.4842E+00  6.5420E+01  7.6980E+01  7.4352E+01  7.7152E+01  7.3433E+01  7.3220E+01  8.1913E+01  6.9547E+01
 30  0.0000E+00  3.0319E-01  3.1133E-04  8.3497E-02  1.0368E-02  8.7056E-02  0.0000E+00  2.8603E-03  9.8592E-01
 31  0.0000E+00  5.6735E-01  9.7550E-03  1.1488E-01  1.9298E-02  1.9128E-01  2.8080E-01  2.4493E-02  0.0000E+00
 32  0.0000E+00  5.6088E-01  7.9257E-03  2.3418E-01  0.0000E+00  1.0955E-01  1.6082E-01  9.5708E-04  6.6237E-01
 33  0.0000E+00  1.3148E+00  2.8270E-03  1.5214E-01  1.1321E-01  2.3007E-01  4.7392E-01  6.7758E-03  0.0000E+00
 34  0.0000E+00  1.8868E+00  2.2079E-02  0.0000E+00  5.0213E-01  6.1967E-01  9.5739E-01  3.1337E-02  1.4233E+00
 35  0.0000E+00  3.4443E-03  0.0000E+00  2.2771E-04  0.0000E+00  7.9183E-04  0.0000E+00  8.4151E-06  2.8152E-03
 36  0.0000E+00  1.0140E-03  0.0000E+00  0.0000E+00  8.9693E-05  3.3359E-04  1.1025E-04  0.0000E+00  0.0000E+00
 37  0.0000E+00  9.1487E-04  0.0000E+00  0.0000E+00  0.0000E+00  3.6289E-04  1.2269E-04  0.0000E+00  0.0000E+00
 38  0.0000E+00  3.1940E-03  4.3341E-05  6.4374E-04  0.0000E+00  0.0000E+00  8.0732E-04  9.7204E-06  3.5604E-03
 39  0.0000E+00  1.1929E-02  0.0000E+00  1.3160E-02  9.1025E-03  1.0646E-02  1.0909E-02  4.7543E-03  5.9297E-03
 40  0.0000E+00  8.4366E-03  0.0000E+00  2.5447E-03  2.2474E-03  1.9646E-03  2.2728E-03  0.0000E+00  6.1744E-03
 41  0.0000E+00  9.4865E-03  4.5297E-05  0.0000E+00  1.5518E-03  0.0000E+00  2.2327E-03  0.0000E+00  0.0000E+00
 42  0.0000E+00  2.3012E-02  0.0000E+00  6.3272E-03  1.2914E-02  0.0000E+00  1.6858E-03  6.1094E-05  6.9164E-02
 43  0.0000E+00  3.5522E-02  0.0000E+00  6.7563E-04  9.7641E-03  7.2012E-03  1.9111E-03  0.0000E+00  0.0000E+00
 44  0.0000E+00  4.2903E-02  0.0000E+00  1.5399E-03  0.0000E+00  1.3834E-02  0.0000E+00  1.8682E-06  6.4270E-02
 45  0.0000E+00  9.9947E-02  0.0000E+00  0.0000E+00  7.3180E-03  4.7865E-03  8.2533E-03  0.0000E+00  1.5426E-01
 46  0.0000E+00  1.8480E-01  5.0937E-04  1.2435E-03  3.5837E-02  1.3442E-01  4.6431E-02  8.4320E-03  4.0649E-01
 47  0.0000E+00  4.9400E-01  1.5439E-02  1.6526E-01  9.4692E-02  1.1179E-01  1.1643E-01  3.2604E-03  4.5230E-01
 48  0.0000E+00  8.2910E-01  3.0221E-02  1.5510E-01  5.5392E-01  2.4233E-01  7.1715E-02  5.5353E-02  8.9453E-01
 49  0.0000E+00  1.0779E+00  3.7997E-01  6.0812E-01  2.0201E-02  1.2601E-01  2.5293E-01  6.0037E-02  0.0000E+00
 50  0.0000E+00  2.6749E+00  5.1425E-02  8.5082E-01  4.6679E-01  6.8299E-01  8.8951E-01  4.6839E-02  4.1953E+00
 51  0.0000E+00  1.3754E-03  6.9211E-06  0.0000E+00  0.0000E+00  0.0000E+00  2.2483E-05  0.0000E+00  1.2243E-03
 52  0.0000E+00  9.9087E-04  0.0000E+00  5.0160E-04  4.0186E-04  6.3649E-04  0.0000E+00  0.0000E+00  1.0123E-03
 53  0.0000E+00  1.2786E-03  0.0000E+00  1.7874E-04  2.5545E-04  2.7362E-05  1.4603E-04  1.2600E-05  3.8219E-04
 54  0.0000E+00  1.5590E-01  1.6073E-01  1.7437E-01  1.8162E-01  1.7095E-01  1.7275E-01  1.6643E-01  1.3955E-01
 55  0.0000E+00  3.7707E-03  3.4842E-07  6.2754E-04  0.0000E+00  7.6553E-04  0.0000E+00  5.0947E-07  4.6556E-03
 56  0.0000E+00  8.1048E-03  0.0000E+00  1.2005E-03  1.0638E-03  3.1285E-03  0.0000E+00  3.7880E-06  8.6778E-03
 57  0.0000E+00  3.3276E-02  2.1145E-02  3.6821E-02  4.0670E-02  3.6187E-02  3.8914E-02  4.2420E-02  3.0795E-02
 58  0.0000E+00  1.9263E-02  2.3959E-05  1.1314E-02  2.0205E-03  3.5327E-03  3.7134E-03  0.0000E+00  0.0000E+00
 59  0.0000E+00  3.1126E-02  0.0000E+00  8.0677E-03  0.0000E+00  2.7388E-02  3.7773E-02  0.0000E+00  1.9955E-02
 60  0.0000E+00  6.1183E-02  0.0000E+00  5.5360E-03  4.8515E-02  1.3032E-02  6.6446E-03  3.0046E-04  5.2840E-02
 61  0.0000E+00  1.8747E-01  4.0434E-03  7.5783E-02  0.0000E+00  8.6990E-02  3.4179E-02  6.3773E-04  2.2525E-01
 62  0.0000E+00  2.8374E-01  1.2061E-02  0.0000E+00  3.7322E-02  6.2339E-02  4.4759E-02  6.4275E-03  4.0243E-01
 63  0.0000E+00  4.9343E-01  3.2085E-02  2.8548E-01  2.1436E-01  1.3664E-01  1.5565E-01  1.6830E-02  0.0000E+00
 64  0.0000E+00  1.6576E+00  3.7639E-01  1.2925E+00  4.7534E-01  9.3585E-01  1.0302E+00  3.6921E-01  4.2533E+00
 65  9.8516E+01  7.8363E+00  1.2029E+01  8.4487E+00  7.6869E+00  8.7639E+00  7.4556E+00  1.0106E+01  5.9522E+00
 66  0.0000E+00  7.9019E+00  9.6201E+00  8.1519E+00  7.7559E+00  8.5746E+00  9.9800E+00  7.0314E+00  5.3454E+00

# AV, chi2 & Mass for <> & i_chain = 1 ...  7 solutions
AV      -0.9670     -0.0814     -0.1132     -0.0770     -0.0732     -0.0801     -0.0806     -0.1047     -0.0439
chi2 9.7341E-06  2.1627E-05  2.0348E-05  2.0922E-05  2.0838E-05  2.0895E-05  2.0880E-05  2.0405E-05  2.0907E-05
Mass 2.5451E-13  6.7256E-14  6.2740E-14  6.4343E-14  6.2592E-14  6.4935E-14  6.5204E-14  5.9699E-14  6.7989E-14
  10.75                                  [v0_min (km/s) before EX0s...]
 311.75                                  [vd_min (km/s) before EX0s...]


## Synthetic spectrum (Best Model) ##l_obs f_obs f_syn wei
 3478    [Nl_obs]
 3741.00    0.39866   0.44166    0.000
 3742.00    0.56069   0.44108    0.000
 3743.00    0.61707   0.43504    0.000
 3744.00    0.56698   0.42769    0.000
 3745.00    0.45486   0.41737    0.034
 3746.00    0.44185   0.40783    0.034
 3747.00    0.47916   0.40493    0.033
 3748.00    0.43260   0.40762    0.034
 3749.00    0.34915   0.41629    0.035
 3750.00    0.42052   0.43165    0.034
 3751.00    0.55033   0.45196    0.034
 3752.00    0.66600   0.47421    0.033
 3753.00    0.77715   0.49478    0.033
 3754.00    0.75719   0.51066    0.033
 3755.00    0.70209   0.52113    0.032
 3756.00    0.71466   0.52720    0.032
 3757.00    0.74209   0.52734    0.032
 3758.00    0.76023   0.52285    0.032
 3759.00    0.77676   0.51817    0.032
 3760.00    0.67191   0.51219    0.037
 3761.00    0.55094   0.50701    0.044
 3762.00    0.50017   0.50666    0.036
 3763.00    0.45600   0.50631    0.030
 3764.00    0.41145   0.50741    0.030
 3765.00    0.36687   0.51520    0.030
 3766.00    0.37030   0.52448    0.029
 3767.00    0.37520   0.53415    0.029
 3768.00    0.42029   0.54876    0.029
 3769.00    0.46607   0.56558    0.028
 3770.00    0.52890   0.58244    0.028
 3771.00    0.57637   0.60002    0.028
 3772.00    0.42260   0.61641    0.028
 3773.00    0.28581   0.63267    0.027
 3774.00    0.29806   0.64810    0.027
 3775.00    0.32154   0.65973    0.027
 3776.00    0.41785   0.67136    0.028
 3777.00    0.48635   0.68279    0.028
 3778.00    0.41407   0.69030    0.028
 3779.00    0.34969   0.69623    0.028
 3780.00    0.31764   0.69962    0.028
 3781.00    0.23897   0.69929    0.029
 3782.00    0.00223   0.69424    0.029
 3783.00   -0.21072   0.68193    0.000
 3784.00   -0.35560   0.66719    0.000
 3785.00   -0.35425   0.64930    0.000
 3786.00    0.00433   0.62610    0.030
 3787.00    0.32985   0.60369    0.030
 3788.00    0.58569   0.58314    0.031
 3789.00    0.69844   0.56281    0.031
 3790.00    0.54913   0.54461    0.031
 3791.00    0.43732   0.52917    0.030
 3792.00    0.38556   0.51556    0.030
 3793.00    0.38232   0.50495    0.030
 3794.00    0.44724   0.49582    0.030
 3795.00    0.51454   0.48772    0.029
 3796.00    0.58479   0.48504    0.029
 3797.00    0.54001   0.48676    0.029
 3798.00    0.36990   0.49131    0.029
 3799.00    0.24502   0.50081    0.029
 3800.00    0.16359   0.51488    0.029
 3801.00    0.17025   0.53095    0.029
 3802.00    0.25157   0.54779    0.029
 3803.00    0.25712   0.56363    0.029
 3804.00    0.20612   0.57673    0.029
 3805.00    0.31845   0.58852    0.029
 3806.00    0.53783   0.59652    0.029
 3807.00    0.66565   0.59931    0.028
 3808.00    0.74092   0.60018    0.028
 3809.00    0.67181   0.59704    0.028
 3810.00    0.53052   0.58900    0.028
 3811.00    0.39275   0.57901    0.028
 3812.00    0.25649   0.56518    0.027
 3813.00    0.30788   0.54823    0.027
 3814.00    0.42885   0.53194    0.027
 3815.00    0.50183   0.51429    0.027
 3816.00    0.55972   0.49576    0.027
 3817.00    0.57392   0.47927    0.028
 3818.00    0.57666   0.46420    0.029
 3819.00    0.57306   0.45109    0.028
 3820.00    0.56809   0.43883    0.028
 3821.00    0.49346   0.42656    0.027
 3822.00    0.40700   0.41688    0.027
 3823.00    0.30104   0.40828    0.027
 3824.00    0.19258   0.39923    0.028
 3825.00    0.10693   0.39129    0.028
 3826.00    0.02333   0.38440    0.028
 3827.00    0.06521   0.37901    0.028
 3828.00    0.11385   0.37414    0.028
 3829.00    0.17924   0.36846    0.028
 3830.00    0.24455   0.36438    0.029
 3831.00    0.27366   0.36104    0.029
 3832.00    0.30285   0.35767    0.029
 3833.00    0.33353   0.35625    0.029
 3834.00    0.35146   0.35528    0.029
 3835.00    0.21070   0.35609    0.029
 3836.00    0.06753   0.36037    0.029
 3837.00   -0.09600   0.36591    0.000
 3838.00   -0.19186   0.37418    0.000
 3839.00    0.13798   0.38690    0.029
 3840.00    0.39249   0.40115    0.029
 3841.00    0.27531   0.41714    0.029
 3842.00    0.19294   0.43512    0.029
 3843.00    0.24990   0.45181    0.029
 3844.00    0.32093   0.46809    0.029
 3845.00    0.43874   0.48250    0.028
 3846.00    0.51947   0.49241    0.028
 3847.00    0.49609   0.50023    0.000
 3848.00    0.44538   0.50607    0.000
 3849.00    0.32905   0.50823    0.000
 3850.00    0.25392   0.50718    0.000
 3851.00    0.26424   0.50508    0.000
 3852.00    0.28647   0.50194    0.000
 3853.00    0.33017   0.49655    0.000
 3854.00    0.33359   0.49095    0.000
 3855.00    0.27349   0.48468    0.000
 3856.00    0.25205   0.47825    0.000
 3857.00    0.28416   0.47473    0.000
 3858.00    0.32186   0.47251    0.000
 3859.00    0.36639   0.47259    0.000
 3860.00    0.34492   0.47598    0.000
 3861.00    0.25255   0.48069    0.000
 3862.00    0.26309   0.48741    0.000
 3863.00    0.37115   0.49471    0.000
 3864.00    0.45772   0.50026    0.000
 3865.00    0.52634   0.50407    0.000
 3866.00    0.57852   0.50637    0.000
 3867.00    0.61859   0.50666    0.000
 3868.00    0.70695   0.50514    0.000
 3869.00    0.82650   0.50250    0.000
 3870.00    0.83415   0.49972    0.000
 3871.00    0.77857   0.49869    0.000
 3872.00    0.65824   0.49844    0.000
 3873.00    0.50607   0.49827    0.000
 3874.00    0.43870   0.49915    0.000
 3875.00    0.40739   0.49947    0.000
 3876.00    0.38306   0.49996    0.000
 3877.00    0.36127   0.49973    0.000
 3878.00    0.35253   0.49675    0.000
 3879.00    0.34781   0.49486    0.000
 3880.00    0.34533   0.49406    0.000
 3881.00    0.34343   0.49256    0.027
 3882.00    0.32786   0.49034    0.027
 3883.00    0.30943   0.48854    0.027
 3884.00    0.20923   0.49113    0.027
 3885.00    0.09555   0.49519    0.027
 3886.00    0.20526   0.49963    0.027
 3887.00    0.34265   0.50816    0.027
 3888.00    0.43547   0.52056    0.027
 3889.00    0.52449   0.53667    0.027
 3890.00    0.41617   0.55337    0.027
 3891.00    0.29802   0.56980    0.026
 3892.00    0.29497   0.58697    0.027
 3893.00    0.29172   0.60277    0.027
 3894.00    0.15465   0.61584    0.027
 3895.00    0.03399   0.62429    0.026
 3896.00    0.24899   0.63101    0.026
 3897.00    0.45690   0.63577    0.026
 3898.00    0.58089   0.63822    0.025
 3899.00    0.69731   0.63958    0.025
 3900.00    0.75217   0.63863    0.024
 3901.00    0.79929   0.64113    0.024
 3902.00    0.79916   0.64370    0.024
 3903.00    0.78439   0.64563    0.023
 3904.00    0.69914   0.65244    0.022
 3905.00    0.62028   0.65970    0.022
 3906.00    0.56649   0.67050    0.022
 3907.00    0.52737   0.68410    0.022
 3908.00    0.53612   0.69679    0.022
 3909.00    0.54816   0.71212    0.023
 3910.00    0.56926   0.72502    0.024
 3911.00    0.57521   0.73364    0.025
 3912.00    0.54539   0.74092    0.025
 3913.00    0.54394   0.74228    0.025
 3914.00    0.60041   0.73827    0.026
 3915.00    0.60850   0.73025    0.027
 3916.00    0.53067   0.71635    0.027
 3917.00    0.51069   0.70005    0.027
 3918.00    0.58059   0.68159    0.028
 3919.00    0.60957   0.66136    0.028
 3920.00    0.58270   0.64109    0.028
 3921.00    0.52803   0.62063    0.028
 3922.00    0.43995   0.60015    0.028
 3923.00    0.51211   0.57904    0.028
 3924.00    0.75398   0.55760    0.028
 3925.00    0.74297   0.53301    0.028
 3926.00    0.49574   0.50659    0.029
 3927.00    0.42282   0.47889    0.029
 3928.00    0.49345   0.44893    0.029
 3929.00    0.45819   0.42053    0.029
 3930.00    0.34615   0.39367    0.028
 3931.00    0.24522   0.37096    0.028
 3932.00    0.15137   0.35491    0.028
 3933.00    0.15181   0.34616    0.028
 3934.00    0.20475   0.34626    0.028
 3935.00    0.20457   0.35431    0.028
 3936.00    0.17868   0.36997    0.028
 3937.00    0.51479   0.39187    0.028
 3938.00    1.00223   0.41741    0.028
 3939.00    0.99299   0.44524    0.028
 3940.00    0.80608   0.47374    0.028
 3941.00    0.59819   0.50140    0.028
 3942.00    0.38396   0.52905    0.028
 3943.00    0.40750   0.55543    0.027
 3944.00    0.49075   0.57931    0.027
 3945.00    0.57660   0.60349    0.027
 3946.00    0.66298   0.62783    0.027
 3947.00    0.67241   0.65014    0.027
 3948.00    0.66951   0.67081    0.027
 3949.00    0.53529   0.68872    0.027
 3950.00    0.38539   0.70454    0.027
 3951.00    0.45242   0.71886    0.027
 3952.00    0.53712   0.72641    0.027
 3953.00    0.58242   0.72818    0.027
 3954.00    0.62591   0.72737    0.027
 3955.00    0.51689   0.72083    0.027
 3956.00    0.40915   0.70813    0.027
 3957.00    0.47004   0.68913    0.027
 3958.00    0.52632   0.66407    0.027
 3959.00    0.49528   0.63648    0.027
 3960.00    0.47256   0.60480    0.000
 3961.00    0.54369   0.56797    0.000
 3962.00    0.59949   0.53030    0.000
 3963.00    0.53483   0.49355    0.000
 3964.00    0.47804   0.45921    0.000
 3965.00    0.46800   0.42887    0.000
 3966.00    0.48196   0.40294    0.000
 3967.00    0.60863   0.38495    0.000
 3968.00    0.70642   0.37633    0.000
 3969.00    0.69357   0.37728    0.000
 3970.00    0.68892   0.38845    0.000
 3971.00    0.71047   0.40865    0.000
 3972.00    0.73017   0.43793    0.000
 3973.00    0.74484   0.47389    0.000
 3974.00    0.80459   0.51458    0.000
 3975.00    0.96902   0.55910    0.000
 3976.00    1.06423   0.60324    0.000
 3977.00    1.02040   0.64654    0.000
 3978.00    0.93518   0.68697    0.000
 3979.00    0.77757   0.72287    0.000
 3980.00    0.72942   0.75630    0.000
 3981.00    0.84885   0.78381    0.029
 3982.00    0.97112   0.80731    0.029
 3983.00    1.09721   0.82861    0.030
 3984.00    1.09979   0.84543    0.030
 3985.00    0.95610   0.86238    0.030
 3986.00    0.84620   0.87635    0.030
 3987.00    0.77156   0.88770    0.029
 3988.00    0.81425   0.90046    0.029
 3989.00    0.96503   0.90905    0.028
 3990.00    0.98444   0.91689    0.028
 3991.00    0.89722   0.92353    0.028
 3992.00    0.99693   0.92718    0.028
 3993.00    1.23020   0.93193    0.028
 3994.00    1.34352   0.93512    0.028
 3995.00    1.38165   0.93797    0.028
 3996.00    1.20969   0.94201    0.028
 3997.00    0.92260   0.94624    0.028
 3998.00    0.82216   0.95098    0.028
 3999.00    0.81063   0.95680    0.027
 4000.00    0.72848   0.96134    0.027
 4001.00    0.61730   0.96435    0.027
 4002.00    0.73003   0.96647    0.027
 4003.00    0.92141   0.96738    0.027
 4004.00    0.98676   0.96833    0.027
 4005.00    1.01477   0.96809    0.027
 4006.00    1.02804   0.96899    0.027
 4007.00    1.03768   0.97266    0.027
 4008.00    1.08229   0.97924    0.027
 4009.00    1.13385   0.98795    0.027
 4010.00    1.08837   0.99762    0.027
 4011.00    1.02782   1.00811    0.027
 4012.00    0.92427   1.01847    0.026
 4013.00    0.81577   1.02913    0.026
 4014.00    0.75651   1.03779    0.026
 4015.00    0.70106   1.04526    0.027
 4016.00    0.87282   1.05159    0.027
 4017.00    1.05415   1.05479    0.027
 4018.00    1.11174   1.05763    0.028
 4019.00    1.16529   1.05889    0.028
 4020.00    1.09107   1.05860    0.028
 4021.00    1.01531   1.05772    0.028
 4022.00    0.91231   1.05468    0.027
 4023.00    0.82931   1.05116    0.027
 4024.00    0.96163   1.04547    0.028
 4025.00    1.07114   1.03686    0.028
 4026.00    1.00744   1.02658    0.028
 4027.00    0.93762   1.01335    0.029
 4028.00    0.83243   0.99878    0.028
 4029.00    0.77694   0.98367    0.028
 4030.00    0.94918   0.96698    0.028
 4031.00    1.03151   0.95412    0.028
 4032.00    0.77657   0.94629    0.028
 4033.00    0.65929   0.94307    0.028
 4034.00    0.97358   0.94729    0.028
 4035.00    1.15866   0.95440    0.028
 4036.00    1.00000   0.96499    0.028
 4037.00    0.90550   0.97793    0.027
 4038.00    0.95751   0.98710    0.028
 4039.00    0.98844   0.99211    0.028
 4040.00    0.97765   0.98995    0.028
 4041.00    0.92561   0.98184    0.028
 4042.00    0.80247   0.97256    0.029
 4043.00    0.70877   0.96071    0.029
 4044.00    0.65948   0.94929    0.029
 4045.00    0.76185   0.94023    0.029
 4046.00    1.06523   0.93493    0.029
 4047.00    1.21198   0.93730    0.029
 4048.00    1.17588   0.94471    0.029
 4049.00    1.21611   0.95483    0.029
 4050.00    1.33492   0.96568    0.029
 4051.00    1.32479   0.97452    0.029
 4052.00    1.19756   0.97960    0.028
 4053.00    1.09955   0.98132    0.028
 4054.00    1.02492   0.97888    0.028
 4055.00    1.06567   0.97278    0.028
 4056.00    1.18765   0.96503    0.028
 4057.00    1.20299   0.95339    0.028
 4058.00    1.15246   0.94067    0.028
 4059.00    1.06838   0.92901    0.028
 4060.00    0.96620   0.91895    0.028
 4061.00    0.88281   0.91058    0.028
 4062.00    0.80823   0.90325    0.027
 4063.00    0.81042   0.89767    0.027
 4064.00    0.84364   0.89545    0.027
 4065.00    0.88152   0.89745    0.027
 4066.00    0.92100   0.90021    0.027
 4067.00    0.92886   0.90513    0.027
 4068.00    0.92755   0.91167    0.027
 4069.00    0.93152   0.91694    0.027
 4070.00    0.93676   0.92200    0.027
 4071.00    0.97216   0.92361    0.027
 4072.00    1.01340   0.92348    0.027
 4073.00    1.01776   0.92469    0.027
 4074.00    1.01656   0.92560    0.027
 4075.00    0.84249   0.92940    0.027
 4076.00    0.64929   0.93458    0.026
 4077.00    0.77763   0.93991    0.027
 4078.00    0.92953   0.94908    0.027
 4079.00    0.87790   0.96155    0.027
 4080.00    0.81849   0.97727    0.027
 4081.00    0.89679   0.99551    0.027
 4082.00    0.97971   1.01254    0.028
 4083.00    1.20849   1.02915    0.028
 4084.00    1.41542   1.04489    0.028
 4085.00    1.26210   1.05806    0.028
 4086.00    1.11454   1.07081    0.028
 4087.00    1.02624   1.08025    0.028
 4088.00    0.95279   1.08688    0.027
 4089.00    0.98820   1.08990    0.027
 4090.00    1.01400   1.08573    0.027
 4091.00    0.98589   1.07771    0.028
 4092.00    0.96130   1.06418    0.000
 4093.00    0.95243   1.04735    0.000
 4094.00    0.92382   1.02829    0.000
 4095.00    0.82277   1.00465    0.000
 4096.00    0.74924   0.98058    0.000
 4097.00    0.76039   0.95718    0.000
 4098.00    0.80812   0.93669    0.000
 4099.00    0.95149   0.92099    0.000
 4100.00    1.05752   0.90941    0.000
 4101.00    1.07970   0.90329    0.000
 4102.00    1.08727   0.90215    0.000
 4103.00    1.06641   0.90612    0.000
 4104.00    1.01654   0.91474    0.000
 4105.00    0.91745   0.92642    0.000
 4106.00    0.86561   0.93960    0.000
 4107.00    0.88401   0.95167    0.000
 4108.00    0.93392   0.96386    0.000
 4109.00    1.02499   0.97424    0.000
 4110.00    1.05918   0.98293    0.000
 4111.00    1.02790   0.99078    0.000
 4112.00    1.00761   0.99670    0.000
 4113.00    0.99848   1.00186    0.028
 4114.00    0.93897   1.00522    0.028
 4115.00    0.83436   1.00836    0.028
 4116.00    0.86177   1.00998    0.028
 4117.00    0.99332   1.00988    0.027
 4118.00    0.92524   1.00836    0.027
 4119.00    0.71863   1.00650    0.028
 4120.00    0.71839   1.00565    0.027
 4121.00    0.84373   1.00286    0.027
 4122.00    0.85111   1.00075    0.027
 4123.00    0.79583   0.99775    0.027
 4124.00    0.80175   0.99418    0.027
 4125.00    0.83589   0.98983    0.028
 4126.00    1.03638   0.98308    0.028
 4127.00    1.30293   0.97527    0.028
 4128.00    1.26881   0.96661    0.028
 4129.00    1.13293   0.95729    0.028
 4130.00    1.08311   0.94972    0.027
 4131.00    1.05777   0.94485    0.027
 4132.00    1.00498   0.94039    0.026
 4133.00    0.94575   0.94028    0.026
 4134.00    0.97523   0.94154    0.027
 4135.00    1.02145   0.94606    0.027
 4136.00    0.91262   0.95213    0.027
 4137.00    0.78116   0.95475    0.026
 4138.00    0.75299   0.95602    0.026
 4139.00    0.73580   0.95357    0.026
 4140.00    0.87369   0.94991    0.027
 4141.00    1.02230   0.94444    0.028
 4142.00    1.05811   0.93603    0.027
 4143.00    1.09002   0.92744    0.027
 4144.00    1.16445   0.91935    0.027
 4145.00    1.23577   0.91356    0.028
 4146.00    1.20147   0.91132    0.027
 4147.00    1.16304   0.91079    0.027
 4148.00    1.06088   0.91147    0.027
 4149.00    0.96121   0.91085    0.027
 4150.00    0.88617   0.91069    0.027
 4151.00    0.82568   0.91174    0.027
 4152.00    0.86853   0.91284    0.027
 4153.00    0.89903   0.91666    0.027
 4154.00    0.86222   0.92011    0.027
 4155.00    0.85873   0.92628    0.027
 4156.00    1.00087   0.93341    0.027
 4157.00    1.08979   0.94272    0.027
 4158.00    0.98727   0.95456    0.027
 4159.00    0.88345   0.96505    0.027
 4160.00    0.77568   0.97593    0.026
 4161.00    0.75428   0.98424    0.026
 4162.00    0.95467   0.99008    0.026
 4163.00    1.12946   0.99305    0.027
 4164.00    1.24768   0.99277    0.027
 4165.00    1.28817   0.98959    0.028
 4166.00    1.17977   0.98284    0.028
 4167.00    1.13651   0.97258    0.028
 4168.00    1.20212   0.96191    0.028
 4169.00    1.21862   0.95105    0.028
 4170.00    1.16321   0.93959    0.027
 4171.00    1.06337   0.92922    0.027
 4172.00    0.90630   0.91808    0.027
 4173.00    0.90461   0.90913    0.027
 4174.00    1.07922   0.90272    0.028
 4175.00    1.12960   0.89881    0.028
 4176.00    1.05564   0.89883    0.028
 4177.00    1.05767   0.89999    0.028
 4178.00    1.12677   0.90366    0.028
 4179.00    1.14827   0.90880    0.028
 4180.00    1.13273   0.91503    0.028
 4181.00    1.10782   0.92219    0.028
 4182.00    1.07649   0.92787    0.028
 4183.00    1.15886   0.93439    0.028
 4184.00    1.30939   0.94001    0.028
 4185.00    1.25953   0.94591    0.028
 4186.00    1.10486   0.95032    0.028
 4187.00    1.05992   0.95297    0.028
 4188.00    1.06475   0.95625    0.028
 4189.00    1.13755   0.95681    0.028
 4190.00    1.23686   0.95750    0.029
 4191.00    1.21696   0.95642    0.028
 4192.00    1.15746   0.95351    0.028
 4193.00    1.05784   0.94846    0.028
 4194.00    0.94703   0.94042    0.028
 4195.00    1.02273   0.93262    0.028
 4196.00    1.14120   0.92301    0.028
 4197.00    1.11676   0.91362    0.028
 4198.00    1.06605   0.90696    0.028
 4199.00    0.98971   0.90352    0.028
 4200.00    0.90975   0.90482    0.027
 4201.00    0.92876   0.90932    0.027
 4202.00    0.95786   0.91782    0.027
 4203.00    0.97294   0.92984    0.026
 4204.00    0.98710   0.94295    0.026
 4205.00    1.02600   0.95784    0.026
 4206.00    1.06548   0.97273    0.026
 4207.00    0.99129   0.98531    0.026
 4208.00    0.92564   0.99551    0.027
 4209.00    1.11065   1.00222    0.027
 4210.00    1.27780   1.00607    0.027
 4211.00    1.18488   1.00835    0.027
 4212.00    1.10796   1.00986    0.027
 4213.00    1.18232   1.01092    0.027
 4214.00    1.23692   1.01243    0.027
 4215.00    1.15562   1.01283    0.026
 4216.00    1.08236   1.01364    0.026
 4217.00    1.05186   1.01399    0.026
 4218.00    1.00734   1.01186    0.026
 4219.00    0.90297   1.00741    0.026
 4220.00    0.82392   0.99703    0.026
 4221.00    0.83407   0.98159    0.026
 4222.00    0.83814   0.96148    0.026
 4223.00    0.82419   0.94040    0.026
 4224.00    0.82014   0.91940    0.026
 4225.00    0.84104   0.90047    0.025
 4226.00    0.92288   0.88718    0.025
 4227.00    1.13710   0.88032    0.025
 4228.00    1.26965   0.88166    0.026
 4229.00    1.24815   0.88990    0.025
 4230.00    1.21711   0.90461    0.025
 4231.00    1.17037   0.92167    0.025
 4232.00    1.14629   0.93794    0.025
 4233.00    1.15496   0.95301    0.024
 4234.00    1.16284   0.96714    0.024
 4235.00    1.16975   0.97927    0.024
 4236.00    1.13523   0.99136    0.024
 4237.00    1.05438   1.00504    0.024
 4238.00    1.06445   1.01730    0.024
 4239.00    1.16425   1.03121    0.024
 4240.00    1.22717   1.04460    0.024
 4241.00    1.25799   1.05692    0.024
 4242.00    1.19803   1.06704    0.025
 4243.00    1.06848   1.07337    0.025
 4244.00    1.03589   1.07692    0.025
 4245.00    1.06863   1.07390    0.025
 4246.00    1.09904   1.06723    0.026
 4247.00    1.12808   1.05622    0.026
 4248.00    1.10866   1.04117    0.026
 4249.00    1.06430   1.02586    0.027
 4250.00    1.05515   1.01076    0.027
 4251.00    1.06172   0.99875    0.027
 4252.00    1.02957   0.98931    0.027
 4253.00    0.98256   0.98250    0.026
 4254.00    1.12459   0.97997    0.026
 4255.00    1.32821   0.98004    0.026
 4256.00    1.16088   0.98247    0.026
 4257.00    0.89228   0.98888    0.026
 4258.00    0.85052   0.99744    0.026
 4259.00    0.85960   1.00802    0.026
 4260.00    0.82235   1.01752    0.026
 4261.00    0.77681   1.02758    0.027
 4262.00    0.89496   1.03803    0.027
 4263.00    1.03551   1.04611    0.027
 4264.00    1.36259   1.05159    0.027
 4265.00    1.70790   1.05170    0.028
 4266.00    1.47231   1.04592    0.028
 4267.00    1.20121   1.03254    0.027
 4268.00    1.13952   1.01553    0.027
 4269.00    1.08259   0.99551    0.027
 4270.00    0.85086   0.97506    0.027
 4271.00    0.62888   0.95790    0.027
 4272.00    0.66485   0.94482    0.026
 4273.00    0.70115   0.93797    0.026
 4274.00    0.74213   0.93774    0.026
 4275.00    0.80356   0.94528    0.026
 4276.00    1.05075   0.95743    0.027
 4277.00    1.26903   0.97126    0.027
 4278.00    1.29474   0.98677    0.028
 4279.00    1.27368   1.00059    0.028
 4280.00    1.01047   1.00951    0.027
 4281.00    0.81176   1.01536    0.027
 4282.00    0.88233   1.01482   -2.000
 4283.00    0.88898   1.01143   -2.000
 4284.00    0.67495   1.00567   -2.000
 4285.00    0.54085   0.99620   -2.000
 4286.00    0.63903   0.98687   -2.000
 4287.00    0.81152   0.97452   -2.000
 4288.00    1.16831   0.96375   -2.000
 4289.00    1.36919   0.95329   -2.000
 4290.00    1.23680   0.94415   -2.000
 4291.00    1.10932   0.93568   -2.000
 4292.00    0.99095   0.92681   -2.000
 4293.00    0.90835   0.92024   -2.000
 4294.00    0.88377   0.91100   -2.000
 4295.00    0.91296   0.90045   -2.000
 4296.00    1.01864   0.88579   -2.000
 4297.00    1.13520   0.86910   -2.000
 4298.00    1.26539   0.85158    0.029
 4299.00    1.29643   0.83161    0.029
 4300.00    1.21812   0.81250    0.028
 4301.00    1.08566   0.79444    0.028
 4302.00    0.90052   0.77906    0.027
 4303.00    0.80021   0.76786    0.027
 4304.00    0.77268   0.76058    0.027
 4305.00    0.74303   0.75648    0.027
 4306.00    0.71176   0.75879    0.027
 4307.00    0.85506   0.76617    0.027
 4308.00    1.11429   0.77994    0.028
 4309.00    1.18442   0.80260    0.028
 4310.00    1.14457   0.83154    0.028
 4311.00    1.11679   0.86861    0.027
 4312.00    1.09511   0.91048    0.027
 4313.00    1.00539   0.95596    0.027
 4314.00    0.88581   1.00081    0.026
 4315.00    0.91464   1.04339    0.026
 4316.00    0.99937   1.08044    0.026
 4317.00    1.12163   1.10846    0.027
 4318.00    1.25590   1.12839    0.027
 4319.00    1.34246   1.13676    0.027
 4320.00    1.41626   1.13595    0.027
 4321.00    1.39526   1.12710    0.027
 4322.00    1.35352   1.11530    0.027
 4323.00    1.35663   1.10040    0.027
 4324.00    1.36754   1.08888    0.027
 4325.00    1.26957   1.08143    0.027
 4326.00    1.15719   1.07942    0.028
 4327.00    1.16657   1.08586    0.027
 4328.00    1.18732   1.09765    0.027
 4329.00    1.27117   1.11531    0.027
 4330.00    1.35863   1.13202    0.000
 4331.00    1.29730   1.14583    0.000
 4332.00    1.23316   1.15400    0.000
 4333.00    1.24397   1.15585    0.000
 4334.00    1.25402   1.15272    0.000
 4335.00    1.24587   1.14311    0.000
 4336.00    1.23235   1.12944    0.000
 4337.00    1.14907   1.11249    0.000
 4338.00    1.07692   1.09653    0.000
 4339.00    1.10200   1.08153    0.000
 4340.00    1.16070   1.07180    0.000
 4341.00    1.43655   1.06984    0.000
 4342.00    1.64680   1.07348    0.000
 4343.00    1.52607   1.08268    0.000
 4344.00    1.37257   1.09562    0.000
 4345.00    1.08530   1.10996    0.000
 4346.00    0.89126   1.12212    0.000
 4347.00    1.01266   1.13383    0.000
 4348.00    1.10383   1.14224    0.000
 4349.00    1.10876   1.14686    0.000
 4350.00    1.11748   1.14958    0.000
 4351.00    1.13546   1.15075    0.026
 4352.00    1.17383   1.15075    0.027
 4353.00    1.25507   1.15056    0.027
 4354.00    1.28036   1.15324    0.027
 4355.00    1.20336   1.16044    0.027
 4356.00    1.12099   1.17032    0.027
 4357.00    1.03007   1.18127    0.027
 4358.00    1.04186   1.19365    0.027
 4359.00    1.19763   1.20660    0.027
 4360.00    1.20613   1.21873    0.027
 4361.00    1.03292   1.22868    0.027
 4362.00    0.97342   1.23817    0.027
 4363.00    1.03758   1.24513    0.027
 4364.00    1.15100   1.24880    0.027
 4365.00    1.31167   1.24765    0.027
 4366.00    1.38763   1.24322    0.026
 4367.00    1.39194   1.23594    0.026
 4368.00    1.29650   1.22478    0.026
 4369.00    1.12676   1.21143    0.027
 4370.00    0.93223   1.19711    0.027
 4371.00    0.72148   1.18373    0.026
 4372.00    0.73111   1.17014    0.026
 4373.00    0.86694   1.15649    0.026
 4374.00    1.04652   1.14329    0.026
 4375.00    1.24791   1.12970    0.026
 4376.00    1.19963   1.11530    0.027
 4377.00    1.04360   1.10090    0.027
 4378.00    0.97373   1.08566    0.027
 4379.00    0.93574   1.07015    0.027
 4380.00    1.07287   1.05243    0.027
 4381.00    1.26492   1.03399    0.027
 4382.00    1.15097   1.01663    0.027
 4383.00    0.95697   1.00236    0.027
 4384.00    0.88603   0.99297    0.026
 4385.00    0.84137   0.98781    0.026
 4386.00    0.97642   0.99031    0.026
 4387.00    1.14186   1.00031    0.026
 4388.00    1.10479   1.01579    0.026
 4389.00    1.04186   1.03304    0.026
 4390.00    1.08896   1.05095    0.026
 4391.00    1.14588   1.06987    0.026
 4392.00    1.21123   1.08815    0.026
 4393.00    1.27703   1.10552    0.026
 4394.00    1.27538   1.12090    0.026
 4395.00    1.27140   1.13242    0.025
 4396.00    1.18392   1.13994    0.026
 4397.00    1.10599   1.14336    0.026
 4398.00    1.23805   1.14300    0.026
 4399.00    1.35192   1.13901    0.026
 4400.00    1.24098   1.12994    0.027
 4401.00    1.14281   1.11825    0.027
 4402.00    1.15206   1.10584    0.027
 4403.00    1.17142   1.09440    0.026
 4404.00    1.25416   1.08757    0.026
 4405.00    1.30524   1.08317    0.026
 4406.00    1.20062   1.08155    0.027
 4407.00    1.13478   1.08602    0.027
 4408.00    1.22377   1.09702    0.027
 4409.00    1.28530   1.11077    0.027
 4410.00    1.25577   1.12444    0.027
 4411.00    1.21447   1.13924    0.026
 4412.00    1.14016   1.15370    0.026
 4413.00    1.08475   1.16534    0.026
 4414.00    1.07464   1.17468    0.027
 4415.00    1.07334   1.18209    0.027
 4416.00    1.09027   1.18752    0.027
 4417.00    1.08470   1.19073    0.027
 4418.00    1.03859   1.19597    0.027
 4419.00    1.04999   1.20102    0.026
 4420.00    1.15189   1.20432    0.027
 4421.00    1.20346   1.20685    0.027
 4422.00    1.18545   1.20759    0.027
 4423.00    1.14729   1.20664    0.027
 4424.00    1.08461   1.20441    0.027
 4425.00    1.18298   1.20177    0.027
 4426.00    1.45403   1.20020    0.027
 4427.00    1.45703   1.19734    0.027
 4428.00    1.20650   1.19395    0.027
 4429.00    1.06458   1.19090    0.027
 4430.00    1.01322   1.18787    0.028
 4431.00    1.03544   1.18584    0.028
 4432.00    1.11167   1.18279    0.028
 4433.00    1.21307   1.18201    0.028
 4434.00    1.33069   1.18407    0.028
 4435.00    1.31017   1.18634    0.028
 4436.00    1.21173   1.18990    0.028
 4437.00    1.18148   1.19519    0.028
 4438.00    1.18472   1.20220    0.027
 4439.00    1.24130   1.21134    0.028
 4440.00    1.32052   1.21964    0.029
 4441.00    1.32200   1.22790    0.029
 4442.00    1.29523   1.23511    0.028
 4443.00    1.32236   1.24128    0.028
 4444.00    1.36606   1.24746    0.028
 4445.00    1.27123   1.25304    0.028
 4446.00    1.14093   1.25809    0.029
 4447.00    1.10268   1.26101    0.028
 4448.00    1.08361   1.26047    0.027
 4449.00    1.23688   1.25497    0.027
 4450.00    1.41847   1.24583    0.028
 4451.00    1.54865   1.23397    0.028
 4452.00    1.67250   1.21743    0.028
 4453.00    1.50127   1.19969    0.028
 4454.00    1.30494   1.18164    0.027
 4455.00    1.19780   1.16314    0.027
 4456.00    1.09506   1.14699    0.027
 4457.00    1.31468   1.13315    0.027
 4458.00    1.53591   1.12490    0.027
 4459.00    1.53597   1.12104    0.027
 4460.00    1.53270   1.12104    0.027
 4461.00    1.46179   1.12515    0.000
 4462.00    1.39041   1.13288    0.000
 4463.00    1.31335   1.14374    0.000
 4464.00    1.23942   1.15587    0.000
 4465.00    1.19081   1.17129    0.000
 4466.00    1.15921   1.18719    0.000
 4467.00    1.23110   1.20215    0.000
 4468.00    1.30460   1.21813    0.000
 4469.00    1.38585   1.23350    0.000
 4470.00    1.44672   1.24965    0.000
 4471.00    1.42795   1.26421    0.000
 4472.00    1.44342   1.27886    0.000
 4473.00    1.57026   1.29219    0.000
 4474.00    1.67592   1.30339    0.000
 4475.00    1.72331   1.31217    0.000
 4476.00    1.67171   1.31791    0.000
 4477.00    1.38688   1.32039    0.000
 4478.00    1.19956   1.32050    0.000
 4479.00    1.21086   1.31986    0.000
 4480.00    1.22932   1.31744    0.000
 4481.00    1.26049   1.31493    0.000
 4482.00    1.23971   1.31174    0.027
 4483.00    1.13837   1.31024    0.027
 4484.00    1.12635   1.30886    0.027
 4485.00    1.23599   1.30867    0.027
 4486.00    1.36459   1.30782    0.027
 4487.00    1.51593   1.30575    0.028
 4488.00    1.50642   1.30221    0.028
 4489.00    1.32686   1.29763    0.027
 4490.00    1.30447   1.29171    0.027
 4491.00    1.42864   1.28672    0.027
 4492.00    1.45672   1.28243    0.027
 4493.00    1.40581   1.28158    0.027
 4494.00    1.34766   1.28255    0.028
 4495.00    1.28428   1.28706    0.028
 4496.00    1.20660   1.29358    0.028
 4497.00    1.11985   1.30375    0.027
 4498.00    1.23659   1.31741    0.027
 4499.00    1.46636   1.33282    0.027
 4500.00    1.50489   1.35055    0.027
 4501.00    1.45104   1.36740    0.027
 4502.00    1.32357   1.38417    0.027
 4503.00    1.16539   1.39815    0.027
 4504.00    1.21405   1.41030    0.027
 4505.00    1.33653   1.42011    0.027
 4506.00    1.25593   1.42624    0.027
 4507.00    1.11410   1.42849    0.027
 4508.00    1.26500   1.42756    0.027
 4509.00    1.48922   1.42323    0.027
 4510.00    1.45198   1.41727    0.027
 4511.00    1.36158   1.40959    0.027
 4512.00    1.36548   1.40149    0.027
 4513.00    1.38442   1.39297    0.027
 4514.00    1.37322   1.38456    0.027
 4515.00    1.35844   1.37678    0.027
 4516.00    1.18259   1.36963    0.027
 4517.00    0.99372   1.36315    0.027
 4518.00    1.11138   1.35638    0.027
 4519.00    1.24298   1.34900    0.028
 4520.00    1.28422   1.33894    0.027
 4521.00    1.32296   1.32795    0.027
 4522.00    1.29054   1.31342    0.027
 4523.00    1.26330   1.29734    0.027
 4524.00    1.33328   1.27871    0.027
 4525.00    1.37330   1.25885    0.027
 4526.00    1.07769   1.24020    0.027
 4527.00    0.83003   1.22229    0.027
 4528.00    0.95754   1.20815    0.026
 4529.00    1.09927   1.19707    0.026
 4530.00    1.32506   1.19154    0.027
 4531.00    1.49629   1.18978    0.027
 4532.00    1.41218   1.19408    0.027
 4533.00    1.36135   1.20100    0.027
 4534.00    1.43768   1.21227    0.027
 4535.00    1.48148   1.22484    0.027
 4536.00    1.42158   1.23813    0.027
 4537.00    1.36626   1.25203    0.027
 4538.00    1.32332   1.26418    0.027
 4539.00    1.24899   1.27641    0.027
 4540.00    1.10191   1.28496    0.027
 4541.00    1.01840   1.29160    0.026
 4542.00    1.06233   1.29508    0.026
 4543.00    1.17141   1.29610    0.027
 4544.00    1.39422   1.29591    0.027
 4545.00    1.45861   1.29411    0.027
 4546.00    1.28092   1.29191    0.027
 4547.00    1.20880   1.28874    0.026
 4548.00    1.27838   1.28659    0.027
 4549.00    1.28488   1.28473    0.027
 4550.00    1.21680   1.28460    0.000
 4551.00    1.22146   1.28603    0.000
 4552.00    1.30194   1.28912    0.000
 4553.00    1.33793   1.29514    0.000
 4554.00    1.33300   1.30185    0.000
 4555.00    1.19409   1.31129    0.000
 4556.00    0.94659   1.32051    0.000
 4557.00    0.98637   1.33066    0.000
 4558.00    1.23104   1.33998    0.000
 4559.00    1.37643   1.34874    0.000
 4560.00    1.45970   1.35549    0.000
 4561.00    1.39577   1.36066    0.000
 4562.00    1.25131   1.36386    0.000
 4563.00    1.20915   1.36549    0.000
 4564.00    1.21563   1.36669    0.000
 4565.00    1.25931   1.36696    0.000
 4566.00    1.31825   1.36769    0.000
 4567.00    1.36244   1.36831    0.000
 4568.00    1.40146   1.36933    0.000
 4569.00    1.48304   1.37063    0.000
 4570.00    1.57720   1.37169    0.000
 4571.00    1.60677   1.37187    0.000
 4572.00    1.62053   1.37104    0.000
 4573.00    1.40704   1.36827    0.000
 4574.00    1.14851   1.36432    0.000
 4575.00    1.20280   1.35917    0.000
 4576.00    1.30552   1.35245    0.000
 4577.00    1.16630   1.34520    0.000
 4578.00    0.99939   1.33731    0.000
 4579.00    1.24284   1.32898    0.000
 4580.00    1.51780   1.32186    0.000
 4581.00    1.49352   1.31594    0.000
 4582.00    1.45678   1.31173    0.000
 4583.00    1.45740   1.30968    0.000
 4584.00    1.45516   1.30930    0.000
 4585.00    1.31677   1.31111    0.000
 4586.00    1.19461   1.31321    0.000
 4587.00    1.35642   1.31627    0.000
 4588.00    1.49637   1.31765    0.000
 4589.00    1.40254   1.31907    0.000
 4590.00    1.33303   1.31837    0.000
 4591.00    1.44733   1.31696    0.000
 4592.00    1.51055   1.31390    0.000
 4593.00    1.28024   1.31005    0.000
 4594.00    1.09020   1.30539    0.000
 4595.00    1.08414   1.30122    0.000
 4596.00    1.11805   1.29757    0.000
 4597.00    1.30149   1.29571    0.000
 4598.00    1.42180   1.29504    0.000
 4599.00    1.34465   1.29634    0.000
 4600.00    1.30277   1.29927    0.000
 4601.00    1.35451   1.30444    0.000
 4602.00    1.41671   1.31124    0.000
 4603.00    1.50277   1.31977    0.000
 4604.00    1.48504   1.33019    0.000
 4605.00    1.26254   1.34085    0.000
 4606.00    1.21453   1.35369    0.000
 4607.00    1.46657   1.36546    0.000
 4608.00    1.53194   1.37770    0.000
 4609.00    1.31622   1.38837    0.000
 4610.00    1.19540   1.39820    0.000
 4611.00    1.20015   1.40653    0.000
 4612.00    1.15192   1.41322    0.000
 4613.00    1.04197   1.41858    0.000
 4614.00    1.07434   1.42190    0.000
 4615.00    1.25298   1.42469    0.000
 4616.00    1.34804   1.42622    0.000
 4617.00    1.36733   1.42807    0.000
 4618.00    1.40688   1.42841    0.000
 4619.00    1.46261   1.42961    0.000
 4620.00    1.38014   1.42881    0.000
 4621.00    1.20053   1.42850    0.000
 4622.00    1.14071   1.42689    0.000
 4623.00    1.15475   1.42513    0.000
 4624.00    1.18033   1.42225    0.000
 4625.00    1.21213   1.41988    0.000
 4626.00    1.31348   1.41582    0.000
 4627.00    1.44736   1.41174    0.000
 4628.00    1.36672   1.40664    0.000
 4629.00    1.19959   1.40098    0.000
 4630.00    1.37514   1.39403    0.000
 4631.00    1.66857   1.38657    0.000
 4632.00    1.74396   1.37790    0.000
 4633.00    1.75618   1.36831    0.000
 4634.00    1.51833   1.35793    0.000
 4635.00    1.22058   1.34736    0.000
 4636.00    1.23433   1.33627    0.000
 4637.00    1.30824   1.32517    0.000
 4638.00    1.29784   1.31427    0.000
 4639.00    1.27479   1.30421    0.000
 4640.00    1.32037   1.29415    0.000
 4641.00    1.37349   1.28535    0.000
 4642.00    1.30054   1.27651    0.000
 4643.00    1.21843   1.26951    0.000
 4644.00    1.20865   1.26288    0.000
 4645.00    1.20161   1.25867    0.000
 4646.00    1.16863   1.25581    0.000
 4647.00    1.13499   1.25545    0.000
 4648.00    1.08169   1.25704    0.000
 4649.00    1.05371   1.26138    0.000
 4650.00    1.43947   1.26729    0.000
 4651.00    1.75747   1.27554    0.000
 4652.00    1.38206   1.28466    0.000
 4653.00    1.07547   1.29487    0.000
 4654.00    1.27190   1.30474    0.000
 4655.00    1.43913   1.31431    0.000
 4656.00    1.44313   1.32220    0.000
 4657.00    1.39981   1.32836    0.000
 4658.00    1.14532   1.33176    0.000
 4659.00    0.99519   1.33198    0.000
 4660.00    1.22737   1.32910    0.000
 4661.00    1.37777   1.32244    0.000
 4662.00    1.27727   1.31335    0.000
 4663.00    1.22664   1.30157    0.000
 4664.00    1.30606   1.28900    0.000
 4665.00    1.29494   1.27628    0.000
 4666.00    1.08090   1.26512    0.000
 4667.00    1.02397   1.25647    0.000
 4668.00    1.27218   1.25116    0.000
 4669.00    1.36538   1.24949    0.000
 4670.00    1.19608   1.25111    0.000
 4671.00    1.10228   1.25538    0.000
 4672.00    1.12051   1.26135    0.000
 4673.00    1.19281   1.26776    0.000
 4674.00    1.33562   1.27430    0.000
 4675.00    1.43748   1.27965    0.000
 4676.00    1.49228   1.28387    0.000
 4677.00    1.48036   1.28606    0.000
 4678.00    1.40082   1.28722    0.000
 4679.00    1.21060   1.28704    0.000
 4680.00    0.92147   1.28661    0.000
 4681.00    0.92845   1.28599    0.000
 4682.00    1.16864   1.28556    0.000
 4683.00    1.27447   1.28562    0.000
 4684.00    1.28722   1.28570    0.000
 4685.00    1.25007   1.28651    0.000
 4686.00    1.18262   1.28730    0.000
 4687.00    1.25137   1.28853    0.000
 4688.00    1.39234   1.28946    0.000
 4689.00    1.38224   1.29061    0.000
 4690.00    1.30264   1.29122    0.000
 4691.00    1.19285   1.29163    0.000
 4692.00    1.07110   1.29128    0.000
 4693.00    1.18839   1.29041    0.000
 4694.00    1.38639   1.28834    0.000
 4695.00    1.48093   1.28549    0.000
 4696.00    1.54610   1.28134    0.000
 4697.00    1.46250   1.27626    0.000
 4698.00    1.34408   1.27051    0.000
 4699.00    1.39589   1.26424    0.000
 4700.00    1.47972   1.25838    0.000
 4701.00    1.46762   1.25265    0.000
 4702.00    1.44156   1.24853    0.000
 4703.00    1.31875   1.24494    0.000
 4704.00    1.18572   1.24367    0.000
 4705.00    1.18306   1.24315    0.000
 4706.00    1.18936   1.24502    0.000
 4707.00    1.30555   1.24771    0.000
 4708.00    1.42549   1.25241    0.000
 4709.00    1.27133   1.25807    0.000
 4710.00    1.12323   1.26516    0.000
 4711.00    1.18603   1.27346    0.000
 4712.00    1.24748   1.28283    0.000
 4713.00    1.28827   1.29346    0.000
 4714.00    1.32038   1.30461    0.000
 4715.00    1.26738   1.31658    0.000
 4716.00    1.22452   1.32833    0.000
 4717.00    1.25345   1.33992    0.000
 4718.00    1.29383   1.35006    0.000
 4719.00    1.39654   1.35860    0.000
 4720.00    1.48988   1.36436    0.000
 4721.00    1.54237   1.36722    0.000
 4722.00    1.55633   1.36669    0.000
 4723.00    1.43210   1.36291    0.000
 4724.00    1.34008   1.35624    0.000
 4725.00    1.34507   1.34718    0.000
 4726.00    1.33411   1.33673    0.000
 4727.00    1.28230   1.32579    0.000
 4728.00    1.27727   1.31554    0.000
 4729.00    1.37539   1.30683    0.000
 4730.00    1.43383   1.30031    0.000
 4731.00    1.41640   1.29664    0.000
 4732.00    1.37730   1.29556    0.000
 4733.00    1.30205   1.29741    0.000
 4734.00    1.24848   1.30115    0.000
 4735.00    1.22661   1.30699    0.000
 4736.00    1.21759   1.31368    0.000
 4737.00    1.22510   1.32132    0.000
 4738.00    1.23305   1.32901    0.000
 4739.00    1.24152   1.33679    0.000
 4740.00    1.27534   1.34422    0.000
 4741.00    1.33448   1.35113    0.000
 4742.00    1.37581   1.35752    0.000
 4743.00    1.40145   1.36305    0.000
 4744.00    1.39246   1.36780    0.000
 4745.00    1.35659   1.37148    0.000
 4746.00    1.34468   1.37391    0.000
 4747.00    1.34912   1.37518    0.000
 4748.00    1.32865   1.37469    0.000
 4749.00    1.29326   1.37323    0.000
 4750.00    1.27475   1.36975    0.000
 4751.00    1.26504   1.36583    0.000
 4752.00    1.33234   1.36003    0.000
 4753.00    1.43450   1.35440    0.000
 4754.00    1.31907   1.34736    0.000
 4755.00    1.11894   1.34083    0.000
 4756.00    1.13990   1.33330    0.000
 4757.00    1.23413   1.32623    0.000
 4758.00    1.39061   1.31847    0.000
 4759.00    1.56439   1.31102    0.000
 4760.00    1.53853   1.30329    0.000
 4761.00    1.46700   1.29611    0.023
 4762.00    1.35711   1.28940    0.023
 4763.00    1.24018   1.28401    0.024
 4764.00    1.23708   1.28010    0.023
 4765.00    1.25001   1.27839    0.023
 4766.00    1.28206   1.27891    0.024
 4767.00    1.31604   1.28197    0.024
 4768.00    1.28165   1.28730    0.024
 4769.00    1.24283   1.29461    0.024
 4770.00    1.40204   1.30338    0.024
 4771.00    1.56687   1.31296    0.024
 4772.00    1.54227   1.32270    0.024
 4773.00    1.51275   1.33190    0.024
 4774.00    1.34086   1.33990    0.024
 4775.00    1.18178   1.34630    0.024
 4776.00    1.20781   1.35054    0.024
 4777.00    1.22722   1.35264    0.024
 4778.00    1.18431   1.35229    0.024
 4779.00    1.15733   1.35000    0.024
 4780.00    1.23942   1.34576    0.024
 4781.00    1.32591   1.34050    0.023
 4782.00    1.43573   1.33444    0.024
 4783.00    1.49601   1.32873    0.024
 4784.00    1.34527   1.32356    0.023
 4785.00    1.24289   1.32011    0.023
 4786.00    1.31046   1.31824    0.023
 4787.00    1.37821   1.31886    0.024
 4788.00    1.44648   1.32135    0.024
 4789.00    1.45314   1.32623    0.024
 4790.00    1.30468   1.33242    0.024
 4791.00    1.20277   1.34001    0.024
 4792.00    1.20180   1.34771    0.024
 4793.00    1.21079   1.35543    0.024
 4794.00    1.23855   1.36203    0.024
 4795.00    1.23553   1.36752    0.024
 4796.00    1.18196   1.37128    0.024
 4797.00    1.16665   1.37340    0.024
 4798.00    1.20646   1.37407    0.024
 4799.00    1.26101   1.37307    0.024
 4800.00    1.33423   1.37151    0.025
 4801.00    1.35049   1.36845    0.025
 4802.00    1.30315   1.36578    0.025
 4803.00    1.31114   1.36183    0.025
 4804.00    1.37363   1.35906    0.025
 4805.00    1.38449   1.35531    0.025
 4806.00    1.35052   1.35335    0.024
 4807.00    1.45098   1.35092    0.024
 4808.00    1.65433   1.35069    0.024
 4809.00    1.53744   1.35054    0.024
 4810.00    1.20514   1.35261    0.024
 4811.00    1.26021   1.35494    0.024
 4812.00    1.54356   1.35903    0.025
 4813.00    1.55510   1.36304    0.025
 4814.00    1.42696   1.36789    0.025
 4815.00    1.40954   1.37188    0.025
 4816.00    1.44141   1.37570    0.025
 4817.00    1.41487   1.37778    0.025
 4818.00    1.36599   1.37902    0.025
 4819.00    1.47883   1.37798    0.025
 4820.00    1.64425   1.37607    0.025
 4821.00    1.53729   1.37201    0.025
 4822.00    1.35616   1.36761    0.024
 4823.00    1.30444   1.36181    0.024
 4824.00    1.28163   1.35640    0.025
 4825.00    1.19563   1.35053    0.025
 4826.00    1.09836   1.34549    0.025
 4827.00    1.30611   1.34083    0.025
 4828.00    1.55541   1.33697    0.025
 4829.00    1.43452   1.33391    0.025
 4830.00    1.27767   1.33133    0.024
 4831.00    1.31983   1.32963    0.025
 4832.00    1.37406   1.32793    0.025
 4833.00    1.39420   1.32694    0.026
 4834.00    1.41302   1.32554    0.026
 4835.00    1.35683   1.32456    0.025
 4836.00    1.29816   1.32302    0.025
 4837.00    1.17503   1.32171    0.025
 4838.00    1.07674   1.32000    0.025
 4839.00    1.31748   1.31855    0.025
 4840.00    1.51901   1.31699    0.025
 4841.00    1.36608   1.31584    0.024
 4842.00    1.23721   1.31473    0.024
 4843.00    1.26799   1.31395    0.025
 4844.00    1.29010   1.31298    0.025
 4845.00    1.26749   1.31184    0.024
 4846.00    1.25298   1.30994    0.024
 4847.00    1.27218   1.30706    0.024
 4848.00    1.29116   1.30281    0.000
 4849.00    1.30934   1.29677    0.000
 4850.00    1.31289   1.28897    0.000
 4851.00    1.27404   1.27887    0.000
 4852.00    1.26294   1.26703    0.000
 4853.00    1.32054   1.25308    0.000
 4854.00    1.38437   1.23789    0.000
 4855.00    1.46151   1.22159    0.000
 4856.00    1.51913   1.20509    0.000
 4857.00    1.54058   1.18913    0.000
 4858.00    1.55094   1.17433    0.000
 4859.00    1.54334   1.16196    0.000
 4860.00    1.56033   1.15186    0.000
 4861.00    1.61225   1.14552    0.000
 4862.00    1.57190   1.14161    0.000
 4863.00    1.41630   1.14161    0.000
 4864.00    1.32571   1.14320    0.000
 4865.00    1.30669   1.14777    0.000
 4866.00    1.31758   1.15264    0.000
 4867.00    1.35750   1.15921    0.000
 4868.00    1.39981   1.16521    0.000
 4869.00    1.44418   1.17218    0.000
 4870.00    1.41022   1.17862    0.000
 4871.00    1.31718   1.18607    0.000
 4872.00    1.16841   1.19341    0.000
 4873.00    0.98269   1.20200    0.000
 4874.00    1.02214   1.21053    0.000
 4875.00    1.19227   1.21993    0.024
 4876.00    1.25650   1.22859    0.024
 4877.00    1.26716   1.23703    0.023
 4878.00    1.22319   1.24366    0.023
 4879.00    1.15529   1.24876    0.024
 4880.00    1.11014   1.25139    0.024
 4881.00    1.07355   1.25178    0.023
 4882.00    1.14403   1.25013    0.023
 4883.00    1.24866   1.24667    0.023
 4884.00    1.29946   1.24261    0.023
 4885.00    1.33592   1.23808    0.023
 4886.00    1.34973   1.23504    0.023
 4887.00    1.35860   1.23317    0.023
 4888.00    1.32453   1.23466    0.023
 4889.00    1.28301   1.23842    0.023
 4890.00    1.26505   1.24621    0.023
 4891.00    1.25019   1.25639    0.023
 4892.00    1.29663   1.26956    0.023
 4893.00    1.34876   1.28394    0.023
 4894.00    1.24721   1.29914    0.023
 4895.00    1.13695   1.31375    0.023
 4896.00    1.12816   1.32684    0.023
 4897.00    1.12261   1.33790    0.023
 4898.00    1.21901   1.34611    0.023
 4899.00    1.31230   1.35173    0.023
 4900.00    1.33157   1.35449    0.023
 4901.00    1.34236   1.35507    0.023
 4902.00    1.24361   1.35363    0.023
 4903.00    1.15288   1.35085    0.023
 4904.00    1.13183   1.34699    0.023
 4905.00    1.11590   1.34245    0.023
 4906.00    1.13291   1.33734    0.023
 4907.00    1.15365   1.33201    0.023
 4908.00    1.19308   1.32625    0.023
 4909.00    1.23993   1.32029    0.023
 4910.00    1.31698   1.31363    0.023
 4911.00    1.38540   1.30657    0.023
 4912.00    1.42472   1.29853    0.024
 4913.00    1.43871   1.28987    0.024
 4914.00    1.38059   1.28027    0.023
 4915.00    1.33191   1.27010    0.023
 4916.00    1.30620   1.25966    0.024
 4917.00    1.32288   1.24961    0.024
 4918.00    1.42857   1.24096    0.024
 4919.00    1.48186   1.23427    0.024
 4920.00    1.43956   1.23083    0.024
 4921.00    1.41878   1.23074    0.024
 4922.00    1.43232   1.23454    0.023
 4923.00    1.43480   1.24193    0.023
 4924.00    1.42179   1.25223    0.024
 4925.00    1.42405   1.26460    0.024
 4926.00    1.44513   1.27762    0.024
 4927.00    1.44882   1.29044    0.024
 4928.00    1.43361   1.30136    0.024
 4929.00    1.41655   1.31042    0.023
 4930.00    1.39773   1.31590    0.024
 4931.00    1.42165   1.31870    0.024
 4932.00    1.48166   1.31798    0.024
 4933.00    1.44474   1.31569    0.024
 4934.00    1.33574   1.31151    0.024
 4935.00    1.27892   1.30775    0.024
 4936.00    1.25620   1.30383    0.024
 4937.00    1.23625   1.30228    0.024
 4938.00    1.21788   1.30223    0.023
 4939.00    1.18850   1.30533    0.023
 4940.00    1.15362   1.31022    0.000
 4941.00    1.16377   1.31817    0.000
 4942.00    1.19330   1.32704    0.000
 4943.00    1.19149   1.33741    0.000
 4944.00    1.17811   1.34715    0.000
 4945.00    1.22612   1.35672    0.000
 4946.00    1.29335   1.36401    0.000
 4947.00    1.31508   1.36940    0.000
 4948.00    1.32495   1.37172    0.000
 4949.00    1.36533   1.37113    0.000
 4950.00    1.41222   1.36737    0.000
 4951.00    1.38403   1.36010    0.000
 4952.00    1.34319   1.35098    0.000
 4953.00    1.44358   1.34004    0.000
 4954.00    1.56193   1.32845    0.000
 4955.00    1.42491   1.31678    0.000
 4956.00    1.26523   1.30582    0.000
 4957.00    1.30094   1.29680    0.000
 4958.00    1.34695   1.28912    0.000
 4959.00    1.32652   1.28416    0.000
 4960.00    1.30532   1.28041    0.000
 4961.00    1.32405   1.27920    0.000
 4962.00    1.34829   1.27841    0.000
 4963.00    1.49230   1.27943    0.000
 4964.00    1.61079   1.28025    0.000
 4965.00    1.41606   1.28211    0.000
 4966.00    1.25211   1.28386    0.000
 4967.00    1.34582   1.28605    0.000
 4968.00    1.42878   1.28841    0.000
 4969.00    1.44453   1.29062    0.000
 4970.00    1.44504   1.29266    0.000
 4971.00    1.37079   1.29389    0.000
 4972.00    1.30686   1.29384    0.000
 4973.00    1.28407   1.29227    0.000
 4974.00    1.29964   1.28838    0.000
 4975.00    1.44210   1.28256    0.000
 4976.00    1.49817   1.27406    0.000
 4977.00    1.31277   1.26413    0.000
 4978.00    1.20405   1.25233    0.000
 4979.00    1.27873   1.24056    0.000
 4980.00    1.34331   1.22907    0.000
 4981.00    1.38705   1.21926    0.000
 4982.00    1.34183   1.21138    0.000
 4983.00    1.13680   1.20640    0.000
 4984.00    1.10157   1.20430    0.000
 4985.00    1.33315   1.20474    0.000
 4986.00    1.40273   1.20811    0.000
 4987.00    1.24884   1.21280    0.000
 4988.00    1.21176   1.21929    0.000
 4989.00    1.31651   1.22574    0.000
 4990.00    1.36639   1.23188    0.000
 4991.00    1.35755   1.23702    0.000
 4992.00    1.33197   1.24068    0.000
 4993.00    1.29061   1.24210    0.000
 4994.00    1.33122   1.24162    0.000
 4995.00    1.44009   1.23853    0.000
 4996.00    1.43912   1.23356    0.000
 4997.00    1.35767   1.22666    0.000
 4998.00    1.33015   1.21845    0.000
 4999.00    1.33734   1.20899    0.000
 5000.00    1.30329   1.19913    0.000
 5001.00    1.24602   1.18887    0.000
 5002.00    1.29896   1.17912    0.000
 5003.00    1.40590   1.17032    0.000
 5004.00    1.46603   1.16295    0.000
 5005.00    1.50632   1.15650    0.000
 5006.00    1.51492   1.15074    0.000
 5007.00    1.51203   1.14630    0.000
 5008.00    1.35364   1.14164    0.000
 5009.00    1.14755   1.13830    0.000
 5010.00    1.08870   1.13447    0.000
 5011.00    1.06745   1.13195    0.000
 5012.00    1.07985   1.12928    0.000
 5013.00    1.09925   1.12745    0.000
 5014.00    1.18680   1.12576    0.000
 5015.00    1.28552   1.12570    0.000
 5016.00    1.24533   1.12636    0.000
 5017.00    1.18809   1.12848    0.000
 5018.00    1.19487   1.13133    0.000
 5019.00    1.20707   1.13585    0.000
 5020.00    1.27021   1.14175    0.000
 5021.00    1.33585   1.14810    0.000
 5022.00    1.27918   1.15574    0.000
 5023.00    1.22066   1.16316    0.000
 5024.00    1.16437   1.17146    0.000
 5025.00    1.11407   1.18025    0.000
 5026.00    1.18425   1.18872    0.000
 5027.00    1.25235   1.19694    0.000
 5028.00    1.29606   1.20418    0.000
 5029.00    1.33548   1.21067    0.030
 5030.00    1.34028   1.21480    0.030
 5031.00    1.36441   1.21707    0.029
 5032.00    1.50573   1.21615    0.030
 5033.00    1.60382   1.21421    0.030
 5034.00    1.49516   1.20929    0.026
 5035.00    1.37379   1.20285    0.024
 5036.00    1.20292   1.19518    0.024
 5037.00    1.08713   1.18694    0.023
 5038.00    1.15003   1.18054    0.023
 5039.00    1.23121   1.17555    0.023
 5040.00    1.36257   1.17296    0.024
 5041.00    1.44535   1.17270    0.024
 5042.00    1.41389   1.17483    0.024
 5043.00    1.33848   1.17883    0.024
 5044.00    1.17375   1.18366    0.023
 5045.00    1.08823   1.18976    0.023
 5046.00    1.14287   1.19583    0.023
 5047.00    1.22886   1.20248    0.023
 5048.00    1.36339   1.20823    0.023
 5049.00    1.39394   1.21471    0.023
 5050.00    1.28315   1.22045    0.023
 5051.00    1.20045   1.22710    0.023
 5052.00    1.15138   1.23325    0.023
 5053.00    1.14518   1.24027    0.023
 5054.00    1.18422   1.24706    0.023
 5055.00    1.19956   1.25400    0.023
 5056.00    1.19285   1.26009    0.023
 5057.00    1.26140   1.26566    0.023
 5058.00    1.39171   1.26915    0.023
 5059.00    1.39270   1.27122    0.023
 5060.00    1.30027   1.27026    0.024
 5061.00    1.27524   1.26746    0.023
 5062.00    1.29294   1.26291    0.023
 5063.00    1.30507   1.25663    0.023
 5064.00    1.31409   1.24952    0.022
 5065.00    1.28458   1.24168    0.022
 5066.00    1.23649   1.23418    0.022
 5067.00    1.29410   1.22663    0.022
 5068.00    1.39572   1.21963    0.022
 5069.00    1.39079   1.21340    0.022
 5070.00    1.34791   1.20767    0.022
 5071.00    1.21876   1.20227    0.022
 5072.00    1.06367   1.19720    0.022
 5073.00    1.08228   1.19188    0.022
 5074.00    1.14428   1.18668    0.021
 5075.00    1.22652   1.18026    0.022
 5076.00    1.31287   1.17463    0.022
 5077.00    1.19344   1.16850    0.022
 5078.00    1.04131   1.16385    0.022
 5079.00    1.07879   1.15997    0.022
 5080.00    1.13870   1.15805    0.022
 5081.00    1.20976   1.15801    0.022
 5082.00    1.28171   1.15980    0.022
 5083.00    1.29162   1.16418    0.021
 5084.00    1.29873   1.16968    0.021
 5085.00    1.27340   1.17737    0.021
 5086.00    1.24930   1.18516    0.022
 5087.00    1.30567   1.19394    0.021
 5088.00    1.34949   1.20183    0.021
 5089.00    1.15984   1.20923    0.021
 5090.00    0.98676   1.21477    0.021
 5091.00    0.99818   1.21864    0.021
 5092.00    1.01554   1.22017    0.021
 5093.00    1.07922   1.21948    0.021
 5094.00    1.13797   1.21692    0.022
 5095.00    1.16767   1.21245    0.022
 5096.00    1.20341   1.20754    0.023
 5097.00    1.26737   1.20158    0.022
 5098.00    1.30943   1.19631    0.022
 5099.00    1.26802   1.19075    0.021
 5100.00    1.22701   1.18602    0.021
 5101.00    1.18729   1.18132    0.022
 5102.00    1.15566   1.17780    0.022
 5103.00    1.14583   1.17464    0.022
 5104.00    1.15411   1.17255    0.022
 5105.00    1.20428   1.17129    0.023
 5106.00    1.20661   1.17050    0.023
 5107.00    1.11327   1.17170    0.023
 5108.00    1.09338   1.17315    0.023
 5109.00    1.20147   1.17641    0.023
 5110.00    1.24109   1.18050    0.023
 5111.00    1.17628   1.18539    0.023
 5112.00    1.16428   1.19060    0.023
 5113.00    1.22305   1.19608    0.023
 5114.00    1.26084   1.20064    0.024
 5115.00    1.27390   1.20428    0.024
 5116.00    1.24796   1.20606    0.024
 5117.00    1.18146   1.20546    0.024
 5118.00    1.17694   1.20286    0.024
 5119.00    1.22932   1.19742    0.024
 5120.00    1.16445   1.19071    0.023
 5121.00    1.00472   1.18200    0.023
 5122.00    0.95816   1.17307    0.023
 5123.00    0.99214   1.16406    0.023
 5124.00    1.01551   1.15602    0.023
 5125.00    1.03224   1.14896    0.023
 5126.00    1.09970   1.14363    0.023
 5127.00    1.19485   1.14053    0.022
 5128.00    1.15995   1.13909    0.022
 5129.00    1.06336   1.13991    0.022
 5130.00    1.05491   1.14148    0.023
 5131.00    1.08253   1.14438    0.023
 5132.00    1.09733   1.14688    0.023
 5133.00    1.10765   1.14962    0.022
 5134.00    1.18034   1.15149    0.022
 5135.00    1.27142   1.15133    0.023
 5136.00    1.23710   1.15143    0.023
 5137.00    1.17214   1.14918    0.023
 5138.00    1.26015   1.14714    0.023
 5139.00    1.37839   1.14396    0.023
 5140.00    1.30191   1.14012    0.022
 5141.00    1.19541   1.13573    0.022
 5142.00    1.20314   1.13243    0.022
 5143.00    1.22389   1.12872    0.022
 5144.00    1.18996   1.12537    0.022
 5145.00    1.15187   1.12319    0.022
 5146.00    1.05058   1.12132    0.021
 5147.00    0.94669   1.12125    0.021
 5148.00    0.95131   1.12122    0.021
 5149.00    0.95845   1.12275    0.021
 5150.00    1.03439   1.12469    0.021
 5151.00    1.10506   1.12833    0.022
 5152.00    1.08435   1.13213    0.022
 5153.00    1.07543   1.13689    0.022
 5154.00    1.19196   1.14132    0.022
 5155.00    1.29643   1.14468    0.022
 5156.00    1.31005   1.14667    0.022
 5157.00    1.31589   1.14564    0.022
 5158.00    1.27712   1.14178    0.021
 5159.00    1.23181   1.13431    0.021
 5160.00    1.15669   1.12231    0.021
 5161.00    1.09338   1.10641    0.022
 5162.00    1.07410   1.08719    0.022
 5163.00    1.04002   1.06401    0.022
 5164.00    0.95976   1.03954    0.022
 5165.00    0.90601   1.01387    0.021
 5166.00    0.92249   0.99066    0.022
 5167.00    0.93798   0.96946    0.022
 5168.00    0.95119   0.95214    0.022
 5169.00    0.93512   0.93775    0.022
 5170.00    0.86139   0.92752    0.022
 5171.00    0.86271   0.92308    0.022
 5172.00    0.99286   0.92421    0.022
 5173.00    1.09041   0.92942    0.022
 5174.00    1.13897   0.93616    0.023
 5175.00    1.14428   0.94477    0.023
 5176.00    1.09247   0.95382    0.022
 5177.00    1.02412   0.96222    0.022
 5178.00    0.93651   0.96949    0.022
 5179.00    0.89077   0.97515    0.022
 5180.00    0.88798   0.97971    0.022
 5181.00    0.97767   0.98327    0.022
 5182.00    1.15104   0.98748    0.022
 5183.00    1.15109   0.99445    0.022
 5184.00    1.01292   1.00182    0.022
 5185.00    1.01559   1.01074    0.022
 5186.00    1.11707   1.01994    0.022
 5187.00    1.14900   1.03023    0.022
 5188.00    1.13812   1.04179    0.022
 5189.00    1.14115   1.05213    0.022
 5190.00    1.15167   1.06220    0.000
 5191.00    1.08230   1.07251    0.000
 5192.00    0.97564   1.08319    0.000
 5193.00    1.08387   1.09156    0.000
 5194.00    1.27854   1.09938    0.000
 5195.00    1.37916   1.10635    0.000
 5196.00    1.44751   1.11147    0.000
 5197.00    1.33672   1.11528    0.000
 5198.00    1.17418   1.11643    0.000
 5199.00    1.14459   1.11591    0.000
 5200.00    1.14675   1.11257    0.000
 5201.00    1.15968   1.10830    0.000
 5202.00    1.17468   1.10166    0.000
 5203.00    1.07452   1.09422    0.000
 5204.00    0.95715   1.08700    0.000
 5205.00    0.98310   1.08229    0.000
 5206.00    1.02475   1.07743    0.000
 5207.00    1.10246   1.07604    0.000
 5208.00    1.18278   1.07805    0.000
 5209.00    1.12668   1.08253    0.000
 5210.00    1.06549   1.09056    0.000
 5211.00    1.09111   1.09935    0.021
 5212.00    1.11569   1.11051    0.021
 5213.00    1.08760   1.12063    0.021
 5214.00    1.06050   1.13189    0.021
 5215.00    1.04953   1.14226    0.022
 5216.00    1.05093   1.15170    0.022
 5217.00    1.17819   1.15945    0.022
 5218.00    1.27895   1.16396    0.022
 5219.00    1.18678   1.16687    0.021
 5220.00    1.10225   1.16634    0.021
 5221.00    1.06033   1.16429    0.021
 5222.00    1.02478   1.15978    0.021
 5223.00    1.01755   1.15455    0.021
 5224.00    1.00204   1.14945    0.021
 5225.00    0.95622   1.14468    0.021
 5226.00    0.93245   1.14359    0.021
 5227.00    0.97618   1.14429    0.021
 5228.00    1.00781   1.14606    0.022
 5229.00    1.00796   1.15038    0.022
 5230.00    1.01441   1.15603    0.022
 5231.00    1.03494   1.16254    0.022
 5232.00    1.05685   1.17212    0.022
 5233.00    1.08142   1.18204    0.022
 5234.00    1.09116   1.19340    0.022
 5235.00    1.07583   1.20443    0.022
 5236.00    1.12526   1.21446    0.022
 5237.00    1.27060   1.22361    0.022
 5238.00    1.34840   1.23075    0.022
 5239.00    1.33828   1.23704    0.021
 5240.00    1.29778   1.24047    0.021
 5241.00    1.22241   1.24205    0.021
 5242.00    1.13814   1.24167    0.022
 5243.00    1.04486   1.23987    0.022
 5244.00    0.99706   1.23527    0.022
 5245.00    0.98986   1.22864    0.021
 5246.00    1.04185   1.22311    0.021
 5247.00    1.14037   1.21758    0.021
 5248.00    1.21734   1.21095    0.022
 5249.00    1.27940   1.20570    0.022
 5250.00    1.25060   1.20238    0.022
 5251.00    1.16672   1.19948    0.022
 5252.00    1.05084   1.19770    0.022
 5253.00    0.91803   1.19487    0.022
 5254.00    0.97235   1.19438    0.022
 5255.00    1.11259   1.19297    0.022
 5256.00    1.07476   1.18968    0.022
 5257.00    0.96652   1.18441    0.022
 5258.00    0.99795   1.17596    0.022
 5259.00    1.07643   1.16514    0.023
 5260.00    1.06347   1.15068    0.023
 5261.00    1.02463   1.13513    0.022
 5262.00    1.07395   1.11750    0.023
 5263.00    1.14385   1.10060    0.023
 5264.00    1.12466   1.08341    0.023
 5265.00    1.08876   1.07044    0.023
 5266.00    0.96454   1.05999    0.022
 5267.00    0.82753   1.05007    0.021
 5268.00    0.94549   1.04542    0.022
 5269.00    1.09028   1.04763    0.022
 5270.00    1.03789   1.05469    0.022
 5271.00    0.97206   1.06349    0.022
 5272.00    1.00482   1.07676    0.022
 5273.00    1.04089   1.09130    0.022
 5274.00    1.03375   1.10796    0.022
 5275.00    1.02893   1.12703    0.022
 5276.00    1.09967   1.14497    0.022
 5277.00    1.16430   1.16250    0.022
 5278.00    1.13600   1.17713    0.022
 5279.00    1.10027   1.19107    0.021
 5280.00    0.99220   1.20422    0.021
 5281.00    0.91018   1.21628    0.021
 5282.00    1.01164   1.22699    0.021
 5283.00    1.11252   1.23825    0.021
 5284.00    1.21031   1.24905    0.021
 5285.00    1.28603   1.25803    0.021
 5286.00    1.26585   1.26590    0.021
 5287.00    1.23366   1.27232    0.020
 5288.00    1.15844   1.27761    0.021
 5289.00    1.11946   1.28055    0.021
 5290.00    1.18926   1.28135    0.021
 5291.00    1.25313   1.27968    0.021
 5292.00    1.30182   1.27652    0.021
 5293.00    1.31307   1.27199    0.022
 5294.00    1.24196   1.26543    0.022
 5295.00    1.17704   1.25850    0.021
 5296.00    1.12394   1.25148    0.021
 5297.00    1.10726   1.24788    0.022
 5298.00    1.15123   1.24599    0.022
 5299.00    1.19285   1.24539    0.022
 5300.00    1.23103   1.24771    0.022
 5301.00    1.23598   1.25252    0.022
 5302.00    1.19826   1.26016    0.022
 5303.00    1.18510   1.26855    0.022
 5304.00    1.19970   1.27822    0.022
 5305.00    1.15972   1.28680    0.022
 5306.00    1.06530   1.29578    0.022
 5307.00    1.06271   1.30435    0.022
 5308.00    1.14091   1.31153    0.022
 5309.00    1.18722   1.31685    0.022
 5310.00    1.20882   1.31942    0.022
 5311.00    1.22284   1.32001    0.022
 5312.00    1.23168   1.31889    0.022
 5313.00    1.24878   1.31592    0.022
 5314.00    1.27082   1.31073    0.022
 5315.00    1.28128   1.30362    0.022
 5316.00    1.28570   1.29593    0.021
 5317.00    1.16743   1.28580    0.021
 5318.00    0.99374   1.27548    0.021
 5319.00    0.99701   1.26359    0.021
 5320.00    1.06903   1.25087    0.021
 5321.00    1.12885   1.23752    0.021
 5322.00    1.18463   1.22293    0.020
 5323.00    1.12788   1.21082    0.020
 5324.00    1.03993   1.19898    0.020
 5325.00    1.04816   1.18835    0.020
 5326.00    1.07832   1.17740    0.020
 5327.00    1.04027   1.17249    0.020
 5328.00    0.98976   1.17134    0.020
 5329.00    1.08183   1.17249    0.020
 5330.00    1.19390   1.17629    0.020
 5331.00    1.28290   1.18087    0.020
 5332.00    1.36957   1.18908    0.020
 5333.00    1.32513   1.19691    0.020
 5334.00    1.27228   1.20538    0.020
 5335.00    1.20567   1.21252    0.020
 5336.00    1.13864   1.21941    0.020
 5337.00    1.06753   1.22460    0.020
 5338.00    1.00141   1.22760    0.020
 5339.00    1.07795   1.23072    0.020
 5340.00    1.15399   1.23402    0.021
 5341.00    1.22288   1.23601    0.020
 5342.00    1.29096   1.23803    0.020
 5343.00    1.35142   1.23987    0.020
 5344.00    1.39921   1.24183    0.020
 5345.00    1.36054   1.24588    0.020
 5346.00    1.33160   1.24977    0.020
 5347.00    1.35404   1.25486    0.020
 5348.00    1.38141   1.26210    0.020
 5349.00    1.42969   1.27078    0.020
 5350.00    1.43888   1.28044    0.020
 5351.00    1.31105   1.28966    0.020
 5352.00    1.20120   1.29942    0.020
 5353.00    1.14433   1.30867    0.021
 5354.00    1.13528   1.31618    0.021
 5355.00    1.24640   1.32309    0.021
 5356.00    1.28230   1.32700    0.021
 5357.00    1.15542   1.32980    0.021
 5358.00    1.08321   1.32931    0.021
 5359.00    1.11367   1.32638    0.020
 5360.00    1.19950   1.32057    0.020
 5361.00    1.37615   1.31302    0.021
 5362.00    1.41390   1.30447    0.021
 5363.00    1.25188   1.29305    0.021
 5364.00    1.22793   1.28324    0.021
 5365.00    1.37865   1.27167    0.021
 5366.00    1.38282   1.26198    0.021
 5367.00    1.22360   1.25279    0.020
 5368.00    1.15312   1.24446   -2.000
 5369.00    1.16989   1.23881   -2.000
 5370.00    1.14009   1.23578   -2.000
 5371.00    1.06990   1.23789   -2.000
 5372.00    0.98011   1.23985   -2.000
 5373.00    0.87535   1.24552   -2.000
 5374.00    0.94444   1.25079   -2.000
 5375.00    1.13026   1.25672   -2.000
 5376.00    1.22415   1.26367   -2.000
 5377.00    1.26397   1.26957   -2.000
 5378.00    1.24877   1.27511   -2.000
 5379.00    1.20536   1.27888   -2.000
 5380.00    1.18172   1.28246   -2.000
 5381.00    1.16688   1.28302   -2.000
 5382.00    1.19048   1.28292   -2.000
 5383.00    1.22877   1.28117    0.020
 5384.00    1.20779   1.27730    0.020
 5385.00    1.16758   1.27243    0.019
 5386.00    1.20790   1.26595    0.020
 5387.00    1.27008   1.25862    0.020
 5388.00    1.23631   1.24994    0.020
 5389.00    1.18116   1.24171    0.019
 5390.00    1.13266   1.23248    0.019
 5391.00    1.08532   1.22436    0.019
 5392.00    1.09423   1.21583    0.019
 5393.00    1.11076   1.20790    0.019
 5394.00    1.11163   1.19995    0.019
 5395.00    1.11099   1.19109    0.019
 5396.00    1.07663   1.18563    0.019
 5397.00    1.04024   1.18037    0.020
 5398.00    1.03905   1.17587    0.019
 5399.00    1.03940   1.17152    0.019
 5400.00    1.14317   1.16839    0.019
 5401.00    1.24118   1.16480    0.020
 5402.00    1.19084   1.16107    0.020
 5403.00    1.14048   1.15806    0.019
 5404.00    1.08990   1.15571    0.020
 5405.00    1.03437   1.15708    0.020
 5406.00    0.93448   1.15990    0.020
 5407.00    0.86671   1.16347    0.020
 5408.00    1.01133   1.16779    0.020
 5409.00    1.13224   1.17538    0.020
 5410.00    1.13122   1.18412    0.020
 5411.00    1.13981   1.19366    0.020
 5412.00    1.18829   1.20384    0.020
 5413.00    1.22519   1.21396    0.020
 5414.00    1.22234   1.22534    0.020
 5415.00    1.23061   1.23538    0.020
 5416.00    1.27103   1.24386    0.020
 5417.00    1.27115   1.25032    0.020
 5418.00    1.17172   1.25505    0.020
 5419.00    1.11113   1.25856    0.020
 5420.00    1.13320   1.26018    0.020
 5421.00    1.14679   1.25982    0.020
 5422.00    1.14469   1.25711    0.020
 5423.00    1.16386   1.25461    0.019
 5424.00    1.21737   1.25120    0.019
 5425.00    1.26443   1.24659    0.019
 5426.00    1.30235   1.24148    0.019
 5427.00    1.30128   1.23401    0.019
 5428.00    1.25158   1.22796    0.019
 5429.00    1.19336   1.22485    0.019
 5430.00    1.12578   1.22066    0.019
 5431.00    1.11575   1.21826    0.019
 5432.00    1.16153   1.21693    0.019
 5433.00    1.11815   1.21773    0.019
 5434.00    0.99854   1.22057    0.018
 5435.00    0.99507   1.22380    0.018
 5436.00    1.07905   1.22916    0.019
 5437.00    1.11374   1.23413    0.018
 5438.00    1.11581   1.24143    0.018
 5439.00    1.13431   1.24691    0.018
 5440.00    1.16233   1.25055    0.018
 5441.00    1.21945   1.25390    0.018
 5442.00    1.29127   1.25447    0.019
 5443.00    1.29789   1.25414    0.019
 5444.00    1.27600   1.25084    0.019
 5445.00    1.32537   1.24639    0.019
 5446.00    1.40145   1.24297    0.019
 5447.00    1.35165   1.23821    0.019
 5448.00    1.26179   1.23442    0.019
 5449.00    1.17903   1.22967    0.019
 5450.00    1.09816   1.22538    0.019
 5451.00    1.07711   1.22102    0.019
 5452.00    1.06907   1.21669    0.019
 5453.00    1.08458   1.21267    0.019
 5454.00    1.10414   1.20964    0.019
 5455.00    1.10067   1.21061    0.019
 5456.00    1.09417   1.21124    0.019
 5457.00    1.09044   1.21235    0.019
 5458.00    1.08696   1.21221    0.019
 5459.00    1.22034   1.21250    0.019
 5460.00    1.36141   1.21284    0.019
 5461.00    1.32477   1.21213    0.020
 5462.00    1.28469   1.21302    0.020
 5463.00    1.29920   1.21391    0.020
 5464.00    1.31229   1.21495    0.020
 5465.00    1.29194   1.21509    0.019
 5466.00    1.27009   1.21414    0.019
 5467.00    1.22889   1.21155    0.019
 5468.00    1.19931   1.20806    0.019
 5469.00    1.27021   1.20495    0.019
 5470.00    1.32015   1.20154    0.020
 5471.00    1.23572   1.19696    0.019
 5472.00    1.15480   1.19288    0.019
 5473.00    1.09143   1.18874    0.019
 5474.00    1.02446   1.18332    0.019
 5475.00    0.94287   1.17966    0.018
 5476.00    0.90897   1.17801    0.018
 5477.00    1.03561   1.17684    0.018
 5478.00    1.14857   1.17694   -2.000
 5479.00    1.22267   1.17702   -2.000
 5480.00    1.27048   1.17915   -2.000
 5481.00    1.25450   1.18134   -2.000
 5482.00    1.23933   1.18577   -2.000
 5483.00    1.22588   1.19084   -2.000
 5484.00    1.04995   1.19475   -2.000
 5485.00    0.57812   1.19942   -2.000
 5486.00    0.33570   1.20341   -2.000
 5487.00    0.45846   1.20742   -2.000
 5488.00    0.70616   1.20928   -2.000
 5489.00    1.12840   1.21286   -2.000
 5490.00    1.53828   1.21619   -2.000
 5491.00    1.93297   1.21771   -2.000
 5492.00    1.89951   1.21867   -2.000
 5493.00    1.40205   1.21918   -2.000
 5494.00    1.13812   1.21897   -2.000
 5495.00    1.09742   1.21765   -2.000
 5496.00    1.12513   1.21760   -2.000
 5497.00    1.21049   1.21644   -2.000
 5498.00    1.26149   1.21481   -2.000
 5499.00    1.28699   1.21268   -2.000
 5500.00    1.28259   1.20989   -2.000
 5501.00    1.25871   1.20684   -2.000
 5502.00    1.23229   1.20380    0.019
 5503.00    1.20442   1.20113    0.019
 5504.00    1.19093   1.19690    0.019
 5505.00    1.18457   1.19409    0.019
 5506.00    1.19425   1.19238    0.019
 5507.00    1.21081   1.19004    0.019
 5508.00    1.19432   1.18831    0.019
 5509.00    1.16566   1.18735    0.019
 5510.00    1.17460   1.18642    0.019
 5511.00    1.19528   1.18676    0.019
 5512.00    1.19866   1.18774    0.019
 5513.00    1.19755   1.19021    0.019
 5514.00    1.16267   1.19370    0.019
 5515.00    1.12062   1.19787    0.019
 5516.00    1.14225   1.20299    0.019
 5517.00    1.17458   1.20709    0.018
 5518.00    1.26987   1.21126    0.018
 5519.00    1.37314   1.21445    0.018
 5520.00    1.30372   1.21747    0.018
 5521.00    1.21907   1.22037    0.018
 5522.00    1.18003   1.22206    0.018
 5523.00    1.14338   1.22263    0.018
 5524.00    1.16463   1.22218    0.018
 5525.00    1.18685   1.22080    0.018
 5526.00    1.20063   1.21813    0.018
 5527.00    1.21115   1.21668    0.018
 5528.00    1.15167   1.21564    0.018
 5529.00    1.09947   1.21501    0.018
 5530.00    1.13610   1.21512    0.017
 5531.00    1.16983   1.21509    0.017
 5532.00    1.17931   1.21616    0.017
 5533.00    1.18744   1.21647    0.018
 5534.00    1.18711   1.21874    0.018
 5535.00    1.18689   1.22136    0.017
 5536.00    1.18723   1.22415    0.018
 5537.00    1.18985   1.22811    0.018
 5538.00    1.20156   1.23118    0.018
 5539.00    1.19442   1.23508    0.018
 5540.00    1.12506   1.23812    0.018
 5541.00    1.08731   1.24116    0.018
 5542.00    1.13775   1.24430    0.018
 5543.00    1.18561   1.24718    0.022
 5544.00    1.22731   1.24992    0.054
 5545.00    1.25994   1.25241   -1.000
 5546.00    1.27390   1.25509   -1.000
 5547.00    1.28222   1.25694   -1.000
 5548.00    1.28046   1.25846   -1.000
 5549.00    1.25137   1.25900   -1.000
 5550.00    1.17939   1.25911   -1.000
 5551.00    1.15095   1.25820    0.088
 5552.00    1.18245   1.25685    0.026
 5553.00    1.19840   1.25508    0.019
 5554.00    1.19552   1.25262    0.018
 5555.00    1.16856   1.25009    0.018
 5556.00    1.11587   1.24638    0.018
 5557.00    1.09554   1.24276    0.018
 5558.00    1.10572   1.23828    0.018
 5559.00    1.09882   1.23413    0.018
 5560.00    1.07773   1.22950    0.018
 5561.00    1.09816   1.22482    0.018
 5562.00    1.14896   1.22153    0.018
 5563.00    1.14690   1.21700    0.018
 5564.00    1.11087   1.21351    0.017
 5565.00    1.07286   1.21047    0.017
 5566.00    1.03373   1.20780    0.017
 5567.00    1.05578   1.20580    0.017
 5568.00    1.10775   1.20425    0.017
 5569.00    1.09188   1.20456    0.017
 5570.00    1.04734   1.20380    0.017
 5571.00    1.06952   1.20396    0.017
 5572.00    1.11583   1.20538    0.017
 5573.00    1.17706   1.20601    0.017
 5574.00    1.24284   1.20703    0.017
 5575.00    1.12273   1.20811    0.017
 5576.00    0.95529   1.20845    0.017
 5577.00    0.97273   1.20723    0.017
 5578.00    1.02847   1.20569    0.017
 5579.00    1.09169   1.20292    0.017
 5580.00    1.15612   1.19874    0.017
 5581.00    1.16170   1.19421    0.017
 5582.00    1.16010   1.18865    0.018
 5583.00    1.13594   1.18239    0.018
 5584.00    1.10989   1.17526    0.018
 5585.00    1.11437   1.16785    0.018
 5586.00    1.12033   1.16145    0.018
 5587.00    1.14756   1.15552    0.018
 5588.00    1.17502   1.15175    0.018
 5589.00    1.19702   1.14929    0.018
 5590.00    1.21446   1.14736    0.018
 5591.00    1.14138   1.14693    0.018
 5592.00    1.07616   1.14637    0.018
 5593.00    1.10222   1.14791    0.019
 5594.00    1.13280   1.15082    0.019
 5595.00    1.19971   1.15413    0.019
 5596.00    1.25893   1.15774    0.019
 5597.00    1.27164   1.16165    0.019
 5598.00    1.27972   1.16543    0.019
 5599.00    1.26570   1.16906    0.019
 5600.00    1.23675   1.17390    0.019
 5601.00    1.14982   1.17864    0.019
 5602.00    1.07915   1.18488    0.018
 5603.00    1.06112   1.19039    0.018
 5604.00    1.06022   1.19679    0.018
 5605.00    1.10625   1.20271    0.018
 5606.00    1.15323   1.20643    0.018
 5607.00    1.20242   1.21060    0.018
 5608.00    1.22908   1.21238    0.018
 5609.00    1.21003   1.21454    0.017
 5610.00    1.20399   1.21547    0.017
 5611.00    1.22094   1.21454    0.017
 5612.00    1.23133   1.21214    0.017
 5613.00    1.23162   1.20648    0.017
 5614.00    1.20674   1.20173    0.017
 5615.00    1.14773   1.19689    0.017
 5616.00    1.09186   1.19224    0.017
 5617.00    1.03974   1.18868    0.017
 5618.00    1.03168   1.18461    0.016
 5619.00    1.07004   1.18165    0.016
 5620.00    1.11719   1.17874    0.017
 5621.00    1.17251   1.17745    0.017
 5622.00    1.19032   1.17746    0.017
 5623.00    1.17741   1.17772    0.017
 5624.00    1.14536   1.17924    0.017
 5625.00    1.09952   1.18108    0.017
 5626.00    1.05617   1.18387    0.017
 5627.00    1.01439   1.18698    0.017
 5628.00    0.98511   1.18956    0.017
 5629.00    0.96274   1.19163    0.017
 5630.00    1.02878   1.19338    0.017
 5631.00    1.13735   1.19516    0.018
 5632.00    1.18015   1.19613    0.018
 5633.00    1.19563   1.19641    0.018
 5634.00    1.18988   1.19578    0.018
 5635.00    1.17658   1.19459    0.017
 5636.00    1.12981   1.19313    0.017
 5637.00    1.07299   1.19156    0.017
 5638.00    1.08232   1.19052    0.018
 5639.00    1.10813   1.18869    0.018
 5640.00    1.13159   1.18778    0.018
 5641.00    1.15457   1.18694    0.017
 5642.00    1.14674   1.18643    0.017
 5643.00    1.13404   1.18735    0.017
 5644.00    1.11457   1.18807    0.017
 5645.00    1.09430   1.18956    0.017
 5646.00    1.15885   1.19014    0.017
 5647.00    1.23016   1.19064    0.017
 5648.00    1.21335   1.19108    0.017
 5649.00    1.19261   1.19107    0.017
 5650.00    1.18095   1.19107    0.016
 5651.00    1.16890   1.18969    0.016
 5652.00    1.13318   1.18768    0.016
 5653.00    1.09963   1.18523    0.016
 5654.00    1.10618   1.18253    0.016
 5655.00    1.11375   1.17919    0.017
 5656.00    1.13254   1.17540    0.017
 5657.00    1.15212   1.17311    0.017
 5658.00    1.17781   1.17104    0.016
 5659.00    1.19316   1.16928    0.016
 5660.00    1.14782   1.16827    0.016
 5661.00    1.10196   1.16878    0.016
 5662.00    1.05372   1.17033    0.017
 5663.00    1.02032   1.17170    0.017
 5664.00    1.04337   1.17518    0.017
 5665.00    1.06850   1.17982    0.017
 5666.00    1.10024   1.18454    0.017
 5667.00    1.12462   1.18865    0.017
 5668.00    1.12924   1.19332    0.017
 5669.00    1.12630   1.19903    0.017
 5670.00    1.10592   1.20432    0.017
 5671.00    1.08685   1.20941    0.017
 5672.00    1.07041   1.21339    0.017
 5673.00    1.07667   1.21650    0.018
 5674.00    1.12239   1.21938    0.018
 5675.00    1.16358   1.22069    0.018
 5676.00    1.19785   1.22160    0.018
 5677.00    1.20192   1.22205    0.018
 5678.00    1.16559   1.22166    0.018
 5679.00    1.16633   1.22004    0.017
 5680.00    1.21074   1.21650    0.017
 5681.00    1.22781   1.21414    0.017
 5682.00    1.21650   1.21185    0.017
 5683.00    1.21626   1.20988    0.017
 5684.00    1.22618   1.20788    0.017
 5685.00    1.21616   1.20640    0.017
 5686.00    1.19004   1.20549    0.017
 5687.00    1.13463   1.20385    0.017
 5688.00    1.05842   1.20418    0.016
 5689.00    1.06748   1.20506    0.016
 5690.00    1.12973   1.20699    0.017
 5691.00    1.18568   1.20690    0.016
 5692.00    1.23821   1.20639    0.016
 5693.00    1.25201   1.20626    0.016
 5694.00    1.24749   1.20445    0.016
 5695.00    1.20335   1.20339    0.016
 5696.00    1.14303   1.20005    0.016
 5697.00    1.08607   1.19715    0.017
 5698.00    1.03027   1.19266    0.017
 5699.00    1.00795   1.18611    0.018
 5700.00    0.99548   1.18069    0.018
 5701.00    0.96894   1.17460    0.018
 5702.00    0.93898   1.16918    0.018
 5703.00    0.94394   1.16394    0.017
 5704.00    0.95577   1.15874    0.017
 5705.00    1.02760   1.15468    0.017
 5706.00    1.10865   1.15134    0.017
 5707.00    1.08831   1.14882    0.017
 5708.00    1.05648   1.14950    0.017
 5709.00    1.12869   1.15096    0.017
 5710.00    1.20877   1.15356    0.018
 5711.00    1.18870   1.15823    0.017
 5712.00    1.16456   1.16327    0.017
 5713.00    1.17016   1.17078    0.017
 5714.00    1.17567   1.17845    0.017
 5715.00    1.16812   1.18704    0.017
 5716.00    1.16302   1.19622    0.017
 5717.00    1.19992   1.20388    0.017
 5718.00    1.22787   1.21246    0.017
 5719.00    1.16116   1.22023    0.017
 5720.00    1.10293   1.22596    0.017
 5721.00    1.10828   1.23175    0.017
 5722.00    1.12018   1.23635    0.016
 5723.00    1.16951   1.23961    0.016
 5724.00    1.19932   1.24126    0.016
 5725.00    1.14049   1.24171    0.016
 5726.00    1.09058   1.24277    0.016
 5727.00    1.07387   1.24307    0.016
 5728.00    1.07593   1.24326    0.016
 5729.00    1.13639   1.24244    0.016
 5730.00    1.18130   1.24130    0.016
 5731.00    1.18515   1.24073    0.016
 5732.00    1.17779   1.23953    0.016
 5733.00    1.14500   1.24017    0.016
 5734.00    1.13658   1.24091    0.016
 5735.00    1.17604   1.24059    0.016
 5736.00    1.22458   1.23948    0.016
 5737.00    1.28870   1.23894    0.017
 5738.00    1.32406   1.24012    0.017
 5739.00    1.31628   1.24056    0.017
 5740.00    1.29704   1.23992    0.000
 5741.00    1.26269   1.23823    0.000
 5742.00    1.25046   1.23728    0.000
 5743.00    1.26394   1.23695    0.000
 5744.00    1.24950   1.23652    0.000
 5745.00    1.20649   1.23509    0.000
 5746.00    1.20057   1.23225    0.000
 5747.00    1.22814   1.22973    0.000
 5748.00    1.25571   1.22747    0.000
 5749.00    1.28327   1.22671    0.000
 5750.00    1.28001   1.22567    0.000
 5751.00    1.25516   1.22380    0.000
 5752.00    1.22111   1.22077    0.000
 5753.00    1.18143   1.21784    0.000
 5754.00    1.16880   1.21701    0.000
 5755.00    1.17068   1.21716    0.000
 5756.00    1.14623   1.21756    0.000
 5757.00    1.10951   1.21707    0.000
 5758.00    1.13481   1.21654    0.000
 5759.00    1.18500   1.21625    0.000
 5760.00    1.18569   1.21716    0.000
 5761.00    1.16942   1.21930    0.000
 5762.00    1.16471   1.22123    0.000
 5763.00    1.16333   1.22315    0.000
 5764.00    1.18320   1.22531    0.000
 5765.00    1.20812   1.22685    0.000
 5766.00    1.24226   1.22851    0.000
 5767.00    1.27817   1.22955    0.000
 5768.00    1.33333   1.23025    0.000
 5769.00    1.39135   1.23172    0.000
 5770.00    1.36353   1.23141    0.000
 5771.00    1.32636   1.23013    0.000
 5772.00    1.28337   1.22716    0.000
 5773.00    1.23995   1.22342    0.000
 5774.00    1.17712   1.21852    0.000
 5775.00    1.11358   1.21316    0.000
 5776.00    1.18516   1.20825    0.000
 5777.00    1.25412   1.20182    0.000
 5778.00    1.20930   1.19446    0.000
 5779.00    1.16504   1.18723    0.000
 5780.00    1.12973   1.18122    0.000
 5781.00    1.10449   1.17613    0.000
 5782.00    1.18122   1.17269    0.000
 5783.00    1.24521   1.16933    0.000
 5784.00    1.21681   1.16711    0.000
 5785.00    1.19018   1.16688    0.000
 5786.00    1.17332   1.16729    0.000
 5787.00    1.14613   1.17154    0.000
 5788.00    1.07311   1.17660    0.000
 5789.00    1.02564   1.18126    0.000
 5790.00    1.07123   1.18607    0.000
 5791.00    1.11421   1.19085   -2.000
 5792.00    1.14923   1.19909   -2.000
 5793.00    1.19040   1.20668   -2.000
 5794.00    1.24752   1.21265   -2.000
 5795.00    1.27370   1.21854   -2.000
 5796.00    1.23079   1.22203   -2.000
 5797.00    1.19849   1.22678   -2.000
 5798.00    1.18674   1.23127   -2.000
 5799.00    1.16888   1.23482   -2.000
 5800.00    1.14075   1.23880   -2.000
 5801.00    1.13105   1.24020   -2.000
 5802.00    1.14862   1.24064   -2.000
 5803.00    1.17428   1.24092   -2.000
 5804.00    1.21045   1.24155   -2.000
 5805.00    1.22735   1.24266   -2.000
 5806.00    1.22220   1.24257   -2.000
 5807.00    1.20698   1.24204   -2.000
 5808.00    1.18159   1.24119   -2.000
 5809.00    1.15751   1.23979   -2.000
 5810.00    1.13458   1.23934   -2.000
 5811.00    1.11385   1.23999    0.000
 5812.00    1.09485   1.24009    0.000
 5813.00    1.11573   1.24040    0.000
 5814.00    1.16413   1.24026    0.000
 5815.00    1.18097   1.24070    0.000
 5816.00    1.17871   1.24219    0.000
 5817.00    1.17473   1.24353    0.000
 5818.00    1.16985   1.24602    0.000
 5819.00    1.18720   1.24762    0.000
 5820.00    1.21475   1.24912    0.000
 5821.00    1.21858   1.25055    0.000
 5822.00    1.21306   1.25229    0.000
 5823.00    1.26487   1.25493    0.000
 5824.00    1.33595   1.25627    0.000
 5825.00    1.33039   1.25750    0.000
 5826.00    1.30318   1.25788    0.000
 5827.00    1.28772   1.25805    0.000
 5828.00    1.27498   1.25828    0.000
 5829.00    1.26087   1.25829    0.000
 5830.00    1.24650   1.25843    0.000
 5831.00    1.24684   1.25746    0.000
 5832.00    1.24930   1.25637    0.000
 5833.00    1.25269   1.25557    0.000
 5834.00    1.25616   1.25492    0.000
 5835.00    1.26176   1.25440    0.000
 5836.00    1.26750   1.25344    0.000
 5837.00    1.28710   1.25251    0.000
 5838.00    1.30717   1.25156    0.000
 5839.00    1.33667   1.25018    0.000
 5840.00    1.36424   1.24883    0.000
 5841.00    1.33079   1.24727    0.000
 5842.00    1.29662   1.24529    0.000
 5843.00    1.25145   1.24241    0.000
 5844.00    1.21031   1.23882    0.000
 5845.00    1.20840   1.23472    0.000
 5846.00    1.20580   1.22981    0.000
 5847.00    1.19844   1.22482    0.000
 5848.00    1.19519   1.21944    0.000
 5849.00    1.21412   1.21398    0.000
 5850.00    1.22611   1.20738    0.000
 5851.00    1.20799   1.20064    0.000
 5852.00    1.19380   1.19481    0.000
 5853.00    1.19362   1.18940    0.000
 5854.00    1.20514   1.18562    0.000
 5855.00    1.25173   1.18105    0.000
 5856.00    1.27607   1.17731    0.000
 5857.00    1.24367   1.17452    0.000
 5858.00    1.20847   1.17253    0.000
 5859.00    1.16711   1.17323    0.000
 5860.00    1.14602   1.17356    0.000
 5861.00    1.16350   1.17458    0.000
 5862.00    1.16023   1.17561    0.000
 5863.00    1.12247   1.17740    0.000
 5864.00    1.08689   1.18102    0.000
 5865.00    1.05447   1.18397    0.000
 5866.00    1.06936   1.18642    0.000
 5867.00    1.14485   1.18830    0.000
 5868.00    1.21696   1.19042    0.000
 5869.00    1.28528   1.19282    0.000
 5870.00    1.33159   1.19428    0.000
 5871.00    1.35599   1.19381    0.000
 5872.00    1.37073   1.19250    0.000
 5873.00    1.37697   1.19078    0.000
 5874.00    1.35841   1.18854    0.000
 5875.00    1.32065   1.18529    0.000
 5876.00    1.29021   1.17930    0.000
 5877.00    1.26475   1.17164    0.000
 5878.00    1.25610   1.16253    0.000
 5879.00    1.25747   1.15303    0.000
 5880.00    1.22030   1.14251    0.000
 5881.00    1.16311   1.12936    0.000
 5882.00    1.11871   1.11374    0.000
 5883.00    1.08008   1.09564    0.000
 5884.00    1.05735   1.07793    0.000
 5885.00    1.04077   1.06065    0.000
 5886.00    1.02139   1.04363    0.000
 5887.00    1.00108   1.02620    0.000
 5888.00    0.98193   1.00655    0.000
 5889.00    0.96311   0.98958    0.000
 5890.00    1.01484   0.97678    0.000
 5891.00    1.08261   0.96899    0.000
 5892.00    1.09887   0.96560    0.000
 5893.00    1.10576   0.96125    0.000
 5894.00    1.11799   0.95971    0.000
 5895.00    1.13098   0.96367    0.000
 5896.00    1.14115   0.97296    0.000
 5897.00    1.15104   0.98803    0.000
 5898.00    1.10635   1.00229    0.000
 5899.00    1.05819   1.01561    0.000
 5900.00    1.03037   1.03056    0.000
 5901.00    1.00337   1.04691    0.016
 5902.00    1.05195   1.06570    0.015
 5903.00    1.10071   1.08279    0.015
 5904.00    1.15470   1.09633    0.015
 5905.00    1.20469   1.10826    0.015
 5906.00    1.19774   1.11871    0.016
 5907.00    1.18592   1.12874    0.016
 5908.00    1.12876   1.13719    0.015
 5909.00    1.08436   1.14266    0.015
 5910.00    1.12654   1.14711    0.015
 5911.00    1.16373   1.15042    0.015
 5912.00    1.17464   1.15292    0.015
 5913.00    1.18119   1.15511    0.016
 5914.00    1.16935   1.15573    0.016
 5915.00    1.16797   1.15690    0.016
 5916.00    1.20319   1.15812    0.016
 5917.00    1.22211   1.15881    0.016
 5918.00    1.19307   1.16014    0.016
 5919.00    1.16733   1.16072    0.016
 5920.00    1.14990   1.16163    0.016
 5921.00    1.15421   1.16339    0.016
 5922.00    1.20550   1.16401    0.016
 5923.00    1.23566   1.16479    0.016
 5924.00    1.22623   1.16596    0.016
 5925.00    1.20618   1.16615    0.016
 5926.00    1.16877   1.16751    0.016
 5927.00    1.15410   1.16760    0.016
 5928.00    1.17209   1.16694    0.016
 5929.00    1.16281   1.16775    0.015
 5930.00    1.11910   1.16727    0.015
 5931.00    1.09664   1.16821    0.015
 5932.00    1.09784   1.16875    0.015
 5933.00    1.10367   1.16786    0.021
 5934.00    1.11406   1.16846    0.066
 5935.00    1.11765   1.16833   -1.000
 5936.00    1.11536   1.16920   -1.000
 5937.00    1.10864   1.17052   -1.000
 5938.00    1.09856   1.17030   -1.000
 5939.00    1.08089   1.17070   -1.000
 5940.00    1.05815   1.17087   -1.000
 5941.00    1.05120   1.17090   -1.000
 5942.00    1.05353   1.17150   -1.000
 5943.00    1.06955   1.17129   -1.000
 5944.00    1.09257   1.17107   -1.000
 5945.00    1.11450   1.17078   -1.000
 5946.00    1.13595   1.16966   -1.000
 5947.00    1.14375   1.16877    0.042
 5948.00    1.14635   1.16786    0.018
 5949.00    1.09346   1.16730    0.015
 5950.00    1.02261   1.16694    0.015
 5951.00    1.02189   1.16581    0.016
 5952.00    1.04017   1.16510    0.016
 5953.00    1.11589   1.16469    0.016
 5954.00    1.20438   1.16537    0.016
 5955.00    1.20339   1.16676    0.016
 5956.00    1.18656   1.16730    0.016
 5957.00    1.16811   1.16873    0.015
 5958.00    1.14944   1.17031    0.015
 5959.00    1.16154   1.17278    0.015
 5960.00    1.17659   1.17608    0.015
 5961.00    1.14243   1.17789    0.015
 5962.00    1.10534   1.18070    0.015
 5963.00    1.08639   1.18308    0.015
 5964.00    1.06845   1.18526    0.014
 5965.00    1.13408   1.18807    0.015
 5966.00    1.19775   1.18894    0.015
 5967.00    1.21125   1.19053    0.015
 5968.00    1.22395   1.19135    0.015
 5969.00    1.22583   1.19107    0.015
 5970.00    1.22878   1.19120    0.015
 5971.00    1.24125   1.18966    0.015
 5972.00    1.24540   1.18833    0.015
 5973.00    1.19483   1.18674    0.015
 5974.00    1.15111   1.18388    0.015
 5975.00    1.14248   1.18164    0.015
 5976.00    1.13645   1.17861    0.015
 5977.00    1.14122   1.17538    0.015
 5978.00    1.14184   1.17313    0.015
 5979.00    1.12821   1.17007    0.016
 5980.00    1.11000   1.16815    0.016
 5981.00    1.07858   1.16653    0.015
 5982.00    1.05423   1.16418    0.015
 5983.00    1.04732   1.16373    0.015
 5984.00    1.06434   1.16304    0.015
 5985.00    1.13221   1.16317    0.015
 5986.00    1.18207   1.16423    0.016
 5987.00    1.19867   1.16402    0.015
 5988.00    1.20767   1.16543    0.015
 5989.00    1.20443   1.16678    0.015
 5990.00    1.21520   1.16766    0.015
 5991.00    1.24579   1.16913    0.015
 5992.00    1.26448   1.16922    0.015
 5993.00    1.26834   1.16987    0.015
 5994.00    1.25782   1.17073    0.015
 5995.00    1.23152   1.16998    0.015
 5996.00    1.20108   1.16917    0.015
 5997.00    1.16662   1.16782    0.015
 5998.00    1.13941   1.16595    0.015
 5999.00    1.11838   1.16546    0.014
 6000.00    1.11402   1.16351    0.014
 6001.00    1.12219   1.16048    0.014
 6002.00    1.13235   1.15861    0.014
 6003.00    1.14384   1.15556    0.015
 6004.00    1.16316   1.15463    0.015
 6005.00    1.18700   1.15366    0.014
 6006.00    1.20918   1.15009    0.015
 6007.00    1.23051   1.14873    0.015
 6008.00    1.20693   1.14681    0.015
 6009.00    1.16376   1.14595    0.015
 6010.00    1.16222   1.14644    0.015
 6011.00    1.17627   1.14388    0.015
 6012.00    1.16272   1.14283    0.015
 6013.00    1.14040   1.14284    0.015
 6014.00    1.14341   1.14233    0.016
 6015.00    1.15313   1.14326    0.016
 6016.00    1.14999   1.14287    0.016
 6017.00    1.14406   1.14256    0.016
 6018.00    1.12888   1.14459    0.016
 6019.00    1.11212   1.14569    0.016
 6020.00    1.11722   1.14754    0.016
 6021.00    1.12518   1.15034    0.015
 6022.00    1.13834   1.15222    0.015
 6023.00    1.15198   1.15647    0.015
 6024.00    1.12735   1.16017    0.015
 6025.00    1.10059   1.16360    0.015
 6026.00    1.09275   1.16861    0.015
 6027.00    1.08564   1.17228    0.015
 6028.00    1.11022   1.17723    0.014
 6029.00    1.13339   1.18169    0.014
 6030.00    1.12370   1.18501    0.014
 6031.00    1.11414   1.18937    0.014
 6032.00    1.10635   1.19250    0.014
 6033.00    1.09996   1.19584    0.015
 6034.00    1.10559   1.19875    0.015
 6035.00    1.11544   1.20037    0.015
 6036.00    1.15222   1.20290    0.015
 6037.00    1.19084   1.20452    0.015
 6038.00    1.23863   1.20598    0.015
 6039.00    1.27589   1.20757    0.015
 6040.00    1.27058   1.20813    0.015
 6041.00    1.25625   1.20958    0.015
 6042.00    1.21169   1.21047    0.015
 6043.00    1.17360   1.21093    0.015
 6044.00    1.15386   1.21175    0.016
 6045.00    1.13852   1.21189    0.016
 6046.00    1.13385   1.21211    0.015
 6047.00    1.14736   1.21183    0.015
 6048.00    1.19887   1.21106    0.015
 6049.00    1.22134   1.21019    0.015
 6050.00    1.19105   1.20908    0.015
 6051.00    1.16450   1.20733    0.015
 6052.00    1.14388   1.20530    0.015
 6053.00    1.13786   1.20327    0.015
 6054.00    1.15218   1.20110    0.015
 6055.00    1.16001   1.19891    0.015
 6056.00    1.15987   1.19644    0.015
 6057.00    1.15790   1.19466    0.015
 6058.00    1.15393   1.19288    0.014
 6059.00    1.14437   1.19158    0.014
 6060.00    1.12947   1.19031    0.015
 6061.00    1.12573   1.18933    0.015
 6062.00    1.13138   1.19041    0.014
 6063.00    1.13051   1.19037    0.014
 6064.00    1.12480   1.19123    0.015
 6065.00    1.12466   1.19270    0.015
 6066.00    1.12814   1.19375    0.015
 6067.00    1.14239   1.19709    0.015
 6068.00    1.16277   1.19830    0.015
 6069.00    1.20006   1.19955    0.015
 6070.00    1.24575   1.20200    0.015
 6071.00    1.25097   1.20231    0.015
 6072.00    1.23884   1.20337    0.016
 6073.00    1.19122   1.20285    0.015
 6074.00    1.13055   1.20111    0.015
 6075.00    1.11492   1.20057    0.015
 6076.00    1.11331   1.19767    0.015
 6077.00    1.11696   1.19440    0.015
 6078.00    1.12198   1.19165    0.015
 6079.00    1.13982   1.18779    0.015
 6080.00    1.16038   1.18443    0.015
 6081.00    1.17638   1.18075    0.015
 6082.00    1.19162   1.17698    0.015
 6083.00    1.17983   1.17457    0.014
 6084.00    1.16464   1.17217    0.014
 6085.00    1.11196   1.16934    0.014
 6086.00    1.05601   1.16761    0.014
 6087.00    1.07292   1.16637    0.014
 6088.00    1.09361   1.16509    0.014
 6089.00    1.13656   1.16470    0.014
 6090.00    1.17942   1.16424    0.014
 6091.00    1.18651   1.16394    0.014
 6092.00    1.19221   1.16347    0.014
 6093.00    1.16827   1.16245    0.014
 6094.00    1.14354   1.16298    0.015
 6095.00    1.10925   1.16340    0.015
 6096.00    1.07705   1.16286    0.015
 6097.00    1.06230   1.16119    0.015
 6098.00    1.05091   1.15956    0.015
 6099.00    1.06031   1.16109    0.015
 6100.00    1.07158   1.16097    0.015
 6101.00    1.09192   1.15945    0.015
 6102.00    1.11632   1.15893    0.015
 6103.00    1.15683   1.15825    0.015
 6104.00    1.19443   1.16125    0.015
 6105.00    1.22246   1.16233    0.015
 6106.00    1.23899   1.16071    0.015
 6107.00    1.22347   1.16283    0.015
 6108.00    1.20888   1.16497    0.015
 6109.00    1.19648   1.16722    0.015
 6110.00    1.18941   1.16856    0.015
 6111.00    1.19327   1.16685    0.015
 6112.00    1.19635   1.16735    0.014
 6113.00    1.19802   1.16943    0.014
 6114.00    1.18880   1.16854    0.014
 6115.00    1.16253   1.16639    0.014
 6116.00    1.14569   1.16410    0.014
 6117.00    1.14180   1.16098    0.014
 6118.00    1.13158   1.16024    0.014
 6119.00    1.11368   1.15834    0.014
 6120.00    1.10253   1.15393    0.014
 6121.00    1.09857   1.15234    0.014
 6122.00    1.09417   1.14987    0.014
 6123.00    1.08938   1.14812    0.015
 6124.00    1.10687   1.14795    0.015
 6125.00    1.14286   1.14516    0.015
 6126.00    1.17370   1.14413    0.015
 6127.00    1.20077   1.14323    0.015
 6128.00    1.19201   1.14195    0.015
 6129.00    1.16027   1.14199    0.015
 6130.00    1.13181   1.14010    0.015
 6131.00    1.10521   1.13770    0.015
 6132.00    1.08925   1.13504    0.015
 6133.00    1.07850   1.13418    0.015
 6134.00    1.10148   1.13434    0.015
 6135.00    1.13868   1.13223    0.015
 6136.00    1.15395   1.13042    0.015
 6137.00    1.16130   1.12901    0.015
 6138.00    1.17636   1.13065    0.015
 6139.00    1.19378   1.13321    0.015
 6140.00    1.22679   1.13280    0.015
 6141.00    1.26376   1.13438    0.014
 6142.00    1.27442   1.13719    0.014
 6143.00    1.27965   1.14059    0.014
 6144.00    1.26859   1.14292    0.014
 6145.00    1.25488   1.14230    0.014
 6146.00    1.26204   1.14400    0.014
 6147.00    1.27173   1.14590    0.014
 6148.00    1.21889   1.14579    0.014
 6149.00    1.16084   1.14380    0.015
 6150.00    1.10749   1.13963    0.014
 6151.00    1.05437   1.13673    0.014
 6152.00    1.04252   1.13278    0.014
 6153.00    1.03136   1.12696    0.014
 6154.00    1.02550   1.12100    0.015
 6155.00    1.01939   1.11363    0.015
 6156.00    1.00829   1.10563    0.015
 6157.00    0.99775   1.09752    0.015
 6158.00    0.99373   1.08954    0.015
 6159.00    0.98983   1.08223    0.015
 6160.00    0.98691   1.07516    0.015
 6161.00    0.98518   1.06797    0.015
 6162.00    0.99063   1.06272    0.015
 6163.00    0.99161   1.05912    0.015
 6164.00    0.97130   1.05458    0.015
 6165.00    0.95670   1.05211    0.014
 6166.00    0.96420   1.05252    0.014
 6167.00    0.97090   1.05399    0.014
 6168.00    0.97498   1.05616    0.014
 6169.00    0.97252   1.05758    0.014
 6170.00    0.95216   1.06053    0.014
 6171.00    0.94884   1.06612    0.014
 6172.00    0.98543   1.07077    0.014
 6173.00    1.02253   1.07480    0.014
 6174.00    1.06066   1.08002    0.014
 6175.00    1.08735   1.08459    0.014
 6176.00    1.09386   1.08880    0.014
 6177.00    1.10935   1.09243    0.014
 6178.00    1.13869   1.09435    0.014
 6179.00    1.15586   1.09771    0.014
 6180.00    1.15655   1.10001    0.014
 6181.00    1.15278   1.09911    0.014
 6182.00    1.14371   1.09928    0.014
 6183.00    1.13468   1.09839    0.014
 6184.00    1.12569   1.09702    0.014
 6185.00    1.13454   1.09636    0.015
 6186.00    1.15996   1.09186    0.015
 6187.00    1.15073   1.08931    0.015
 6188.00    1.11318   1.08930    0.015
 6189.00    1.08572   1.08615    0.015
 6190.00    1.06554   1.08470    0.015
 6191.00    1.06979   1.08322    0.015
 6192.00    1.08947   1.08264    0.015
 6193.00    1.07987   1.08550    0.014
 6194.00    1.05411   1.08432    0.015
 6195.00    1.01358   1.08398    0.015
 6196.00    0.96596   1.08782   -2.000
 6197.00    1.07225   1.09049   -2.000
 6198.00    1.24235   1.09313   -2.000
 6199.00    1.48401   1.09405   -2.000
 6200.00    1.75104   1.09476   -2.000
 6201.00    1.73274   1.09847   -2.000
 6202.00    1.62905   1.10015   -2.000
 6203.00    1.38024   1.09934   -2.000
 6204.00    1.09539   1.09943   -2.000
 6205.00    0.97605   1.09882   -2.000
 6206.00    0.89003   1.09730   -2.000
 6207.00    0.93867   1.09534   -2.000
 6208.00    1.00854   1.09075    0.015
 6209.00    1.04343   1.08652    0.015
 6210.00    1.07421   1.08316    0.015
 6211.00    1.11886   1.07745    0.015
 6212.00    1.16462   1.07308    0.015
 6213.00    1.18238   1.06837    0.015
 6214.00    1.19891   1.06165    0.015
 6215.00    1.20272   1.05787    0.015
 6216.00    1.20620   1.05359    0.015
 6217.00    1.20080   1.04965    0.015
 6218.00    1.19331   1.04796    0.014
 6219.00    1.14782   1.04381    0.014
 6220.00    1.10385   1.04196    0.014
 6221.00    1.07671   1.04186    0.014
 6222.00    1.05240   1.03942    0.014
 6223.00    1.04989   1.03920    0.014
 6224.00    1.04908   1.03887    0.014
 6225.00    1.05816   1.03726    0.014
 6226.00    1.06123   1.03805    0.014
 6227.00    1.03635   1.03763    0.014
 6228.00    1.02070   1.03642    0.014
 6229.00    1.04003   1.03754    0.014
 6230.00    1.06348   1.03703    0.014
 6231.00    1.10004   1.03702    0.014
 6232.00    1.12195   1.03782    0.014
 6233.00    1.10454   1.03595    0.014
 6234.00    1.08538   1.03640    0.014
 6235.00    1.06220   1.03640    0.014
 6236.00    1.04641   1.03595    0.014
 6237.00    1.04533   1.03718    0.014
 6238.00    1.04148   1.03411    0.014
 6239.00    1.03279   1.03315    0.014
 6240.00    1.02442   1.03356    0.014
 6241.00    1.01651   1.03095    0.014
 6242.00    1.01476   1.03115    0.014
 6243.00    1.02123   1.02951    0.014
 6244.00    1.04642   1.02769    0.014
 6245.00    1.09360   1.02808    0.014
 6246.00    1.12864   1.02511    0.014
 6247.00    1.15106   1.02314    0.014
 6248.00    1.14977   1.02238    0.014
 6249.00    1.12677   1.02041    0.014
 6250.00    1.10858   1.02028    0.014
 6251.00    1.09428   1.01856    0.014
 6252.00    1.08269   1.01590    0.014
 6253.00    1.07303   1.01525    0.014
 6254.00    1.06572   1.01429    0.014
 6255.00    1.05987   1.01476    0.014
 6256.00    1.06236   1.01498    0.014
 6257.00    1.06938   1.01538    0.014
 6258.00    1.09119   1.01841    0.014
 6259.00    1.11999   1.02059    0.015
 6260.00    1.16706   1.02256    0.016
 6261.00    1.22158   1.02557    0.017
 6262.00    1.25354   1.03017    0.018
 6263.00    1.27766   1.03618    0.018
 6264.00    1.29719   1.03951    0.018
 6265.00    1.31539   1.04286    0.017
 6266.00    1.24534   1.04759    0.016
 6267.00    1.15386   1.05182    0.016
 6268.00    1.13340   1.05589    0.015
 6269.00    1.12688   1.05807    0.015
 6270.00    1.16388   1.06090    0.015
 6271.00    1.20755   1.06470    0.014
 6272.00    1.22238   1.06591    0.014
 6273.00    1.23396   1.06746    0.014
 6274.00    1.18356   1.06929    0.014
 6275.00    1.12851   1.06979    0.014
 6276.00    1.10063   1.07189    0.014
 6277.00    1.07385   1.07260    0.014
 6278.00    1.05519   1.07309    0.014
 6279.00    1.03731   1.07587    0.014
 6280.00    1.04884   1.07547    0.000
 6281.00    1.06063   1.07664    0.000
 6282.00    1.07697   1.07931    0.000
 6283.00    1.09247   1.07886    0.000
 6284.00    1.09915   1.08126    0.000
 6285.00    1.10057   1.08209    0.000
 6286.00    1.06264   1.08176    0.000
 6287.00    1.02878   1.08413    0.000
 6288.00    1.01808   1.08238    0.000
 6289.00    1.01956   1.08223    0.000
 6290.00    1.07623   1.08324    0.000
 6291.00    1.13596   1.08028    0.000
 6292.00    1.20708   1.07925    0.000
 6293.00    1.26283   1.07703    0.000
 6294.00    1.27087   1.07490    0.000
 6295.00    1.26470   1.07458    0.000
 6296.00    1.22105   1.07076    0.000
 6297.00    1.19469   1.06844    0.000
 6298.00    1.20746   1.06836    0.000
 6299.00    1.21218   1.06710    0.000
 6300.00    1.20114   1.06615    0.000
 6301.00    1.18757   1.06479    0.000
 6302.00    1.16967   1.06541    0.000
 6303.00    1.15231   1.06741    0.000
 6304.00    1.13576   1.06730    0.000
 6305.00    1.11568   1.06661    0.000
 6306.00    1.09098   1.06720    0.000
 6307.00    1.08653   1.06864    0.000
 6308.00    1.10554   1.06967    0.000
 6309.00    1.13576   1.06887    0.000
 6310.00    1.17744   1.06722    0.000
 6311.00    1.19261   1.06790    0.000
 6312.00    1.18386   1.06823    0.000
 6313.00    1.15016   1.06561    0.000
 6314.00    1.09661   1.06439    0.000
 6315.00    1.07007   1.06431    0.000
 6316.00    1.06240   1.06485    0.000
 6317.00    1.05964   1.06505    0.000
 6318.00    1.05991   1.06335    0.000
 6319.00    1.06632   1.06500    0.000
 6320.00    1.07602   1.06782    0.000
 6321.00    1.07796   1.06889    0.014
 6322.00    1.07630   1.07008    0.014
 6323.00    1.07682   1.07236    0.014
 6324.00    1.07822   1.07651    0.013
 6325.00    1.07358   1.07807    0.014
 6326.00    1.06689   1.07893    0.014
 6327.00    1.05502   1.08137    0.014
 6328.00    1.04167   1.08294    0.013
 6329.00    1.05875   1.08508    0.013
 6330.00    1.08306   1.08366    0.013
 6331.00    1.10078   1.08187    0.013
 6332.00    1.11725   1.08420    0.013
 6333.00    1.11184   1.08328    0.013
 6334.00    1.10319   1.08105    0.013
 6335.00    1.09868   1.08043    0.013
 6336.00    1.09461   1.07911    0.013
 6337.00    1.09283   1.07930    0.014
 6338.00    1.09120   1.07798    0.014
 6339.00    1.06627   1.07484    0.014
 6340.00    1.04049   1.07636    0.014
 6341.00    1.06038   1.07785    0.014
 6342.00    1.08045   1.07619    0.014
 6343.00    1.10097   1.07675    0.014
 6344.00    1.12069   1.07709    0.014
 6345.00    1.12781   1.07722    0.014
 6346.00    1.13271   1.07802    0.014
 6347.00    1.11527   1.07642    0.014
 6348.00    1.10220   1.07660    0.014
 6349.00    1.12075   1.07668    0.014
 6350.00    1.13651   1.07344    0.014
 6351.00    1.13685   1.07206    0.014
 6352.00    1.13421   1.07048    0.014
 6353.00    1.11836   1.06656    0.013
 6354.00    1.10274   1.06306    0.013
 6355.00    1.08793   1.05989    0.013
 6356.00    1.07431   1.05702    0.013
 6357.00    1.06434   1.05371    0.013
 6358.00    1.05759   1.04982    0.013
 6359.00    1.05919   1.04797    0.013
 6360.00    1.05158   1.04816    0.014
 6361.00    1.02343   1.04707    0.014
 6362.00    1.01369   1.04615    0.014
 6363.00    1.03947   1.04877    0.014
 6364.00    1.07744   1.05191    0.014
 6365.00    1.13593   1.05437    0.014
 6366.00    1.17863   1.05805    0.014
 6367.00    1.19802   1.06270    0.014
 6368.00    1.19476   1.06859    0.014
 6369.00    1.16212   1.07352    0.014
 6370.00    1.13870   1.07702    0.014
 6371.00    1.12583   1.08224    0.014
 6372.00    1.11837   1.08737    0.014
 6373.00    1.11639   1.09018    0.014
 6374.00    1.11621   1.09285    0.014
 6375.00    1.11764   1.09590    0.014
 6376.00    1.11432   1.09795    0.014
 6377.00    1.10729   1.09959    0.013
 6378.00    1.10873   1.10020    0.013
 6379.00    1.11601   1.10017    0.014
 6380.00    1.11507   1.10086    0.013
 6381.00    1.10917   1.10058    0.013
 6382.00    1.11803   1.10003    0.013
 6383.00    1.13468   1.09995    0.013
 6384.00    1.12793   1.09878    0.013
 6385.00    1.11047   1.09795    0.013
 6386.00    1.07659   1.09761    0.013
 6387.00    1.03626   1.09606    0.013
 6388.00    1.03459   1.09383    0.013
 6389.00    1.04588   1.09285    0.013
 6390.00    1.07146   1.09269    0.013
 6391.00    1.10106   1.09127    0.013
 6392.00    1.09365   1.08908    0.014
 6393.00    1.07766   1.08838    0.014
 6394.00    1.07232   1.08779    0.014
 6395.00    1.06897   1.08561    0.014
 6396.00    1.09484   1.08501    0.014
 6397.00    1.12492   1.08542    0.014
 6398.00    1.11177   1.08576    0.014
 6399.00    1.09413   1.08647    0.014
 6400.00    1.08511   1.08482    0.014
 6401.00    1.07667   1.08608    0.014
 6402.00    1.06697   1.08818    0.014
 6403.00    1.05723   1.08492    0.013
 6404.00    1.05427   1.08654    0.013
 6405.00    1.05170   1.08972    0.013
 6406.00    1.06128   1.08781    0.013
 6407.00    1.07055   1.08826    0.013
 6408.00    1.07496   1.08797    0.013
 6409.00    1.08052   1.08753    0.013
 6410.00    1.09707   1.08911    0.013
 6411.00    1.10963   1.08662    0.013
 6412.00    1.09427   1.08618    0.013
 6413.00    1.07592   1.08857    0.013
 6414.00    1.04151   1.08670    0.013
 6415.00    1.01052   1.08580    0.014
 6416.00    0.99431   1.08688    0.014
 6417.00    0.98246   1.08648    0.014
 6418.00    0.98613   1.08758    0.014
 6419.00    0.99971   1.08827    0.014
 6420.00    1.04288   1.08780    0.014
 6421.00    1.07517   1.08925    0.014
 6422.00    1.07973   1.09001    0.014
 6423.00    1.08298   1.09011    0.014
 6424.00    1.08335   1.09155    0.013
 6425.00    1.08187   1.09158    0.013
 6426.00    1.07691   1.09218    0.014
 6427.00    1.08258   1.09399    0.014
 6428.00    1.10587   1.09349    0.013
 6429.00    1.13220   1.09400    0.013
 6430.00    1.16296   1.09471    0.013
 6431.00    1.17285   1.09356    0.014
 6432.00    1.15605   1.09546    0.014
 6433.00    1.13495   1.09541    0.013
 6434.00    1.10903   1.09346    0.013
 6435.00    1.10360   1.09625    0.013
 6436.00    1.11854   1.09716    0.013
 6437.00    1.13497   1.09713    0.013
 6438.00    1.15271   1.09860    0.014
 6439.00    1.15980   1.09756    0.014
 6440.00    1.15867   1.09943    0.014
 6441.00    1.16014   1.10011    0.014
 6442.00    1.16338   1.09715    0.014
 6443.00    1.14322   1.09910    0.014
 6444.00    1.10916   1.09922    0.014
 6445.00    1.07331   1.09654    0.014
 6446.00    1.03655   1.09711    0.013
 6447.00    1.03846   1.09530    0.013
 6448.00    1.05778   1.09412    0.014
 6449.00    1.08164   1.09388    0.014
 6450.00    1.10727   1.09078    0.014
 6451.00    1.10842   1.09115    0.014
 6452.00    1.10153   1.09125    0.014
 6453.00    1.09084   1.08912    0.013
 6454.00    1.07912   1.09047    0.013
 6455.00    1.08879   1.09120    0.013
 6456.00    1.10331   1.09176    0.013
 6457.00    1.11757   1.09295    0.013
 6458.00    1.13180   1.09251    0.013
 6459.00    1.10972   1.09391    0.013
 6460.00    1.08260   1.09572    0.013
 6461.00    1.08629   1.09633    0.013
 6462.00    1.09306   1.09726    0.014
 6463.00    1.07780   1.09792    0.014
 6464.00    1.06114   1.09954    0.014
 6465.00    1.05906   1.10015    0.014
 6466.00    1.05747   1.09896    0.014
 6467.00    1.07698   1.10031    0.014
 6468.00    1.09613   1.10225    0.014
 6469.00    1.10519   1.10190    0.014
 6470.00    1.11595   1.10168    0.014
 6471.00    1.15077   1.10179    0.014
 6472.00    1.18435   1.10166    0.014
 6473.00    1.20648   1.10122    0.014
 6474.00    1.22457   1.09934    0.014
 6475.00    1.21535   1.09801    0.014
 6476.00    1.20077   1.09809    0.014
 6477.00    1.15804   1.09633    0.013
 6478.00    1.12171   1.09298    0.013
 6479.00    1.11241   1.09102    0.013
 6480.00    1.10339   1.08954    0.013
 6481.00    1.09533   1.08614    0.013
 6482.00    1.08536   1.08187    0.013
 6483.00    1.06981   1.07858    0.013
 6484.00    1.06863   1.07536    0.013
 6485.00    1.10340   1.07023    0.013
 6486.00    1.12720   1.06393    0.013
 6487.00    1.12735   1.05957    0.013
 6488.00    1.10747   1.05505    0.013
 6489.00    1.05009   1.04801    0.013
 6490.00    1.00953   1.04217    0.013
 6491.00    0.99644   1.03690    0.013
 6492.00    0.99999   1.03179    0.014
 6493.00    1.02739   1.02777    0.014
 6494.00    1.05505   1.02228    0.014
 6495.00    1.08303   1.02028    0.014
 6496.00    1.10760   1.02059    0.013
 6497.00    1.12837   1.01795    0.014
 6498.00    1.13387   1.01941    0.013
 6499.00    1.12443   1.02275    0.013
 6500.00    1.11257   1.02538    0.013
 6501.00    1.09861   1.03111    0.013
 6502.00    1.09201   1.03535    0.013
 6503.00    1.09101   1.04053    0.013
 6504.00    1.08662   1.04750    0.013
 6505.00    1.07997   1.05201    0.013
 6506.00    1.07391   1.05771    0.019
 6507.00    1.06822   1.06281    0.077
 6508.00    1.07579   1.06642   -1.000
 6509.00    1.09013   1.07125   -1.000
 6510.00    1.10774   1.07386   -1.000
 6511.00    1.12678   1.07571   -1.000
 6512.00    1.14196   1.07825   -1.000
 6513.00    1.15567   1.07947   -1.000
 6514.00    1.17134   1.08102   -1.000
 6515.00    1.18763   1.08166   -1.000
 6516.00    1.16304   1.08160    0.034
 6517.00    1.12741   1.08343    0.015
 6518.00    1.10537   1.08324    0.013
 6519.00    1.08636   1.08234    0.013
 6520.00    1.09454   1.08439    0.013
 6521.00    1.10752   1.08460    0.013
 6522.00    1.11917   1.08406    0.013
 6523.00    1.13065   1.08577    0.013
 6524.00    1.11786   1.08608    0.013
 6525.00    1.10274   1.08662    0.013
 6526.00    1.10304   1.08726    0.013
 6527.00    1.10425   1.08686    0.013
 6528.00    1.10510   1.08839    0.000
 6529.00    1.10592   1.08865    0.000
 6530.00    1.10587   1.08763    0.000
 6531.00    1.10577   1.08911    0.000
 6532.00    1.10450   1.08951    0.000
 6533.00    1.10399   1.08887    0.000
 6534.00    1.11384   1.08943    0.000
 6535.00    1.12175   1.08867    0.000
 6536.00    1.11236   1.08807    0.000
 6537.00    1.10217   1.08762    0.000
 6538.00    1.08675   1.08555    0.000
 6539.00    1.07750   1.08485    0.000
 6540.00    1.09975   1.08320    0.000
 6541.00    1.12545   1.07945    0.000
 6542.00    1.16536   1.07773    0.000
 6543.00    1.21152   1.07467    0.000
 6544.00    1.27905   1.07016    0.000
 6545.00    1.33220   1.06717    0.000
 6546.00    1.34395   1.06167    0.000
 6547.00    1.33815   1.05673    0.000
 6548.00    1.28920   1.05300    0.000
 6549.00    1.23691   1.04610    0.000
 6550.00    1.17755   1.04067    0.000
 6551.00    1.12882   1.03541    0.000
 6552.00    1.09969   1.02835    0.000
 6553.00    1.10608   1.02335    0.000
 6554.00    1.16965   1.01502    0.000
 6555.00    1.31617   1.00561    0.000
 6556.00    1.57986   1.00222    0.000
 6557.00    1.92676   0.99541    0.000
 6558.00    2.37708   0.98668    0.000
 6559.00    2.70298   0.98348    0.000
 6560.00    2.89260   0.97905    0.000
 6561.00    2.84211   0.97500    0.000
 6562.00    2.55967   0.97281    0.000
 6563.00    2.19733   0.96961    0.000
 6564.00    1.76692   0.97189    0.000
 6565.00    1.45675   0.97289    0.000
 6566.00    1.23678   0.96999    0.000
 6567.00    1.10171   0.97631    0.000
 6568.00    1.02260   0.98398    0.000
 6569.00    0.98809   0.98573    0.000
 6570.00    0.97933   0.99116    0.000
 6571.00    0.97406   0.99844    0.000
 6572.00    0.97054   1.00226    0.000
 6573.00    0.98036   1.00684    0.000
 6574.00    0.99598   1.01314    0.000
 6575.00    1.05715   1.01774    0.000
 6576.00    1.13532   1.02237    0.000
 6577.00    1.27921   1.02714    0.000
 6578.00    1.44389   1.02988    0.000
 6579.00    1.59520   1.03439    0.000
 6580.00    1.74298   1.03869    0.000
 6581.00    1.77723   1.03963    0.000
 6582.00    1.78695   1.04246    0.000
 6583.00    1.64466   1.04506    0.000
 6584.00    1.47629   1.04439    0.000
 6585.00    1.32916   1.04518    0.000
 6586.00    1.18479   1.04623    0.000
 6587.00    1.12280   1.04606    0.000
 6588.00    1.06834   1.04600    0.000
 6589.00    1.06189   1.04479    0.000
 6590.00    1.05809   1.04372    0.000
 6591.00    1.06983   1.04370    0.000
 6592.00    1.08203   1.04263    0.000
 6593.00    1.10707   1.04108    0.000
 6594.00    1.13142   1.04106    0.000
 6595.00    1.13980   1.04095    0.000
 6596.00    1.14788   1.03892    0.000
 6597.00    1.15211   1.03889    0.000
 6598.00    1.15431   1.04060    0.000
 6599.00    1.13924   1.04028    0.000
 6600.00    1.12545   1.04049    0.000
 6601.00    1.11986   1.04094    0.000
 6602.00    1.11084   1.04064    0.000
 6603.00    1.08482   1.04213    0.000
 6604.00    1.06139   1.04303    0.000
 6605.00    1.04840   1.04261    0.000
 6606.00    1.03763   1.04327    0.000
 6607.00    1.03428   1.04442    0.000
 6608.00    1.03454   1.04488    0.000
 6609.00    1.04499   1.04511    0.013
 6610.00    1.05026   1.04653    0.013
 6611.00    1.04302   1.04796    0.013
 6612.00    1.04358   1.04826    0.013
 6613.00    1.06042   1.04921    0.013
 6614.00    1.07986   1.05088    0.013
 6615.00    1.10405   1.05244    0.013
 6616.00    1.11431   1.05237    0.013
 6617.00    1.10250   1.05136    0.013
 6618.00    1.09886   1.05290    0.013
 6619.00    1.10661   1.05293    0.013
 6620.00    1.12954   1.05071    0.013
 6621.00    1.17109   1.05027    0.013
 6622.00    1.18170   1.04885    0.013
 6623.00    1.15892   1.04679    0.013
 6624.00    1.14413   1.04527    0.013
 6625.00    1.13696   1.04218    0.013
 6626.00    1.12748   1.04031    0.013
 6627.00    1.11607   1.03836    0.014
 6628.00    1.10735   1.03451    0.014
 6629.00    1.10063   1.03352    0.013
 6630.00    1.10031   1.03249    0.013
 6631.00    1.10415   1.02953    0.013
 6632.00    1.08733   1.02836    0.013
 6633.00    1.05876   1.02753    0.013
 6634.00    1.04349   1.02640    0.013
 6635.00    1.03479   1.02591    0.013
 6636.00    1.05474   1.02504    0.013
 6637.00    1.08696   1.02471    0.013
 6638.00    1.10320   1.02543    0.013
 6639.00    1.11357   1.02560    0.013
 6640.00    1.11512   1.02539    0.013
 6641.00    1.11394   1.02637    0.013
 6642.00    1.09408   1.02695    0.013
 6643.00    1.06939   1.02587    0.013
 6644.00    1.06883   1.02661    0.013
 6645.00    1.07336   1.02813    0.013
 6646.00    1.07463   1.02670    0.013
 6647.00    1.07536   1.02623    0.013
 6648.00    1.07373   1.02739    0.013
 6649.00    1.07179   1.02683    0.013
 6650.00    1.08147   1.02614    0.013
 6651.00    1.09216   1.02561    0.013
 6652.00    1.10027   1.02463    0.013
 6653.00    1.10826   1.02414    0.013
 6654.00    1.12383   1.02282    0.013
 6655.00    1.13865   1.02083    0.013
 6656.00    1.09112   1.02002    0.013
 6657.00    1.04519   1.01852    0.013
 6658.00    1.03279   1.01664    0.013
 6659.00    1.02135   1.01574    0.013
 6660.00    1.02137   1.01377    0.013
 6661.00    1.02326   1.01231    0.013
 6662.00    1.04056   1.01233    0.013
 6663.00    1.05516   1.01039    0.013
 6664.00    1.05310   1.00926    0.013
 6665.00    1.04558   1.01050    0.013
 6666.00    1.01151   1.00889    0.013
 6667.00    0.97971   1.00782    0.013
 6668.00    0.95689   1.01002    0.013
 6669.00    0.94554   1.00960    0.013
 6670.00    0.97191   1.00841    0.013
 6671.00    1.00062   1.00978    0.013
 6672.00    1.03587   1.00990    0.013
 6673.00    1.05141   1.00946    0.013
 6674.00    1.02011   1.00998    0.013
 6675.00    0.98940   1.00932    0.013
 6676.00    0.95993   1.00929    0.013
 6677.00    0.95223   1.00954    0.013
 6678.00    0.98341   1.00817    0.013
 6679.00    1.00802   1.00893    0.013
 6680.00    1.02238   1.00950    0.013
 6681.00    1.03169   1.00722    0.013
 6682.00    1.03405   1.00810    0.013
 6683.00    1.04573   1.01017    0.013
 6684.00    1.06866   1.00891    0.012
 6685.00    1.07526   1.00874    0.012
 6686.00    1.06447   1.01020    0.012
 6687.00    1.05519   1.00990    0.013
 6688.00    1.04731   1.00921    0.013
 6689.00    1.03100   1.00978    0.013
 6690.00    1.00771   1.00940    0.013
 6691.00    1.00722   1.00840    0.013
 6692.00    1.02333   1.00834    0.013
 6693.00    1.01916   1.00735    0.013
 6694.00    1.00202   1.00655    0.013
 6695.00    0.99154   1.00627    0.013
 6696.00    0.98480   1.00434    0.000
 6697.00    0.99786   1.00398    0.000
 6698.00    1.02055   1.00390    0.000
 6699.00    1.04463   1.00136    0.000
 6700.00    1.06931   1.00115    0.000
 6701.00    1.07254   1.00113    0.000
 6702.00    1.06805   0.99891    0.000
 6703.00    1.07352   0.99882    0.000
 6704.00    1.08202   0.99810    0.000
 6705.00    1.08351   0.99592    0.000
 6706.00    1.08322   0.99536    0.000
 6707.00    1.09274   0.99336    0.000
 6708.00    1.10428   0.99137    0.000
 6709.00    1.14671   0.99082    0.000
 6710.00    1.19415   0.98811    0.000
 6711.00    1.25106   0.98613    0.000
 6712.00    1.30913   0.98550    0.000
 6713.00    1.35509   0.98297    0.000
 6714.00    1.40005   0.98126    0.000
 6715.00    1.39099   0.98070    0.000
 6716.00    1.37937   0.97958    0.000
 6717.00    1.30476   0.97876    0.000
 6718.00    1.22942   0.97833    0.000
 6719.00    1.16249   0.97896    0.000
 6720.00    1.09717   0.97923    0.000
 6721.00    1.06323   0.97930    0.000
 6722.00    1.03274   0.98129    0.000
 6723.00    1.04206   0.98261    0.000
 6724.00    1.06276   0.98334    0.000
 6725.00    1.17414   0.98500    0.000
 6726.00    1.28100   0.98609    0.000
 6727.00    1.36071   0.98748    0.000
 6728.00    1.41763   0.98864    0.000
 6729.00    1.36654   0.98859    0.000
 6730.00    1.30140   0.98964    0.000
 6731.00    1.18198   0.99033    0.000
 6732.00    1.08040   0.98948    0.000
 6733.00    1.03624   0.98972    0.000
 6734.00    1.00760   0.98964    0.000
 6735.00    1.02128   0.98820    0.000
 6736.00    1.01545   0.98760    0.000
 6737.00    0.96403   0.98674    0.000
 6738.00    0.93188   0.98515    0.000
 6739.00    0.93866   0.98416    0.000
 6740.00    0.95582   0.98300    0.000
 6741.00    0.99123   0.98160    0.000
 6742.00    1.01721   0.98015    0.000
 6743.00    1.02864   0.97922    0.000
 6744.00    1.02613   0.97874    0.000
 6745.00    1.00475   0.97762    0.000
 6746.00    0.98441   0.97703    0.000
 6747.00    0.96530   0.97701    0.000
 6748.00    0.95324   0.97703    0.000
 6749.00    0.94858   0.97761    0.000
 6750.00    0.93737   0.97749    0.000
 6751.00    0.92010   0.97853    0.000
 6752.00    0.94763   0.98047    0.000
 6753.00    1.01173   0.98025    0.014
 6754.00    1.08472   0.98226    0.015
 6755.00    1.16410   0.98489    0.015
 6756.00    1.17588   0.98436    0.016
 6757.00    1.14503   0.98661    0.016
 6758.00    1.06233   0.98915    0.015
 6759.00    0.95105   0.98859    0.015
 6760.00    0.96537   0.99022    0.015
 6761.00    1.03988   0.99190    0.015
 6762.00    1.12913   0.99125    0.016
 6763.00    1.22448   0.99208    0.016
 6764.00    1.24051   0.99287    0.015
 6765.00    1.22848   0.99214    0.015
 6766.00    1.24372   0.99242    0.015
 6767.00    1.26709   0.99274    0.015
 6768.00    1.24989   0.99238    0.015
 6769.00    1.22264   0.99261    0.014
 6770.00    1.19898   0.99271    0.014
 6771.00    1.17605   0.99249    0.014
 6772.00    1.13981   0.99296    0.014
 6773.00    1.10148   0.99335    0.014
 6774.00    1.07466   0.99290    0.014
 6775.00    1.04917   0.99285    0.014
 6776.00    0.99780   0.99330    0.014
 6777.00    0.94438   0.99276    0.014
 6778.00    0.98570   0.99180    0.014
 6779.00    1.03115   0.99150    0.015
 6780.00    1.03126   0.99060    0.015
 6781.00    1.02995   0.98896    0.015
 6782.00    0.98493   0.98805    0.014
 6783.00    0.94556   0.98695    0.014
 6784.00    1.00836   0.98513    0.014
 6785.00    1.06806   0.98417    0.014
 6786.00    1.09395   0.98323    0.014
 6787.00    1.11599   0.98162    0.014
 6788.00    1.10850   0.98135    0.014
 6789.00    1.10979   0.98110    0.014
 6790.00    1.16230   0.97985    0.014
 6791.00    1.20026   0.98060    0.014
 6792.00    1.17095   0.98109    0.014
 6793.00    1.14885   0.97984    0.014
 6794.00    1.15399   0.98114    0.014
 6795.00    1.16258   0.98227    0.014
 6796.00    1.18204   0.98102    0.014
 6797.00    1.19634   0.98235    0.014
 6798.00    1.19679   0.98353    0.014
 6799.00    1.18922   0.98266    0.014
 6800.00    1.16321   0.98392    0.014
 6801.00    1.13770   0.98445    0.014
 6802.00    1.11319   0.98413    0.014
 6803.00    1.08938   0.98526    0.014
 6804.00    1.06675   0.98472    0.014
 6805.00    1.03579   0.98510    0.014
 6806.00    0.99218   0.98604    0.014
 6807.00    0.96695   0.98454    0.014
 6808.00    0.96622   0.98553    0.013
 6809.00    1.00191   0.98637    0.013
 6810.00    1.08035   0.98457    0.013
 6811.00    1.13631   0.98587    0.014
 6812.00    1.16900   0.98668    0.014
 6813.00    1.17652   0.98539    0.014
 6814.00    1.16107   0.98667    0.014
 6815.00    1.13650   0.98727    0.014
 6816.00    1.10461   0.98699    0.014
 6817.00    1.10690   0.98817    0.014
 6818.00    1.13341   0.98833    0.014
 6819.00    1.10904   0.98879    0.014
 6820.00    1.05307   0.98995    0.014
 6821.00    1.02878   0.98994    0.014
 6822.00    1.02169   0.99042    0.014
 6823.00    1.00242   0.99109    0.014
 6824.00    0.97740   0.99105    0.014
 6825.00    0.97645   0.99121    0.013
 6826.00    0.98527   0.99128    0.013
 6827.00    1.00654   0.99097    0.013
 6828.00    1.03212   0.99048    0.013
 6829.00    1.04713   0.99002    0.013
 6830.00    1.05904   0.98939    0.013
 6831.00    1.05167   0.98813    0.013
 6832.00    1.03963   0.98707    0.014
 6833.00    1.02963   0.98603    0.014
 6834.00    1.02004   0.98455    0.013
 6835.00    1.00246   0.98323    0.014
 6836.00    0.98367   0.98169    0.014
 6837.00    0.99695   0.98028    0.014
 6838.00    1.01383   0.97927    0.015
 6839.00    1.02993   0.97776    0.015
 6840.00    1.04597   0.97652    0.015
 6841.00    1.07269   0.97586    0.015
 6842.00    1.09983   0.97502    0.015
 6843.00    1.06623   0.97430    0.014
 6844.00    1.03416   0.97375    0.014
 6845.00    1.07892   0.97363    0.014
 6846.00    1.11681   0.97335    0.013
 6847.00    1.03857   0.97268    0.013
 6848.00    0.96676   0.97298    0.013
 6849.00    0.96216   0.97254    0.013
 6850.00    0.96194   0.97154    0.013
 6851.00    0.99420   0.97182    0.013
 6852.00    1.02429   0.97065    0.013
 6853.00    1.04213   0.96932    0.013
 6854.00    1.05124   0.96934    0.013
 6855.00    1.02099   0.96752    0.013
 6856.00    0.99283   0.96642    0.013
 6857.00    0.97241   0.96650    0.013
 6858.00    0.95767   0.96425    0.014
 6859.00    0.96053   0.96353    0.014
 6860.00    0.96868   0.96415    0.014
 6861.00    0.99074   0.96222    0.014
 6862.00    1.00632   0.96163    0.014
 6863.00    1.00726   0.96269    0.014
 6864.00    1.00919   0.96181    0.013
 6865.00    1.01304   0.96109    0.014
 6866.00    1.02770   0.96218    0.014
 6867.00    1.06081   0.96254    0.014
 6868.00    1.07474   0.96166    0.014
 6869.00    1.05998   0.96243    0.014
 6870.00    1.03725   0.96388    0.013
 6871.00    1.00406   0.96331    0.013
 6872.00    0.98988   0.96355    0.013
 6873.00    0.99771   0.96537    0.013
 6874.00    1.01783   0.96554    0.013
 6875.00    1.05048   0.96561    0.013
 6876.00    1.06706   0.96740    0.013
 6877.00    1.06917   0.96853    0.013
 6878.00    1.07904   0.96883    0.013
 6879.00    1.09506   0.97013    0.013
 6880.00    1.08218   0.97174    0.013
 6881.00    1.04914   0.97285    0.014
 6882.00    1.04901   0.97422    0.014
 6883.00    1.06903   0.97562    0.014
 6884.00    1.06847   0.97724    0.013
 6885.00    1.05690   0.97922    0.013
 6886.00    1.04651   0.98019    0.013
 6887.00    1.03666   0.98176    0.013
 6888.00    1.02990   0.98441    0.013
 6889.00    1.02438   0.98496    0.013
 6890.00    1.03845   0.98613    0.013
 6891.00    1.05919   0.98917    0.013
 6892.00    1.05720   0.98948    0.013
 6893.00    1.04870   0.98992    0.013
 6894.00    1.06578   0.99256    0.013
 6895.00    1.08892   0.99295    0.013
 6896.00    1.08669   0.99299    0.013
 6897.00    1.07963   0.99469    0.013
 6898.00    1.10817   0.99526    0.013
 6899.00    1.14198   0.99532    0.013
 6900.00    1.16390   0.99591    0.014
 6901.00    1.18454   0.99666    0.014
 6902.00    1.14130   0.99700    0.014
 6903.00    1.09354   0.99657    0.014
 6904.00    1.06585   0.99726    0.014
 6905.00    1.03888   0.99774    0.014
 6906.00    0.99378   0.99663    0.014
 6907.00    0.94956   0.99697    0.014
 6908.00    0.93826   0.99700    0.014
 6909.00    0.92868   0.99574    0.014
 6910.00    0.94634   0.99604    0.015
 6911.00    0.96493   0.99506    0.016
 6912.00    0.99291   0.99372    0.016
 6913.00    1.01244   0.99429    0.016
 6914.00    0.97125   0.99265    0.015
 6915.00    0.94685   0.99142    0.014
 6916.00    1.01501   0.99197    0.014
 6917.00    1.07261   0.99009    0.014
 6918.00    1.08363   0.98919    0.013
 6919.00    1.08900   0.98961    0.013
 6920.00    1.07384   0.98782    0.014
 6921.00    1.05869   0.98727    0.014
 6922.00    1.04352   0.98756    0.014
 6923.00    1.03815   0.98632    0.014
 6924.00    1.05811   0.98596    0.014
 6925.00    1.07353   0.98590    0.014
 6926.00    1.07886   0.98548    0.014
 6927.00    1.07664   0.98533    0.014
 6928.00    1.05986   0.98510    0.014
 6929.00    1.05172   0.98534    0.014
 6930.00    1.05812   0.98531    0.013
 6931.00    1.07143   0.98506    0.013
 6932.00    1.09494   0.98582    0.013
 6933.00    1.08891   0.98593    0.013
 6934.00    1.04462   0.98583    0.013
 6935.00    1.01451   0.98689    0.014
 6936.00    1.00056   0.98664    0.013
 6937.00    0.98415   0.98631    0.013
 6938.00    0.96527   0.98759    0.014
 6939.00    0.97075   0.98689    0.014
 6940.00    0.99784   0.98612    0.013
 6941.00    1.01409   0.98757    0.014
 6942.00    1.02185   0.98666    0.014
 6943.00    1.03586   0.98559    0.014
 6944.00    1.05415   0.98699    0.014
 6945.00    1.02795   0.98589    0.014
 6946.00    0.97493   0.98497    0.014
 6947.00    0.96757   0.98674    0.014
 6948.00    0.98423   0.98555    0.014
 6949.00    1.02490   0.98493    0.014
 6950.00    1.07653   0.98724    0.014
 6951.00    1.07887   0.98625    0.014
 6952.00    1.06185   0.98613    0.013
 6953.00    1.05569   0.98911    0.013
 6954.00    1.05316   0.98860    0.013
 6955.00    1.06363   0.98889    0.013
 6956.00    1.07775   0.99211    0.013
 6957.00    1.07001   0.99196    0.013
 6958.00    1.05722   0.99252    0.013
 6959.00    1.07729   0.99561    0.013
 6960.00    1.10347   0.99559    0.014
 6961.00    1.06000   0.99622    0.014
 6962.00    1.00657   0.99871    0.014
 6963.00    1.02648   0.99835    0.014
 6964.00    1.05399   0.99873    0.014
 6965.00    1.02106   1.00020    0.014
 6966.00    0.98410   0.99901    0.014
 6967.00    0.98166   0.99890    0.014
 6968.00    0.98034   0.99929    0.014
 6969.00    1.00716   0.99718    0.014
 6970.00    1.03292   0.99649    0.014
 6971.00    1.02636   0.99613    0.014
 6972.00    1.01964   0.99348    0.014
 6973.00    1.01047   0.99239    0.014
 6974.00    1.00144   0.99201    0.013
 6975.00    0.99372   0.98963    0.013
 6976.00    0.99048   0.98866    0.013
 6977.00    1.01845   0.98894    0.013
 6978.00    1.03446   0.98749    0.013
 6979.00    0.98638   0.98717    0.014
 6980.00    0.95155   0.98867    0.014
 6981.00    0.97384   0.98835    0.014
 6982.00    1.00789   0.98861    0.014
 6983.00    1.08367   0.99110    0.014
 6984.00    1.14250   0.99174    0.014
 6985.00    1.15075   0.99221    0.014
 6986.00    1.13102   0.99475    0.014
 6987.00    1.04023   0.99587    0.014
 6988.00    0.96888   0.99628    0.014
 6989.00    0.94004   0.99787    0.014
 6990.00    0.92943   0.99872    0.013
 6991.00    0.95340   0.99878    0.013
 6992.00    0.98777   0.99914    0.013
 6993.00    1.03937   0.99927    0.013
 6994.00    1.07074   0.99876    0.013
 6995.00    1.07274   0.99823    0.014
 6996.00    1.07440   0.99776    0.014
 6997.00    1.07563   0.99671    0.014
 6998.00    1.05918   0.99581    0.014
 6999.00    1.02283   0.99504    0.014
 7000.00    1.01404   0.99368    0.014
 7001.00    1.03259   0.99276    0.014
 7002.00    1.05468   0.99195    0.014
 7003.00    1.07988   0.99065    0.014
 7004.00    1.09687   0.98985    0.020
 7005.00    1.10752   0.98897    0.069
 7006.00    1.09403   0.98806   -1.000
 7007.00    1.06417   0.98749   -1.000
 7008.00    1.05668   0.98652   -1.000
 7009.00    1.06248   0.98605   -1.000
 7010.00    1.05699   0.98562   -1.000
 7011.00    1.04567   0.98459   -1.000
 7012.00    1.04294   0.98470   -1.000
 7013.00    1.04406   0.98444   -1.000
 7014.00    1.03528   0.98331   -1.000
 7015.00    1.02267   0.98390   -1.000
 7016.00    1.01915   0.98402   -1.000
 7017.00    1.01862   0.98313   -1.000
 7018.00    0.99814   0.98413    0.037
 7019.00    0.97219   0.98464    0.016
 7020.00    0.97067   0.98415    0.014
 7021.00    0.97469   0.98543    0.014
 7022.00    1.00762   0.98639    0.014
 7023.00    1.04578   0.98647    0.015
 7024.00    1.04069   0.98787    0.015
 7025.00    1.02961   0.98923    0.015
 7026.00    1.05884   0.98968    0.015
 7027.00    1.09207   0.99110    0.015
 7028.00    1.08497   0.99313    0.015
 7029.00    1.07534   0.99395    0.014
 7030.00    1.04163   0.99506    0.014
 7031.00    1.00749   0.99757    0.015
 7032.00    1.04005   0.99866    0.015
 7033.00    1.07092   0.99961    0.015
 7034.00    1.05513   1.00260    0.015
 7035.00    1.04100   1.00380    0.014
 7036.00    1.05027   1.00469    0.014
 7037.00    1.05877   1.00802    0.015
 7038.00    1.06026   1.00895    0.015
 7039.00    1.05757   1.00944    0.015
 7040.00    1.02675   1.01264    0.015
 7041.00    1.00268   1.01294    0.014
 7042.00    1.01389   1.01242    0.015
 7043.00    1.03255   1.01460    0.015
 7044.00    1.08259   1.01374    0.015
 7045.00    1.11479   1.01169    0.015
 7046.00    1.08492   1.01192    0.015
 7047.00    1.06565   1.00939    0.015
 7048.00    1.07741   1.00554    0.015
 7049.00    1.07667   1.00342    0.015
 7050.00    1.04469   0.99927   -2.000
 7051.00    1.02346   0.99399   -2.000
 7052.00    1.02534   0.98988   -2.000
 7053.00    1.03853   0.98465   -2.000
 7054.00    1.07282   0.97875   -2.000
 7055.00    1.10849   0.97378   -2.000
 7056.00    1.14640   0.96852   -2.000
 7057.00    1.13513   0.96293   -2.000
 7058.00    1.05352   0.95838   -2.000
 7059.00    0.98494   0.95426   -2.000
 7060.00    0.93278   0.94963   -2.000
 7061.00    0.96986   0.94638   -2.000
 7062.00    1.10591   0.94409   -2.000
 7063.00    1.19578   0.94074   -2.000
 7064.00    1.24049   0.93911   -2.000
 7065.00    1.22015   0.93880   -2.000
 7066.00    1.14370   0.93676   -2.000
 7067.00    1.11871   0.93654   -2.000
 7068.00    1.13282   0.93773   -2.000
 7069.00    1.12075   0.93675   -2.000
 7070.00    1.09120   0.93725   -2.000
 7071.00    1.17306   0.93901   -2.000
 7072.00    1.32008   0.93848   -2.000
 7073.00    1.35718   0.93872   -2.000
 7074.00    1.33824   0.94006   -2.000
 7075.00    1.25840   0.93932   -2.000
 7076.00    1.15167   0.93833   -2.000
 7077.00    1.12739   0.93839   -2.000
 7078.00    1.13437   0.93677   -2.000
 7079.00    1.13421   0.93397   -2.000
 7080.00    1.13174   0.93250   -2.000
 7081.00    1.17964   0.92980   -2.000
 7082.00    1.24110   0.92534   -2.000
 7083.00    1.18587   0.92286   -2.000
 7084.00    1.10488   0.91945   -2.000
 7085.00    1.09092   0.91408   -2.000
 7086.00    1.08873   0.91147   -2.000
 7087.00    1.12423   0.90810   -2.000
 7088.00    1.16477   0.90300   -2.000
 7089.00    1.11512   0.90116   -2.000
 7090.00    1.05689   0.89856   -2.000
 7091.00    1.09200   0.89467   -2.000
 7092.00    1.13259   0.89402   -2.000
 7093.00    1.10878   0.89257   -2.000
 7094.00    1.08364   0.89026   -2.000
 7095.00    1.09499   0.89062   -2.000
 7096.00    1.10398   0.89021   -2.000
 7097.00    1.05463   0.88928   -2.000
 7098.00    1.00742   0.89010   -2.000
 7099.00    0.98877   0.89035   -2.000
 7100.00    0.97516   0.89027   -2.000
 7101.00    1.00624   0.89098   -2.000
 7102.00    1.03092   0.89144   -2.000
 7103.00    1.01386   0.89170   -2.000
 7104.00    0.99746   0.89201   -2.000
 7105.00    0.98448   0.89234   -2.000
 7106.00    0.97800   0.89262   -2.000
 7107.00    0.99823   0.89259   -2.000
 7108.00    1.00679   0.89266   -2.000
 7109.00    0.97558   0.89284   -2.000
 7110.00    0.96166   0.89261   -2.000
 7111.00    0.99744   0.89238   -2.000
 7112.00    1.01915   0.89238   -2.000
 7113.00    1.00634   0.89200   -2.000
 7114.00    1.00966   0.89138   -2.000
 7115.00    1.04709   0.89109   -2.000
 7116.00    1.06540   0.89042   -2.000
 7117.00    1.04853   0.88929   -2.000
 7118.00    1.05218   0.88855   -2.000
 7119.00    1.08878   0.88741   -2.000
 7120.00    1.10522   0.88579   -2.000
 7121.00    1.09323   0.88455   -2.000
 7122.00    1.07056   0.88293   -2.000
 7123.00    1.03463   0.88114   -2.000
 7124.00    1.10311   0.87954   -2.000
 7125.00    1.28572   0.87776   -2.000
 7126.00    1.31214   0.87638   -2.000
 7127.00    1.18793   0.87473   -2.000
 7128.00    1.13603   0.87322   -2.000
 7129.00    1.14562   0.87291   -2.000
 7130.00    1.15889   0.87150   -2.000
 7131.00    1.17490   0.87056   -2.000
 7132.00    1.24102   0.87165   -2.000
 7133.00    1.34011   0.87059   -2.000
 7134.00    1.26959   0.87016   -2.000
 7135.00    1.10137   0.87250   -2.000
 7136.00    1.04033   0.87165   -2.000
 7137.00    1.03308   0.87142   -2.000
 7138.00    1.02763   0.87449   -2.000
 7139.00    1.02296   0.87366   -2.000
 7140.00    1.06955   0.87331   -2.000
 7141.00    1.13523   0.87657   -2.000
 7142.00    1.15420   0.87571   -2.000
 7143.00    1.15841   0.87513   -2.000
 7144.00    1.06332   0.87829   -2.000
 7145.00    0.94204   0.87758   -2.000
 7146.00    0.97131   0.87692   -2.000
 7147.00    1.03303   0.87982   -2.000
 7148.00    1.04344   0.87961   -2.000
 7149.00    1.04508   0.87904   -2.000
 7150.00    0.99442   0.88155   -2.000
 7151.00    0.93699   0.88204   -2.000
 7152.00    0.94949   0.88160   -2.000
 7153.00    0.96833   0.88348   -2.000
 7154.00    1.01375   0.88461   -2.000
 7155.00    1.06062   0.88420   -2.000
 7156.00    1.01442   0.88523   -2.000
 7157.00    0.96543   0.88678   -2.000
 7158.00    0.83832   0.88634   -2.000
 7159.00    0.72957   0.88658   -2.000
 7160.00    1.03724   0.88836   -2.000
 7161.00    1.32938   0.88797   -2.000
 7162.00    1.42585   0.88776   -2.000
 7163.00    1.50744   0.88973   -2.000
 7164.00    1.46215   0.88956   -2.000
 7165.00    1.38895   0.88926   -2.000
 7166.00    1.13888   0.89141   -2.000
 7167.00    0.94632   0.89148   -2.000
 7168.00    1.03923   0.89124   -2.000
 7169.00    1.10280   0.89341   -2.000
 7170.00    1.04828   0.89350   -2.000
 7171.00    1.01473   0.89318   -2.000
 7172.00    1.05125   0.89499   -2.000
 7173.00    1.05793   0.89479   -2.000
 7174.00    0.98042   0.89419   -2.000
 7175.00    0.93961   0.89529   -2.000
 7176.00    0.98737   0.89455   -2.000
 7177.00    1.04099   0.89370   -2.000
 7178.00    1.10682   0.89393   -2.000
 7179.00    1.14568   0.89265   -2.000
 7180.00    1.13571   0.89180   -2.000
 7181.00    1.11867   0.89128   -2.000
 7182.00    1.09044   0.88963   -2.000
 7183.00    1.03828   0.88914   -2.000
 7184.00    0.95288   0.88822   -2.000
 7185.00    0.90086   0.88648   -2.000
 7186.00    0.88966   0.88656   -2.000
 7187.00    0.93050   0.88567   -2.000
 7188.00    1.02745   0.88409   -2.000
 7189.00    1.04979   0.88472   -2.000
 7190.00    1.00120   0.88422   -2.000
 7191.00    0.98738   0.88299   -2.000
 7192.00    1.00272   0.88393   -2.000
 7193.00    0.97768   0.88399   -2.000
 7194.00    0.92284   0.88317   -2.000
 7195.00    0.90533   0.88405   -2.000
 7196.00    0.91204   0.88459   -2.000
 7197.00    0.91195   0.88419   -2.000
 7198.00    0.90799   0.88462   -2.000
 7199.00    0.95994   0.88543   -2.000
 7200.00    1.03949   0.88547   -2.000
 7201.00    1.08817   0.88527   -2.000
 7202.00    1.12366   0.88617   -2.000
 7203.00    1.16477   0.88675   -2.000
 7204.00    1.20793   0.88603   -2.000
 7205.00    1.08138   0.88696   -2.000
 7206.00    0.90226   0.88825   -2.000
 7207.00    0.90415   0.88737   -2.000
 7208.00    0.95277   0.88837   -2.000
 7209.00    0.96275   0.89043   -2.000
 7210.00    0.96460   0.88986   -2.000
 7211.00    0.90268   0.89095   -2.000
 7212.00    0.83017   0.89367   -2.000
 7213.00    0.89487   0.89378   -2.000
 7214.00    0.97670   0.89490   -2.000
 7215.00    0.98295   0.89794   -2.000
 7216.00    0.98265   0.89893   -2.000
 7217.00    0.95511   0.89999   -2.000
 7218.00    0.92618   0.90294   -2.000
