###################################################################
## OUTPUT of StarlightChains_v04.for    [Cid@UFSC - 01/Apr/2007] ##
###################################################################

## Some input info
KUG0210-078._5_21.txt                    [arq_obs]
Base.CB07.vall.4m                        [arq_base]
Masks.EmLines.NEW.gm                     [arq_masks]
StCv04.C11.config                        [arq_config]
   66                                    [N_base]
    0                                    [N_YAV_components = # of components with extra extinction!]
    0                                    [i_FitPowerLaw (1/0 = Yes/No)]
-9.99                                    [alpha_PowerLaw]
CCM                                      [red_law_option]
 1.458241                                [q_norm = A(l_norm)/A(V)]

## (Re)Sampling Parameters
 3741.00                                 [l_ini (A)]
 7218.00                                 [l_fin (A)]
    1.00                                 [dl    (A)]     (OBS: dl_cushion =    50.00 A)

## Normalization info
 4020.00                                 [l_norm (A) - for base]
 4010.00                                 [llow_norm (A) - window for f_obs]
 4060.00                                 [lupp_norm (A) - window for f_obs]
6.535166E-18                             [fobs_norm (in input units)]

## S/N
 3691.00                                 [llow_SN (A) - window for S/N]
 7268.00                                 [lupp_SN (A) - window for S/N]
   1.928                                 [S/N in S/N window]
   2.913                                 [S/N in norm. window]
   0.004                                 [S/N_err in S/N window]
   0.007                                 [S/N_err in norm. window]
  1.0000                                 [fscale_chi2]

## etc...
    -2007210                             [idum_orig]
  2394                                   [NOl_eff]
  2394                                   [Nl_eff]
     0    NSIGMA                         [Ntot_cliped & clip_method]
   378350                                [Nglobal_steps]
   7                                     [N_chains]
  19                                     [NEX0s_base = N_base in EX0s-fits]
 0   0   1       75   2.0   1.376E-02    [Clip-Bug, RC-Crash & Burn-In warning-flags, n_censored_weights, wei_nsig_threshold & wei_limit]
     9      8.068      7.674      0.394  [idt_all, wdt_TotTime, wdt_UsrTime & wdt_SysTime (sec)]

## Synthesis Results - Best model ##

 6.07118E-06                             [chi2/Nl_eff]
    41.63878                             [adev (%)]

   121.82790                             [sum-of-x (%)]
 2.59536E-18                             [Flux_tot (units of input spectrum!)]
 2.21277E-14                             [Mini_tot (???)]
 1.21016E-14                             [Mcor_tot (???)]

   4.49                                  [v0_min  (km/s)]
  97.70                                  [vd_min  (km/s)]
-0.8346                                  [AV_min  (mag)]
 0.0000                                  [YAV_min (mag)]

# j     x_j(%)      Mini_j(%)     Mcor_j(%)     age_j(yr)     Z_j      (L/M)_j    YAV?  Mstars   component_j        a/Fe...       SSP_chi2r SSP_adev(%)   SSP_AV   SSP_x(%)
  1      0.0000     0.0000E+00    0.0000E+00    1.000000E+06  0.00400  1.094E-02    0   1.0000   age020_m42            0.0000     8.0013E-06    48.4628   1.9468    96.8324
  2      0.0000     0.0000E+00    0.0000E+00    3.160000E+06  0.00400  4.007E-02    0   0.9999   age045_m42            0.0000     7.1988E-06    45.9369   1.1665   104.7427
  3      0.0000     0.0000E+00    0.0000E+00    5.010000E+06  0.00400  2.539E-02    0   0.9488   age055_m42            0.0000     7.5786E-06    47.3025   1.5174   101.4478
  4      0.0000     0.0000E+00    0.0000E+00    6.610000E+06  0.00400  2.620E-02    0   0.9220   age061_m42            0.0000     7.2108E-06    46.2140   1.1049   104.6472
  5      0.0000     0.0000E+00    0.0000E+00    1.000000E+07  0.00400  1.322E-02    0   0.8862   age070_m42            0.0000     7.4663E-06    48.9367   0.9002   104.7473
  6      0.0000     0.0000E+00    0.0000E+00    1.445000E+07  0.00400  7.883E-03    0   0.8571   age078_m42            0.0000     7.6573E-06    49.3371   1.2328   102.0225
  7      0.0000     0.0000E+00    0.0000E+00    2.512000E+07  0.00400  5.251E-03    0   0.8174   age090_m42            0.0000     7.4579E-06    49.3001   0.7833   105.0112
  8      0.0000     0.0000E+00    0.0000E+00    4.000000E+07  0.00400  3.649E-03    0   0.7851   age104_m42            0.0000     7.2779E-06    48.4522   0.5372   106.4093
  9      0.0000     0.0000E+00    0.0000E+00    5.500000E+07  0.00400  3.098E-03    0   0.7629   age110_m42            0.0000     7.0567E-06    46.6141   0.6445   107.5889
 10      0.0000     0.0000E+00    0.0000E+00    1.015200E+08  0.00400  2.228E-03    0   0.7207   age116_m42            0.0000     6.9230E-06    45.5384   0.6385   108.4877
 11      0.0000     0.0000E+00    0.0000E+00    2.861200E+08  0.00400  1.093E-03    0   0.6648   age125_m42            0.0000     6.8115E-06    45.8292   0.0780   111.3528
 12      1.8841     2.7497E-01    3.2002E-01    5.088000E+08  0.00400  6.597E-04    0   0.6365   age130_m42            0.0000     6.5755E-06    43.3789  -0.0002   114.0169
 13      0.0000     0.0000E+00    0.0000E+00    1.434000E+09  0.00400  2.132E-04    0   0.5798   age139_m42            0.0000     6.2069E-06    41.7865  -1.0000   117.5573
 14      0.0000     0.0000E+00    0.0000E+00    4.250000E+09  0.00400  5.895E-05    0   0.5377   age158_m42            0.0000     6.7384E-06    53.6036  -1.0000   106.2934
 15      0.0000     0.0000E+00    0.0000E+00    7.500000E+09  0.00400  3.510E-05    0   0.5212   age171_m42            0.0000     7.1858E-06    58.8034  -1.0000   102.0434
 16      0.0000     0.0000E+00    0.0000E+00    1.300000E+10  0.00400  2.005E-05    0   0.5034   age193_m42            0.0000     7.7372E-06    63.3628  -1.0000    98.0477
 17      0.0000     0.0000E+00    0.0000E+00    1.800000E+10  0.00400  1.525E-05    0   0.4967   age213_m42            0.0000     7.8315E-06    64.2528  -1.0000    97.0889
 18      0.0000     0.0000E+00    0.0000E+00    1.000000E+06  0.00800  1.238E-02    0   1.0000   age020_m52            0.0000     8.0160E-06    48.4900   1.9431    97.0251
 19      0.0000     0.0000E+00    0.0000E+00    3.160000E+06  0.00800  3.074E-02    0   0.9966   age045_m52            0.0000     7.9611E-06    48.2983   1.8618    98.0283
 20      0.0000     0.0000E+00    0.0000E+00    5.010000E+06  0.00800  2.668E-02    0   0.9443   age055_m52            0.0000     7.7003E-06    47.7413   1.6105   100.3164
 21      0.0000     0.0000E+00    0.0000E+00    6.610000E+06  0.00800  2.136E-02    0   0.9177   age061_m52            0.0000     7.4101E-06    48.6848   0.3937   106.3706
 22      0.0000     0.0000E+00    0.0000E+00    1.000000E+07  0.00800  1.215E-02    0   0.8827   age070_m52            0.0000     7.6712E-06    50.2167   1.1080   103.7804
 23      0.0000     0.0000E+00    0.0000E+00    1.445000E+07  0.00800  8.717E-03    0   0.8552   age078_m52            0.0000     7.6029E-06    49.2586   1.1967   103.4637
 24      0.0000     0.0000E+00    0.0000E+00    2.512000E+07  0.00800  5.592E-03    0   0.8162   age090_m52            0.0000     7.4317E-06    49.3015   0.8455   106.2507
 25      0.0000     0.0000E+00    0.0000E+00    4.000000E+07  0.00800  3.896E-03    0   0.7841   age104_m52            0.0000     7.2223E-06    48.1343   0.7303   107.7921
 26      0.0000     0.0000E+00    0.0000E+00    1.015200E+08  0.00800  2.148E-03    0   0.7226   age116_m52            0.0000     6.9886E-06    46.3297   0.6230   108.8646
 27      0.0000     0.0000E+00    0.0000E+00    2.861200E+08  0.00800  9.925E-04    0   0.6683   age125_m52            0.0000     6.5570E-06    43.6730   0.0840   114.7503
 28     51.5427     1.5798E+01    1.7731E+01    9.047900E+08  0.00800  3.141E-04    0   0.6138   age135_m52            0.0000     6.0532E-06    39.9551  -0.8223   122.7962
 29      0.0000     0.0000E+00    0.0000E+00    1.434000E+09  0.00800  1.719E-04    0   0.5853   age139_m52            0.0000     6.4141E-06    50.5471  -1.0000   113.3426
 30      0.0000     0.0000E+00    0.0000E+00    2.500000E+09  0.00800  7.872E-05    0   0.5600   age150_m52            0.0000     7.0337E-06    57.7981  -1.0000   105.5319
 31      0.0000     0.0000E+00    0.0000E+00    4.250000E+09  0.00800  4.336E-05    0   0.5426   age158_m52            0.0000     7.1350E-06    58.3609  -1.0000   104.2374
 32     13.7967     4.2047E+01    4.0894E+01    6.250000E+09  0.00800  3.159E-05    0   0.5319   age166_m52            0.0000     7.8243E-06    63.6763  -1.0000    99.9336
 33      0.0000     0.0000E+00    0.0000E+00    1.300000E+10  0.00800  1.361E-05    0   0.5073   age193_m52            0.0000     1.0151E-05    76.1524  -1.0000    87.8551
 34      3.1793     3.0961E+01    2.8250E+01    1.800000E+10  0.00800  9.886E-06    0   0.4990   age213_m52            0.0000     1.0935E-05    78.2028  -1.0000    84.6055
 35      0.0000     0.0000E+00    0.0000E+00    1.000000E+06  0.02000  1.544E-02    0   1.0000   age020_m62            0.0000     8.0497E-06    48.5700   1.9394    97.2427
 36      0.0000     0.0000E+00    0.0000E+00    3.160000E+06  0.02000  3.762E-02    0   0.9858   age045_m62            0.0000     8.0296E-06    48.4972   1.8773    98.1639
 37      0.0000     0.0000E+00    0.0000E+00    5.010000E+06  0.02000  3.296E-02    0   0.9342   age055_m62            0.0000     7.4231E-06    46.5111   1.4584   103.1626
 38      0.0000     0.0000E+00    0.0000E+00    8.710000E+06  0.02000  1.154E-02    0   0.8861   age067_m62            0.0000     8.4887E-06    56.5403   0.7094   102.7091
 39      0.0000     0.0000E+00    0.0000E+00    1.445000E+07  0.02000  7.663E-03    0   0.8472   age078_m62            0.0000     7.7871E-06    51.8266   0.7952   105.0775
 40      0.0000     0.0000E+00    0.0000E+00    2.512000E+07  0.02000  4.532E-03    0   0.8099   age090_m62            0.0000     7.7957E-06    51.9453   0.7915   104.5787
 41      0.0000     0.0000E+00    0.0000E+00    5.500000E+07  0.02000  2.733E-03    0   0.7595   age110_m62            0.0000     7.3143E-06    48.4789   0.7216   106.8184
 42      0.0000     0.0000E+00    0.0000E+00    1.609000E+08  0.02000  1.369E-03    0   0.6985   age120_m62            0.0000     6.8661E-06    45.4330   0.4897   111.6365
 43      0.0000     0.0000E+00    0.0000E+00    2.861200E+08  0.02000  9.013E-04    0   0.6714   age125_m62            0.0000     6.5648E-06    43.2655   0.1899   116.2583
 44     24.7442     4.7380E+00    5.5870E+00    5.088000E+08  0.02000  5.028E-04    0   0.6449   age130_m62            0.0000     6.1127E-06    39.7008  -0.2887   122.3999
 45      0.0000     0.0000E+00    0.0000E+00    9.047900E+08  0.02000  2.428E-04    0   0.6179   age135_m62            0.0000     6.0165E-06    38.8900  -0.9203   123.2165
 46      0.0000     0.0000E+00    0.0000E+00    1.434000E+09  0.02000  1.263E-04    0   0.5908   age139_m62            0.0000     6.3492E-06    47.9063  -1.0000   115.3020
 47      0.0000     0.0000E+00    0.0000E+00    2.500000E+09  0.02000  5.985E-05    0   0.5673   age150_m62            0.0000     7.1893E-06    57.8229  -1.0000   106.6344
 48      0.0000     0.0000E+00    0.0000E+00    4.250000E+09  0.02000  3.271E-05    0   0.5468   age158_m62            0.0000     8.3711E-06    65.6180  -1.0000    98.8555
 49      0.0000     0.0000E+00    0.0000E+00    1.000000E+10  0.02000  1.360E-05    0   0.5167   age181_m62            0.0000     1.0373E-05    74.0481  -1.0000    89.5571
 50      0.0000     0.0000E+00    0.0000E+00    1.800000E+10  0.02000  7.124E-06    0   0.5013   age213_m62            0.0000     1.1922E-05    78.4858  -1.0000    83.1364
 51      0.0000     0.0000E+00    0.0000E+00    1.000000E+06  0.05000  2.592E-02    0   0.9998   age020_m72            0.0000     8.1558E-06    48.9883   1.9394    97.1062
 52      0.0000     0.0000E+00    0.0000E+00    3.160000E+06  0.05000  4.845E-02    0   0.9577   age045_m72            0.0000     7.7971E-06    47.5863   1.7398    99.9190
 53      0.0000     0.0000E+00    0.0000E+00    5.010000E+06  0.05000  3.072E-02    0   0.9147   age055_m72            0.0000     7.8980E-06    50.5975   1.3392   102.0826
 54      0.0000     0.0000E+00    0.0000E+00    6.610000E+06  0.05000  1.455E-02    0   0.8877   age061_m72            0.0000     8.8644E-06    58.7876   0.8034   102.0449
 55      0.0000     0.0000E+00    0.0000E+00    1.000000E+07  0.05000  9.074E-03    0   0.8524   age070_m72            0.0000     7.9074E-06    50.5093   1.5174   101.7171
 56      0.0000     0.0000E+00    0.0000E+00    2.512000E+07  0.05000  4.250E-03    0   0.7902   age090_m72            0.0000     7.6083E-06    49.8679   1.2122   103.8787
 57      2.4729     7.7124E-02    1.0743E-01    4.000000E+07  0.05000  3.087E-03    0   0.7618   age104_m72            0.0000     7.5061E-06    49.7576   0.9847   105.5310
 58      0.0000     0.0000E+00    0.0000E+00    1.015200E+08  0.05000  1.700E-03    0   0.7096   age116_m72            0.0000     7.0118E-06    46.6712   0.6600   110.3569
 59      0.0000     0.0000E+00    0.0000E+00    2.861200E+08  0.05000  7.384E-04    0   0.6633   age125_m72            0.0000     6.3198E-06    41.3303  -0.0002   119.5362
 60     24.2079     6.1027E+00    7.1104E+00    5.088000E+08  0.05000  3.819E-04    0   0.6372   age130_m72            0.0000     6.0330E-06    39.0193  -0.5747   124.1382
 61      0.0000     0.0000E+00    0.0000E+00    9.047900E+08  0.05000  1.676E-04    0   0.6110   age135_m72            0.0000     6.2477E-06    45.1540  -1.0000   118.3797
 62      0.0000     0.0000E+00    0.0000E+00    1.434000E+09  0.05000  8.837E-05    0   0.5874   age139_m72            0.0000     7.2389E-06    57.8159  -1.0000   108.2974
 63      0.0000     0.0000E+00    0.0000E+00    2.500000E+09  0.05000  4.233E-05    0   0.5598   age150_m72            0.0000     8.4529E-06    65.3716  -1.0000    99.7842
 64      0.0000     0.0000E+00    0.0000E+00    6.250000E+09  0.05000  1.435E-05    0   0.5249   age166_m72            0.0000     1.1007E-05    76.3677  -1.0000    86.6270
 65      0.0000     0.0000E+00    0.0000E+00    1.300000E+10  0.05000  6.513E-06    0   0.5036   age193_m72            0.0000     1.3205E-05    82.0238  -1.0000    79.5317
 66      0.0000     0.0000E+00    0.0000E+00    1.800000E+10  0.05000  4.527E-06    0   0.4945   age213_m72            0.0000     1.4607E-05    84.9499  -1.0000    74.7435


## Synthesis Results - Average & Chains ##

# j      x_j: min, <> & last-chain-values for 1 ...  7 chains
  1      0.0000      1.3975      0.0000      0.0000      0.0718      0.0000      0.0988      0.0000      0.0000
  2      0.0000      1.9488      0.0000      3.5355      0.8576      0.9377      0.0000     11.5446      1.2784
  3      0.0000      1.3283      0.0000      0.2042      0.0000      0.4702      0.2911      0.2758      0.0000
  4      0.0000      1.2484      0.0160      2.1995      4.4768      4.5879      0.0034      0.0084      0.0000
  5      0.0000      0.9726      0.0002      0.0000     10.6513      0.0000      0.0000      0.0000      0.0006
  6      0.0000      1.5981      0.0344      0.2274      0.0262      0.0000      0.0000      0.0546      4.9852
  7      0.0000      1.1776      3.7664      0.0000      0.0000      1.4438      1.2539      0.1127      0.0000
  8      0.0000      1.3675     10.3450      2.4066      0.0993      0.0000      5.9289      0.0000      0.0000
  9      0.0000      1.7813      0.0000      0.0090      0.8081      0.0000      2.6606      0.0019      0.0000
 10      0.0000      1.6817      0.0003      0.0178     13.0426      0.0000      0.0000      0.0000      3.4830
 11      0.0000      1.5991      0.0000      0.9707      9.2309      1.2875      0.0421      5.5256      8.6527
 12      1.8841      1.2054      0.0000      1.1615      0.0000     17.4362      9.3635      4.1960      1.0760
 13      0.0000      1.2541      0.0481      0.3207      2.9799      1.9931      3.2745      0.0005      2.3541
 14      0.0000      1.5950      4.1179      5.7700      0.0000      0.0000      1.8575      0.0157      7.1235
 15      0.0000      1.5361      0.0002      0.0022      0.0000      2.9218      0.0016      0.0000      0.1301
 16      0.0000      1.3505      0.0000      2.2046      0.2157      1.4021      0.0000      1.3373      0.8391
 17      0.0000      1.7142      0.0000      0.0000      5.4108      2.0500      0.0000      0.0000      0.0000
 18      0.0000      1.7020      0.7337      0.0000      0.0869      0.0000      0.0000      0.0000      2.6330
 19      0.0000      1.1634      0.0000      0.3859      0.0000      0.1749      0.0864      0.4867      1.6731
 20      0.0000      1.5923      0.5408      3.4611      0.0290      0.0000      0.0000      0.0568      0.0000
 21      0.0000      1.5804      0.0000      0.1666      0.0000      0.0000      0.0000      0.0000      0.0000
 22      0.0000      1.3982      0.0000      0.0000      0.0000      0.9262      0.0001      5.0322      0.0468
 23      0.0000      1.7637      2.2630      1.4382      0.0000      7.6310      0.0000      0.0000      0.0000
 24      0.0000      1.2906      0.0000      0.2231      0.0000      0.0000      0.0028      0.0000      0.9159
 25      0.0000      1.3476      0.0000      0.1307     11.3054      1.2290      0.1858      0.5410      0.5984
 26      0.0000      2.1013      0.0000      0.0000      0.0000      0.0000      0.0377      0.0000      0.0000
 27      0.0000      1.5489      0.0000     22.1295     22.1223      2.5965      6.6674     11.9203      0.0000
 28     51.5427      2.1120      0.0000      0.0000      0.0000     27.7501      1.1405      0.1251      7.2177
 29      0.0000      1.7038      0.0000     10.3969      0.3536      1.8157      0.0000     36.1976      0.6645
 30      0.0000      1.2593      0.0000      0.9847      0.0000      0.0000      0.0000      0.0000      2.9875
 31      0.0000      1.5901      3.6478      0.0000      0.0000      0.2890      0.3760      1.4797      2.3894
 32     13.7967      1.5413      0.3281      0.2434      0.0000      1.7498     11.8122      0.0007      0.0000
 33      0.0000      1.5586      0.0014      0.0000      0.0000      0.0000      0.0000      0.0000      0.0000
 34      3.1793      1.6820      0.0035      0.1205      0.0000      2.9040      4.6776      0.3859      0.0000
 35      0.0000      1.3836      0.0000      0.0000      0.0000      0.0000      0.0000      0.0000      0.3905
 36      0.0000      1.5659      0.0000      0.0000      0.2591      2.0426      0.0000      0.0000      0.4716
 37      0.0000      1.6284      1.3447      0.0000      0.0000      1.6164      0.1581      5.4345      0.0000
 38      0.0000      1.6616      0.0000      0.0000      0.0000      0.0000      0.0000      0.0848      1.3932
 39      0.0000      1.3961     18.6893      0.3442      1.9846      1.8417      0.0325      0.0000      2.2153
 40      0.0000      1.2272      0.0000      0.0000      0.9858      0.7039      0.0000      0.0000      5.0428
 41      0.0000      1.7656      0.0000      0.5278      0.0000      1.0565      0.0043      0.0000      5.8296
 42      0.0000      1.4883      0.0000     15.2262      0.0000      2.8017      0.0306      0.0013      1.9472
 43      0.0000      2.0448      0.0077     18.4482      2.5837      0.2498      0.0000      0.0053     15.4289
 44     24.7442      1.5291      0.0000      2.1994      0.0000      1.1125     20.4973      0.0700      0.0000
 45      0.0000      0.9432      1.1079      0.0005      0.2323      5.1435      0.0870     10.3751      0.0676
 46      0.0000      1.3500      0.8820      0.1011      0.0000      0.0000      0.0000      0.0000      0.2960
 47      0.0000      1.8094      0.0000      0.0000      0.0000      0.0498      0.0000      0.0000      0.0000
 48      0.0000      1.8470      4.8585      0.0000      2.6564      0.0000      0.2044      0.0003      0.0596
 49      0.0000      1.6607      0.0784      0.0000     13.0426      0.0000      0.0167      0.0000      1.7403
 50      0.0000      1.3387      0.0000      0.0000      0.0000      0.0000      3.3503      0.0896      0.0000
 51      0.0000      1.6011      0.0002      0.0000      0.0000      0.0000      1.5571      2.9900      0.0000
 52      0.0000      2.0360      0.0000      0.7823      0.0000      2.2327      0.0000      0.0000      0.7275
 53      0.0000      1.3131      0.0000      0.0313      0.0000      0.5322      0.0633      4.5017      0.0000
 54      0.0000      2.1160      5.0783      0.0000      1.1787      0.0000      0.0000      0.0002      0.0000
 55      0.0000      1.3873      0.0000      0.0000      0.0000      0.0000      0.2709      1.0073      0.0000
 56      0.0000      1.7422      0.0000      0.0000      0.0000      0.0000      0.0000      0.0745      0.0000
 57      2.4729      0.9673      0.0000      0.0000      0.0000      0.0000      2.9422      0.0000      0.0000
 58      0.0000      1.3478      1.8258      0.0000      0.0000      0.0350     14.4724      0.2480      0.2280
 59      0.0000      1.5309     26.1877      0.0313      0.0000     10.9933      0.0023      0.0000     11.3911
 60     24.2079      2.1370      0.0019      9.1721      8.0943      0.0000     18.0071      0.4751      7.5451
 61      0.0000      1.8821      0.0000      0.6271      0.0869      0.0000      7.8816      0.0000      5.1621
 62      0.0000      1.5433      0.0426      0.2858      0.0000      2.9094      0.0000      0.6738      0.0000
 63      0.0000      1.5022      0.0000      0.0000      0.2558      0.4343      3.6158      0.0473      0.0000
 64      0.0000      1.3155      0.0250      0.0000      0.0000      0.0000      0.0000      0.0053      0.0452
 65      0.0000      1.3052     25.0378      0.0000      0.0000      1.4079      0.7419      2.3145      0.0000
 66      0.0000      1.7619      0.2618      0.0000      0.0000      1.7595      0.0000      0.0026      3.1414

# j      m_j: min, <> & last-chain-values for 1 ...  7 chains
  1  0.0000E+00  1.3453E-02  9.8544E-10  0.0000E+00  8.4175E-04  0.0000E+00  9.8090E-04  0.0000E+00  0.0000E+00
  2  0.0000E+00  5.1216E-03  0.0000E+00  3.9443E-02  2.7464E-03  3.0584E-03  0.0000E+00  6.6958E-02  4.9763E-03
  3  0.0000E+00  5.2276E-03  0.0000E+00  3.4117E-03  0.0000E+00  2.2964E-03  1.1815E-03  2.3952E-03  0.0000E+00
  4  0.0000E+00  4.6268E-03  2.5832E-05  3.4605E-02  2.0218E-02  2.1102E-02  1.3051E-05  6.8563E-05  0.0000E+00
  5  0.0000E+00  6.8663E-03  5.9397E-07  0.0000E+00  9.1632E-02  0.0000E+00  0.0000E+00  0.0000E+00  5.9892E-06
  6  0.0000E+00  1.8299E-02  1.7212E-04  1.1053E-02  3.6561E-04  0.0000E+00  0.0000E+00  1.3802E-03  8.4555E-02
  7  0.0000E+00  1.9305E-02  2.6946E-02  0.0000E+00  0.0000E+00  2.9375E-02  2.1200E-02  4.0788E-03  0.0000E+00
  8  0.0000E+00  3.0986E-02  1.0229E-01  2.3150E-01  2.7430E-03  0.0000E+00  1.3855E-01  0.0000E+00  0.0000E+00
  9  0.0000E+00  4.6197E-02  0.0000E+00  9.8842E-04  2.5537E-02  0.0000E+00  7.1161E-02  1.0918E-04  0.0000E+00
 10  0.0000E+00  5.7290E-02  3.9692E-06  2.5732E-03  5.4144E-01  0.0000E+00  0.0000E+00  0.0000E+00  1.7576E-01
 11  0.0000E+00  1.0243E-01  0.0000E+00  2.6395E-01  7.2054E-01  1.0235E-01  2.7786E-03  7.8116E-01  8.2098E-01
 12  3.2002E-01  1.2248E-01  0.0000E+00  5.0103E-01  0.0000E+00  2.1988E+00  9.8123E-01  9.4098E-01  1.6195E-01
 13  0.0000E+00  3.5920E-01  6.0107E-03  3.8988E-01  1.0400E+00  7.0842E-01  9.6719E-01  2.9282E-04  9.9868E-01
 14  0.0000E+00  1.5322E+00  1.7262E+00  2.3530E+01  0.0000E+00  0.0000E+00  1.8402E+00  3.3351E-02  1.0136E+01
 15  0.0000E+00  2.4022E+00  1.3268E-04  1.4814E-02  0.0000E+00  5.6705E+00  2.5848E-03  0.0000E+00  3.0131E-01
 16  0.0000E+00  3.5709E+00  0.0000E+00  2.4746E+01  6.9491E-01  4.6009E+00  0.0000E+00  7.8042E+00  3.2866E+00
 17  0.0000E+00  5.8801E+00  0.0000E+00  0.0000E+00  2.2617E+01  8.7268E+00  0.0000E+00  0.0000E+00  0.0000E+00
 18  0.0000E+00  1.4479E-02  2.7236E-03  0.0000E+00  9.0063E-04  0.0000E+00  0.0000E+00  0.0000E+00  3.3177E-02
 19  0.0000E+00  3.9725E-03  0.0000E+00  5.5941E-03  0.0000E+00  7.4122E-04  3.0408E-04  3.6678E-03  8.4619E-03
 20  0.0000E+00  5.9353E-03  8.7972E-04  5.4767E-02  1.3192E-04  0.0000E+00  0.0000E+00  4.6726E-04  0.0000E+00
 21  0.0000E+00  7.1510E-03  0.0000E+00  3.1995E-03  0.0000E+00  0.0000E+00  0.0000E+00  0.0000E+00  0.0000E+00
 22  0.0000E+00  1.0698E-02  0.0000E+00  0.0000E+00  0.0000E+00  8.7946E-03  7.5325E-07  8.4974E-02  5.3070E-04
 23  0.0000E+00  1.8223E-02  1.0204E-02  6.3080E-02  0.0000E+00  9.7850E-02  0.0000E+00  0.0000E+00  0.0000E+00
 24  0.0000E+00  1.9838E-02  0.0000E+00  1.4561E-02  0.0000E+00  0.0000E+00  4.4269E-05  0.0000E+00  2.0854E-02
 25  0.0000E+00  2.8564E-02  0.0000E+00  1.1761E-02  2.9200E-01  3.2329E-02  4.0603E-03  2.5306E-02  1.8786E-02
 26  0.0000E+00  7.4447E-02  0.0000E+00  0.0000E+00  5.2575E-11  0.0000E+00  1.3760E-03  0.0000E+00  0.0000E+00
 27  0.0000E+00  1.0984E-01  0.0000E+00  6.6618E+00  1.9117E+00  2.2851E-01  4.8761E-01  1.8656E+00  0.0000E+00
 28  1.7731E+01  4.3467E-01  0.0000E+00  0.0000E+00  0.0000E+00  7.0876E+00  2.4206E-01  5.6803E-02  2.2002E+00
 29  0.0000E+00  6.1095E-01  0.0000E+00  1.5827E+01  1.5449E-01  8.0802E-01  0.0000E+00  2.8646E+01  3.5296E-01
 30  0.0000E+00  9.4349E-01  0.0000E+00  3.1316E+00  0.0000E+00  0.0000E+00  0.0000E+00  0.0000E+00  3.3153E+00
 31  0.0000E+00  2.0956E+00  2.0979E+00  0.0000E+00  0.0000E+00  4.7261E-01  5.1102E-01  4.3038E+00  4.6643E+00
 32  4.0894E+01  2.7332E+00  2.5386E-01  1.8322E+00  0.0000E+00  3.8509E+00  2.1602E+01  2.6845E-03  0.0000E+00
 33  0.0000E+00  6.1183E+00  2.4605E-03  0.0000E+00  0.0000E+00  0.0000E+00  0.0000E+00  0.0000E+00  0.0000E+00
 34  2.8250E+01  8.9412E+00  8.1441E-03  2.7196E+00  0.0000E+00  1.9158E+01  2.5644E+01  4.5274E+00  0.0000E+00
 35  0.0000E+00  9.4376E-03  0.0000E+00  0.0000E+00  0.0000E+00  0.0000E+00  0.0000E+00  0.0000E+00  3.9452E-03
 36  0.0000E+00  4.3215E-03  0.0000E+00  0.0000E+00  8.7117E-04  6.9955E-03  0.0000E+00  0.0000E+00  1.9280E-03
 37  0.0000E+00  4.8609E-03  1.7517E-03  0.0000E+00  0.0000E+00  5.9879E-03  4.8669E-04  3.5802E-02  0.0000E+00
 38  0.0000E+00  1.3437E-02  0.0000E+00  0.0000E+00  0.0000E+00  0.0000E+00  0.0000E+00  1.5130E-03  1.6687E-02
 39  0.0000E+00  1.6256E-02  9.4963E-02  1.7011E-02  2.8158E-02  2.6612E-02  3.8971E-04  0.0000E+00  3.8207E-02
 40  0.0000E+00  2.3097E-02  0.0000E+00  0.0000E+00  2.2608E-02  1.6441E-02  0.0000E+00  0.0000E+00  1.4058E-01
 41  0.0000E+00  5.1674E-02  0.0000E+00  6.5576E-02  0.0000E+00  3.8372E-02  1.2929E-04  0.0000E+00  2.5272E-01
 42  0.0000E+00  7.9974E-02  0.0000E+00  3.4733E+00  0.0000E+00  1.8684E-01  1.6955E-03  1.5355E-04  1.5499E-01
 43  0.0000E+00  1.6042E-01  2.6462E-04  6.1440E+00  2.4700E-01  2.4324E-02  0.0000E+00  9.0984E-04  1.7929E+00
 44  5.5870E+00  2.0655E-01  0.0000E+00  1.2612E+00  0.0000E+00  1.8650E-01  2.8554E+00  2.0871E-02  0.0000E+00
 45  0.0000E+00  2.5279E-01  1.2958E-01  6.0779E-04  7.5875E-02  1.7108E+00  2.4034E-02  6.1369E+00  2.6825E-02
 46  0.0000E+00  6.6508E-01  1.8962E-01  2.1144E-01  0.0000E+00  0.0000E+00  0.0000E+00  0.0000E+00  2.1596E-01
 47  0.0000E+00  1.8062E+00  0.0000E+00  0.0000E+00  0.0000E+00  6.1707E-02  0.0000E+00  0.0000E+00  0.0000E+00
 48  0.0000E+00  3.2517E+00  3.7327E+00  0.0000E+00  5.6987E+00  0.0000E+00  3.7110E-01  1.1527E-03  1.5533E-01
 49  0.0000E+00  6.6449E+00  1.3683E-01  0.0000E+00  6.3593E+01  0.0000E+00  6.9078E-02  0.0000E+00  1.0314E+01
 50  0.0000E+00  9.9206E+00  0.0000E+00  0.0000E+00  0.0000E+00  0.0000E+00  2.5606E+01  1.4654E+00  0.0000E+00
 51  0.0000E+00  6.5042E-03  3.3103E-07  0.0000E+00  0.0000E+00  0.0000E+00  6.5234E-03  2.6806E-02  0.0000E+00
 52  0.0000E+00  4.2385E-03  0.0000E+00  6.9131E-03  0.0000E+00  5.7682E-03  0.0000E+00  0.0000E+00  2.2434E-03
 53  0.0000E+00  4.1177E-03  0.0000E+00  4.1630E-04  0.0000E+00  2.0711E-03  2.0479E-04  3.1155E-02  0.0000E+00
 54  0.0000E+00  1.3596E-02  1.4240E-02  0.0000E+00  9.2290E-03  0.0000E+00  0.0000E+00  2.6116E-06  0.0000E+00
 55  0.0000E+00  1.3725E-02  0.0000E+00  0.0000E+00  0.0000E+00  0.0000E+00  2.7641E-03  2.1994E-02  0.0000E+00
 56  0.0000E+00  3.4114E-02  0.0000E+00  0.0000E+00  0.0000E+00  0.0000E+00  0.0000E+00  3.2178E-03  0.0000E+00
 57  1.0743E-01  2.5139E-02  0.0000E+00  0.0000E+00  0.0000E+00  0.0000E+00  7.8859E-02  0.0000E+00  0.0000E+00
 58  0.0000E+00  5.9250E-02  3.5027E-02  0.0000E+00  0.0000E+00  1.9099E-03  6.5612E-01  2.4064E-02  1.4847E-02
 59  0.0000E+00  1.4483E-01  1.0812E+00  1.2589E-02  0.0000E+00  1.2907E+00  2.2641E-04  0.0000E+00  1.5962E+00
 60  7.1104E+00  3.7551E-01  1.4913E-04  6.8419E+00  1.7332E+00  0.0000E+00  3.2632E+00  1.8424E-01  1.9638E+00
 61  0.0000E+00  7.2262E-01  0.0000E+00  1.0221E+00  4.0662E-02  0.0000E+00  3.1208E+00  0.0000E+00  2.9357E+00
 62  0.0000E+00  1.0804E+00  1.3026E-02  8.4946E-01  0.0000E+00  2.5276E+00  0.0000E+00  1.0410E+00  0.0000E+00
 63  0.0000E+00  2.0923E+00  0.0000E+00  0.0000E+00  4.3409E-01  7.5075E-01  5.1936E+00  1.4529E-01  0.0000E+00
 64  0.0000E+00  5.0678E+00  4.2052E-02  0.0000E+00  0.0000E+00  0.0000E+00  0.0000E+00  4.5062E-02  2.5798E-01
 65  0.0000E+00  1.0629E+01  8.8976E+01  0.0000E+00  0.0000E+00  1.4228E+01  6.2305E+00  4.1597E+01  0.0000E+00
 66  0.0000E+00  2.0269E+01  1.3143E+00  0.0000E+00  0.0000E+00  2.5119E+01  0.0000E+00  6.5690E-02  5.3529E+01

# AV, chi2 & Mass for <> & i_chain = 1 ...  7 solutions
AV      -0.8346     -0.2537     -0.9258     -0.0107     -0.4265     -0.5975     -0.8944     -0.3787     -0.3444
chi2 6.0712E-06  7.3130E-06  6.7407E-06  6.8018E-06  6.7201E-06  6.5547E-06  6.4067E-06  6.8308E-06  6.6917E-06
Mass 1.2102E-14  4.4135E-14  4.1010E-14  1.4409E-14  2.8715E-14  2.2410E-14  1.8100E-14  1.6907E-14  2.6379E-14
   4.49                                  [v0_min (km/s) before EX0s...]
  97.70                                  [vd_min (km/s) before EX0s...]


## Synthetic spectrum (Best Model) ##l_obs f_obs f_syn wei
 3478    [Nl_obs]
 3741.00    0.19420   0.70533    0.000
 3742.00    0.50730   0.69475    0.000
 3743.00    0.64944   0.66554    0.000
 3744.00    0.71577   0.62971    0.000
 3745.00    0.73794   0.59207    0.014
 3746.00    0.64958   0.55123    0.014
 3747.00    0.50510   0.50429    0.014
 3748.00    0.16308   0.45452    0.014
 3749.00   -0.26581   0.41961    0.000
 3750.00   -0.06396   0.42246    0.000
 3751.00    0.37602   0.46814    0.014
 3752.00    0.66738   0.53922    0.014
 3753.00    0.91111   0.61415    0.014
 3754.00    1.17148   0.67873    0.014
 3755.00    1.43630   0.72049    0.014
 3756.00    1.45967   0.72817    0.014
 3757.00    1.43005   0.70601    0.014
 3758.00    1.12663   0.67866    0.014
 3759.00    0.77541   0.67042    0.014
 3760.00    0.45146   0.68336    0.014
 3761.00    0.13112   0.70210    0.014
 3762.00    0.22572   0.71286    0.014
 3763.00    0.35931   0.71223    0.014
 3764.00    0.71302   0.70230    0.014
 3765.00    1.07943   0.68273    0.014
 3766.00    0.79945   0.65142    0.014
 3767.00    0.50788   0.61210    0.014
 3768.00    0.67058   0.57270    0.014
 3769.00    0.82152   0.53908    0.014
 3770.00    0.68654   0.51993    0.014
 3771.00    0.53941   0.52816    0.014
 3772.00    0.23293   0.56561    0.014
 3773.00   -0.02309   0.61613    0.000
 3774.00    0.16380   0.66252    0.014
 3775.00    0.31676   0.70168    0.014
 3776.00    0.24967   0.73913    0.014
 3777.00    0.16476   0.77762    0.014
 3778.00   -0.01038   0.81603    0.000
 3779.00   -0.09958   0.85261    0.000
 3780.00    0.16297   0.88378    0.014
 3781.00    0.22980   0.90502    0.014
 3782.00   -0.36715   0.91662    0.000
 3783.00   -0.81879   0.92171    0.000
 3784.00   -0.85481   0.91631    0.000
 3785.00   -0.71168   0.89168    0.000
 3786.00   -0.13082   0.85030    0.000
 3787.00    0.25351   0.80817    0.014
 3788.00    0.22366   0.77795    0.014
 3789.00    0.16044   0.76041    0.014
 3790.00    0.03609   0.75035    0.014
 3791.00   -0.03742   0.73920    0.000
 3792.00   -0.02953   0.71579    0.000
 3793.00   -0.06068   0.67458    0.000
 3794.00   -0.14668   0.62122    0.000
 3795.00   -0.04310   0.56539    0.000
 3796.00    0.29479   0.51295    0.013
 3797.00    0.52403   0.47104    0.013
 3798.00    0.63490   0.45510    0.013
 3799.00    0.24484   0.47914    0.013
 3800.00   -0.62661   0.53907    0.000
 3801.00   -0.92328   0.61500    0.000
 3802.00   -0.73289   0.68778    0.000
 3803.00   -0.38752   0.74644    0.000
 3804.00    0.07349   0.78497    0.014
 3805.00    0.34395   0.80312    0.014
 3806.00    0.48948   0.81086    0.014
 3807.00    0.60666   0.82515    0.014
 3808.00    0.70756   0.85654    0.014
 3809.00    0.78984   0.89819    0.014
 3810.00    0.86279   0.93102    0.014
 3811.00    0.76179   0.93835    0.014
 3812.00    0.58555   0.91679    0.014
 3813.00    0.66264   0.87880    0.014
 3814.00    0.83368   0.84543    0.014
 3815.00    0.62950   0.83306    0.014
 3816.00    0.30738   0.84408    0.014
 3817.00    0.29142   0.86492    0.014
 3818.00    0.35578   0.87362    0.013
 3819.00    0.24970   0.85951    0.013
 3820.00    0.10710   0.83578    0.013
 3821.00   -0.17640   0.82278    0.000
 3822.00   -0.48380   0.81996    0.000
 3823.00    0.00771   0.80735    0.013
 3824.00    0.60173   0.77506    0.014
 3825.00    0.59526   0.73562    0.013
 3826.00    0.53488   0.70438    0.013
 3827.00    0.38314   0.68282    0.013
 3828.00    0.22650   0.66422    0.013
 3829.00    0.06138   0.64322    0.013
 3830.00   -0.10115   0.61493    0.000
 3831.00   -0.03030   0.57368    0.000
 3832.00    0.03911   0.52009    0.013
 3833.00    0.07637   0.46541    0.013
 3834.00    0.12075   0.42479    0.013
 3835.00    0.25368   0.40839    0.014
 3836.00    0.40257   0.41725    0.014
 3837.00    0.68633   0.44386    0.014
 3838.00    0.88277   0.47903    0.014
 3839.00    0.52995   0.51941    0.014
 3840.00    0.18545   0.56748    0.014
 3841.00   -0.11802   0.62520    0.000
 3842.00   -0.33733   0.68739    0.000
 3843.00   -0.21973   0.74279    0.000
 3844.00   -0.02726   0.78373    0.000
 3845.00    0.41412   0.81241    0.014
 3846.00    0.68161   0.83631    0.014
 3847.00    0.46079   0.85780    0.000
 3848.00    0.34719   0.87179    0.000
 3849.00    0.49112   0.87768    0.000
 3850.00    0.51091   0.88647    0.000
 3851.00    0.27321   0.90658    0.000
 3852.00    0.19923   0.92981    0.000
 3853.00    0.42053   0.94136    0.000
 3854.00    0.57248   0.93698    0.000
 3855.00    0.61506   0.92475    0.000
 3856.00    0.60801   0.91501    0.000
 3857.00    0.53224   0.91006    0.000
 3858.00    0.46550   0.90512    0.000
 3859.00    0.40976   0.90205    0.000
 3860.00    0.51059   0.91186    0.000
 3861.00    0.77959   0.93776    0.000
 3862.00    0.91624   0.96720    0.000
 3863.00    0.92748   0.98541    0.000
 3864.00    0.75689   0.98843    0.000
 3865.00    0.43439   0.98272    0.000
 3866.00    0.54555   0.97784    0.000
 3867.00    0.97566   0.97838    0.000
 3868.00    1.04414   0.97951    0.000
 3869.00    0.87903   0.97101    0.000
 3870.00    0.71258   0.94667    0.000
 3871.00    0.54537   0.91147    0.000
 3872.00    0.53403   0.88135    0.000
 3873.00    0.59935   0.87217    0.000
 3874.00    0.59467   0.88355    0.000
 3875.00    0.56023   0.89541    0.000
 3876.00    0.63561   0.88518    0.000
 3877.00    0.75099   0.84988    0.000
 3878.00    0.96023   0.80998    0.000
 3879.00    1.19840   0.78697    0.000
 3880.00    0.83276   0.77894    0.000
 3881.00    0.31212   0.76785    0.013
 3882.00    0.30942   0.74560    0.013
 3883.00    0.41501   0.71643    0.013
 3884.00    0.56557   0.67955    0.013
 3885.00    0.72355   0.62872    0.013
 3886.00    0.49740   0.56744    0.013
 3887.00    0.22368   0.51070    0.013
 3888.00    0.17610   0.47429    0.014
 3889.00    0.14789   0.46978    0.014
 3890.00    0.51658   0.50091    0.014
 3891.00    0.90505   0.55714    0.013
 3892.00    0.45141   0.61766    0.013
 3893.00   -0.01618   0.66635    0.000
 3894.00   -0.49440   0.70120    0.000
 3895.00   -0.93265   0.73011    0.000
 3896.00   -0.55329   0.75962    0.000
 3897.00   -0.18298   0.78774    0.000
 3898.00    0.08029   0.80961    0.013
 3899.00    0.31897   0.82818    0.012
 3900.00    0.35727   0.85124    0.012
 3901.00    0.41658   0.87782    0.012
 3902.00    0.60420   0.89723    0.012
 3903.00    0.83396   0.90320    0.012
 3904.00    1.26659   0.90021    0.012
 3905.00    1.46277   0.89821    0.011
 3906.00    0.73302   0.90876    0.011
 3907.00    0.18463   0.93835    0.011
 3908.00    0.22740   0.98013    0.011
 3909.00    0.45254   1.01921    0.012
 3910.00    1.18058   1.04588    0.012
 3911.00    1.65545   1.05808    0.012
 3912.00    1.53247   1.05635    0.013
 3913.00    1.39604   1.04461    0.013
 3914.00    1.23219   1.03124    0.013
 3915.00    1.10759   1.02167    0.013
 3916.00    1.05270   1.01394    0.013
 3917.00    0.97872   1.00436    0.013
 3918.00    0.87507   0.99208    0.013
 3919.00    0.88299   0.97905    0.013
 3920.00    1.04315   0.96978    0.013
 3921.00    1.04758   0.96885    0.013
 3922.00    0.86495   0.97625    0.013
 3923.00    0.81586   0.98579    0.013
 3924.00    0.90820   0.98762    0.013
 3925.00    0.80373   0.97360    0.013
 3926.00    0.51541   0.94207    0.013
 3927.00    0.65105   0.89641    0.013
 3928.00    1.13584   0.84026    0.013
 3929.00    1.30617   0.77501    0.013
 3930.00    1.24854   0.69919    0.014
 3931.00    0.86239   0.61190    0.014
 3932.00    0.26716   0.52245    0.013
 3933.00    0.31708   0.45655    0.013
 3934.00    0.72604   0.44401    0.014
 3935.00    0.68630   0.49405    0.014
 3936.00    0.42935   0.58578    0.014
 3937.00    0.54679   0.68642    0.014
 3938.00    0.82076   0.77464    0.014
 3939.00    0.91408   0.84369    0.014
 3940.00    0.94278   0.89111    0.014
 3941.00    0.92934   0.91515    0.014
 3942.00    0.90316   0.91985    0.014
 3943.00    1.16682   0.91744    0.014
 3944.00    1.50327   0.92287    0.014
 3945.00    1.01460   0.94183    0.014
 3946.00    0.35766   0.96364    0.014
 3947.00    0.39138   0.97342    0.014
 3948.00    0.53569   0.97076    0.014
 3949.00    0.40078   0.96710    0.014
 3950.00    0.23253   0.96785    0.014
 3951.00    0.37208   0.96822    0.014
 3952.00    0.53670   0.96578    0.014
 3953.00    0.69299   0.96396    0.014
 3954.00    0.84889   0.96050    0.014
 3955.00    0.62620   0.94620    0.014
 3956.00    0.41531   0.92133    0.014
 3957.00    1.07245   0.89932    0.014
 3958.00    1.70818   0.88692    0.014
 3959.00    1.93825   0.87187    0.014
 3960.00    2.09621   0.83776    0.000
 3961.00    1.44165   0.78474    0.000
 3962.00    0.82437   0.72757    0.000
 3963.00    0.50008   0.67583    0.000
 3964.00    0.27341   0.62405    0.000
 3965.00    0.62595   0.56116    0.000
 3966.00    0.91024   0.48409    0.000
 3967.00    0.87412   0.40282    0.000
 3968.00    0.83326   0.33670    0.000
 3969.00    0.77424   0.30519    0.000
 3970.00    0.86259   0.31699    0.000
 3971.00    1.42201   0.36556    0.000
 3972.00    1.78232   0.43477    0.000
 3973.00    1.60339   0.50946    0.000
 3974.00    1.51981   0.58112    0.000
 3975.00    1.65765   0.64615    0.000
 3976.00    1.68267   0.70406    0.000
 3977.00    1.48110   0.75736    0.000
 3978.00    1.38181   0.80853    0.000
 3979.00    1.46145   0.85493    0.000
 3980.00    1.44089   0.88933    0.000
 3981.00    1.26694   0.90775    0.014
 3982.00    1.11852   0.91609    0.014
 3983.00    1.00446   0.92586    0.014
 3984.00    0.89857   0.94333    0.014
 3985.00    0.80235   0.96595    0.014
 3986.00    0.65103   0.98907    0.014
 3987.00    0.44218   1.01087    0.014
 3988.00    0.57549   1.02946    0.014
 3989.00    1.02396   1.04267    0.014
 3990.00    1.24384   1.05324    0.014
 3991.00    1.27813   1.06691    0.014
 3992.00    1.52495   1.08349    0.014
 3993.00    1.92363   1.09525    0.014
 3994.00    1.78333   1.09487    0.014
 3995.00    1.30508   1.08219    0.014
 3996.00    1.11799   1.06455    0.014
 3997.00    1.09046   1.05418    0.014
 3998.00    0.92594   1.06183    0.014
 3999.00    0.69618   1.08655    0.014
 4000.00    0.78503   1.11470    0.014
 4001.00    1.00485   1.13306    0.013
 4002.00    1.48618   1.13699    0.014
 4003.00    2.05938   1.12470    0.014
 4004.00    2.08484   1.09732    0.014
 4005.00    1.94802   1.06923    0.014
 4006.00    1.67558   1.06259    0.013
 4007.00    1.36983   1.08388    0.013
 4008.00    1.11250   1.11705    0.013
 4009.00    0.86480   1.14273    0.013
 4010.00    0.92010   1.15461    0.013
 4011.00    1.02249   1.15659    0.014
 4012.00    1.00000   1.15479    0.013
 4013.00    0.96315   1.15418    0.013
 4014.00    0.80512   1.15710    0.013
 4015.00    0.63771   1.16171    0.013
 4016.00    0.70318   1.16453    0.013
 4017.00    0.77845   1.16700    0.013
 4018.00    0.90510   1.17480    0.013
 4019.00    1.03108   1.18731    0.013
 4020.00    1.10750   1.19503    0.013
 4021.00    1.17314   1.19113    0.013
 4022.00    1.04896   1.17800    0.013
 4023.00    0.95979   1.16230    0.013
 4024.00    1.24727   1.15210    0.013
 4025.00    1.48058   1.15563    0.013
 4026.00    1.30261   1.17261    0.013
 4027.00    1.07938   1.18893    0.013
 4028.00    0.59502   1.18632    0.013
 4029.00    0.26694   1.15756    0.013
 4030.00    0.65508   1.11348    0.013
 4031.00    1.05235   1.07501    0.013
 4032.00    1.48384   1.05721    0.013
 4033.00    1.70913   1.06236    0.013
 4034.00    1.28798   1.08558    0.013
 4035.00    0.90026   1.12091    0.013
 4036.00    0.60149   1.16090    0.013
 4037.00    0.45747   1.19490    0.013
 4038.00    0.66681   1.21260    0.013
 4039.00    0.88125   1.21123    0.013
 4040.00    1.10580   1.19892    0.013
 4041.00    1.21825   1.18668    0.013
 4042.00    1.13759   1.17392    0.013
 4043.00    0.96914   1.14756    0.013
 4044.00    0.66826   1.10277    0.014
 4045.00    0.69027   1.06036    0.013
 4046.00    1.14030   1.05091    0.013
 4047.00    1.48512   1.08037    0.013
 4048.00    1.70710   1.12498    0.014
 4049.00    1.91120   1.15938    0.014
 4050.00    2.09687   1.17488    0.014
 4051.00    1.79962   1.17305    0.014
 4052.00    1.06383   1.15800    0.013
 4053.00    0.95111   1.13668    0.013
 4054.00    1.33708   1.11769    0.013
 4055.00    1.21959   1.10573    0.013
 4056.00    0.74757   1.09889    0.013
 4057.00    0.60230   1.09529    0.013
 4058.00    0.65885   1.09922    0.013
 4059.00    0.64217   1.11324    0.013
 4060.00    0.58599   1.12651    0.013
 4061.00    0.47679   1.12060    0.013
 4062.00    0.34274   1.09071    0.013
 4063.00    0.63134   1.05634    0.013
 4064.00    1.09070   1.04230    0.013
 4065.00    1.32425   1.05127    0.013
 4066.00    1.47995   1.06757    0.013
 4067.00    1.48204   1.08256    0.013
 4068.00    1.43953   1.09769    0.013
 4069.00    1.39848   1.10676    0.013
 4070.00    1.35777   1.09817    0.013
 4071.00    1.22874   1.07689    0.013
 4072.00    1.08258   1.06352    0.013
 4073.00    1.20726   1.06581    0.013
 4074.00    1.37275   1.06686    0.013
 4075.00    1.03375   1.04640    0.013
 4076.00    0.63895   1.00600    0.013
 4077.00    0.41113   0.97043    0.013
 4078.00    0.19555   0.96525    0.013
 4079.00    0.52276   0.99375    0.013
 4080.00    0.87074   1.03583    0.013
 4081.00    0.95532   1.06571    0.013
 4082.00    1.04076   1.06997    0.013
 4083.00    1.21380   1.05311    0.013
 4084.00    1.37791   1.03042    0.013
 4085.00    1.39476   1.01648    0.013
 4086.00    1.39016   1.01737    0.013
 4087.00    1.16468   1.02856    0.013
 4088.00    0.96791   1.03853    0.013
 4089.00    0.98179   1.03719    0.013
 4090.00    1.03021   1.02239    0.013
 4091.00    1.27243   0.99910    0.013
 4092.00    1.48202   0.97373    0.000
 4093.00    1.54554   0.94802    0.000
 4094.00    1.51548   0.91730    0.000
 4095.00    1.14166   0.87767    0.000
 4096.00    0.83701   0.83228    0.000
 4097.00    0.74506   0.78648    0.000
 4098.00    0.74522   0.73938    0.000
 4099.00    0.98609   0.68533    0.000
 4100.00    1.05480   0.62551    0.000
 4101.00    0.73690   0.57692    0.000
 4102.00    0.51769   0.56289    0.000
 4103.00    0.49056   0.59152    0.000
 4104.00    0.54583   0.64915    0.000
 4105.00    0.74095   0.71397    0.000
 4106.00    1.07149   0.77026    0.000
 4107.00    1.60332   0.81172    0.000
 4108.00    1.88944   0.83884    0.000
 4109.00    1.85448   0.85647    0.000
 4110.00    1.77220   0.87188    0.000
 4111.00    1.63544   0.89165    0.000
 4112.00    1.36699   0.91840    0.000
 4113.00    0.96484   0.94978    0.013
 4114.00    0.77320   0.98068    0.013
 4115.00    0.77004   1.00565    0.013
 4116.00    0.72816   1.01938    0.013
 4117.00    0.65573   1.01884    0.013
 4118.00    0.62655   1.00902    0.013
 4119.00    0.62739   1.00196    0.013
 4120.00    0.48142   1.00458    0.013
 4121.00    0.24611   1.01298    0.013
 4122.00    0.34179   1.02197    0.013
 4123.00    0.61330   1.03232    0.013
 4124.00    1.01531   1.04457    0.013
 4125.00    1.47750   1.05261    0.013
 4126.00    1.69930   1.04944    0.013
 4127.00    1.82566   1.03658    0.013
 4128.00    1.80647   1.02323    0.013
 4129.00    1.73803   1.01526    0.013
 4130.00    1.31596   1.00928    0.013
 4131.00    0.79327   1.00062    0.012
 4132.00    0.62617   0.99372    0.012
 4133.00    0.54256   0.99878    0.013
 4134.00    0.82873   1.02026    0.013
 4135.00    1.18469   1.05208    0.012
 4136.00    1.19345   1.08299    0.012
 4137.00    1.15151   1.10673    0.013
 4138.00    1.09158   1.12408    0.013
 4139.00    1.02974   1.13473    0.013
 4140.00    1.10183   1.13217    0.013
 4141.00    1.18318   1.10922    0.013
 4142.00    0.97709   1.06958    0.013
 4143.00    0.76109   1.03312    0.013
 4144.00    1.50712   1.02229    0.013
 4145.00    2.21038   1.04024    0.013
 4146.00    1.43808   1.06929    0.013
 4147.00    0.74755   1.08985    0.012
 4148.00    1.32153   1.09466    0.012
 4149.00    1.82235   1.08890    0.012
 4150.00    1.60191   1.08192    0.012
 4151.00    1.40879   1.07775    0.013
 4152.00    1.40964   1.07297    0.013
 4153.00    1.40981   1.06378    0.013
 4154.00    1.40632   1.05258    0.013
 4155.00    1.35735   1.04556    0.013
 4156.00    1.10961   1.04670    0.012
 4157.00    0.85491   1.05648    0.012
 4158.00    0.57519   1.07203    0.012
 4159.00    0.54871   1.08758    0.012
 4160.00    1.28644   1.09837    0.012
 4161.00    1.83000   1.10543    0.012
 4162.00    1.87494   1.11248    0.012
 4163.00    1.87085   1.11933    0.012
 4164.00    1.75843   1.12237    0.012
 4165.00    1.61336   1.11863    0.012
 4166.00    1.40571   1.10871    0.012
 4167.00    1.29128   1.09865    0.012
 4168.00    1.33264   1.09433    0.012
 4169.00    1.23170   1.09089    0.012
 4170.00    0.92234   1.07506    0.012
 4171.00    0.84716   1.04207    0.012
 4172.00    1.07360   1.00540    0.012
 4173.00    1.13425   0.98534    0.012
 4174.00    1.00675   0.98896    0.012
 4175.00    1.01986   1.00452    0.012
 4176.00    1.17368   1.01515    0.012
 4177.00    1.28095   1.01587    0.012
 4178.00    1.34711   1.01582    0.012
 4179.00    1.30845   1.02433    0.012
 4180.00    1.18828   1.03841    0.012
 4181.00    1.09091   1.04849    0.012
 4182.00    1.00916   1.05241    0.012
 4183.00    1.05088   1.05629    0.012
 4184.00    1.16661   1.06311    0.012
 4185.00    1.11829   1.06671    0.012
 4186.00    0.98416   1.06003    0.012
 4187.00    0.95633   1.04830    0.012
 4188.00    0.97671   1.04546    0.012
 4189.00    1.10380   1.05612    0.012
 4190.00    1.27252   1.07173    0.012
 4191.00    1.15048   1.08577    0.012
 4192.00    0.93186   1.09921    0.012
 4193.00    0.88055   1.10897    0.012
 4194.00    0.87586   1.10519    0.012
 4195.00    0.92181   1.08424    0.012
 4196.00    0.97938   1.05407    0.012
 4197.00    1.06324   1.02538    0.012
 4198.00    1.15195   1.00633    0.012
 4199.00    1.12859   1.00143    0.012
 4200.00    1.08939   1.00672    0.012
 4201.00    1.06272   1.01324    0.012
 4202.00    1.03732   1.01847    0.012
 4203.00    0.95592   1.02608    0.012
 4204.00    0.87087   1.03793    0.012
 4205.00    1.07083   1.05321    0.012
 4206.00    1.27923   1.07000    0.012
 4207.00    1.28411   1.08427    0.012
 4208.00    1.28675   1.09159    0.012
 4209.00    1.22323   1.09224    0.012
 4210.00    1.16996   1.09240    0.012
 4211.00    1.26575   1.09670    0.012
 4212.00    1.36712   1.10050    0.012
 4213.00    1.52129   1.09309    0.012
 4214.00    1.59477   1.07033    0.012
 4215.00    1.11354   1.04431    0.012
 4216.00    0.69341   1.03540    0.012
 4217.00    0.59801   1.05090    0.012
 4218.00    0.57578   1.07825    0.012
 4219.00    0.86603   1.10111    0.012
 4220.00    1.05638   1.11209    0.012
 4221.00    0.89473   1.10915    0.011
 4222.00    0.76015   1.09024    0.011
 4223.00    0.70575   1.05467    0.011
 4224.00    0.75704   1.00525    0.012
 4225.00    1.07503   0.95152    0.012
 4226.00    1.26615   0.91370    0.012
 4227.00    1.18158   0.91484    0.012
 4228.00    1.15254   0.95888    0.011
 4229.00    1.22825   1.02159    0.011
 4230.00    1.11449   1.07046    0.011
 4231.00    0.68882   1.08737    0.011
 4232.00    0.61223   1.07485    0.011
 4233.00    1.03955   1.05056    0.011
 4234.00    1.15575   1.03176    0.011
 4235.00    0.87693   1.02312    0.011
 4236.00    0.77781   1.02169    0.011
 4237.00    0.87974   1.02460    0.011
 4238.00    0.94198   1.02979    0.011
 4239.00    0.96506   1.03767    0.011
 4240.00    0.86025   1.05027    0.011
 4241.00    0.64416   1.06590    0.011
 4242.00    0.64449   1.08022    0.011
 4243.00    0.81074   1.09130    0.011
 4244.00    1.04865   1.09648    0.011
 4245.00    1.33486   1.08982    0.011
 4246.00    1.46097   1.07015    0.011
 4247.00    1.49256   1.04613    0.012
 4248.00    1.50547   1.02726    0.012
 4249.00    1.50874   1.01544    0.012
 4250.00    1.54228   1.01060    0.012
 4251.00    1.58932   1.01496    0.012
 4252.00    1.44061   1.02506    0.012
 4253.00    1.21685   1.03187    0.012
 4254.00    0.92427   1.03408    0.012
 4255.00    0.60927   1.03981    0.011
 4256.00    0.35236   1.05126    0.011
 4257.00    0.11132   1.05720    0.011
 4258.00    0.24640   1.04622    0.011
 4259.00    0.46578   1.02177    0.011
 4260.00    0.72372   1.00130    0.011
 4261.00    0.98855   1.00229    0.011
 4262.00    1.09424   1.02756    0.012
 4263.00    1.17816   1.06372    0.012
 4264.00    1.15526   1.09432    0.012
 4265.00    1.12193   1.11040    0.012
 4266.00    1.26193   1.10976    0.012
 4267.00    1.41253   1.09397    0.011
 4268.00    1.03274   1.06711    0.011
 4269.00    0.64302   1.03257    0.011
 4270.00    1.11103   0.99329    0.011
 4271.00    1.54743   0.95778    0.011
 4272.00    1.14851   0.93838    0.011
 4273.00    0.78787   0.93887    0.011
 4274.00    0.95361   0.95360    0.011
 4275.00    1.13506   0.97838    0.011
 4276.00    1.45934   1.01042    0.011
 4277.00    1.74771   1.04105    0.012
 4278.00    1.79696   1.05876    0.012
 4279.00    1.79945   1.05872    0.012
 4280.00    1.55988   1.04672    0.011
 4281.00    1.32341   1.03302    0.011
 4282.00    1.09986   1.02403   -2.000
 4283.00    0.86214   1.02021   -2.000
 4284.00    0.57554   1.01797   -2.000
 4285.00    0.45458   1.01332   -2.000
 4286.00    0.81511   1.00413   -2.000
 4287.00    1.24771   0.98782   -2.000
 4288.00    1.85907   0.96252   -2.000
 4289.00    2.18483   0.93541   -2.000
 4290.00    1.90002   0.92354   -2.000
 4291.00    1.54948   0.93683   -2.000
 4292.00    1.07691   0.96428   -2.000
 4293.00    0.80016   0.98490   -2.000
 4294.00    0.84097   0.98883   -2.000
 4295.00    0.85079   0.98055   -2.000
 4296.00    0.81652   0.96515   -2.000
 4297.00    0.76450   0.94125   -2.000
 4298.00    0.69029   0.90709    0.011
 4299.00    0.58991   0.86956    0.011
 4300.00    0.46066   0.84229    0.011
 4301.00    0.43249   0.83244    0.011
 4302.00    0.50266   0.83667    0.011
 4303.00    0.68300   0.84889    0.011
 4304.00    0.95787   0.86229    0.011
 4305.00    1.08516   0.86830    0.011
 4306.00    1.10092   0.86152    0.011
 4307.00    0.84728   0.84528    0.011
 4308.00    0.41473   0.83189    0.011
 4309.00    0.37530   0.83376    0.011
 4310.00    0.56447   0.85196    0.011
 4311.00    0.68933   0.87585    0.011
 4312.00    0.78160   0.89401    0.011
 4313.00    0.81348   0.90518    0.011
 4314.00    0.81885   0.91942    0.011
 4315.00    0.84315   0.94732    0.011
 4316.00    0.87458   0.98563    0.011
 4317.00    0.80929   1.01799    0.011
 4318.00    0.71308   1.03126    0.011
 4319.00    0.86345   1.02503    0.011
 4320.00    1.07973   1.00683    0.011
 4321.00    1.21907   0.98359    0.011
 4322.00    1.34158   0.95539    0.011
 4323.00    1.17051   0.91741    0.011
 4324.00    0.94837   0.87193    0.011
 4325.00    0.92976   0.83508    0.011
 4326.00    0.93807   0.82642    0.011
 4327.00    1.03668   0.84887    0.011
 4328.00    1.14374   0.88299    0.011
 4329.00    1.18769   0.90503    0.011
 4330.00    1.22803   0.90689    0.000
 4331.00    1.08031   0.89653    0.000
 4332.00    0.93200   0.88359    0.000
 4333.00    1.21958   0.87020    0.000
 4334.00    1.50446   0.85240    0.000
 4335.00    1.72481   0.82269    0.000
 4336.00    1.90617   0.77388    0.000
 4337.00    1.58002   0.70735    0.000
 4338.00    1.26208   0.63541    0.000
 4339.00    1.01587   0.57482    0.000
 4340.00    0.78318   0.54206    0.000
 4341.00    0.63781   0.54799    0.000
 4342.00    0.56910   0.58768    0.000
 4343.00    0.88719   0.64288    0.000
 4344.00    1.13556   0.69798    0.000
 4345.00    1.09935   0.74691    0.000
 4346.00    1.07157   0.78841    0.000
 4347.00    1.07230   0.82307    0.000
 4348.00    0.98983   0.85012    0.000
 4349.00    0.66993   0.86331    0.000
 4350.00    0.55218   0.85659    0.000
 4351.00    0.92727   0.83782    0.011
 4352.00    1.25911   0.82820    0.011
 4353.00    1.50000   0.84199    0.011
 4354.00    1.65658   0.87367    0.011
 4355.00    1.65903   0.90863    0.011
 4356.00    1.56802   0.93618    0.011
 4357.00    1.32767   0.95140    0.011
 4358.00    1.13231   0.95580    0.011
 4359.00    1.00006   0.95841    0.011
 4360.00    0.98290   0.96873    0.011
 4361.00    1.10776   0.98713    0.011
 4362.00    1.10770   1.00686    0.011
 4363.00    0.97178   1.02330    0.011
 4364.00    0.92809   1.03511    0.011
 4365.00    0.97287   1.03863    0.011
 4366.00    0.89450   1.02970    0.011
 4367.00    0.71194   1.01173    0.011
 4368.00    0.74522   0.99566    0.011
 4369.00    0.93928   0.98964    0.011
 4370.00    1.11585   0.99270    0.011
 4371.00    1.28098   0.99757    0.011
 4372.00    1.35385   0.99517    0.011
 4373.00    1.37387   0.98057    0.011
 4374.00    1.14951   0.96069    0.011
 4375.00    0.80326   0.95238    0.011
 4376.00    0.95043   0.96655    0.011
 4377.00    1.31051   0.99608    0.011
 4378.00    1.19471   1.02286    0.011
 4379.00    0.90281   1.03350    0.011
 4380.00    0.64228   1.02423    0.011
 4381.00    0.39158   0.99473    0.011
 4382.00    0.63656   0.94704    0.011
 4383.00    1.01122   0.89516    0.011
 4384.00    0.89042   0.86454    0.011
 4385.00    0.66378   0.87080    0.011
 4386.00    0.85381   0.90453    0.011
 4387.00    1.11430   0.94201    0.011
 4388.00    1.27938   0.96681    0.011
 4389.00    1.43228   0.97738    0.011
 4390.00    1.02329   0.98097    0.011
 4391.00    0.56417   0.98504    0.011
 4392.00    0.67307   0.99026    0.011
 4393.00    0.81224   0.99131    0.011
 4394.00    1.26250   0.98765    0.011
 4395.00    1.71201   0.98839    0.011
 4396.00    1.60579   1.00028    0.011
 4397.00    1.48394   1.01567    0.011
 4398.00    1.01841   1.02001    0.011
 4399.00    0.58743   1.00894    0.011
 4400.00    0.58334   0.99288    0.011
 4401.00    0.61389   0.98476    0.011
 4402.00    0.93589   0.98380    0.011
 4403.00    1.17596   0.97808    0.011
 4404.00    0.90254   0.96485    0.011
 4405.00    0.70473   0.95584    0.011
 4406.00    0.87881   0.95902    0.011
 4407.00    1.08632   0.96947    0.011
 4408.00    1.42726   0.98209    0.011
 4409.00    1.59437   0.99868    0.011
 4410.00    1.18503   1.01979    0.011
 4411.00    0.93620   1.03923    0.011
 4412.00    1.13706   1.04729    0.011
 4413.00    1.39701   1.03627    0.011
 4414.00    1.79858   1.00818    0.011
 4415.00    1.95879   0.97836    0.011
 4416.00    1.61943   0.96443    0.011
 4417.00    1.38300   0.97256    0.011
 4418.00    1.33185   0.99664    0.011
 4419.00    1.24208   1.02346    0.011
 4420.00    1.09148   1.03875    0.011
 4421.00    1.02947   1.03652    0.011
 4422.00    1.08987   1.02400    0.011
 4423.00    1.03451   1.01423    0.011
 4424.00    0.83835   1.01295    0.011
 4425.00    0.76687   1.01609    0.011
 4426.00    0.82909   1.01867    0.011
 4427.00    0.84113   1.01978    0.011
 4428.00    0.80571   1.01971    0.011
 4429.00    1.05820   1.01721    0.011
 4430.00    1.55078   1.01279    0.011
 4431.00    1.48697   1.00912    0.011
 4432.00    1.01467   1.00421    0.011
 4433.00    0.81938   0.99311    0.011
 4434.00    0.80266   0.97821    0.011
 4435.00    0.79988   0.97132    0.011
 4436.00    0.80495   0.98303    0.011
 4437.00    0.78319   1.01061    0.011
 4438.00    0.74827   1.03896    0.011
 4439.00    0.90780   1.05224    0.011
 4440.00    1.14985   1.04312    0.011
 4441.00    1.28261   1.01622    0.011
 4442.00    1.37565   0.98596    0.011
 4443.00    1.17176   0.96939    0.011
 4444.00    0.87656   0.97583    0.011
 4445.00    0.96953   0.99905    0.011
 4446.00    1.16187   1.02281    0.011
 4447.00    1.12254   1.03621    0.011
 4448.00    1.03494   1.03917    0.011
 4449.00    1.10751   1.03532    0.011
 4450.00    1.20641   1.02853    0.011
 4451.00    1.13513   1.02197    0.011
 4452.00    1.04286   1.01341    0.011
 4453.00    1.09049   0.99705    0.011
 4454.00    1.15002   0.97324    0.011
 4455.00    1.11349   0.95208    0.011
 4456.00    1.07223   0.94315    0.011
 4457.00    1.30792   0.94476    0.011
 4458.00    1.54229   0.94820    0.011
 4459.00    1.41799   0.94833    0.010
 4460.00    1.28830   0.94598    0.010
 4461.00    1.04934   0.94554    0.000
 4462.00    0.83691   0.95250    0.000
 4463.00    0.93635   0.96695    0.000
 4464.00    1.03203   0.98122    0.000
 4465.00    1.09722   0.98839    0.000
 4466.00    1.12594   0.98739    0.000
 4467.00    0.93266   0.98056    0.000
 4468.00    0.79147   0.97190    0.000
 4469.00    0.90018   0.96742    0.000
 4470.00    0.97681   0.97275    0.000
 4471.00    0.92817   0.98819    0.000
 4472.00    0.90833   1.00889    0.000
 4473.00    0.98213   1.02837    0.000
 4474.00    1.04873   1.04171    0.000
 4475.00    1.09553   1.04853    0.000
 4476.00    1.11168   1.05200    0.000
 4477.00    1.05562   1.05162    0.000
 4478.00    1.01472   1.03997    0.000
 4479.00    1.00470   1.01147    0.000
 4480.00    1.06494   0.97308    0.000
 4481.00    1.24976   0.94384    0.000
 4482.00    1.36815   0.94125    0.010
 4483.00    1.38350   0.96608    0.010
 4484.00    1.38724   1.00242    0.010
 4485.00    1.37516   1.03180    0.010
 4486.00    1.28407   1.04319    0.010
 4487.00    1.09825   1.03475    0.010
 4488.00    0.97216   1.01343    0.010
 4489.00    0.90922   0.99246    0.010
 4490.00    1.05048   0.98363    0.010
 4491.00    1.38219   0.98857    0.010
 4492.00    1.31419   0.99833    0.010
 4493.00    0.91761   1.00212    0.010
 4494.00    0.58952   0.99788    0.010
 4495.00    0.31098   0.99353    0.010
 4496.00    0.63285   0.99714    0.010
 4497.00    1.33611   1.00936    0.010
 4498.00    1.52538   1.02345    0.010
 4499.00    1.42914   1.03102    0.010
 4500.00    1.28338   1.03017    0.010
 4501.00    1.11369   1.02873    0.010
 4502.00    1.14358   1.03695    0.010
 4503.00    1.25674   1.05515    0.010
 4504.00    1.16284   1.07292    0.010
 4505.00    0.99505   1.08039    0.010
 4506.00    0.90865   1.07564    0.010
 4507.00    0.84680   1.06450    0.010
 4508.00    0.99228   1.05578    0.010
 4509.00    1.18969   1.05447    0.010
 4510.00    1.16876   1.05775    0.010
 4511.00    1.10344   1.05830    0.010
 4512.00    1.20522   1.05149    0.010
 4513.00    1.33366   1.03867    0.010
 4514.00    1.35643   1.02500    0.010
 4515.00    1.36663   1.01592    0.010
 4516.00    1.43342   1.01316    0.010
 4517.00    1.50479   1.01398    0.010
 4518.00    1.33534   1.01586    0.010
 4519.00    1.15495   1.01805    0.010
 4520.00    0.94081   1.01880    0.010
 4521.00    0.73247   1.01517    0.010
 4522.00    0.84154   1.00607    0.010
 4523.00    0.95099   0.99480    0.010
 4524.00    1.06774   0.98414    0.010
 4525.00    1.18310   0.97229    0.010
 4526.00    1.28288   0.95758    0.010
 4527.00    1.36346   0.94169    0.010
 4528.00    1.29375   0.92922    0.010
 4529.00    1.20100   0.92514    0.010
 4530.00    0.97198   0.93001    0.010
 4531.00    0.83430   0.93839    0.010
 4532.00    1.12419   0.94241    0.010
 4533.00    1.32190   0.93853    0.010
 4534.00    1.16732   0.93391    0.010
 4535.00    1.07058   0.94081    0.010
 4536.00    1.15826   0.96356    0.010
 4537.00    1.20596   0.99269    0.010
 4538.00    1.14563   1.01243    0.010
 4539.00    1.11940   1.01544    0.010
 4540.00    1.17219   1.00747    0.010
 4541.00    1.17953   0.99975    0.010
 4542.00    1.09574   0.99831    0.010
 4543.00    0.98984   0.99970    0.010
 4544.00    0.84535   0.99798    0.010
 4545.00    0.83671   0.99245    0.010
 4546.00    1.03565   0.98472    0.010
 4547.00    1.26182   0.97359    0.010
 4548.00    1.52456   0.95814    0.010
 4549.00    1.61289   0.94404    0.010
 4550.00    1.49505   0.94052    0.000
 4551.00    1.36414   0.94730    0.000
 4552.00    1.21959   0.95336    0.000
 4553.00    1.15727   0.95088    0.000
 4554.00    1.17056   0.94300    0.000
 4555.00    1.16391   0.94015    0.000
 4556.00    1.14111   0.94968    0.000
 4557.00    1.19456   0.96854    0.000
 4558.00    1.30239   0.98818    0.000
 4559.00    1.29519   1.00341    0.000
 4560.00    1.21600   1.01290    0.000
 4561.00    0.95372   1.01506    0.000
 4562.00    0.59129   1.00765    0.000
 4563.00    0.76550   0.99223    0.000
 4564.00    1.19480   0.97751    0.000
 4565.00    1.41670   0.97364    0.000
 4566.00    1.55354   0.98388    0.000
 4567.00    1.34831   1.00172    0.000
 4568.00    1.02323   1.01554    0.000
 4569.00    1.00642   1.01727    0.000
 4570.00    1.08072   1.00695    0.000
 4571.00    1.12782   0.99270    0.000
 4572.00    1.16826   0.98642    0.000
 4573.00    0.93192   0.99210    0.000
 4574.00    0.64073   1.00231    0.000
 4575.00    0.74424   1.00882    0.000
 4576.00    0.90884   1.00915    0.000
 4577.00    0.79083   1.00385    0.000
 4578.00    0.64047   0.99321    0.000
 4579.00    1.01474   0.97809    0.000
 4580.00    1.42931   0.96220    0.000
 4581.00    1.07526   0.94999    0.000
 4582.00    0.68921   0.94281    0.000
 4583.00    0.87798   0.93961    0.000
 4584.00    1.06769   0.94046    0.000
 4585.00    1.08359   0.94581    0.000
 4586.00    1.10544   0.95480    0.000
 4587.00    1.23131   0.96569    0.000
 4588.00    1.31604   0.97537    0.000
 4589.00    0.96062   0.98041    0.000
 4590.00    0.68380   0.97887    0.000
 4591.00    1.00119   0.97200    0.000
 4592.00    1.22119   0.96455    0.000
 4593.00    0.88152   0.96082    0.000
 4594.00    0.61379   0.96090    0.000
 4595.00    0.67478   0.96279    0.000
 4596.00    0.72266   0.96563    0.000
 4597.00    0.72146   0.96889    0.000
 4598.00    0.76399   0.97137    0.000
 4599.00    0.94329   0.97151    0.000
 4600.00    1.02539   0.96928    0.000
 4601.00    0.84949   0.96778    0.000
 4602.00    0.72978   0.96905    0.000
 4603.00    0.73814   0.97176    0.000
 4604.00    0.76120   0.97428    0.000
 4605.00    0.81326   0.97729    0.000
 4606.00    0.87215   0.98380    0.000
 4607.00    0.94277   0.99509    0.000
 4608.00    1.06786   1.00805    0.000
 4609.00    1.27498   1.01674    0.000
 4610.00    1.30802   1.01703    0.000
 4611.00    1.11073   1.01051    0.000
 4612.00    1.03865   1.00236    0.000
 4613.00    1.11249   0.99682    0.000
 4614.00    0.95926   0.99505    0.000
 4615.00    0.57264   0.99459    0.000
 4616.00    0.52794   0.99244    0.000
 4617.00    0.79317   0.98826    0.000
 4618.00    1.04761   0.98304    0.000
 4619.00    1.29342   0.97988    0.000
 4620.00    1.38300   0.98254    0.000
 4621.00    1.36277   0.99010    0.000
 4622.00    1.21764   0.99788    0.000
 4623.00    0.99549   1.00219    0.000
 4624.00    0.91356   1.00181    0.000
 4625.00    0.90715   0.99786    0.000
 4626.00    0.80813   0.99281    0.000
 4627.00    0.66579   0.98777    0.000
 4628.00    0.67285   0.98267    0.000
 4629.00    0.74013   0.97937    0.000
 4630.00    0.81115   0.98042    0.000
 4631.00    0.88345   0.98360    0.000
 4632.00    0.94767   0.98304    0.000
 4633.00    1.00955   0.97693    0.000
 4634.00    0.87729   0.96904    0.000
 4635.00    0.69854   0.96329    0.000
 4636.00    1.00094   0.95978    0.000
 4637.00    1.39626   0.95668    0.000
 4638.00    1.26111   0.95427    0.000
 4639.00    1.04634   0.95463    0.000
 4640.00    1.06685   0.95896    0.000
 4641.00    1.11325   0.96593    0.000
 4642.00    1.18101   0.97088    0.000
 4643.00    1.25032   0.96923    0.000
 4644.00    1.00560   0.95966    0.000
 4645.00    0.74901   0.94392    0.000
 4646.00    0.76095   0.92713    0.000
 4647.00    0.77384   0.91677    0.000
 4648.00    0.77111   0.91763    0.000
 4649.00    0.78283   0.92872    0.000
 4650.00    1.03047   0.94414    0.000
 4651.00    1.22840   0.95674    0.000
 4652.00    0.91746   0.96232    0.000
 4653.00    0.63556   0.95981    0.000
 4654.00    0.56583   0.95141    0.000
 4655.00    0.54325   0.94345    0.000
 4656.00    0.78431   0.94281    0.000
 4657.00    0.96106   0.95291    0.000
 4658.00    0.85087   0.97090    0.000
 4659.00    0.72495   0.98788    0.000
 4660.00    0.54138   0.99508    0.000
 4661.00    0.50229   0.98963    0.000
 4662.00    0.90649   0.97530    0.000
 4663.00    1.11874   0.95814    0.000
 4664.00    0.83040   0.94090    0.000
 4665.00    0.68557   0.92155    0.000
 4666.00    0.86235   0.89922    0.000
 4667.00    0.96510   0.88055    0.000
 4668.00    0.92410   0.87523    0.000
 4669.00    0.88555   0.88587    0.000
 4670.00    0.85113   0.90582    0.000
 4671.00    0.87998   0.92522    0.000
 4672.00    1.00271   0.93784    0.000
 4673.00    1.10332   0.94452    0.000
 4674.00    1.17507   0.94974    0.000
 4675.00    1.18260   0.95571    0.000
 4676.00    1.11634   0.96006    0.000
 4677.00    1.09793   0.95826    0.000
 4678.00    1.12800   0.94934    0.000
 4679.00    1.09127   0.93763    0.000
 4680.00    0.99482   0.92883    0.000
 4681.00    0.91962   0.92635    0.000
 4682.00    0.86117   0.93056    0.000
 4683.00    0.86516   0.93878    0.000
 4684.00    0.91242   0.94650    0.000
 4685.00    0.83028   0.95068    0.000
 4686.00    0.66954   0.95101    0.000
 4687.00    0.88248   0.94874    0.000
 4688.00    1.29355   0.94556    0.000
 4689.00    1.29074   0.94237    0.000
 4690.00    1.09748   0.93938    0.000
 4691.00    1.11526   0.93778    0.000
 4692.00    1.21664   0.93944    0.000
 4693.00    1.23543   0.94464    0.000
 4694.00    1.22634   0.95143    0.000
 4695.00    1.05359   0.95629    0.000
 4696.00    0.83440   0.95522    0.000
 4697.00    0.76347   0.94651    0.000
 4698.00    0.72726   0.93302    0.000
 4699.00    0.77977   0.92045    0.000
 4700.00    0.84898   0.91169    0.000
 4701.00    0.93922   0.90536    0.000
 4702.00    1.03251   0.90052    0.000
 4703.00    0.89829   0.89942    0.000
 4704.00    0.74001   0.90381    0.000
 4705.00    0.80860   0.91003    0.000
 4706.00    0.89276   0.91215    0.000
 4707.00    0.76193   0.90881    0.000
 4708.00    0.62378   0.90486    0.000
 4709.00    0.81998   0.90622    0.000
 4710.00    1.01083   0.91432    0.000
 4711.00    1.01091   0.92443    0.000
 4712.00    1.01343   0.92969    0.000
 4713.00    1.05326   0.92808    0.000
 4714.00    1.08913   0.92417    0.000
 4715.00    1.08610   0.92502    0.000
 4716.00    1.08139   0.93316    0.000
 4717.00    1.06477   0.94481    0.000
 4718.00    1.07276   0.95530    0.000
 4719.00    1.21470   0.96223    0.000
 4720.00    1.27328   0.96492    0.000
 4721.00    0.96852   0.96414    0.000
 4722.00    0.72910   0.96223    0.000
 4723.00    0.72406   0.96166    0.000
 4724.00    0.77484   0.96182    0.000
 4725.00    0.99370   0.95817    0.000
 4726.00    1.14334   0.94648    0.000
 4727.00    1.11562   0.92798    0.000
 4728.00    1.10274   0.90961    0.000
 4729.00    1.12257   0.89791    0.000
 4730.00    1.14734   0.89469    0.000
 4731.00    1.18154   0.89862    0.000
 4732.00    1.21192   0.90729    0.000
 4733.00    1.23595   0.91685    0.000
 4734.00    1.22473   0.92342    0.000
 4735.00    1.16198   0.92504    0.000
 4736.00    1.20199   0.92302    0.000
 4737.00    1.37409   0.92236    0.000
 4738.00    1.31180   0.92575    0.000
 4739.00    0.98400   0.93037    0.000
 4740.00    0.84381   0.93303    0.000
 4741.00    0.89106   0.93396    0.000
 4742.00    0.99123   0.93534    0.000
 4743.00    1.13803   0.93782    0.000
 4744.00    1.16229   0.94021    0.000
 4745.00    1.09140   0.94202    0.000
 4746.00    1.18529   0.94389    0.000
 4747.00    1.39164   0.94555    0.000
 4748.00    1.34197   0.94640    0.000
 4749.00    1.13911   0.94638    0.000
 4750.00    0.98786   0.94496    0.000
 4751.00    0.86356   0.94093    0.000
 4752.00    0.78999   0.93402    0.000
 4753.00    0.73938   0.92570    0.000
 4754.00    0.89626   0.91813    0.000
 4755.00    1.13393   0.91336    0.000
 4756.00    1.25300   0.91241    0.000
 4757.00    1.33276   0.91533    0.000
 4758.00    1.18286   0.92017    0.000
 4759.00    0.96910   0.92314    0.000
 4760.00    0.84868   0.92028    0.000
 4761.00    0.74961   0.91004    0.009
 4762.00    0.78703   0.89543    0.009
 4763.00    0.84945   0.88179    0.009
 4764.00    0.79402   0.87255    0.009
 4765.00    0.72201   0.86902    0.009
 4766.00    0.90900   0.87183    0.009
 4767.00    1.12226   0.88058    0.009
 4768.00    1.00949   0.89234    0.009
 4769.00    0.87565   0.90255    0.009
 4770.00    0.98395   0.90753    0.009
 4771.00    1.09928   0.90774    0.009
 4772.00    1.06913   0.90798    0.009
 4773.00    1.04315   0.91229    0.009
 4774.00    1.13787   0.92005    0.009
 4775.00    1.21680   0.92737    0.009
 4776.00    1.06763   0.93143    0.009
 4777.00    0.92710   0.93208    0.009
 4778.00    0.86786   0.92973    0.009
 4779.00    0.83123   0.92522    0.009
 4780.00    0.94941   0.91997    0.009
 4781.00    1.02543   0.91473    0.009
 4782.00    0.87820   0.90936    0.008
 4783.00    0.74614   0.90416    0.008
 4784.00    0.67870   0.90001    0.008
 4785.00    0.64149   0.89639    0.008
 4786.00    0.71054   0.89255    0.008
 4787.00    0.79032   0.88974    0.008
 4788.00    0.90179   0.88882    0.008
 4789.00    0.98815   0.88998    0.008
 4790.00    1.01126   0.89396    0.009
 4791.00    1.02444   0.90093    0.009
 4792.00    1.01610   0.91070    0.008
 4793.00    0.99877   0.92223    0.008
 4794.00    0.96451   0.93233    0.009
 4795.00    1.02465   0.93707    0.009
 4796.00    1.23992   0.93414    0.009
 4797.00    1.28521   0.92449    0.009
 4798.00    1.08558   0.91213    0.009
 4799.00    0.92248   0.90264    0.009
 4800.00    0.80565   0.90009    0.009
 4801.00    0.82808   0.90420    0.009
 4802.00    1.00601   0.90997    0.009
 4803.00    1.20222   0.91149    0.009
 4804.00    1.41644   0.90678    0.009
 4805.00    1.49822   0.89881    0.009
 4806.00    1.46495   0.89220    0.009
 4807.00    1.35565   0.88887    0.009
 4808.00    1.18817   0.88869    0.009
 4809.00    1.04553   0.89061    0.009
 4810.00    0.91960   0.89318    0.009
 4811.00    0.94791   0.89540    0.009
 4812.00    1.06712   0.89728    0.009
 4813.00    1.01443   0.89954    0.009
 4814.00    0.87341   0.90283    0.009
 4815.00    0.84990   0.90703    0.009
 4816.00    0.87870   0.91139    0.009
 4817.00    0.98831   0.91510    0.009
 4818.00    1.12885   0.91740    0.009
 4819.00    1.23516   0.91720    0.009
 4820.00    1.33035   0.91255    0.009
 4821.00    1.35690   0.90208    0.009
 4822.00    1.36477   0.88664    0.009
 4823.00    1.20942   0.87115    0.009
 4824.00    1.01760   0.86306    0.009
 4825.00    0.86636   0.86512    0.009
 4826.00    0.72236   0.87252    0.009
 4827.00    0.77517   0.87820    0.009
 4828.00    0.85479   0.87850    0.009
 4829.00    0.95539   0.87463    0.009
 4830.00    1.05804   0.86939    0.009
 4831.00    0.78018   0.86448    0.009
 4832.00    0.47924   0.86145    0.009
 4833.00    0.89519   0.86138    0.009
 4834.00    1.32522   0.86302    0.009
 4835.00    0.87004   0.86382    0.009
 4836.00    0.44384   0.86201    0.009
 4837.00    0.77413   0.85720    0.009
 4838.00    1.07482   0.84971    0.009
 4839.00    0.97152   0.84102    0.009
 4840.00    0.87559   0.83357    0.009
 4841.00    0.84627   0.82885    0.009
 4842.00    0.82853   0.82649    0.009
 4843.00    0.88767   0.82556    0.009
 4844.00    0.93121   0.82559    0.009
 4845.00    0.89425   0.82464    0.009
 4846.00    0.84574   0.81971    0.009
 4847.00    0.74918   0.80972    0.009
 4848.00    0.69839   0.79747    0.000
 4849.00    0.80517   0.78768    0.000
 4850.00    0.86730   0.78166    0.000
 4851.00    0.79992   0.77582    0.000
 4852.00    0.77619   0.76560    0.000
 4853.00    0.86050   0.74846    0.000
 4854.00    0.91618   0.72553    0.000
 4855.00    0.91078   0.70123    0.000
 4856.00    0.89606   0.67915    0.000
 4857.00    0.86406   0.65691    0.000
 4858.00    0.82991   0.62760    0.000
 4859.00    0.79228   0.58837    0.000
 4860.00    0.75361   0.54712    0.000
 4861.00    0.71346   0.52049    0.000
 4862.00    0.77302   0.52178    0.000
 4863.00    0.95715   0.54930    0.000
 4864.00    1.05272   0.59004    0.000
 4865.00    1.05078   0.63111    0.000
 4866.00    1.02481   0.66517    0.000
 4867.00    0.97550   0.69037    0.000
 4868.00    0.94083   0.70638    0.000
 4869.00    0.91870   0.71296    0.000
 4870.00    0.95366   0.71189    0.000
 4871.00    1.03170   0.70934    0.000
 4872.00    1.08299   0.71312    0.000
 4873.00    1.11655   0.72559    0.000
 4874.00    1.01291   0.74243    0.000
 4875.00    0.82963   0.75810    0.009
 4876.00    0.93129   0.77098    0.009
 4877.00    1.17706   0.78301    0.009
 4878.00    1.22172   0.79570    0.009
 4879.00    1.17831   0.80766    0.009
 4880.00    0.88291   0.81498    0.009
 4881.00    0.49280   0.81595    0.009
 4882.00    0.60692   0.81267    0.009
 4883.00    0.88187   0.80768    0.009
 4884.00    0.84139   0.80237    0.009
 4885.00    0.71683   0.79776    0.009
 4886.00    0.66785   0.79518    0.009
 4887.00    0.63537   0.79485    0.009
 4888.00    0.75853   0.79434    0.009
 4889.00    0.90868   0.79109    0.009
 4890.00    0.95237   0.78688    0.009
 4891.00    0.98204   0.78861    0.009
 4892.00    1.13061   0.80290    0.009
 4893.00    1.29022   0.82778    0.009
 4894.00    1.20165   0.85484    0.009
 4895.00    1.09900   0.87562    0.009
 4896.00    1.07222   0.88598    0.009
 4897.00    1.04727   0.88674    0.009
 4898.00    1.03187   0.88054    0.009
 4899.00    1.01846   0.87084    0.009
 4900.00    1.05221   0.86181    0.009
 4901.00    1.08328   0.85612    0.009
 4902.00    1.07971   0.85366    0.009
 4903.00    1.07525   0.85435    0.009
 4904.00    1.06314   0.85897    0.009
 4905.00    1.06047   0.86656    0.009
 4906.00    1.11848   0.87277    0.009
 4907.00    1.14861   0.87209    0.009
 4908.00    1.03855   0.86279    0.009
 4909.00    0.95620   0.84869    0.009
 4910.00    0.98660   0.83696    0.009
 4911.00    1.00918   0.83368    0.009
 4912.00    1.00534   0.83980    0.009
 4913.00    1.02358   0.85152    0.009
 4914.00    1.10469   0.86309    0.009
 4915.00    1.17674   0.86857    0.009
 4916.00    1.22673   0.86284    0.009
 4917.00    1.21473   0.84402    0.009
 4918.00    1.07263   0.81604    0.008
 4919.00    0.92362   0.78880    0.008
 4920.00    0.76202   0.77266    0.008
 4921.00    0.74489   0.77173    0.008
 4922.00    0.95816   0.78162    0.008
 4923.00    1.03187   0.79483    0.008
 4924.00    0.91026   0.80830    0.008
 4925.00    0.87291   0.82346    0.008
 4926.00    0.93932   0.84102    0.008
 4927.00    0.99736   0.85845    0.008
 4928.00    1.04633   0.87225    0.008
 4929.00    1.12011   0.88003    0.008
 4930.00    1.21767   0.88042    0.008
 4931.00    1.11170   0.87312    0.008
 4932.00    0.83390   0.85948    0.008
 4933.00    0.69382   0.84424    0.008
 4934.00    0.65615   0.83376    0.008
 4935.00    0.67876   0.82955    0.008
 4936.00    0.74074   0.82683    0.008
 4937.00    0.79709   0.82144    0.008
 4938.00    0.85023   0.81549    0.008
 4939.00    0.95493   0.81595    0.008
 4940.00    1.08531   0.82685    0.000
 4941.00    1.12999   0.84433    0.000
 4942.00    1.13777   0.86082    0.000
 4943.00    1.19041   0.87133    0.000
 4944.00    1.25961   0.87489    0.000
 4945.00    1.25683   0.87395    0.000
 4946.00    1.23155   0.87254    0.000
 4947.00    1.09185   0.87343    0.000
 4948.00    0.92230   0.87660    0.000
 4949.00    0.71699   0.88007    0.000
 4950.00    0.50406   0.88165    0.000
 4951.00    0.82147   0.88006    0.000
 4952.00    1.22823   0.87498    0.000
 4953.00    0.93934   0.86650    0.000
 4954.00    0.56196   0.85381    0.000
 4955.00    0.78736   0.83557    0.000
 4956.00    1.06624   0.81370    0.000
 4957.00    1.01736   0.79615    0.000
 4958.00    0.95119   0.79356    0.000
 4959.00    0.90198   0.80785    0.000
 4960.00    0.85589   0.82985    0.000
 4961.00    1.02863   0.84810    0.000
 4962.00    1.19004   0.85656    0.000
 4963.00    1.10484   0.85597    0.000
 4964.00    1.02516   0.84927    0.000
 4965.00    1.01332   0.83953    0.000
 4966.00    1.00286   0.83044    0.000
 4967.00    1.00401   0.82473    0.000
 4968.00    0.97298   0.82323    0.000
 4969.00    0.74100   0.82551    0.000
 4970.00    0.63906   0.83053    0.000
 4971.00    1.17472   0.83757    0.000
 4972.00    1.54926   0.84551    0.000
 4973.00    1.28233   0.85257    0.000
 4974.00    1.08767   0.85716    0.000
 4975.00    1.13210   0.85762    0.000
 4976.00    1.16910   0.85333    0.000
 4977.00    1.18537   0.84488    0.000
 4978.00    1.21646   0.83349    0.000
 4979.00    1.28302   0.82023    0.000
 4980.00    1.26746   0.80463    0.000
 4981.00    1.08226   0.78647    0.000
 4982.00    0.97147   0.76879    0.000
 4983.00    0.99439   0.75793    0.000
 4984.00    0.93015   0.75902    0.000
 4985.00    0.72899   0.77194    0.000
 4986.00    0.64439   0.79132    0.000
 4987.00    0.72060   0.80966    0.000
 4988.00    0.76152   0.82081    0.000
 4989.00    0.75960   0.82354    0.000
 4990.00    0.85290   0.82099    0.000
 4991.00    1.04813   0.81778    0.000
 4992.00    1.06653   0.81711    0.000
 4993.00    0.91797   0.81892    0.000
 4994.00    0.94594   0.82219    0.000
 4995.00    1.12086   0.82574    0.000
 4996.00    1.10824   0.82725    0.000
 4997.00    0.95818   0.82448    0.000
 4998.00    0.95038   0.81629    0.000
 4999.00    1.03414   0.80388    0.000
 5000.00    0.93111   0.79116    0.000
 5001.00    0.72293   0.78192    0.000
 5002.00    0.71594   0.77720    0.000
 5003.00    0.80751   0.77447    0.000
 5004.00    0.80411   0.77017    0.000
 5005.00    0.76050   0.76443    0.000
 5006.00    0.79201   0.76211    0.000
 5007.00    0.85076   0.76778    0.000
 5008.00    0.81045   0.77975    0.000
 5009.00    0.73976   0.79037    0.000
 5010.00    0.79234   0.79250    0.000
 5011.00    0.87639   0.78454    0.000
 5012.00    0.96881   0.77071    0.000
 5013.00    1.06298   0.75805    0.000
 5014.00    0.97499   0.75115    0.000
 5015.00    0.85718   0.75005    0.000
 5016.00    0.66090   0.75084    0.000
 5017.00    0.45498   0.75026    0.000
 5018.00    0.62977   0.74942    0.000
 5019.00    0.83673   0.75158    0.000
 5020.00    0.85113   0.75736    0.000
 5021.00    0.85612   0.76474    0.000
 5022.00    0.91165   0.77210    0.000
 5023.00    0.96730   0.77957    0.000
 5024.00    0.98283   0.78657    0.000
 5025.00    0.99569   0.79073    0.000
 5026.00    0.95499   0.79099    0.000
 5027.00    0.90389   0.78919    0.000
 5028.00    0.73125   0.78951    0.000
 5029.00    0.59404   0.79433    0.008
 5030.00    0.74278   0.80233    0.008
 5031.00    0.88299   0.81113    0.008
 5032.00    0.97142   0.81777    0.008
 5033.00    1.03279   0.81900    0.008
 5034.00    0.96474   0.81287    0.008
 5035.00    0.91741   0.80093    0.008
 5036.00    0.95083   0.78779    0.008
 5037.00    0.97737   0.77635    0.008
 5038.00    0.98164   0.76450    0.008
 5039.00    0.92601   0.75005    0.008
 5040.00    0.70597   0.73626    0.008
 5041.00    0.63329   0.73117    0.008
 5042.00    0.90714   0.74129    0.008
 5043.00    1.03842   0.76420    0.008
 5044.00    0.87986   0.79034    0.008
 5045.00    0.80806   0.81004    0.008
 5046.00    0.88974   0.81751    0.008
 5047.00    0.93200   0.81246    0.008
 5048.00    0.91322   0.79920    0.008
 5049.00    0.93612   0.78467    0.008
 5050.00    1.01568   0.77496    0.008
 5051.00    0.89648   0.77281    0.008
 5052.00    0.53938   0.77773    0.008
 5053.00    0.50215   0.78717    0.008
 5054.00    0.80249   0.79743    0.008
 5055.00    0.93455   0.80568    0.008
 5056.00    0.90997   0.81135    0.008
 5057.00    0.94561   0.81570    0.008
 5058.00    1.03066   0.81999    0.008
 5059.00    1.08826   0.82425    0.008
 5060.00    1.12604   0.82752    0.008
 5061.00    0.96105   0.82791    0.008
 5062.00    0.66749   0.82293    0.008
 5063.00    0.60110   0.81180    0.008
 5064.00    0.66064   0.79720    0.008
 5065.00    0.73036   0.78455    0.008
 5066.00    0.80500   0.77798    0.008
 5067.00    0.71343   0.77712    0.008
 5068.00    0.55266   0.77944    0.008
 5069.00    0.66223   0.78239    0.008
 5070.00    0.86806   0.78405    0.008
 5071.00    0.81371   0.78330    0.008
 5072.00    0.68110   0.78093    0.008
 5073.00    0.78590   0.77926    0.008
 5074.00    0.94999   0.77921    0.008
 5075.00    0.86666   0.77966    0.008
 5076.00    0.73320   0.77843    0.008
 5077.00    0.61687   0.77285    0.008
 5078.00    0.50326   0.76187    0.008
 5079.00    0.62360   0.74818    0.008
 5080.00    0.77161   0.73819    0.008
 5081.00    0.76395   0.73661    0.008
 5082.00    0.74377   0.74288    0.008
 5083.00    0.77055   0.75315    0.008
 5084.00    0.79943   0.76403    0.008
 5085.00    0.59083   0.77359    0.008
 5086.00    0.38750   0.78062    0.008
 5087.00    0.58718   0.78495    0.008
 5088.00    0.77200   0.78772    0.008
 5089.00    0.68052   0.79038    0.008
 5090.00    0.59899   0.79370    0.008
 5091.00    0.62841   0.79780    0.008
 5092.00    0.66665   0.80208    0.008
 5093.00    0.77364   0.80459    0.008
 5094.00    0.87112   0.80266    0.008
 5095.00    0.91266   0.79458    0.008
 5096.00    0.92406   0.78089    0.008
 5097.00    0.79486   0.76482    0.008
 5098.00    0.69664   0.75153    0.008
 5099.00    0.71652   0.74591    0.008
 5100.00    0.71511   0.74989    0.008
 5101.00    0.64600   0.76032    0.008
 5102.00    0.59296   0.77108    0.008
 5103.00    0.58326   0.77731    0.008
 5104.00    0.61551   0.77767    0.008
 5105.00    0.74475   0.77346    0.008
 5106.00    0.83300   0.76693    0.008
 5107.00    0.83923   0.76016    0.008
 5108.00    0.85420   0.75532    0.008
 5109.00    0.88437   0.75405    0.008
 5110.00    0.85941   0.75672    0.008
 5111.00    0.75034   0.76307    0.008
 5112.00    0.68859   0.77135    0.008
 5113.00    0.69023   0.77920    0.008
 5114.00    0.69722   0.78559    0.008
 5115.00    0.71053   0.79064    0.008
 5116.00    0.71017   0.79499    0.008
 5117.00    0.69559   0.79830    0.008
 5118.00    0.72250   0.79879    0.008
 5119.00    0.78749   0.79482    0.008
 5120.00    0.89326   0.78609    0.008
 5121.00    1.03202   0.77368    0.008
 5122.00    1.09738   0.75984    0.008
 5123.00    1.11050   0.74718    0.008
 5124.00    0.99373   0.73835    0.008
 5125.00    0.79583   0.73453    0.008
 5126.00    0.74846   0.73446    0.008
 5127.00    0.78327   0.73582    0.008
 5128.00    0.69851   0.73739    0.008
 5129.00    0.55701   0.73965    0.008
 5130.00    0.66923   0.74357    0.008
 5131.00    0.88528   0.74895    0.008
 5132.00    0.86370   0.75453    0.008
 5133.00    0.75903   0.75943    0.008
 5134.00    0.78609   0.76288    0.008
 5135.00    0.85199   0.76365    0.008
 5136.00    0.74013   0.75977    0.008
 5137.00    0.58485   0.75132    0.008
 5138.00    0.72995   0.74189    0.008
 5139.00    0.93440   0.73519    0.008
 5140.00    0.96467   0.73280    0.008
 5141.00    0.96808   0.73311    0.008
 5142.00    0.83613   0.73368    0.008
 5143.00    0.68876   0.73451    0.008
 5144.00    0.75290   0.73593    0.008
 5145.00    0.83318   0.73664    0.008
 5146.00    0.89726   0.73601    0.008
 5147.00    0.96068   0.73516    0.008
 5148.00    0.95579   0.73547    0.008
 5149.00    0.95028   0.73675    0.008
 5150.00    0.94288   0.73695    0.008
 5151.00    0.93573   0.73484    0.008
 5152.00    0.93288   0.73165    0.008
 5153.00    0.92659   0.73009    0.008
 5154.00    0.88356   0.73267    0.008
 5155.00    0.84158   0.74038    0.008
 5156.00    0.80749   0.75152    0.008
 5157.00    0.76399   0.76264    0.008
 5158.00    0.66655   0.77058    0.008
 5159.00    0.58031   0.77356    0.008
 5160.00    0.54504   0.77176    0.008
 5161.00    0.54264   0.76608    0.008
 5162.00    0.66286   0.75692    0.008
 5163.00    0.75612   0.74356    0.008
 5164.00    0.76527   0.72346    0.008
 5165.00    0.78267   0.69485    0.008
 5166.00    0.82192   0.66151    0.008
 5167.00    0.81323   0.63271    0.008
 5168.00    0.69549   0.61743    0.008
 5169.00    0.59501   0.61618    0.008
 5170.00    0.52851   0.62062    0.008
 5171.00    0.52797   0.62283    0.008
 5172.00    0.64060   0.62428    0.008
 5173.00    0.67291   0.63395    0.008
 5174.00    0.58450   0.65662    0.008
 5175.00    0.55735   0.68651    0.008
 5176.00    0.61111   0.71324    0.008
 5177.00    0.68332   0.73034    0.008
 5178.00    0.77698   0.73677    0.008
 5179.00    0.73080   0.73325    0.008
 5180.00    0.54116   0.71945    0.007
 5181.00    0.47962   0.69548    0.007
 5182.00    0.53400   0.66620    0.007
 5183.00    0.57187   0.64227    0.007
 5184.00    0.59657   0.63551    0.007
 5185.00    0.59202   0.64936    0.007
 5186.00    0.56693   0.67487    0.008
 5187.00    0.64065   0.69944    0.008
 5188.00    0.77517   0.71503    0.008
 5189.00    0.75900   0.72021    0.008
 5190.00    0.66183   0.71714    0.000
 5191.00    0.55895   0.70888    0.000
 5192.00    0.45340   0.70028    0.000
 5193.00    0.52392   0.69625    0.000
 5194.00    0.66528   0.69776    0.000
 5195.00    0.65788   0.70243    0.000
 5196.00    0.59942   0.70861    0.000
 5197.00    0.66665   0.71614    0.000
 5198.00    0.77020   0.72462    0.000
 5199.00    0.76877   0.73259    0.000
 5200.00    0.74226   0.73747    0.000
 5201.00    0.78959   0.73716    0.000
 5202.00    0.85113   0.73063    0.000
 5203.00    0.83366   0.71840    0.000
 5204.00    0.80439   0.70265    0.000
 5205.00    0.72156   0.68712    0.000
 5206.00    0.63288   0.67580    0.000
 5207.00    0.65224   0.67111    0.000
 5208.00    0.67942   0.67309    0.000
 5209.00    0.75732   0.68179    0.000
 5210.00    0.83711   0.69654    0.000
 5211.00    0.97689   0.71405    0.008
 5212.00    1.10609   0.72954    0.008
 5213.00    0.83957   0.73801    0.008
 5214.00    0.59619   0.73780    0.008
 5215.00    0.72804   0.73194    0.008
 5216.00    0.85391   0.72675    0.008
 5217.00    0.91896   0.72752    0.008
 5218.00    0.94319   0.73495    0.008
 5219.00    0.67032   0.74551    0.008
 5220.00    0.44968   0.75415    0.008
 5221.00    0.52007   0.75715    0.008
 5222.00    0.60461   0.75237    0.008
 5223.00    0.75214   0.73909    0.008
 5224.00    0.86059   0.71849    0.008
 5225.00    0.82623   0.69516    0.008
 5226.00    0.80766   0.67717    0.008
 5227.00    0.83738   0.67203    0.008
 5228.00    0.84596   0.68211    0.008
 5229.00    0.79956   0.70103    0.008
 5230.00    0.77584   0.71785    0.008
 5231.00    0.80283   0.72551    0.008
 5232.00    0.79661   0.72345    0.008
 5233.00    0.72600   0.71724    0.008
 5234.00    0.73476   0.71438    0.008
 5235.00    0.87766   0.71843    0.008
 5236.00    0.95886   0.72829    0.008
 5237.00    0.94869   0.73967    0.008
 5238.00    0.90464   0.74878    0.007
 5239.00    0.81649   0.75424    0.007
 5240.00    0.73634   0.75650    0.007
 5241.00    0.66537   0.75695    0.007
 5242.00    0.64276   0.75688    0.007
 5243.00    0.66906   0.75679    0.007
 5244.00    0.69861   0.75589    0.007
 5245.00    0.73107   0.75226    0.007
 5246.00    0.76901   0.74497    0.007
 5247.00    0.81127   0.73569    0.007
 5248.00    0.79395   0.72760    0.008
 5249.00    0.73544   0.72258    0.008
 5250.00    0.73699   0.72059    0.008
 5251.00    0.77494   0.72136    0.007
 5252.00    0.77612   0.72380    0.008
 5253.00    0.75785   0.72623    0.008
 5254.00    0.66951   0.72856    0.008
 5255.00    0.54899   0.73239    0.008
 5256.00    0.61936   0.73968    0.008
 5257.00    0.76521   0.74906    0.008
 5258.00    0.77016   0.75571    0.008
 5259.00    0.72765   0.75486    0.008
 5260.00    0.84018   0.74415    0.008
 5261.00    0.99661   0.72486    0.008
 5262.00    0.77216   0.70077    0.008
 5263.00    0.45882   0.67684    0.008
 5264.00    0.47454   0.65787    0.008
 5265.00    0.55195   0.64713    0.008
 5266.00    0.58309   0.64399    0.008
 5267.00    0.60753   0.64416    0.008
 5268.00    0.59313   0.64321    0.008
 5269.00    0.57465   0.64106    0.008
 5270.00    0.67824   0.64308    0.008
 5271.00    0.79014   0.65357    0.008
 5272.00    0.73273   0.66911    0.008
 5273.00    0.66963   0.68233    0.008
 5274.00    0.71170   0.69057    0.008
 5275.00    0.74898   0.69693    0.008
 5276.00    0.62873   0.70610    0.008
 5277.00    0.52534   0.71911    0.008
 5278.00    0.67844   0.73093    0.008
 5279.00    0.81339   0.73591    0.008
 5280.00    0.77131   0.73251    0.008
 5281.00    0.72615   0.72368    0.008
 5282.00    0.65932   0.71480    0.008
 5283.00    0.60259   0.71127    0.008
 5284.00    0.60060   0.71607    0.008
 5285.00    0.60214   0.72867    0.008
 5286.00    0.61909   0.74436    0.008
 5287.00    0.64355   0.75736    0.008
 5288.00    0.69491   0.76510    0.008
 5289.00    0.73677   0.76843    0.008
 5290.00    0.75011   0.76927    0.008
 5291.00    0.75256   0.76833    0.007
 5292.00    0.72715   0.76544    0.008
 5293.00    0.71871   0.76016    0.008
 5294.00    0.74759   0.75188    0.008
 5295.00    0.72728   0.73988    0.008
 5296.00    0.61312   0.72515    0.007
 5297.00    0.53700   0.71167    0.007
 5298.00    0.52419   0.70429    0.007
 5299.00    0.55439   0.70506    0.007
 5300.00    0.64736   0.71161    0.007
 5301.00    0.72631   0.72009    0.007
 5302.00    0.78728   0.72896    0.007
 5303.00    0.79793   0.73817    0.007
 5304.00    0.75167   0.74673    0.007
 5305.00    0.71937   0.75257    0.007
 5306.00    0.70097   0.75488    0.007
 5307.00    0.69194   0.75517    0.007
 5308.00    0.69113   0.75585    0.007
 5309.00    0.67306   0.75785    0.007
 5310.00    0.64161   0.75982    0.007
 5311.00    0.74883   0.75981    0.007
 5312.00    0.95055   0.75712    0.007
 5313.00    0.97736   0.75184    0.007
 5314.00    0.89972   0.74460    0.007
 5315.00    0.86766   0.73684    0.007
 5316.00    0.85934   0.73052    0.007
 5317.00    0.77037   0.72786    0.007
 5318.00    0.64497   0.72968    0.007
 5319.00    0.55621   0.73366    0.007
 5320.00    0.48170   0.73642    0.007
 5321.00    0.55542   0.73535    0.007
 5322.00    0.67815   0.72961    0.007
 5323.00    0.75596   0.72046    0.007
 5324.00    0.82130   0.70937    0.008
 5325.00    0.76013   0.69672    0.008
 5326.00    0.67010   0.68195    0.007
 5327.00    0.68024   0.66672    0.007
 5328.00    0.70867   0.65658    0.008
 5329.00    0.68557   0.65846    0.008
 5330.00    0.65525   0.67295    0.008
 5331.00    0.53069   0.69300    0.008
 5332.00    0.39662   0.71083    0.008
 5333.00    0.48254   0.72277    0.007
 5334.00    0.58257   0.72933    0.007
 5335.00    0.63306   0.73171    0.007
 5336.00    0.68208   0.73023    0.007
 5337.00    0.73237   0.72491    0.007
 5338.00    0.78342   0.71674    0.007
 5339.00    0.85651   0.70808    0.007
 5340.00    0.91325   0.70235    0.007
 5341.00    0.73535   0.70262    0.007
 5342.00    0.57106   0.70893    0.007
 5343.00    0.53414   0.71704    0.007
 5344.00    0.51226   0.72259    0.007
 5345.00    0.59306   0.72389    0.007
 5346.00    0.67048   0.72177    0.007
 5347.00    0.73008   0.71878    0.007
 5348.00    0.76758   0.71689    0.007
 5349.00    0.71127   0.71769    0.007
 5350.00    0.65251   0.72225    0.007
 5351.00    0.58518   0.72982    0.007
 5352.00    0.55058   0.73832    0.007
 5353.00    0.61245   0.74609    0.007
 5354.00    0.67131   0.75288    0.007
 5355.00    0.72263   0.75881    0.007
 5356.00    0.77674   0.76325    0.007
 5357.00    0.83687   0.76551    0.007
 5358.00    0.86127   0.76511    0.007
 5359.00    0.81854   0.76157    0.007
 5360.00    0.75892   0.75478    0.007
 5361.00    0.67160   0.74545    0.007
 5362.00    0.58251   0.73507    0.007
 5363.00    0.49090   0.72575    0.007
 5364.00    0.48815   0.71892    0.007
 5365.00    0.59783   0.71437    0.007
 5366.00    0.61937   0.71118    0.007
 5367.00    0.54266   0.70708    0.007
 5368.00    0.61613   0.70002   -2.000
 5369.00    0.83727   0.69034   -2.000
 5370.00    0.92877   0.68166   -2.000
 5371.00    0.90785   0.67949   -2.000
 5372.00    0.90507   0.68721   -2.000
 5373.00    0.91614   0.70291   -2.000
 5374.00    0.79727   0.72014   -2.000
 5375.00    0.59117   0.73324   -2.000
 5376.00    0.61080   0.74000   -2.000
 5377.00    0.76321   0.74127   -2.000
 5378.00    0.80871   0.73922   -2.000
 5379.00    0.79940   0.73533   -2.000
 5380.00    0.81485   0.73027   -2.000
 5381.00    0.84129   0.72514   -2.000
 5382.00    0.86954   0.72166   -2.000
 5383.00    0.89848   0.72090    0.007
 5384.00    0.87923   0.72308    0.007
 5385.00    0.84435   0.72685    0.007
 5386.00    0.89685   0.72943    0.007
 5387.00    0.97307   0.72892    0.007
 5388.00    0.88551   0.72508    0.007
 5389.00    0.76146   0.71896    0.007
 5390.00    0.66017   0.71232    0.007
 5391.00    0.56292   0.70669    0.007
 5392.00    0.65136   0.70254    0.007
 5393.00    0.76498   0.69919    0.007
 5394.00    0.79451   0.69521    0.007
 5395.00    0.81592   0.68989    0.007
 5396.00    0.73855   0.68445    0.007
 5397.00    0.65524   0.68144    0.007
 5398.00    0.54711   0.68339    0.007
 5399.00    0.43954   0.68942    0.007
 5400.00    0.53271   0.69549    0.007
 5401.00    0.62404   0.69775    0.007
 5402.00    0.66816   0.69408    0.007
 5403.00    0.71292   0.68442    0.007
 5404.00    0.76658   0.67208    0.007
 5405.00    0.80119   0.66258    0.007
 5406.00    0.66456   0.65967    0.007
 5407.00    0.53260   0.66286    0.007
 5408.00    0.43149   0.66846    0.007
 5409.00    0.37182   0.67367    0.007
 5410.00    0.52526   0.67893    0.007
 5411.00    0.65953   0.68604    0.007
 5412.00    0.71427   0.69452    0.007
 5413.00    0.74486   0.70206    0.007
 5414.00    0.69246   0.70753    0.007
 5415.00    0.64143   0.71169    0.007
 5416.00    0.59435   0.71575    0.007
 5417.00    0.58761   0.71921    0.007
 5418.00    0.68046   0.72044    0.007
 5419.00    0.74361   0.71910    0.007
 5420.00    0.74352   0.71614    0.007
 5421.00    0.68759   0.71240    0.007
 5422.00    0.52840   0.70842    0.007
 5423.00    0.42449   0.70468    0.007
 5424.00    0.40990   0.70256    0.007
 5425.00    0.44284   0.70374    0.007
 5426.00    0.54313   0.70651    0.007
 5427.00    0.61087   0.70646    0.007
 5428.00    0.63802   0.70139    0.007
 5429.00    0.65976   0.69310    0.007
 5430.00    0.67553   0.68615    0.007
 5431.00    0.62903   0.68319    0.007
 5432.00    0.52214   0.68191    0.007
 5433.00    0.48890   0.68021    0.007
 5434.00    0.51860   0.67911    0.007
 5435.00    0.55797   0.68123    0.007
 5436.00    0.60462   0.68857    0.007
 5437.00    0.58524   0.70024    0.007
 5438.00    0.52219   0.71330    0.007
 5439.00    0.45787   0.72448    0.007
 5440.00    0.39281   0.73170    0.007
 5441.00    0.50928   0.73424    0.007
 5442.00    0.71739   0.73175    0.007
 5443.00    0.79573   0.72387    0.007
 5444.00    0.81735   0.71074    0.007
 5445.00    0.78377   0.69516    0.007
 5446.00    0.72950   0.68245    0.007
 5447.00    0.62204   0.67760    0.007
 5448.00    0.49766   0.68217    0.007
 5449.00    0.48332   0.69212    0.007
 5450.00    0.49823   0.70127    0.007
 5451.00    0.64854   0.70532    0.007
 5452.00    0.82829   0.70254    0.007
 5453.00    0.84029   0.69397    0.007
 5454.00    0.82332   0.68330    0.007
 5455.00    0.77429   0.67554    0.006
 5456.00    0.72106   0.67516    0.006
 5457.00    0.60964   0.68252    0.006
 5458.00    0.49286   0.69261    0.006
 5459.00    0.58808   0.69952    0.007
 5460.00    0.69521   0.70006    0.007
 5461.00    0.60741   0.69506    0.007
 5462.00    0.51654   0.68825    0.006
 5463.00    0.56043   0.68351    0.007
 5464.00    0.60538   0.68321    0.007
 5465.00    0.67528   0.68675    0.007
 5466.00    0.73668   0.69147    0.007
 5467.00    0.68897   0.69554    0.007
 5468.00    0.64448   0.69803    0.007
 5469.00    0.62773   0.69836    0.007
 5470.00    0.60691   0.69654    0.007
 5471.00    0.56007   0.69303    0.007
 5472.00    0.52886   0.68818    0.007
 5473.00    0.57605   0.68160    0.007
 5474.00    0.62115   0.67331    0.007
 5475.00    0.65776   0.66466    0.007
 5476.00    0.67597   0.65769    0.007
 5477.00    0.63225   0.65547    0.007
 5478.00    0.62967   0.65912   -2.000
 5479.00    0.74395   0.66539   -2.000
 5480.00    0.81334   0.67048   -2.000
 5481.00    0.77375   0.67368   -2.000
 5482.00    0.75385   0.67720   -2.000
 5483.00    0.77520   0.68261   -2.000
 5484.00    0.71817   0.68866   -2.000
 5485.00    0.51842   0.69272   -2.000
 5486.00    0.54997   0.69303   -2.000
 5487.00    0.94973   0.69041   -2.000
 5488.00    0.92680   0.68781   -2.000
 5489.00    0.31342   0.68743   -2.000
 5490.00   -0.02315   0.68879   -2.000
 5491.00   -0.01941   0.69055   -2.000
 5492.00    0.22907   0.69169   -2.000
 5493.00    0.74277   0.69160   -2.000
 5494.00    0.94918   0.69065   -2.000
 5495.00    0.86184   0.68930   -2.000
 5496.00    0.75792   0.68773   -2.000
 5497.00    0.64001   0.68639   -2.000
 5498.00    0.59938   0.68597   -2.000
 5499.00    0.61611   0.68587   -2.000
 5500.00    0.62416   0.68429   -2.000
 5501.00    0.62655   0.68091   -2.000
 5502.00    0.58954   0.67740    0.006
 5503.00    0.53004   0.67505    0.006
 5504.00    0.55420   0.67366    0.006
 5505.00    0.61993   0.67260    0.006
 5506.00    0.59333   0.67175    0.006
 5507.00    0.52706   0.67202    0.006
 5508.00    0.51434   0.67363    0.006
 5509.00    0.52135   0.67464    0.006
 5510.00    0.56193   0.67350    0.006
 5511.00    0.61299   0.67048    0.006
 5512.00    0.63244   0.66703    0.006
 5513.00    0.64368   0.66560    0.006
 5514.00    0.52640   0.66767    0.006
 5515.00    0.38184   0.67286    0.007
 5516.00    0.42814   0.67991    0.007
 5517.00    0.50648   0.68721    0.007
 5518.00    0.55262   0.69346    0.007
 5519.00    0.59467   0.69761    0.007
 5520.00    0.67665   0.69920    0.007
 5521.00    0.76214   0.69881    0.007
 5522.00    0.75658   0.69704    0.006
 5523.00    0.74626   0.69388    0.006
 5524.00    0.66757   0.68882    0.007
 5525.00    0.58794   0.68130    0.007
 5526.00    0.53496   0.67227    0.007
 5527.00    0.47927   0.66441    0.007
 5528.00    0.36537   0.66068    0.006
 5529.00    0.26154   0.66285    0.006
 5530.00    0.28048   0.66937    0.006
 5531.00    0.30247   0.67602    0.006
 5532.00    0.34990   0.67949    0.006
 5533.00    0.40140   0.67935    0.006
 5534.00    0.47823   0.67738    0.006
 5535.00    0.54886   0.67603    0.006
 5536.00    0.58917   0.67724    0.004
 5537.00    0.61971   0.68084    0.003
 5538.00    0.61150   0.68534    0.003
 5539.00    0.59972   0.68961    0.002
 5540.00    0.57616   0.69241    0.002
 5541.00    0.55926   0.69263    0.002
 5542.00    0.56093   0.69031    0.003
 5543.00    0.57020   0.68660    0.005
 5544.00    0.59762   0.68353    0.005
 5545.00    0.62302   0.68268    0.006
 5546.00    0.64426   0.68426    0.006
 5547.00    0.64875   0.68786    0.006
 5548.00    0.62320   0.69237    0.006
 5549.00    0.62579   0.69605    0.006
 5550.00    0.67252   0.69765    0.006
 5551.00    0.67027   0.69672    0.006
 5552.00    0.60059   0.69355    0.006
 5553.00    0.53819   0.68936    0.006
 5554.00    0.48460   0.68570    0.006
 5555.00    0.47777   0.68369    0.006
 5556.00    0.52090   0.68338    0.006
 5557.00    0.50006   0.68379    0.006
 5558.00    0.41893   0.68406    0.006
 5559.00    0.38464   0.68372    0.006
 5560.00    0.38926   0.68223    0.006
 5561.00    0.46014   0.67956    0.006
 5562.00    0.57950   0.67615    0.006
 5563.00    0.64041   0.67253    0.006
 5564.00    0.66379   0.66954    0.006
 5565.00    0.62303   0.66732    0.006
 5566.00    0.54622   0.66567    0.006
 5567.00    0.56198   0.66470    0.006
 5568.00    0.62301   0.66435    0.006
 5569.00    0.68618   0.66420    0.006
 5570.00    0.75027   0.66410    0.006
 5571.00    0.70654   0.66419    0.006
 5572.00    0.62380   0.66410    0.006
 5573.00    0.61626   0.66448    0.006
 5574.00    0.63174   0.66658    0.006
 5575.00    0.57931   0.66956    0.006
 5576.00    0.50960   0.67226    0.006
 5577.00    0.48927   0.67487    0.006
 5578.00    0.47917   0.67701    0.006
 5579.00    0.59794   0.67816    0.006
 5580.00    0.73773   0.67844    0.006
 5581.00    0.73508   0.67750    0.006
 5582.00    0.71503   0.67515    0.006
 5583.00    0.60191   0.67138    0.006
 5584.00    0.48098   0.66515    0.006
 5585.00    0.51070   0.65574    0.006
 5586.00    0.54772   0.64433    0.006
 5587.00    0.64853   0.63393    0.006
 5588.00    0.74877   0.62806    0.006
 5589.00    0.75845   0.62820    0.006
 5590.00    0.76044   0.63309    0.006
 5591.00    0.60968   0.63969    0.006
 5592.00    0.47361   0.64516    0.006
 5593.00    0.50807   0.64897    0.006
 5594.00    0.54932   0.65198    0.006
 5595.00    0.64506   0.65492    0.006
 5596.00    0.72796   0.65714    0.006
 5597.00    0.73317   0.65657    0.006
 5598.00    0.73367   0.65268    0.006
 5599.00    0.71167   0.64741    0.006
 5600.00    0.67362   0.64266    0.007
 5601.00    0.57324   0.63976    0.006
 5602.00    0.51420   0.64049    0.006
 5603.00    0.58889   0.64587    0.006
 5604.00    0.64495   0.65541    0.006
 5605.00    0.64997   0.66650    0.006
 5606.00    0.63174   0.67594    0.006
 5607.00    0.55897   0.68209    0.006
 5608.00    0.51616   0.68498    0.006
 5609.00    0.53412   0.68574    0.006
 5610.00    0.57870   0.68535    0.006
 5611.00    0.67029   0.68344    0.006
 5612.00    0.73656   0.67847    0.006
 5613.00    0.76372   0.66943    0.006
 5614.00    0.75311   0.65765    0.006
 5615.00    0.69123   0.64680    0.006
 5616.00    0.65654   0.64143    0.006
 5617.00    0.65433   0.64286    0.006
 5618.00    0.62588   0.64806    0.006
 5619.00    0.56978   0.65370    0.006
 5620.00    0.56274   0.65793    0.006
 5621.00    0.60127   0.65958    0.006
 5622.00    0.64662   0.65818    0.006
 5623.00    0.69757   0.65418    0.006
 5624.00    0.71263   0.64938    0.006
 5625.00    0.70182   0.64686    0.006
 5626.00    0.70035   0.64860    0.006
 5627.00    0.70480   0.65368    0.006
 5628.00    0.69306   0.66008    0.006
 5629.00    0.67237   0.66618    0.006
 5630.00    0.66138   0.67056    0.006
 5631.00    0.65507   0.67247    0.006
 5632.00    0.61944   0.67190    0.006
 5633.00    0.57165   0.66917    0.006
 5634.00    0.59825   0.66493    0.006
 5635.00    0.65129   0.66014    0.006
 5636.00    0.63911   0.65565    0.006
 5637.00    0.60738   0.65213    0.006
 5638.00    0.58532   0.65004    0.006
 5639.00    0.56568   0.64922    0.006
 5640.00    0.58843   0.64893    0.006
 5641.00    0.61974   0.64881    0.006
 5642.00    0.59902   0.64949    0.006
 5643.00    0.57006   0.65130    0.006
 5644.00    0.52101   0.65383    0.006
 5645.00    0.46959   0.65674    0.006
 5646.00    0.52232   0.65938    0.006
 5647.00    0.58338   0.66109    0.006
 5648.00    0.52156   0.66178    0.006
 5649.00    0.45426   0.66178    0.006
 5650.00    0.49133   0.66175    0.006
 5651.00    0.52816   0.66191    0.006
 5652.00    0.49564   0.66153    0.006
 5653.00    0.46612   0.65962    0.006
 5654.00    0.49196   0.65562    0.006
 5655.00    0.50866   0.64961    0.006
 5656.00    0.42415   0.64254    0.006
 5657.00    0.35535   0.63533    0.006
 5658.00    0.40838   0.62929    0.006
 5659.00    0.46258   0.62680    0.006
 5660.00    0.52372   0.62833    0.006
 5661.00    0.55871   0.63160    0.006
 5662.00    0.47204   0.63502    0.006
 5663.00    0.39470   0.63885    0.006
 5664.00    0.35285   0.64317    0.006
 5665.00    0.33043   0.64684    0.006
 5666.00    0.36971   0.64874    0.006
 5667.00    0.40395   0.64884    0.006
 5668.00    0.42465   0.64843    0.006
 5669.00    0.44039   0.64909    0.006
 5670.00    0.44465   0.65157    0.006
 5671.00    0.47828   0.65552    0.006
 5672.00    0.57056   0.66003    0.006
 5673.00    0.64595   0.66389    0.006
 5674.00    0.69198   0.66619    0.006
 5675.00    0.70341   0.66685    0.006
 5676.00    0.66214   0.66658    0.006
 5677.00    0.60937   0.66576    0.006
 5678.00    0.54120   0.66398    0.006
 5679.00    0.49897   0.66103    0.006
 5680.00    0.48731   0.65710    0.006
 5681.00    0.51170   0.65252    0.006
 5682.00    0.57354   0.64794    0.006
 5683.00    0.60397   0.64457    0.006
 5684.00    0.60563   0.64285    0.006
 5685.00    0.62940   0.64191    0.006
 5686.00    0.67103   0.64089    0.006
 5687.00    0.68937   0.64002    0.006
 5688.00    0.69117   0.64051    0.006
 5689.00    0.64837   0.64330    0.006
 5690.00    0.57774   0.64802    0.006
 5691.00    0.52872   0.65315    0.006
 5692.00    0.49146   0.65735    0.006
 5693.00    0.47516   0.65987    0.006
 5694.00    0.46879   0.66052    0.006
 5695.00    0.47617   0.65972    0.006
 5696.00    0.48917   0.65780    0.006
 5697.00    0.50805   0.65475    0.006
 5698.00    0.52899   0.65057    0.006
 5699.00    0.56486   0.64606    0.006
 5700.00    0.60511   0.64212    0.006
 5701.00    0.63364   0.63922    0.006
 5702.00    0.65930   0.63789    0.006
 5703.00    0.62807   0.63781    0.006
 5704.00    0.58563   0.63742    0.006
 5705.00    0.54276   0.63506    0.006
 5706.00    0.49983   0.63028    0.006
 5707.00    0.48486   0.62432    0.006
 5708.00    0.47306   0.61878    0.006
 5709.00    0.50432   0.61508    0.006
 5710.00    0.53885   0.61474    0.006
 5711.00    0.61465   0.61790    0.006
 5712.00    0.69213   0.62378    0.006
 5713.00    0.65254   0.63162    0.006
 5714.00    0.61187   0.63954    0.006
 5715.00    0.56420   0.64569    0.006
 5716.00    0.51875   0.64991    0.006
 5717.00    0.51142   0.65260    0.006
 5718.00    0.50336   0.65453    0.006
 5719.00    0.48756   0.65677    0.006
 5720.00    0.47493   0.65943    0.006
 5721.00    0.48611   0.66198    0.006
 5722.00    0.49889   0.66390    0.006
 5723.00    0.52085   0.66445    0.006
 5724.00    0.54595   0.66318    0.006
 5725.00    0.58527   0.66047    0.006
 5726.00    0.62542   0.65717    0.006
 5727.00    0.66861   0.65431    0.006
 5728.00    0.69761   0.65280    0.006
 5729.00    0.68245   0.65243    0.006
 5730.00    0.66504   0.65225    0.006
 5731.00    0.64169   0.65200    0.006
 5732.00    0.65093   0.65247    0.006
 5733.00    0.73415   0.65417    0.006
 5734.00    0.78255   0.65630    0.006
 5735.00    0.76252   0.65779    0.006
 5736.00    0.72176   0.65807    0.006
 5737.00    0.64549   0.65729    0.006
 5738.00    0.57834   0.65615    0.006
 5739.00    0.52485   0.65511    0.006
 5740.00    0.53387   0.65427    0.000
 5741.00    0.62529   0.65371    0.000
 5742.00    0.66274   0.65357    0.000
 5743.00    0.63751   0.65399    0.000
 5744.00    0.60086   0.65482    0.000
 5745.00    0.55250   0.65524    0.000
 5746.00    0.56694   0.65445    0.000
 5747.00    0.63810   0.65245    0.000
 5748.00    0.67155   0.65027    0.000
 5749.00    0.67496   0.64888    0.000
 5750.00    0.66424   0.64772    0.000
 5751.00    0.64362   0.64529    0.000
 5752.00    0.62430   0.64137    0.000
 5753.00    0.60577   0.63765    0.000
 5754.00    0.59500   0.63650    0.000
 5755.00    0.58839   0.63909    0.000
 5756.00    0.56414   0.64407    0.000
 5757.00    0.53167   0.64852    0.000
 5758.00    0.54712   0.65009    0.000
 5759.00    0.58181   0.64796    0.000
 5760.00    0.57781   0.64305    0.000
 5761.00    0.56057   0.63769    0.000
 5762.00    0.57917   0.63432    0.000
 5763.00    0.60809   0.63460    0.000
 5764.00    0.61918   0.63874    0.000
 5765.00    0.62603   0.64473    0.000
 5766.00    0.65340   0.64994    0.000
 5767.00    0.68470   0.65309    0.000
 5768.00    0.69706   0.65405    0.000
 5769.00    0.70660   0.65321    0.000
 5770.00    0.61930   0.65140    0.000
 5771.00    0.52144   0.64922    0.000
 5772.00    0.57692   0.64707    0.000
 5773.00    0.64338   0.64548    0.000
 5774.00    0.65524   0.64467    0.000
 5775.00    0.66508   0.64450    0.000
 5776.00    0.69805   0.64458    0.000
 5777.00    0.72988   0.64371    0.000
 5778.00    0.71711   0.64052    0.000
 5779.00    0.70590   0.63470    0.000
 5780.00    0.71994   0.62712    0.000
 5781.00    0.72929   0.61961    0.000
 5782.00    0.69123   0.61421    0.000
 5783.00    0.64391   0.61187    0.000
 5784.00    0.52949   0.61214    0.000
 5785.00    0.43246   0.61447    0.000
 5786.00    0.43206   0.61883    0.000
 5787.00    0.44694   0.62434    0.000
 5788.00    0.52964   0.62914    0.000
 5789.00    0.58115   0.63224    0.000
 5790.00    0.51902   0.63362    0.000
 5791.00    0.45309   0.63425   -2.000
 5792.00    0.37557   0.63575   -2.000
 5793.00    0.34591   0.63836   -2.000
 5794.00    0.44053   0.64098   -2.000
 5795.00    0.52144   0.64258   -2.000
 5796.00    0.57177   0.64279   -2.000
 5797.00    0.61743   0.64225   -2.000
 5798.00    0.65405   0.64262   -2.000
 5799.00    0.67514   0.64513   -2.000
 5800.00    0.67003   0.64888   -2.000
 5801.00    0.67184   0.65175   -2.000
 5802.00    0.68387   0.65234   -2.000
 5803.00    0.69125   0.65037   -2.000
 5804.00    0.69258   0.64676   -2.000
 5805.00    0.66457   0.64343   -2.000
 5806.00    0.60298   0.64175   -2.000
 5807.00    0.58676   0.64186   -2.000
 5808.00    0.61636   0.64318   -2.000
 5809.00    0.62918   0.64484   -2.000
 5810.00    0.62705   0.64621   -2.000
 5811.00    0.64461   0.64683    0.000
 5812.00    0.67762   0.64618    0.000
 5813.00    0.65604   0.64412    0.000
 5814.00    0.59679   0.64121    0.000
 5815.00    0.55294   0.63856    0.000
 5816.00    0.51840   0.63743    0.000
 5817.00    0.57552   0.63873    0.000
 5818.00    0.68106   0.64203    0.000
 5819.00    0.70741   0.64574    0.000
 5820.00    0.69748   0.64849    0.000
 5821.00    0.63812   0.64983    0.000
 5822.00    0.55927   0.64992    0.000
 5823.00    0.54930   0.64937    0.000
 5824.00    0.56248   0.64884    0.000
 5825.00    0.58133   0.64864    0.000
 5826.00    0.60177   0.64868    0.000
 5827.00    0.59746   0.64882    0.000
 5828.00    0.58739   0.64905    0.000
 5829.00    0.56179   0.64929    0.000
 5830.00    0.53328   0.64931    0.000
 5831.00    0.51030   0.64883    0.000
 5832.00    0.48812   0.64790    0.000
 5833.00    0.50302   0.64675    0.000
 5834.00    0.52181   0.64551    0.000
 5835.00    0.51396   0.64446    0.000
 5836.00    0.50432   0.64397    0.000
 5837.00    0.61545   0.64391    0.000
 5838.00    0.73058   0.64410    0.000
 5839.00    0.73549   0.64486    0.000
 5840.00    0.73561   0.64629    0.000
 5841.00    0.58698   0.64778    0.000
 5842.00    0.45121   0.64859    0.000
 5843.00    0.50953   0.64821    0.000
 5844.00    0.56321   0.64635    0.000
 5845.00    0.57174   0.64330    0.000
 5846.00    0.57924   0.63977    0.000
 5847.00    0.57946   0.63650    0.000
 5848.00    0.58202   0.63400    0.000
 5849.00    0.59722   0.63208    0.000
 5850.00    0.60656   0.62988    0.000
 5851.00    0.59054   0.62673    0.000
 5852.00    0.57277   0.62274    0.000
 5853.00    0.54879   0.61846    0.000
 5854.00    0.54492   0.61462    0.000
 5855.00    0.60129   0.61144    0.000
 5856.00    0.65043   0.60845    0.000
 5857.00    0.68108   0.60583    0.000
 5858.00    0.67728   0.60508    0.000
 5859.00    0.59783   0.60702    0.000
 5860.00    0.54023   0.61072    0.000
 5861.00    0.52422   0.61465    0.000
 5862.00    0.52473   0.61766    0.000
 5863.00    0.55270   0.61960    0.000
 5864.00    0.57254   0.62097    0.000
 5865.00    0.58056   0.62189    0.000
 5866.00    0.55538   0.62251    0.000
 5867.00    0.48767   0.62349    0.000
 5868.00    0.47853   0.62540    0.000
 5869.00    0.53550   0.62775    0.000
 5870.00    0.57540   0.62957    0.000
 5871.00    0.59831   0.63036    0.000
 5872.00    0.61574   0.63012    0.000
 5873.00    0.62835   0.62929    0.000
 5874.00    0.58698   0.62837    0.000
 5875.00    0.50386   0.62736    0.000
 5876.00    0.47181   0.62581    0.000
 5877.00    0.47450   0.62355    0.000
 5878.00    0.45009   0.62091    0.000
 5879.00    0.40952   0.61827    0.000
 5880.00    0.41025   0.61593    0.000
 5881.00    0.43246   0.61430    0.000
 5882.00    0.49664   0.61328    0.000
 5883.00    0.57974   0.61204    0.000
 5884.00    0.59671   0.60968    0.000
 5885.00    0.58806   0.60500    0.000
 5886.00    0.56169   0.59563    0.000
 5887.00    0.52948   0.58001    0.000
 5888.00    0.55985   0.55960    0.000
 5889.00    0.60752   0.53886    0.000
 5890.00    0.63813   0.52477    0.000
 5891.00    0.66486   0.52255    0.000
 5892.00    0.60412   0.52896    0.000
 5893.00    0.52747   0.53585    0.000
 5894.00    0.45242   0.53852    0.000
 5895.00    0.37760   0.53708    0.000
 5896.00    0.37934   0.53626    0.000
 5897.00    0.38877   0.54227    0.000
 5898.00    0.36861   0.55537    0.000
 5899.00    0.34657   0.57069    0.000
 5900.00    0.38873   0.58444    0.000
 5901.00    0.43277   0.59495    0.006
 5902.00    0.47621   0.60159    0.006
 5903.00    0.51645   0.60508    0.006
 5904.00    0.46619   0.60666    0.006
 5905.00    0.42218   0.60723    0.006
 5906.00    0.46719   0.60757    0.006
 5907.00    0.50766   0.60835    0.006
 5908.00    0.50603   0.60956    0.006
 5909.00    0.50295   0.61056    0.006
 5910.00    0.48996   0.61070    0.006
 5911.00    0.48288   0.60959    0.006
 5912.00    0.50685   0.60704    0.006
 5913.00    0.52281   0.60321    0.006
 5914.00    0.50486   0.59935    0.006
 5915.00    0.48298   0.59723    0.005
 5916.00    0.44739   0.59751    0.005
 5917.00    0.41650   0.59965    0.005
 5918.00    0.39942   0.60252    0.005
 5919.00    0.38514   0.60505    0.005
 5920.00    0.37788   0.60683    0.005
 5921.00    0.36051   0.60778    0.005
 5922.00    0.32132   0.60816    0.005
 5923.00    0.31900   0.60864    0.005
 5924.00    0.38577   0.60942    0.005
 5925.00    0.45130   0.60998    0.005
 5926.00    0.51477   0.60958    0.005
 5927.00    0.54125   0.60788    0.005
 5928.00    0.51465   0.60531    0.005
 5929.00    0.48173   0.60287    0.005
 5930.00    0.44086   0.60157    0.006
 5931.00    0.42718   0.60189    0.006
 5932.00    0.44376   0.60324    0.005
 5933.00    0.47934   0.60438    0.006
 5934.00    0.53358   0.60486    0.006
 5935.00    0.55327   0.60547    0.006
 5936.00    0.54304   0.60692    0.006
 5937.00    0.55879   0.60864    0.006
 5938.00    0.59435   0.60958    0.006
 5939.00    0.63144   0.60926    0.006
 5940.00    0.66956   0.60770    0.006
 5941.00    0.67117   0.60566    0.005
 5942.00    0.65133   0.60452    0.005
 5943.00    0.57663   0.60492    0.005
 5944.00    0.47384   0.60615    0.005
 5945.00    0.43750   0.60699    0.005
 5946.00    0.43062   0.60653    0.005
 5947.00    0.46663   0.60463    0.005
 5948.00    0.51898   0.60194    0.005
 5949.00    0.52309   0.59962    0.005
 5950.00    0.51159   0.59859    0.005
 5951.00    0.48790   0.59857    0.005
 5952.00    0.46090   0.59853    0.005
 5953.00    0.49886   0.59825    0.005
 5954.00    0.55125   0.59825    0.005
 5955.00    0.65130   0.59838    0.005
 5956.00    0.75978   0.59825    0.006
 5957.00    0.70131   0.59837    0.005
 5958.00    0.62028   0.59963    0.005
 5959.00    0.57331   0.60216    0.005
 5960.00    0.52962   0.60532    0.005
 5961.00    0.53164   0.60815    0.005
 5962.00    0.53638   0.60984    0.005
 5963.00    0.47895   0.61009    0.005
 5964.00    0.42061   0.60930    0.005
 5965.00    0.46765   0.60808    0.005
 5966.00    0.51402   0.60731    0.006
 5967.00    0.54359   0.60767    0.006
 5968.00    0.56958   0.60902    0.005
 5969.00    0.54757   0.61070    0.005
 5970.00    0.52200   0.61217    0.005
 5971.00    0.46453   0.61291    0.005
 5972.00    0.41526   0.61241    0.005
 5973.00    0.41992   0.61048    0.005
 5974.00    0.42628   0.60722    0.005
 5975.00    0.44130   0.60310    0.005
 5976.00    0.46509   0.59921    0.005
 5977.00    0.52512   0.59682    0.005
 5978.00    0.56944   0.59650    0.005
 5979.00    0.55990   0.59775    0.005
 5980.00    0.54848   0.59922    0.005
 5981.00    0.53161   0.59938    0.005
 5982.00    0.53094   0.59749    0.005
 5983.00    0.57020   0.59411    0.005
 5984.00    0.58050   0.59081    0.005
 5985.00    0.52928   0.58938    0.005
 5986.00    0.50875   0.59041    0.005
 5987.00    0.54490   0.59283    0.005
 5988.00    0.56491   0.59539    0.005
 5989.00    0.55891   0.59754    0.005
 5990.00    0.53778   0.59909    0.005
 5991.00    0.49523   0.60016    0.005
 5992.00    0.45602   0.60141    0.005
 5993.00    0.42096   0.60308    0.005
 5994.00    0.41677   0.60430    0.005
 5995.00    0.44643   0.60409    0.005
 5996.00    0.47321   0.60241    0.005
 5997.00    0.49719   0.60000    0.005
 5998.00    0.51324   0.59791    0.005
 5999.00    0.52251   0.59673    0.005
 6000.00    0.49943   0.59622    0.005
 6001.00    0.45203   0.59581    0.005
 6002.00    0.41778   0.59502    0.005
 6003.00    0.39220   0.59393    0.005
 6004.00    0.39322   0.59281    0.005
 6005.00    0.40962   0.59135    0.005
 6006.00    0.41381   0.58927    0.005
 6007.00    0.41186   0.58717    0.005
 6008.00    0.43834   0.58614    0.005
 6009.00    0.47723   0.58701    0.005
 6010.00    0.51652   0.58928    0.005
 6011.00    0.55596   0.59121    0.005
 6012.00    0.53325   0.59158    0.005
 6013.00    0.49082   0.59067    0.005
 6014.00    0.47405   0.58964    0.005
 6015.00    0.46409   0.58906    0.005
 6016.00    0.48779   0.58848    0.005
 6017.00    0.51879   0.58762    0.005
 6018.00    0.51976   0.58664    0.005
 6019.00    0.51556   0.58537    0.005
 6020.00    0.47249   0.58385    0.005
 6021.00    0.42435   0.58289    0.005
 6022.00    0.45895   0.58319    0.005
 6023.00    0.50116   0.58448    0.005
 6024.00    0.57684   0.58637    0.005
 6025.00    0.65438   0.58885    0.005
 6026.00    0.62498   0.59164    0.005
 6027.00    0.59312   0.59420    0.005
 6028.00    0.54821   0.59655    0.005
 6029.00    0.50614   0.59881    0.005
 6030.00    0.53002   0.60066    0.005
 6031.00    0.55231   0.60202    0.005
 6032.00    0.55429   0.60312    0.005
 6033.00    0.55037   0.60400    0.005
 6034.00    0.49553   0.60446    0.005
 6035.00    0.44834   0.60450    0.005
 6036.00    0.45003   0.60421    0.005
 6037.00    0.44668   0.60360    0.005
 6038.00    0.41817   0.60267    0.005
 6039.00    0.38909   0.60146    0.005
 6040.00    0.35773   0.60028    0.005
 6041.00    0.33886   0.59962    0.005
 6042.00    0.36194   0.59979    0.005
 6043.00    0.38197   0.60083    0.005
 6044.00    0.39337   0.60237    0.005
 6045.00    0.41659   0.60374    0.005
 6046.00    0.46844   0.60465    0.005
 6047.00    0.51854   0.60522    0.005
 6048.00    0.56496   0.60545    0.005
 6049.00    0.58612   0.60519    0.005
 6050.00    0.56135   0.60441    0.005
 6051.00    0.53760   0.60302    0.005
 6052.00    0.51546   0.60085    0.005
 6053.00    0.49695   0.59813    0.005
 6054.00    0.48351   0.59557    0.005
 6055.00    0.45375   0.59370    0.005
 6056.00    0.40398   0.59283    0.005
 6057.00    0.39164   0.59316    0.005
 6058.00    0.41981   0.59453    0.005
 6059.00    0.48696   0.59614    0.005
 6060.00    0.59130   0.59699    0.005
 6061.00    0.65829   0.59634    0.005
 6062.00    0.69385   0.59396    0.005
 6063.00    0.66194   0.59053    0.005
 6064.00    0.58005   0.58731    0.005
 6065.00    0.49712   0.58560    0.005
 6066.00    0.41350   0.58665    0.005
 6067.00    0.36703   0.59055    0.005
 6068.00    0.34170   0.59560    0.005
 6069.00    0.34201   0.59994    0.005
 6070.00    0.35505   0.60292    0.005
 6071.00    0.38900   0.60464    0.005
 6072.00    0.43191   0.60536    0.005
 6073.00    0.43528   0.60528    0.005
 6074.00    0.42412   0.60438    0.005
 6075.00    0.40801   0.60238    0.005
 6076.00    0.39036   0.59927    0.005
 6077.00    0.42559   0.59537    0.005
 6078.00    0.47455   0.59124    0.005
 6079.00    0.51902   0.58773    0.005
 6080.00    0.56254   0.58552    0.005
 6081.00    0.53923   0.58425    0.005
 6082.00    0.50473   0.58330    0.005
 6083.00    0.46716   0.58280    0.005
 6084.00    0.42921   0.58294    0.005
 6085.00    0.47224   0.58340    0.005
 6086.00    0.52237   0.58401    0.005
 6087.00    0.47859   0.58467    0.005
 6088.00    0.42994   0.58491    0.005
 6089.00    0.39210   0.58430    0.005
 6090.00    0.35523   0.58313    0.005
 6091.00    0.37394   0.58240    0.005
 6092.00    0.39411   0.58281    0.005
 6093.00    0.44551   0.58425    0.005
 6094.00    0.49471   0.58641    0.005
 6095.00    0.51728   0.58878    0.005
 6096.00    0.54060   0.59055    0.005
 6097.00    0.57020   0.59121    0.005
 6098.00    0.59314   0.59059    0.005
 6099.00    0.57481   0.58823    0.005
 6100.00    0.56057   0.58374    0.005
 6101.00    0.56628   0.57760    0.005
 6102.00    0.57323   0.57147    0.005
 6103.00    0.58512   0.56818    0.005
 6104.00    0.58918   0.56970    0.005
 6105.00    0.56744   0.57464    0.005
 6106.00    0.53482   0.57998    0.005
 6107.00    0.47196   0.58388    0.005
 6108.00    0.43444   0.58618    0.005
 6109.00    0.45725   0.58750    0.005
 6110.00    0.47860   0.58830    0.005
 6111.00    0.49692   0.58867    0.005
 6112.00    0.50241   0.58893    0.005
 6113.00    0.48494   0.58943    0.005
 6114.00    0.49073   0.58984    0.005
 6115.00    0.53294   0.58958    0.005
 6116.00    0.57596   0.58838    0.005
 6117.00    0.62012   0.58643    0.005
 6118.00    0.61912   0.58363    0.005
 6119.00    0.56347   0.57948    0.005
 6120.00    0.51381   0.57425    0.005
 6121.00    0.47054   0.56933    0.005
 6122.00    0.45010   0.56641    0.005
 6123.00    0.45112   0.56684    0.005
 6124.00    0.42066   0.57015    0.005
 6125.00    0.36407   0.57391    0.005
 6126.00    0.36733   0.57635    0.005
 6127.00    0.41427   0.57754    0.005
 6128.00    0.47664   0.57825    0.005
 6129.00    0.54890   0.57924    0.005
 6130.00    0.57250   0.58077    0.005
 6131.00    0.56882   0.58202    0.005
 6132.00    0.59420   0.58156    0.005
 6133.00    0.63377   0.57824    0.005
 6134.00    0.65655   0.57171    0.005
 6135.00    0.67224   0.56295    0.005
 6136.00    0.61850   0.55437    0.005
 6137.00    0.53970   0.54903    0.005
 6138.00    0.47820   0.54916    0.005
 6139.00    0.42200   0.55400    0.005
 6140.00    0.38504   0.56013    0.005
 6141.00    0.35296   0.56485    0.005
 6142.00    0.31964   0.56845    0.005
 6143.00    0.28607   0.57237    0.005
 6144.00    0.32254   0.57637    0.005
 6145.00    0.37039   0.57889    0.005
 6146.00    0.43682   0.57905    0.005
 6147.00    0.50550   0.57710    0.005
 6148.00    0.51304   0.57406    0.005
 6149.00    0.51548   0.57136    0.005
 6150.00    0.47119   0.57013    0.005
 6151.00    0.42466   0.57041    0.005
 6152.00    0.38747   0.57138    0.005
 6153.00    0.35084   0.57194    0.005
 6154.00    0.33909   0.57135    0.005
 6155.00    0.33060   0.56973    0.005
 6156.00    0.38642   0.56755    0.005
 6157.00    0.44031   0.56448    0.005
 6158.00    0.47198   0.55957    0.005
 6159.00    0.50440   0.55236    0.005
 6160.00    0.54288   0.54324    0.005
 6161.00    0.57458   0.53364    0.005
 6162.00    0.56548   0.52649    0.005
 6163.00    0.55000   0.52457    0.005
 6164.00    0.50415   0.52791    0.005
 6165.00    0.46704   0.53370    0.005
 6166.00    0.46377   0.53869    0.005
 6167.00    0.46493   0.54119    0.005
 6168.00    0.48040   0.54114    0.005
 6169.00    0.50311   0.53963    0.005
 6170.00    0.54562   0.53904    0.005
 6171.00    0.57556   0.54120    0.005
 6172.00    0.57604   0.54527    0.005
 6173.00    0.56506   0.54908    0.005
 6174.00    0.53089   0.55166    0.005
 6175.00    0.50468   0.55327    0.005
 6176.00    0.49249   0.55429    0.005
 6177.00    0.49017   0.55526    0.005
 6178.00    0.50308   0.55666    0.005
 6179.00    0.50457   0.55835    0.005
 6180.00    0.49060   0.55991    0.005
 6181.00    0.44823   0.56131    0.005
 6182.00    0.37199   0.56238    0.005
 6183.00    0.34374   0.56251    0.005
 6184.00    0.36596   0.56135    0.005
 6185.00    0.40842   0.55901    0.005
 6186.00    0.46967   0.55566    0.005
 6187.00    0.52046   0.55158    0.005
 6188.00    0.56271   0.54726    0.006
 6189.00    0.58086   0.54308    0.006
 6190.00    0.58167   0.53938    0.006
 6191.00    0.55288   0.53690    0.005
 6192.00    0.50540   0.53715    0.005
 6193.00    0.45062   0.54076    0.005
 6194.00    0.39181   0.54615    0.005
 6195.00    0.25628   0.55103    0.005
 6196.00    0.08391   0.55418   -2.000
 6197.00    0.16070   0.55527   -2.000
 6198.00    0.34077   0.55453   -2.000
 6199.00    0.63360   0.55284   -2.000
 6200.00    0.96640   0.55168   -2.000
 6201.00    0.97632   0.55226   -2.000
 6202.00    0.88961   0.55445   -2.000
 6203.00    0.74168   0.55709   -2.000
 6204.00    0.57854   0.55923   -2.000
 6205.00    0.52615   0.56061   -2.000
 6206.00    0.49605   0.56135   -2.000
 6207.00    0.47380   0.56148   -2.000
 6208.00    0.45279   0.56088    0.005
 6209.00    0.44661   0.55933    0.005
 6210.00    0.44216   0.55657    0.005
 6211.00    0.46129   0.55249    0.005
 6212.00    0.48229   0.54735    0.005
 6213.00    0.52098   0.54182    0.005
 6214.00    0.56044   0.53704    0.005
 6215.00    0.55837   0.53418    0.005
 6216.00    0.55477   0.53350    0.005
 6217.00    0.49971   0.53428    0.005
 6218.00    0.44828   0.53532    0.005
 6219.00    0.46306   0.53580    0.005
 6220.00    0.48111   0.53601    0.005
 6221.00    0.53521   0.53679    0.005
 6222.00    0.58434   0.53829    0.005
 6223.00    0.59504   0.53991    0.005
 6224.00    0.60574   0.54109    0.005
 6225.00    0.61638   0.54160    0.005
 6226.00    0.61872   0.54118    0.005
 6227.00    0.58253   0.53936    0.005
 6228.00    0.54787   0.53596    0.005
 6229.00    0.51900   0.53141    0.005
 6230.00    0.48746   0.52695    0.005
 6231.00    0.44746   0.52467    0.005
 6232.00    0.41725   0.52599    0.005
 6233.00    0.41335   0.53033    0.005
 6234.00    0.40782   0.53572    0.005
 6235.00    0.39857   0.54000    0.005
 6236.00    0.40537   0.54155    0.005
 6237.00    0.44416   0.54016    0.005
 6238.00    0.47117   0.53694    0.005
 6239.00    0.47775   0.53336    0.005
 6240.00    0.47587   0.53040    0.005
 6241.00    0.46117   0.52837    0.005
 6242.00    0.45184   0.52683    0.005
 6243.00    0.44969   0.52520    0.005
 6244.00    0.43127   0.52388    0.005
 6245.00    0.39370   0.52364    0.005
 6246.00    0.38023   0.52479    0.005
 6247.00    0.39175   0.52729    0.005
 6248.00    0.40550   0.53052    0.005
 6249.00    0.42130   0.53301    0.005
 6250.00    0.43718   0.53332    0.005
 6251.00    0.45312   0.53107    0.005
 6252.00    0.46342   0.52702    0.005
 6253.00    0.46971   0.52274    0.005
 6254.00    0.47749   0.51955    0.005
 6255.00    0.48620   0.51765    0.005
 6256.00    0.49580   0.51662    0.005
 6257.00    0.50590   0.51627    0.005
 6258.00    0.49373   0.51706    0.005
 6259.00    0.47104   0.51966    0.005
 6260.00    0.54041   0.52405    0.005
 6261.00    0.64730   0.52916    0.006
 6262.00    0.79598   0.53382    0.006
 6263.00    0.95920   0.53734    0.006
 6264.00    0.90989   0.53925    0.006
 6265.00    0.79824   0.53967    0.006
 6266.00    0.60781   0.53959    0.006
 6267.00    0.39824   0.53973    0.005
 6268.00    0.35630   0.53987    0.005
 6269.00    0.34725   0.53976    0.005
 6270.00    0.38210   0.53976    0.005
 6271.00    0.42366   0.54031    0.005
 6272.00    0.42775   0.54141    0.005
 6273.00    0.42761   0.54261    0.005
 6274.00    0.43713   0.54336    0.005
 6275.00    0.44737   0.54338    0.005
 6276.00    0.43551   0.54261    0.005
 6277.00    0.42275   0.54107    0.005
 6278.00    0.41641   0.53898    0.005
 6279.00    0.41045   0.53679    0.005
 6280.00    0.41808   0.53516    0.000
 6281.00    0.42761   0.53479    0.000
 6282.00    0.46969   0.53600    0.000
 6283.00    0.50895   0.53830    0.000
 6284.00    0.51839   0.54096    0.000
 6285.00    0.51921   0.54342    0.000
 6286.00    0.45561   0.54550    0.000
 6287.00    0.39284   0.54716    0.000
 6288.00    0.33476   0.54810    0.000
 6289.00    0.29267   0.54792    0.000
 6290.00    0.32305   0.54660    0.000
 6291.00    0.35564   0.54464    0.000
 6292.00    0.39640   0.54268    0.000
 6293.00    0.41486   0.54101    0.000
 6294.00    0.36411   0.53948    0.000
 6295.00    0.31881   0.53775    0.000
 6296.00    0.28788   0.53553    0.000
 6297.00    0.27494   0.53312    0.000
 6298.00    0.30275   0.53110    0.000
 6299.00    0.33575   0.52968    0.000
 6300.00    0.37894   0.52853    0.000
 6301.00    0.43338   0.52761    0.000
 6302.00    0.50707   0.52761    0.000
 6303.00    0.54696   0.52932    0.000
 6304.00    0.53625   0.53256    0.000
 6305.00    0.51977   0.53631    0.000
 6306.00    0.49570   0.53973    0.000
 6307.00    0.48863   0.54246    0.000
 6308.00    0.50127   0.54404    0.000
 6309.00    0.50552   0.54409    0.000
 6310.00    0.50118   0.54273    0.000
 6311.00    0.48292   0.54055    0.000
 6312.00    0.45209   0.53813    0.000
 6313.00    0.41100   0.53560    0.000
 6314.00    0.36175   0.53272    0.000
 6315.00    0.33023   0.52962    0.000
 6316.00    0.31110   0.52707    0.000
 6317.00    0.31371   0.52553    0.000
 6318.00    0.32965   0.52502    0.000
 6319.00    0.36315   0.52592    0.000
 6320.00    0.40604   0.52845    0.000
 6321.00    0.42617   0.53180    0.005
 6322.00    0.43570   0.53504    0.005
 6323.00    0.44200   0.53792    0.005
 6324.00    0.44699   0.54052    0.005
 6325.00    0.41638   0.54255    0.005
 6326.00    0.37361   0.54369    0.005
 6327.00    0.36251   0.54400    0.005
 6328.00    0.36052   0.54386    0.005
 6329.00    0.35761   0.54360    0.005
 6330.00    0.35449   0.54325    0.005
 6331.00    0.37193   0.54269    0.005
 6332.00    0.39332   0.54172    0.005
 6333.00    0.40904   0.53978    0.005
 6334.00    0.42392   0.53649    0.005
 6335.00    0.39380   0.53241    0.005
 6336.00    0.35881   0.52920    0.005
 6337.00    0.35090   0.52838    0.005
 6338.00    0.34492   0.53000    0.005
 6339.00    0.36669   0.53278    0.005
 6340.00    0.38947   0.53532    0.005
 6341.00    0.35349   0.53665    0.005
 6342.00    0.31786   0.53619    0.005
 6343.00    0.30219   0.53417    0.005
 6344.00    0.28808   0.53177    0.005
 6345.00    0.29882   0.53028    0.005
 6346.00    0.30942   0.53028    0.005
 6347.00    0.31868   0.53165    0.005
 6348.00    0.32963   0.53406    0.005
 6349.00    0.35274   0.53684    0.005
 6350.00    0.38022   0.53898    0.005
 6351.00    0.43182   0.53974    0.005
 6352.00    0.47677   0.53900    0.005
 6353.00    0.49228   0.53695    0.005
 6354.00    0.49817   0.53401    0.005
 6355.00    0.46914   0.53079    0.005
 6356.00    0.44310   0.52783    0.005
 6357.00    0.42618   0.52503    0.005
 6358.00    0.41563   0.52198    0.005
 6359.00    0.42156   0.51890    0.005
 6360.00    0.41598   0.51646    0.005
 6361.00    0.38473   0.51500    0.005
 6362.00    0.36977   0.51462    0.005
 6363.00    0.38626   0.51563    0.005
 6364.00    0.40947   0.51819    0.005
 6365.00    0.44403   0.52182    0.005
 6366.00    0.44922   0.52567    0.005
 6367.00    0.41109   0.52898    0.005
 6368.00    0.38509   0.53136    0.005
 6369.00    0.37483   0.53274    0.005
 6370.00    0.38074   0.53351    0.005
 6371.00    0.40512   0.53448    0.005
 6372.00    0.42937   0.53622    0.005
 6373.00    0.45348   0.53846    0.005
 6374.00    0.46390   0.54030    0.005
 6375.00    0.46215   0.54109    0.005
 6376.00    0.46109   0.54071    0.005
 6377.00    0.46057   0.53935    0.005
 6378.00    0.45061   0.53735    0.005
 6379.00    0.43413   0.53535    0.005
 6380.00    0.40850   0.53395    0.005
 6381.00    0.37732   0.53337    0.005
 6382.00    0.37086   0.53343    0.005
 6383.00    0.37742   0.53376    0.005
 6384.00    0.38004   0.53406    0.005
 6385.00    0.38086   0.53446    0.005
 6386.00    0.36987   0.53523    0.005
 6387.00    0.35423   0.53620    0.005
 6388.00    0.35189   0.53674    0.005
 6389.00    0.35401   0.53629    0.005
 6390.00    0.36199   0.53456    0.005
 6391.00    0.37162   0.53166    0.005
 6392.00    0.34977   0.52823    0.005
 6393.00    0.32063   0.52551    0.005
 6394.00    0.31076   0.52484    0.005
 6395.00    0.30448   0.52642    0.005
 6396.00    0.30137   0.52865    0.005
 6397.00    0.29872   0.52953    0.005
 6398.00    0.31271   0.52829    0.005
 6399.00    0.32843   0.52575    0.005
 6400.00    0.38560   0.52391    0.005
 6401.00    0.44556   0.52483    0.005
 6402.00    0.45798   0.52858    0.005
 6403.00    0.46885   0.53296    0.005
 6404.00    0.41456   0.53579    0.005
 6405.00    0.36195   0.53629    0.005
 6406.00    0.36206   0.53477    0.005
 6407.00    0.36276   0.53219    0.005
 6408.00    0.37242   0.52971    0.005
 6409.00    0.37830   0.52819    0.005
 6410.00    0.34762   0.52747    0.005
 6411.00    0.31723   0.52689    0.005
 6412.00    0.28877   0.52648    0.005
 6413.00    0.26775   0.52677    0.005
 6414.00    0.28682   0.52754    0.005
 6415.00    0.30387   0.52810    0.005
 6416.00    0.31213   0.52801    0.005
 6417.00    0.32056   0.52701    0.005
 6418.00    0.32956   0.52512    0.005
 6419.00    0.34528   0.52288    0.005
 6420.00    0.38108   0.52123    0.005
 6421.00    0.41295   0.52134    0.005
 6422.00    0.43478   0.52388    0.005
 6423.00    0.43507   0.52818    0.005
 6424.00    0.38816   0.53258    0.005
 6425.00    0.35309   0.53570    0.005
 6426.00    0.34052   0.53710    0.005
 6427.00    0.33009   0.53668    0.005
 6428.00    0.32320   0.53442    0.005
 6429.00    0.33492   0.53067    0.005
 6430.00    0.37370   0.52648    0.005
 6431.00    0.41474   0.52348    0.005
 6432.00    0.45867   0.52299    0.005
 6433.00    0.48210   0.52486    0.005
 6434.00    0.48244   0.52753    0.005
 6435.00    0.47190   0.52931    0.005
 6436.00    0.45054   0.52928    0.005
 6437.00    0.42288   0.52754    0.005
 6438.00    0.38969   0.52521    0.005
 6439.00    0.35166   0.52408    0.005
 6440.00    0.30989   0.52572    0.005
 6441.00    0.31914   0.52987    0.005
 6442.00    0.36300   0.53467    0.005
 6443.00    0.39232   0.53837    0.005
 6444.00    0.41297   0.54024    0.005
 6445.00    0.41955   0.53999    0.005
 6446.00    0.41882   0.53747    0.005
 6447.00    0.43899   0.53277    0.005
 6448.00    0.46857   0.52653    0.005
 6449.00    0.47810   0.52022    0.005
 6450.00    0.47987   0.51595    0.005
 6451.00    0.47329   0.51524    0.005
 6452.00    0.46396   0.51740    0.005
 6453.00    0.46722   0.52005    0.005
 6454.00    0.47396   0.52140    0.005
 6455.00    0.44863   0.52133    0.005
 6456.00    0.41602   0.52109    0.005
 6457.00    0.39707   0.52205    0.005
 6458.00    0.38059   0.52416    0.005
 6459.00    0.37107   0.52579    0.005
 6460.00    0.36253   0.52536    0.005
 6461.00    0.33976   0.52269    0.005
 6462.00    0.31558   0.51921    0.005
 6463.00    0.28632   0.51728    0.005
 6464.00    0.25675   0.51856    0.005
 6465.00    0.24418   0.52235    0.005
 6466.00    0.23227   0.52645    0.005
 6467.00    0.27479   0.52922    0.005
 6468.00    0.31742   0.53004    0.004
 6469.00    0.36324   0.52913    0.005
 6470.00    0.41098   0.52727    0.005
 6471.00    0.48585   0.52539    0.005
 6472.00    0.55655   0.52410    0.005
 6473.00    0.58854   0.52366    0.005
 6474.00    0.61497   0.52381    0.005
 6475.00    0.60371   0.52415    0.005
 6476.00    0.58404   0.52466    0.005
 6477.00    0.52023   0.52516    0.005
 6478.00    0.46009   0.52496    0.005
 6479.00    0.41542   0.52344    0.005
 6480.00    0.37253   0.52064    0.005
 6481.00    0.33585   0.51718    0.005
 6482.00    0.30304   0.51414    0.005
 6483.00    0.28160   0.51274    0.005
 6484.00    0.28721   0.51347    0.005
 6485.00    0.36049   0.51559    0.005
 6486.00    0.42101   0.51781    0.005
 6487.00    0.45405   0.51911    0.005
 6488.00    0.46488   0.51883    0.005
 6489.00    0.43414   0.51653    0.005
 6490.00    0.40370   0.51195    0.005
 6491.00    0.37375   0.50512    0.005
 6492.00    0.35586   0.49642    0.005
 6493.00    0.35525   0.48670    0.005
 6494.00    0.34736   0.47748    0.005
 6495.00    0.33029   0.47102    0.005
 6496.00    0.31968   0.46907    0.005
 6497.00    0.31625   0.47172    0.005
 6498.00    0.33781   0.47767    0.005
 6499.00    0.38386   0.48517    0.005
 6500.00    0.41739   0.49280    0.005
 6501.00    0.44009   0.49987    0.005
 6502.00    0.43093   0.50584    0.005
 6503.00    0.39752   0.51037    0.005
 6504.00    0.37084   0.51347    0.005
 6505.00    0.34865   0.51534    0.005
 6506.00    0.33803   0.51623    0.005
 6507.00    0.33417   0.51638    0.005
 6508.00    0.31450   0.51610    0.005
 6509.00    0.28675   0.51581    0.004
 6510.00    0.28916   0.51571    0.004
 6511.00    0.30491   0.51555    0.004
 6512.00    0.34490   0.51477    0.004
 6513.00    0.39409   0.51305    0.005
 6514.00    0.41394   0.51041    0.005
 6515.00    0.42432   0.50726    0.005
 6516.00    0.40919   0.50435    0.005
 6517.00    0.38717   0.50260    0.005
 6518.00    0.34935   0.50249    0.005
 6519.00    0.30803   0.50394    0.004
 6520.00    0.27641   0.50647    0.004
 6521.00    0.24650   0.50922    0.005
 6522.00    0.27514   0.51125    0.005
 6523.00    0.31165   0.51217    0.005
 6524.00    0.35167   0.51206    0.005
 6525.00    0.39201   0.51123    0.005
 6526.00    0.39905   0.50997    0.005
 6527.00    0.40412   0.50874    0.005
 6528.00    0.39163   0.50800    0.000
 6529.00    0.37879   0.50772    0.000
 6530.00    0.37966   0.50738    0.000
 6531.00    0.37995   0.50662    0.000
 6532.00    0.36611   0.50562    0.000
 6533.00    0.35517   0.50489    0.000
 6534.00    0.38302   0.50488    0.000
 6535.00    0.41186   0.50554    0.000
 6536.00    0.44963   0.50641    0.000
 6537.00    0.48386   0.50703    0.000
 6538.00    0.49494   0.50723    0.000
 6539.00    0.50382   0.50703    0.000
 6540.00    0.50150   0.50616    0.000
 6541.00    0.49615   0.50418    0.000
 6542.00    0.47829   0.50093    0.000
 6543.00    0.45371   0.49667    0.000
 6544.00    0.40617   0.49200    0.000
 6545.00    0.36410   0.48757    0.000
 6546.00    0.33774   0.48396    0.000
 6547.00    0.33407   0.48168    0.000
 6548.00    0.38619   0.48063    0.000
 6549.00    0.43919   0.47985    0.000
 6550.00    0.49404   0.47825    0.000
 6551.00    0.52938   0.47536    0.000
 6552.00    0.52875   0.47130    0.000
 6553.00    0.52617   0.46643    0.000
 6554.00    0.52044   0.46111    0.000
 6555.00    0.48541   0.45556    0.000
 6556.00    0.40900   0.44971    0.000
 6557.00    0.33335   0.44273    0.000
 6558.00    0.25865   0.43300    0.000
 6559.00    0.25044   0.41897    0.000
 6560.00    0.31506   0.40064    0.000
 6561.00    0.42233   0.38064    0.000
 6562.00    0.57078   0.36401    0.000
 6563.00    0.68721   0.35689    0.000
 6564.00    0.77635   0.36320    0.000
 6565.00    0.79548   0.38062    0.000
 6566.00    0.76208   0.40188    0.000
 6567.00    0.67354   0.42073    0.000
 6568.00    0.54864   0.43461    0.000
 6569.00    0.46745   0.44353    0.000
 6570.00    0.41149   0.44888    0.000
 6571.00    0.38650   0.45221    0.000
 6572.00    0.37708   0.45452    0.000
 6573.00    0.35514   0.45656    0.000
 6574.00    0.32776   0.45920    0.000
 6575.00    0.32614   0.46302    0.000
 6576.00    0.33415   0.46786    0.000
 6577.00    0.33764   0.47289    0.000
 6578.00    0.33970   0.47702    0.000
 6579.00    0.33497   0.47972    0.000
 6580.00    0.32844   0.48125    0.000
 6581.00    0.34585   0.48224    0.000
 6582.00    0.36842   0.48333    0.000
 6583.00    0.43752   0.48470    0.000
 6584.00    0.51460   0.48606    0.000
 6585.00    0.52714   0.48723    0.000
 6586.00    0.53128   0.48831    0.000
 6587.00    0.52533   0.48941    0.000
 6588.00    0.51845   0.49029    0.000
 6589.00    0.50261   0.49022    0.000
 6590.00    0.48627   0.48848    0.000
 6591.00    0.45035   0.48509    0.000
 6592.00    0.41429   0.48093    0.000
 6593.00    0.40530   0.47761    0.000
 6594.00    0.39520   0.47666    0.000
 6595.00    0.35981   0.47839    0.000
 6596.00    0.32898   0.48156    0.000
 6597.00    0.35593   0.48470    0.000
 6598.00    0.37980   0.48730    0.000
 6599.00    0.37723   0.48958    0.000
 6600.00    0.36967   0.49174    0.000
 6601.00    0.33039   0.49356    0.000
 6602.00    0.29442   0.49444    0.000
 6603.00    0.27492   0.49404    0.000
 6604.00    0.25744   0.49251    0.000
 6605.00    0.24808   0.49036    0.000
 6606.00    0.24346   0.48820    0.000
 6607.00    0.25473   0.48651    0.000
 6608.00    0.26096   0.48561    0.000
 6609.00    0.25294   0.48576    0.005
 6610.00    0.25930   0.48715    0.005
 6611.00    0.30046   0.48947    0.005
 6612.00    0.33109   0.49185    0.005
 6613.00    0.33976   0.49363    0.005
 6614.00    0.35331   0.49485    0.005
 6615.00    0.37571   0.49589    0.005
 6616.00    0.38412   0.49687    0.005
 6617.00    0.37035   0.49761    0.005
 6618.00    0.35454   0.49805    0.005
 6619.00    0.33589   0.49824    0.005
 6620.00    0.34751   0.49807    0.004
 6621.00    0.39620   0.49729    0.004
 6622.00    0.42585   0.49575    0.004
 6623.00    0.43494   0.49363    0.004
 6624.00    0.41639   0.49143    0.004
 6625.00    0.37150   0.48976    0.004
 6626.00    0.31790   0.48904    0.004
 6627.00    0.25698   0.48909    0.004
 6628.00    0.24672   0.48923    0.004
 6629.00    0.27392   0.48888    0.004
 6630.00    0.31532   0.48777    0.004
 6631.00    0.36594   0.48591    0.005
 6632.00    0.40435   0.48371    0.005
 6633.00    0.43583   0.48181    0.005
 6634.00    0.43523   0.48097    0.005
 6635.00    0.41876   0.48169    0.005
 6636.00    0.41051   0.48369    0.005
 6637.00    0.40577   0.48604    0.005
 6638.00    0.38263   0.48786    0.005
 6639.00    0.35274   0.48873    0.005
 6640.00    0.31844   0.48864    0.005
 6641.00    0.28278   0.48787    0.004
 6642.00    0.27475   0.48669    0.004
 6643.00    0.27388   0.48542    0.004
 6644.00    0.31400   0.48460    0.004
 6645.00    0.36276   0.48480    0.004
 6646.00    0.38727   0.48581    0.004
 6647.00    0.40774   0.48690    0.004
 6648.00    0.40775   0.48760    0.004
 6649.00    0.40520   0.48780    0.004
 6650.00    0.41884   0.48754    0.004
 6651.00    0.43389   0.48694    0.005
 6652.00    0.40391   0.48626    0.004
 6653.00    0.37162   0.48576    0.004
 6654.00    0.36394   0.48549    0.005
 6655.00    0.35675   0.48534    0.005
 6656.00    0.35321   0.48516    0.005
 6657.00    0.34947   0.48481    0.005
 6658.00    0.34163   0.48417    0.005
 6659.00    0.33477   0.48308    0.005
 6660.00    0.33965   0.48138    0.005
 6661.00    0.34217   0.47919    0.004
 6662.00    0.32524   0.47693    0.004
 6663.00    0.30399   0.47513    0.005
 6664.00    0.25598   0.47433    0.004
 6665.00    0.22404   0.47480    0.004
 6666.00    0.27015   0.47618    0.004
 6667.00    0.31084   0.47793    0.004
 6668.00    0.33008   0.47984    0.004
 6669.00    0.34281   0.48184    0.004
 6670.00    0.33415   0.48371    0.004
 6671.00    0.32731   0.48516    0.004
 6672.00    0.32555   0.48590    0.004
 6673.00    0.32130   0.48568    0.005
 6674.00    0.31110   0.48432    0.004
 6675.00    0.29714   0.48172    0.004
 6676.00    0.27544   0.47815    0.005
 6677.00    0.27143   0.47430    0.005
 6678.00    0.29901   0.47125    0.005
 6679.00    0.33602   0.47009    0.005
 6680.00    0.38776   0.47103    0.005
 6681.00    0.42128   0.47313    0.005
 6682.00    0.42980   0.47535    0.005
 6683.00    0.41206   0.47727    0.004
 6684.00    0.36261   0.47868    0.004
 6685.00    0.32877   0.47950    0.004
 6686.00    0.31155   0.47982    0.004
 6687.00    0.31240   0.47982    0.004
 6688.00    0.33022   0.47972    0.004
 6689.00    0.35313   0.47967    0.004
 6690.00    0.38026   0.47966    0.004
 6691.00    0.37074   0.47953    0.004
 6692.00    0.33450   0.47907    0.004
 6693.00    0.29723   0.47817    0.004
 6694.00    0.25930   0.47683    0.004
 6695.00    0.26565   0.47526    0.004
 6696.00    0.29680   0.47387    0.000
 6697.00    0.33915   0.47320    0.000
 6698.00    0.38696   0.47355    0.000
 6699.00    0.43042   0.47462    0.000
 6700.00    0.47204   0.47579    0.000
 6701.00    0.49411   0.47647    0.000
 6702.00    0.50913   0.47638    0.000
 6703.00    0.54211   0.47567    0.000
 6704.00    0.58057   0.47483    0.000
 6705.00    0.57219   0.47438    0.000
 6706.00    0.55196   0.47449    0.000
 6707.00    0.48708   0.47487    0.000
 6708.00    0.41301   0.47510    0.000
 6709.00    0.37370   0.47493    0.000
 6710.00    0.34002   0.47425    0.000
 6711.00    0.32888   0.47303    0.000
 6712.00    0.32047   0.47127    0.000
 6713.00    0.30507   0.46888    0.000
 6714.00    0.28909   0.46592    0.000
 6715.00    0.33789   0.46277    0.000
 6716.00    0.38975   0.46005    0.000
 6717.00    0.41506   0.45842    0.000
 6718.00    0.43907   0.45839    0.000
 6719.00    0.41091   0.45998    0.000
 6720.00    0.38271   0.46254    0.000
 6721.00    0.35376   0.46501    0.000
 6722.00    0.33107   0.46680    0.000
 6723.00    0.38032   0.46788    0.000
 6724.00    0.42415   0.46842    0.000
 6725.00    0.42485   0.46855    0.000
 6726.00    0.41807   0.46852    0.000
 6727.00    0.36634   0.46868    0.000
 6728.00    0.32019   0.46922    0.000
 6729.00    0.30044   0.46996    0.000
 6730.00    0.28531   0.47058    0.000
 6731.00    0.28810   0.47090    0.000
 6732.00    0.29455   0.47087    0.000
 6733.00    0.31283   0.47059    0.000
 6734.00    0.32554   0.47020    0.000
 6735.00    0.32309   0.46974    0.000
 6736.00    0.31842   0.46908    0.000
 6737.00    0.30858   0.46814    0.000
 6738.00    0.30595   0.46700    0.000
 6739.00    0.31789   0.46591    0.000
 6740.00    0.33120   0.46513    0.000
 6741.00    0.34693   0.46471    0.000
 6742.00    0.33747   0.46447    0.000
 6743.00    0.28925   0.46423    0.000
 6744.00    0.25702   0.46399    0.000
 6745.00    0.24641   0.46372    0.000
 6746.00    0.24457   0.46316    0.000
 6747.00    0.25317   0.46216    0.000
 6748.00    0.25684   0.46091    0.000
 6749.00    0.25533   0.45978    0.000
 6750.00    0.26926   0.45912    0.000
 6751.00    0.29748   0.45916    0.000
 6752.00    0.35516   0.45986    0.000
 6753.00    0.43688   0.46098    0.005
 6754.00    0.45046   0.46235    0.005
 6755.00    0.41510   0.46394    0.005
 6756.00    0.31969   0.46556    0.005
 6757.00    0.18644   0.46709    0.005
 6758.00    0.10889   0.46850    0.005
 6759.00    0.06205   0.46967    0.005
 6760.00    0.06962   0.47044    0.005
 6761.00    0.10327   0.47076    0.005
 6762.00    0.12862   0.47061    0.005
 6763.00    0.15053   0.46998    0.006
 6764.00    0.18769   0.46888    0.005
 6765.00    0.23024   0.46733    0.005
 6766.00    0.26600   0.46548    0.005
 6767.00    0.29975   0.46374    0.005
 6768.00    0.32231   0.46255    0.005
 6769.00    0.34211   0.46216    0.005
 6770.00    0.33264   0.46248    0.005
 6771.00    0.31730   0.46324    0.005
 6772.00    0.33814   0.46442    0.005
 6773.00    0.36467   0.46612    0.005
 6774.00    0.35248   0.46810    0.005
 6775.00    0.33576   0.46993    0.005
 6776.00    0.27359   0.47126    0.005
 6777.00    0.20783   0.47192    0.005
 6778.00    0.24651   0.47186    0.005
 6779.00    0.28973   0.47106    0.005
 6780.00    0.26376   0.46947    0.005
 6781.00    0.23753   0.46703    0.005
 6782.00    0.23299   0.46402    0.005
 6783.00    0.22959   0.46102    0.005
 6784.00    0.24681   0.45870    0.005
 6785.00    0.26069   0.45756    0.005
 6786.00    0.23800   0.45766    0.005
 6787.00    0.21317   0.45867    0.005
 6788.00    0.17185   0.46006    0.005
 6789.00    0.14645   0.46130    0.005
 6790.00    0.21389   0.46199    0.005
 6791.00    0.27411   0.46206    0.005
 6792.00    0.30097   0.46169    0.005
 6793.00    0.31724   0.46108    0.005
 6794.00    0.29349   0.46052    0.005
 6795.00    0.28397   0.46030    0.005
 6796.00    0.31938   0.46055    0.005
 6797.00    0.33161   0.46114    0.005
 6798.00    0.28177   0.46189    0.005
 6799.00    0.24350   0.46264    0.005
 6800.00    0.23181   0.46327    0.005
 6801.00    0.23010   0.46369    0.005
 6802.00    0.24823   0.46380    0.005
 6803.00    0.24087   0.46360    0.005
 6804.00    0.18936   0.46317    0.005
 6805.00    0.16304   0.46271    0.005
 6806.00    0.17492   0.46234    0.005
 6807.00    0.17677   0.46206    0.005
 6808.00    0.16525   0.46187    0.004
 6809.00    0.10169   0.46178    0.004
 6810.00   -0.02293   0.46167    0.000
 6811.00   -0.11146   0.46148    0.000
 6812.00   -0.16264   0.46125    0.000
 6813.00   -0.18099   0.46090    0.000
 6814.00   -0.16937   0.46051    0.000
 6815.00   -0.06860   0.46028    0.000
 6816.00    0.10390   0.46039    0.005
 6817.00    0.22238   0.46082    0.004
 6818.00    0.30260   0.46127    0.004
 6819.00    0.33375   0.46152    0.004
 6820.00    0.33440   0.46171    0.005
 6821.00    0.34200   0.46214    0.005
 6822.00    0.35335   0.46290    0.005
 6823.00    0.36420   0.46375    0.005
 6824.00    0.37480   0.46424    0.005
 6825.00    0.38611   0.46412    0.005
 6826.00    0.39770   0.46340    0.005
 6827.00    0.41882   0.46236    0.005
 6828.00    0.44324   0.46139    0.005
 6829.00    0.46963   0.46094    0.005
 6830.00    0.49658   0.46120    0.005
 6831.00    0.44328   0.46194    0.005
 6832.00    0.37054   0.46272    0.005
 6833.00    0.35384   0.46323    0.005
 6834.00    0.34811   0.46339    0.005
 6835.00    0.35114   0.46307    0.005
 6836.00    0.35550   0.46203    0.005
 6837.00    0.41736   0.46013    0.005
 6838.00    0.48566   0.45751    0.005
 6839.00    0.45666   0.45455    0.005
 6840.00    0.42039   0.45185    0.005
 6841.00    0.29521   0.45007    0.005
 6842.00    0.16649   0.44969    0.005
 6843.00    0.16981   0.45082    0.005
 6844.00    0.17711   0.45311    0.005
 6845.00    0.30683   0.45577    0.005
 6846.00    0.42590   0.45804    0.005
 6847.00    0.36513   0.45945    0.005
 6848.00    0.31296   0.46003    0.005
 6849.00    0.35080   0.46000    0.005
 6850.00    0.38306   0.45952    0.005
 6851.00    0.37378   0.45867    0.005
 6852.00    0.36189   0.45742    0.005
 6853.00    0.33522   0.45579    0.005
 6854.00    0.30566   0.45391    0.005
 6855.00    0.26306   0.45209    0.005
 6856.00    0.22712   0.45083    0.005
 6857.00    0.21578   0.45042    0.005
 6858.00    0.22109   0.45059    0.005
 6859.00    0.27793   0.45092    0.005
 6860.00    0.32373   0.45131    0.005
 6861.00    0.34049   0.45179    0.005
 6862.00    0.34835   0.45251    0.005
 6863.00    0.33610   0.45360    0.005
 6864.00    0.33591   0.45473    0.005
 6865.00    0.35934   0.45527    0.005
 6866.00    0.38311   0.45487    0.005
 6867.00    0.40745   0.45383    0.005
 6868.00    0.41412   0.45270    0.005
 6869.00    0.39437   0.45192    0.005
 6870.00    0.36286   0.45164    0.005
 6871.00    0.31590   0.45174    0.005
 6872.00    0.29168   0.45201    0.005
 6873.00    0.29379   0.45246    0.005
 6874.00    0.30764   0.45327    0.005
 6875.00    0.33348   0.45437    0.005
 6876.00    0.36148   0.45553    0.005
 6877.00    0.39143   0.45652    0.005
 6878.00    0.37150   0.45706    0.005
 6879.00    0.31201   0.45687    0.005
 6880.00    0.28527   0.45590    0.005
 6881.00    0.28140   0.45449    0.005
 6882.00    0.27920   0.45315    0.005
 6883.00    0.27803   0.45243    0.005
 6884.00    0.26386   0.45265    0.005
 6885.00    0.24274   0.45369    0.005
 6886.00    0.26163   0.45515    0.005
 6887.00    0.29907   0.45671    0.005
 6888.00    0.29624   0.45827    0.005
 6889.00    0.27731   0.45965    0.005
 6890.00    0.24997   0.46062    0.005
 6891.00    0.21975   0.46114    0.005
 6892.00    0.24723   0.46124    0.005
 6893.00    0.29126   0.46099    0.005
 6894.00    0.33490   0.46054    0.005
 6895.00    0.37846   0.46009    0.005
 6896.00    0.37511   0.45979    0.005
 6897.00    0.36283   0.45969    0.005
 6898.00    0.38440   0.45977    0.005
 6899.00    0.41098   0.45993    0.005
 6900.00    0.42290   0.46010    0.005
 6901.00    0.43324   0.46030    0.005
 6902.00    0.42756   0.46063    0.005
 6903.00    0.42074   0.46107    0.005
 6904.00    0.35123   0.46153    0.005
 6905.00    0.27947   0.46200    0.005
 6906.00    0.29468   0.46250    0.005
 6907.00    0.31030   0.46300    0.005
 6908.00    0.32992   0.46328    0.005
 6909.00    0.34784   0.46305    0.005
 6910.00    0.33901   0.46219    0.005
 6911.00    0.32636   0.46074    0.005
 6912.00    0.27547   0.45892    0.005
 6913.00    0.23379   0.45707    0.005
 6914.00    0.25838   0.45548    0.005
 6915.00    0.28015   0.45445    0.005
 6916.00    0.28634   0.45423    0.005
 6917.00    0.29259   0.45476    0.005
 6918.00    0.29909   0.45573    0.005
 6919.00    0.29764   0.45684    0.005
 6920.00    0.26736   0.45772    0.005
 6921.00    0.25047   0.45802    0.005
 6922.00    0.27429   0.45753    0.005
 6923.00    0.29931   0.45635    0.005
 6924.00    0.32747   0.45487    0.005
 6925.00    0.34145   0.45375    0.005
 6926.00    0.32392   0.45351    0.005
 6927.00    0.31102   0.45421    0.005
 6928.00    0.30703   0.45538    0.005
 6929.00    0.29135   0.45635    0.005
 6930.00    0.25603   0.45674    0.005
 6931.00    0.25069   0.45654    0.005
 6932.00    0.28949   0.45604    0.005
 6933.00    0.30970   0.45560    0.005
 6934.00    0.30581   0.45551    0.005
 6935.00    0.33119   0.45589    0.005
 6936.00    0.38996   0.45657    0.005
 6937.00    0.42133   0.45726    0.005
 6938.00    0.42514   0.45785    0.005
 6939.00    0.40687   0.45830    0.005
 6940.00    0.36902   0.45848    0.005
 6941.00    0.30997   0.45813    0.005
 6942.00    0.23435   0.45712    0.005
 6943.00    0.22849   0.45558    0.005
 6944.00    0.27060   0.45401    0.005
 6945.00    0.26071   0.45301    0.005
 6946.00    0.21948   0.45296    0.005
 6947.00    0.22271   0.45382    0.005
 6948.00    0.24932   0.45497    0.005
 6949.00    0.24804   0.45565    0.005
 6950.00    0.23405   0.45556    0.005
 6951.00    0.20649   0.45481    0.005
 6952.00    0.17361   0.45386    0.005
 6953.00    0.18058   0.45328    0.005
 6954.00    0.20088   0.45337    0.005
 6955.00    0.21959   0.45408    0.005
 6956.00    0.23787   0.45522    0.005
 6957.00    0.24352   0.45647    0.005
 6958.00    0.24626   0.45756    0.005
 6959.00    0.23896   0.45838    0.005
 6960.00    0.22979   0.45899    0.005
 6961.00    0.22308   0.45944    0.005
 6962.00    0.21672   0.45978    0.005
 6963.00    0.30923   0.45998    0.005
 6964.00    0.41197   0.46008    0.005
 6965.00    0.38107   0.46018    0.005
 6966.00    0.34125   0.46037    0.005
 6967.00    0.34025   0.46072    0.005
 6968.00    0.34049   0.46117    0.005
 6969.00    0.31012   0.46147    0.005
 6970.00    0.27993   0.46137    0.005
 6971.00    0.25520   0.46086    0.005
 6972.00    0.23322   0.45997    0.005
 6973.00    0.25189   0.45862    0.005
 6974.00    0.26952   0.45654    0.005
 6975.00    0.27714   0.45355    0.005
 6976.00    0.29083   0.44990    0.005
 6977.00    0.34673   0.44640    0.005
 6978.00    0.38262   0.44404    0.005
 6979.00    0.31104   0.44364    0.005
 6980.00    0.25242   0.44552    0.005
 6981.00    0.24959   0.44918    0.005
 6982.00    0.24442   0.45334    0.005
 6983.00    0.23097   0.45683    0.005
 6984.00    0.22703   0.45908    0.005
 6985.00    0.25147   0.46000    0.005
 6986.00    0.30061   0.45985    0.005
 6987.00    0.41253   0.45905    0.005
 6988.00    0.47036   0.45804    0.005
 6989.00    0.40995   0.45722    0.005
 6990.00    0.36272   0.45687    0.005
 6991.00    0.34050   0.45703    0.005
 6992.00    0.33445   0.45749    0.005
 6993.00    0.35519   0.45787    0.005
 6994.00    0.35721   0.45794    0.005
 6995.00    0.33205   0.45763    0.005
 6996.00    0.33304   0.45695    0.005
 6997.00    0.36738   0.45592    0.005
 6998.00    0.35697   0.45459    0.005
 6999.00    0.29622   0.45315    0.005
 7000.00    0.27547   0.45191    0.005
 7001.00    0.29439   0.45109    0.005
 7002.00    0.29769   0.45061    0.005
 7003.00    0.28732   0.45018    0.005
 7004.00    0.26700   0.44965    0.005
 7005.00    0.23900   0.44926    0.005
 7006.00    0.25415   0.44940    0.005
 7007.00    0.29853   0.45018    0.005
 7008.00    0.33992   0.45137    0.005
 7009.00    0.37954   0.45255    0.005
 7010.00    0.31319   0.45333    0.005
 7011.00    0.19195   0.45347    0.005
 7012.00    0.19271   0.45282    0.005
 7013.00    0.24824   0.45144    0.005
 7014.00    0.28480   0.44948    0.005
 7015.00    0.31404   0.44739    0.005
 7016.00    0.33491   0.44593    0.005
 7017.00    0.35304   0.44589    0.005
 7018.00    0.34752   0.44751    0.005
 7019.00    0.33550   0.45000    0.005
 7020.00    0.29721   0.45202    0.005
 7021.00    0.25298   0.45264    0.005
 7022.00    0.32542   0.45180    0.005
 7023.00    0.41893   0.45015    0.005
 7024.00    0.37905   0.44859    0.005
 7025.00    0.32069   0.44791    0.005
 7026.00    0.39760   0.44836    0.005
 7027.00    0.48794   0.44961    0.005
 7028.00    0.45255   0.45110    0.005
 7029.00    0.40928   0.45242    0.005
 7030.00    0.36675   0.45338    0.005
 7031.00    0.32432   0.45385    0.005
 7032.00    0.29994   0.45385    0.005
 7033.00    0.27883   0.45348    0.005
 7034.00    0.34745   0.45287    0.005
 7035.00    0.40883   0.45213    0.005
 7036.00    0.36855   0.45140    0.005
 7037.00    0.32287   0.45096    0.005
 7038.00    0.22738   0.45118    0.005
 7039.00    0.15522   0.45248    0.005
 7040.00    0.24027   0.45501    0.005
 7041.00    0.31879   0.45822    0.005
 7042.00    0.36311   0.46105    0.005
 7043.00    0.40706   0.46277    0.005
 7044.00    0.44951   0.46340    0.005
 7045.00    0.45851   0.46342    0.005
 7046.00    0.35117   0.46338    0.005
 7047.00    0.29356   0.46349    0.005
 7048.00    0.38148   0.46343    0.005
 7049.00    0.43399   0.46250    0.005
 7050.00    0.39810   0.46016   -2.000
 7051.00    0.36201   0.45625   -2.000
 7052.00    0.32549   0.45115   -2.000
 7053.00    0.30563   0.44566   -2.000
 7054.00    0.31689   0.44071   -2.000
 7055.00    0.31970   0.43705   -2.000
 7056.00    0.30873   0.43478   -2.000
 7057.00    0.31274   0.43351   -2.000
 7058.00    0.33818   0.43262   -2.000
 7059.00    0.36286   0.43169   -2.000
 7060.00    0.38655   0.43079   -2.000
 7061.00    0.40422   0.43025   -2.000
 7062.00    0.41520   0.43032   -2.000
 7063.00    0.38925   0.43078   -2.000
 7064.00    0.32717   0.43110   -2.000
 7065.00    0.32843   0.43085   -2.000
 7066.00    0.38433   0.42995   -2.000
 7067.00    0.35263   0.42880   -2.000
 7068.00    0.25438   0.42808   -2.000
 7069.00    0.26555   0.42837   -2.000
 7070.00    0.34979   0.42978   -2.000
 7071.00    0.43602   0.43189   -2.000
 7072.00    0.52341   0.43404   -2.000
 7073.00    0.50376   0.43570   -2.000
 7074.00    0.42954   0.43674   -2.000
 7075.00    0.44746   0.43731   -2.000
 7076.00    0.50607   0.43759   -2.000
 7077.00    0.50588   0.43775   -2.000
 7078.00    0.48340   0.43786   -2.000
 7079.00    0.43237   0.43774   -2.000
 7080.00    0.37214   0.43703   -2.000
 7081.00    0.32235   0.43538   -2.000
 7082.00    0.27537   0.43264   -2.000
 7083.00    0.31578   0.42895   -2.000
 7084.00    0.37549   0.42483   -2.000
 7085.00    0.37738   0.42087   -2.000
 7086.00    0.36911   0.41750   -2.000
 7087.00    0.33560   0.41483   -2.000
 7088.00    0.29870   0.41268   -2.000
 7089.00    0.33681   0.41099   -2.000
 7090.00    0.38205   0.40985   -2.000
 7091.00    0.30852   0.40927   -2.000
 7092.00    0.22802   0.40913   -2.000
 7093.00    0.31736   0.40925   -2.000
 7094.00    0.40957   0.40950   -2.000
 7095.00    0.32419   0.40992   -2.000
 7096.00    0.23841   0.41066   -2.000
 7097.00    0.14256   0.41178   -2.000
 7098.00    0.06485   0.41321   -2.000
 7099.00    0.22810   0.41474   -2.000
 7100.00    0.37465   0.41611   -2.000
 7101.00    0.37306   0.41712   -2.000
 7102.00    0.36231   0.41779   -2.000
 7103.00    0.29160   0.41829   -2.000
 7104.00    0.24813   0.41873   -2.000
 7105.00    0.34337   0.41907   -2.000
 7106.00    0.40152   0.41914   -2.000
 7107.00    0.30702   0.41877   -2.000
 7108.00    0.24071   0.41795   -2.000
 7109.00    0.27050   0.41682   -2.000
 7110.00    0.31155   0.41566   -2.000
 7111.00    0.38496   0.41473   -2.000
 7112.00    0.40880   0.41434   -2.000
 7113.00    0.31100   0.41468   -2.000
 7114.00    0.25216   0.41565   -2.000
 7115.00    0.27573   0.41689   -2.000
 7116.00    0.32319   0.41805   -2.000
 7117.00    0.41459   0.41890   -2.000
 7118.00    0.47238   0.41936   -2.000
 7119.00    0.47617   0.41941   -2.000
 7120.00    0.47477   0.41911   -2.000
 7121.00    0.46607   0.41856   -2.000
 7122.00    0.46416   0.41781   -2.000
 7123.00    0.47069   0.41687   -2.000
 7124.00    0.56067   0.41570   -2.000
 7125.00    0.74187   0.41424   -2.000
 7126.00    0.78794   0.41250   -2.000
 7127.00    0.70369   0.41062   -2.000
 7128.00    0.60073   0.40889   -2.000
 7129.00    0.48184   0.40748   -2.000
 7130.00    0.41261   0.40651   -2.000
 7131.00    0.38056   0.40621   -2.000
 7132.00    0.42662   0.40682   -2.000
 7133.00    0.52407   0.40834   -2.000
 7134.00    0.46222   0.41036   -2.000
 7135.00    0.30860   0.41231   -2.000
 7136.00    0.28133   0.41375   -2.000
 7137.00    0.31746   0.41453   -2.000
 7138.00    0.32857   0.41481   -2.000
 7139.00    0.32881   0.41482   -2.000
 7140.00    0.33691   0.41480   -2.000
 7141.00    0.34794   0.41487   -2.000
 7142.00    0.33827   0.41497   -2.000
 7143.00    0.32207   0.41482   -2.000
 7144.00    0.30270   0.41418   -2.000
 7145.00    0.28249   0.41299   -2.000
 7146.00    0.31873   0.41138   -2.000
 7147.00    0.36714   0.40978   -2.000
 7148.00    0.36636   0.40871   -2.000
 7149.00    0.35717   0.40867   -2.000
 7150.00    0.31799   0.40989   -2.000
 7151.00    0.27491   0.41209   -2.000
 7152.00    0.27916   0.41456   -2.000
 7153.00    0.28770   0.41672   -2.000
 7154.00    0.26923   0.41827   -2.000
 7155.00    0.24928   0.41917   -2.000
 7156.00    0.31498   0.41950   -2.000
 7157.00    0.38168   0.41940   -2.000
 7158.00    0.37584   0.41892   -2.000
 7159.00    0.38006   0.41800   -2.000
 7160.00    0.61262   0.41662   -2.000
 7161.00    0.82453   0.41485   -2.000
 7162.00    0.77620   0.41279   -2.000
 7163.00    0.71057   0.41061   -2.000
 7164.00    0.49741   0.40871   -2.000
 7165.00    0.29109   0.40768   -2.000
 7166.00    0.12805   0.40801   -2.000
 7167.00    0.03760   0.40972   -2.000
 7168.00    0.30761   0.41225   -2.000
 7169.00    0.51891   0.41479   -2.000
 7170.00    0.49391   0.41685   -2.000
 7171.00    0.43974   0.41826   -2.000
 7172.00    0.28813   0.41906   -2.000
 7173.00    0.17937   0.41925   -2.000
 7174.00    0.19148   0.41885   -2.000
 7175.00    0.22352   0.41799   -2.000
 7176.00    0.30368   0.41686   -2.000
 7177.00    0.34046   0.41563   -2.000
 7178.00    0.28696   0.41434   -2.000
 7179.00    0.32515   0.41301   -2.000
 7180.00    0.52934   0.41177   -2.000
 7181.00    0.59972   0.41096   -2.000
 7182.00    0.45827   0.41086   -2.000
 7183.00    0.36113   0.41137   -2.000
 7184.00    0.32553   0.41189   -2.000
 7185.00    0.32679   0.41171   -2.000
 7186.00    0.37310   0.41059   -2.000
 7187.00    0.42661   0.40896   -2.000
 7188.00    0.48787   0.40763   -2.000
 7189.00    0.47906   0.40722   -2.000
 7190.00    0.40360   0.40786   -2.000
 7191.00    0.34879   0.40917   -2.000
 7192.00    0.31127   0.41060   -2.000
 7193.00    0.29127   0.41179   -2.000
 7194.00    0.28420   0.41260   -2.000
 7195.00    0.56395   0.41311   -2.000
 7196.00    1.02962   0.41342   -2.000
 7197.00    1.12026   0.41360   -2.000
 7198.00    0.99814   0.41371   -2.000
 7199.00    0.90665   0.41381   -2.000
 7200.00    0.83029   0.41395   -2.000
 7201.00    0.75914   0.41405   -2.000
 7202.00    0.69021   0.41402   -2.000
 7203.00    0.54648   0.41379   -2.000
 7204.00    0.37537   0.41315   -2.000
 7205.00    0.28780   0.41195   -2.000
 7206.00    0.22610   0.41025   -2.000
 7207.00    0.24286   0.40858   -2.000
 7208.00    0.27988   0.40773   -2.000
 7209.00    0.23261   0.40827   -2.000
 7210.00    0.16762   0.41004   -2.000
 7211.00    0.26761   0.41222   -2.000
 7212.00    0.39501   0.41395   -2.000
 7213.00    0.42224   0.41487   -2.000
 7214.00    0.43696   0.41512   -2.000
 7215.00    0.37181   0.41523   -2.000
 7216.00    0.29974   0.41558   -2.000
 7217.00    0.30224   0.41624   -2.000
 7218.00    0.30853   0.41691   -2.000
