###################################################################
## OUTPUT of StarlightChains_v04.for    [Cid@UFSC - 01/Apr/2007] ##
###################################################################

## Some input info
KUG0210-078._48_41.txt                   [arq_obs]
Base.CB07.vall.4m                        [arq_base]
Masks.EmLines.NEW.gm                     [arq_masks]
StCv04.C11.config                        [arq_config]
   66                                    [N_base]
    0                                    [N_YAV_components = # of components with extra extinction!]
    0                                    [i_FitPowerLaw (1/0 = Yes/No)]
-9.99                                    [alpha_PowerLaw]
CCM                                      [red_law_option]
 1.458241                                [q_norm = A(l_norm)/A(V)]

## (Re)Sampling Parameters
 3741.00                                 [l_ini (A)]
 7218.00                                 [l_fin (A)]
    1.00                                 [dl    (A)]     (OBS: dl_cushion =    50.00 A)

## Normalization info
 4020.00                                 [l_norm (A) - for base]
 4010.00                                 [llow_norm (A) - window for f_obs]
 4060.00                                 [lupp_norm (A) - window for f_obs]
9.200748E-18                             [fobs_norm (in input units)]

## S/N
 3691.00                                 [llow_SN (A) - window for S/N]
 7268.00                                 [lupp_SN (A) - window for S/N]
   2.790                                 [S/N in S/N window]
   4.219                                 [S/N in norm. window]
   0.007                                 [S/N_err in S/N window]
   0.011                                 [S/N_err in norm. window]
  1.0000                                 [fscale_chi2]

## etc...
    -2007929                             [idum_orig]
  2378                                   [NOl_eff]
  2119                                   [Nl_eff]
   259    NSIGMA                         [Ntot_cliped & clip_method]
 10555160                                [Nglobal_steps]
   7                                     [N_chains]
  40                                     [NEX0s_base = N_base in EX0s-fits]
 0   0   1      259   2.0   6.630E+03    [Clip-Bug, RC-Crash & Burn-In warning-flags, n_censored_weights, wei_nsig_threshold & wei_limit]
    77     76.898     76.360      0.538  [idt_all, wdt_TotTime, wdt_UsrTime & wdt_SysTime (sec)]

## Synthesis Results - Best model ##

 9.66800E-06                             [chi2/Nl_eff]
    19.84766                             [adev (%)]

   101.66045                             [sum-of-x (%)]
 2.44162E-18                             [Flux_tot (units of input spectrum!)]
 1.05448E-13                             [Mini_tot (???)]
 5.38259E-14                             [Mcor_tot (???)]

-217.94                                  [v0_min  (km/s)]
   0.00                                  [vd_min  (km/s)]
-1.0000                                  [AV_min  (mag)]
 0.0000                                  [YAV_min (mag)]

# j     x_j(%)      Mini_j(%)     Mcor_j(%)     age_j(yr)     Z_j      (L/M)_j    YAV?  Mstars   component_j        a/Fe...       SSP_chi2r SSP_adev(%)   SSP_AV   SSP_x(%)
  1      0.0000     0.0000E+00    0.0000E+00    1.000000E+06  0.00400  1.094E-02    0   1.0000   age020_m42            0.0000     1.0585E-05    19.3420   1.9504    94.1672
  2      0.0081     4.5893E-06    8.9898E-06    3.160000E+06  0.00400  4.007E-02    0   0.9999   age045_m42            0.0000     1.0921E-05    19.5307   1.3141    97.0029
  3      0.0000     0.0000E+00    0.0000E+00    5.010000E+06  0.00400  2.539E-02    0   0.9488   age055_m42            0.0000     1.0679E-05    19.4010   1.5973    96.1001
  4      0.6017     5.2304E-04    9.4473E-04    6.610000E+06  0.00400  2.620E-02    0   0.9220   age061_m42            0.0000     1.0818E-05    19.5569   1.2497    96.9619
  5      0.0000     0.0000E+00    0.0000E+00    1.000000E+07  0.00400  1.322E-02    0   0.8862   age070_m42            0.0000     1.0703E-05    20.0771   0.9906    98.8430
  6      0.0000     0.0000E+00    0.0000E+00    1.445000E+07  0.00400  7.883E-03    0   0.8571   age078_m42            0.0000     1.0655E-05    19.9350   1.2926    97.2575
  7      0.0000     0.0000E+00    0.0000E+00    2.512000E+07  0.00400  5.251E-03    0   0.8174   age090_m42            0.0000     1.0719E-05    20.2404   0.8723    99.0164
  8      0.0000     0.0000E+00    0.0000E+00    4.000000E+07  0.00400  3.649E-03    0   0.7851   age104_m42            0.0000     1.0735E-05    20.2345   0.6575    99.2639
  9      0.0002     1.5469E-06    2.3120E-06    5.500000E+07  0.00400  3.098E-03    0   0.7629   age110_m42            0.0000     1.0908E-05    20.0208   0.8125    98.8902
 10      0.0000     0.0000E+00    0.0000E+00    1.015200E+08  0.00400  2.228E-03    0   0.7207   age116_m42            0.0000     1.0977E-05    19.9014   0.8367    98.7177
 11      0.0000     0.0000E+00    0.0000E+00    2.861200E+08  0.00400  1.093E-03    0   0.6648   age125_m42            0.0000     1.0917E-05    20.5161   0.3009   100.3314
 12      0.0000     0.0000E+00    0.0000E+00    5.088000E+08  0.00400  6.597E-04    0   0.6365   age130_m42            0.0000     1.0994E-05    20.2057   0.2992   100.5678
 13      0.0000     0.0000E+00    0.0000E+00    1.434000E+09  0.00400  2.132E-04    0   0.5798   age139_m42            0.0000     1.0453E-05    19.8360  -0.6506   101.3304
 14      4.0102     1.5494E+00    1.6322E+00    4.250000E+09  0.00400  5.895E-05    0   0.5377   age158_m42            0.0000     9.7960E-06    19.8037  -1.0000    95.8810
 15      0.0000     0.0000E+00    0.0000E+00    7.500000E+09  0.00400  3.510E-05    0   0.5212   age171_m42            0.0000     9.9212E-06    21.8196  -1.0000    91.4438
 16      0.0524     5.9580E-02    5.8757E-02    1.300000E+10  0.00400  2.005E-05    0   0.5034   age193_m42            0.0000     1.0246E-05    24.4320  -1.0000    87.5537
 17      0.0000     0.0000E+00    0.0000E+00    1.800000E+10  0.00400  1.525E-05    0   0.4967   age213_m42            0.0000     1.0316E-05    24.9574  -1.0000    86.7634
 18      0.0000     0.0000E+00    0.0000E+00    1.000000E+06  0.00800  1.238E-02    0   1.0000   age020_m52            0.0000     1.0594E-05    19.3317   1.9445    94.3984
 19      0.0000     0.0000E+00    0.0000E+00    3.160000E+06  0.00800  3.074E-02    0   0.9966   age045_m52            0.0000     1.0566E-05    19.2846   1.8750    94.9806
 20      0.0000     0.0000E+00    0.0000E+00    5.010000E+06  0.00800  2.668E-02    0   0.9443   age055_m52            0.0000     1.0587E-05    19.3420   1.6676    95.7507
 21      0.0000     0.0000E+00    0.0000E+00    6.610000E+06  0.00800  2.136E-02    0   0.9177   age061_m52            0.0000     1.0307E-05    19.7523   0.4816   100.1961
 22      1.8957     3.5538E-03    6.1454E-03    1.000000E+07  0.00800  1.215E-02    0   0.8827   age070_m52            0.0000     1.0684E-05    20.2996   1.1611    99.0756
 23      0.0000     0.0000E+00    0.0000E+00    1.445000E+07  0.00800  8.717E-03    0   0.8552   age078_m52            0.0000     1.0644E-05    19.9581   1.2638    98.3434
 24      0.0000     0.0000E+00    0.0000E+00    2.512000E+07  0.00800  5.592E-03    0   0.8162   age090_m52            0.0000     1.0735E-05    20.4047   0.9446    99.9068
 25      0.0000     0.0000E+00    0.0000E+00    4.000000E+07  0.00800  3.896E-03    0   0.7841   age104_m52            0.0000     1.0783E-05    20.3521   0.8655   100.0542
 26      0.0000     0.0000E+00    0.0000E+00    1.015200E+08  0.00800  2.148E-03    0   0.7226   age116_m52            0.0000     1.0757E-05    20.0579   0.8139    99.2536
 27      0.0000     0.0000E+00    0.0000E+00    2.861200E+08  0.00800  9.925E-04    0   0.6683   age125_m52            0.0000     1.0902E-05    20.1412   0.3607   101.6368
 28      1.3088     9.4905E-02    1.1412E-01    9.047900E+08  0.00800  3.141E-04    0   0.6138   age135_m52            0.0000     1.0654E-05    19.8506  -0.4145   104.0334
 29      0.0000     2.5809E-08    2.9593E-08    1.434000E+09  0.00800  1.719E-04    0   0.5853   age139_m52            0.0000     1.0026E-05    19.7657  -1.0000   102.2064
 30      0.0010     2.8979E-04    3.1792E-04    2.500000E+09  0.00800  7.872E-05    0   0.5600   age150_m52            0.0000     9.9996E-06    21.5295  -1.0000    94.2320
 31      0.0000     0.0000E+00    0.0000E+00    4.250000E+09  0.00800  4.336E-05    0   0.5426   age158_m52            0.0000     9.9321E-06    21.6705  -1.0000    93.0428
 32      4.9923     3.5995E+00    3.7507E+00    6.250000E+09  0.00800  3.159E-05    0   0.5319   age166_m52            0.0000     1.0334E-05    24.6827  -1.0000    88.6247
 33      0.0037     6.2652E-03    6.2265E-03    1.300000E+10  0.00800  1.361E-05    0   0.5073   age193_m52            0.0000     1.2472E-05    33.6239  -1.0000    77.7218
 34      0.0258     5.9489E-02    5.8155E-02    1.800000E+10  0.00800  9.886E-06    0   0.4990   age213_m52            0.0000     1.3213E-05    35.3925  -1.0000    74.7985
 35      0.0000     0.0000E+00    0.0000E+00    1.000000E+06  0.02000  1.544E-02    0   1.0000   age020_m62            0.0000     1.0589E-05    19.3283   1.9372    94.7426
 36     21.3482     1.2925E-02    2.4961E-02    3.160000E+06  0.02000  3.762E-02    0   0.9858   age045_m62            0.0000     1.0570E-05    19.2968   1.8736    95.6290
 37      0.0000     0.0000E+00    0.0000E+00    5.010000E+06  0.02000  3.296E-02    0   0.9342   age055_m62            0.0000     1.0702E-05    19.3692   1.5662    96.8833
 38      0.0888     1.7517E-04    3.0409E-04    8.710000E+06  0.02000  1.154E-02    0   0.8861   age067_m62            0.0000     1.0635E-05    22.2071   0.6216   102.8025
 39      0.0000     0.0000E+00    0.0000E+00    1.445000E+07  0.02000  7.663E-03    0   0.8472   age078_m62            0.0000     1.0608E-05    20.9863   0.8195   101.1320
 40      0.1729     8.6871E-04    1.3783E-03    2.512000E+07  0.02000  4.532E-03    0   0.8099   age090_m62            0.0000     1.0600E-05    21.1932   0.8189   100.5464
 41      3.6451     3.0378E-02    4.5199E-02    5.500000E+07  0.02000  2.733E-03    0   0.7595   age110_m62            0.0000     1.0583E-05    20.2259   0.8367    99.7699
 42      0.0000     0.0000E+00    0.0000E+00    1.609000E+08  0.02000  1.369E-03    0   0.6985   age120_m62            0.0000     1.0833E-05    20.0545   0.7001   101.1417
 43      0.0000     0.0000E+00    0.0000E+00    2.861200E+08  0.02000  9.013E-04    0   0.6714   age125_m62            0.0000     1.1035E-05    20.0275   0.4708   102.9506
 44      0.1087     4.9236E-03    6.2204E-03    5.088000E+08  0.02000  5.028E-04    0   0.6449   age130_m62            0.0000     1.1149E-05    19.7606   0.1061   104.5150
 45      0.0000     0.0000E+00    0.0000E+00    9.047900E+08  0.02000  2.428E-04    0   0.6179   age135_m62            0.0000     1.0355E-05    19.4004  -0.4834   103.4750
 46      0.0000     0.0000E+00    0.0000E+00    1.434000E+09  0.02000  1.263E-04    0   0.5908   age139_m62            0.0000     9.9044E-06    19.1529  -0.9447   102.2580
 47      0.0000     0.0000E+00    0.0000E+00    2.500000E+09  0.02000  5.985E-05    0   0.5673   age150_m62            0.0000     9.9610E-06    21.3650  -1.0000    94.7595
 48     22.5754     1.5720E+01    1.6839E+01    4.250000E+09  0.02000  3.271E-05    0   0.5468   age158_m62            0.0000     1.0751E-05    26.0852  -1.0000    87.2566
 49      0.0000     0.0000E+00    0.0000E+00    1.000000E+10  0.02000  1.360E-05    0   0.5167   age181_m62            0.0000     1.2502E-05    32.4107  -1.0000    78.8996
 50     14.7925     4.7294E+01    4.6446E+01    1.800000E+10  0.02000  7.124E-06    0   0.5013   age213_m62            0.0000     1.4106E-05    36.0734  -1.0000    73.3970
 51      2.3359     2.0526E-03    4.0204E-03    1.000000E+06  0.05000  2.592E-02    0   0.9998   age020_m72            0.0000     1.0581E-05    19.3154   1.9239    95.0259
 52      0.0000     0.0000E+00    0.0000E+00    3.160000E+06  0.05000  4.845E-02    0   0.9577   age045_m72            0.0000     1.0550E-05    19.2697   1.7833    95.8579
 53      0.0000     0.0000E+00    0.0000E+00    5.010000E+06  0.05000  3.072E-02    0   0.9147   age055_m72            0.0000     1.0561E-05    20.4394   1.3556    98.6284
 54     11.8923     1.8616E-02    3.2375E-02    6.610000E+06  0.05000  1.455E-02    0   0.8877   age061_m72            0.0000     1.0949E-05    24.4257   0.6523   104.0634
 55      0.1436     3.6040E-04    6.0184E-04    1.000000E+07  0.05000  9.074E-03    0   0.8524   age070_m72            0.0000     1.0699E-05    21.1881   1.5270    98.3600
 56      0.0000     0.0000E+00    0.0000E+00    2.512000E+07  0.05000  4.250E-03    0   0.7902   age090_m72            0.0000     1.0701E-05    20.9595   1.2762    98.5649
 57      0.0000     0.0000E+00    0.0000E+00    4.000000E+07  0.05000  3.087E-03    0   0.7618   age104_m72            0.0000     1.0762E-05    21.2202   1.0674    99.5351
 58      0.0000     0.0000E+00    0.0000E+00    1.015200E+08  0.05000  1.700E-03    0   0.7096   age116_m72            0.0000     1.0843E-05    20.4207   0.8463   100.7622
 59      0.0000     0.0000E+00    0.0000E+00    2.861200E+08  0.05000  7.384E-04    0   0.6633   age125_m72            0.0000     1.1054E-05    19.9027   0.3469   103.6882
 60      0.0000     0.0000E+00    0.0000E+00    5.088000E+08  0.05000  3.819E-04    0   0.6372   age130_m72            0.0000     1.0690E-05    19.4294  -0.1493   104.8594
 61      0.0000     0.0000E+00    0.0000E+00    9.047900E+08  0.05000  1.676E-04    0   0.6110   age135_m72            0.0000     9.9437E-06    19.0004  -0.8723   103.1724
 62      0.0000     0.0000E+00    0.0000E+00    1.434000E+09  0.05000  8.837E-05    0   0.5874   age139_m72            0.0000     1.0002E-05    21.3248  -1.0000    95.7887
 63      6.0331     3.2463E+00    3.5601E+00    2.500000E+09  0.05000  4.233E-05    0   0.5598   age150_m72            0.0000     1.0785E-05    25.9750  -1.0000    87.9458
 64      0.0000     0.0000E+00    0.0000E+00    6.250000E+09  0.05000  1.435E-05    0   0.5249   age166_m72            0.0000     1.3242E-05    34.2236  -1.0000    76.3565
 65      0.0000     0.0000E+00    0.0000E+00    1.300000E+10  0.05000  6.513E-06    0   0.5036   age193_m72            0.0000     1.5688E-05    39.0038  -1.0000    70.4578
 66      5.6240     2.8296E+01    2.7412E+01    1.800000E+10  0.05000  4.527E-06    0   0.4945   age213_m72            0.0000     1.7417E-05    41.5006  -1.0000    66.4734


## Synthesis Results - Average & Chains ##

# j      x_j: min, <> & last-chain-values for 1 ...  7 chains
  1      0.0000      0.1335      0.0939      0.4297      0.0000      0.5087      0.1469      0.2821      0.0116
  2      0.0081      0.2060      1.2196      1.8905      0.0000      0.0000      0.0000      0.9335      0.0000
  3      0.0000      0.2058      1.2036      0.2535      1.3519      0.0000      0.5360      0.0000      0.0669
  4      0.6017      0.2066      0.0679      0.0000      0.5098      1.0057      0.6220      1.9116      0.5363
  5      0.0000      0.1842      0.3941      0.0000      0.5379      0.1648      0.4504      0.1363      1.0062
  6      0.0000      0.2180      0.2699      0.4926      0.5769      0.6087      0.1745      1.4057      0.5666
  7      0.0000      0.2341      0.5922      0.0000      1.3131      0.5748      0.7717      2.1307      0.0267
  8      0.0000      0.1898      0.3727      0.9536      0.7488      0.7481      0.2284      0.0167      0.6114
  9      0.0002      0.1537      0.0000      1.4918      0.6980      0.2218      0.2958      0.4774      0.3269
 10      0.0000      0.1704      0.0000      0.0000      0.0000      0.6806      0.8374      0.0000      0.4446
 11      0.0000      0.2045      0.4678      0.3503      0.0275      0.0019      1.2910      0.5644      1.2043
 12      0.0000      0.2253      0.2300      0.0000      1.5621      0.2972      1.1484      0.0000      0.3567
 13      0.0000      0.1665      0.1875      0.6703      0.2252      0.5749      0.0000      0.4404      0.2090
 14      4.0102      0.2070      0.6856      0.4792      1.1353      0.1233      0.2153      1.7306      0.0543
 15      0.0000      0.1671      0.0000      1.5807      0.4758      0.8959      0.0000      0.1360      0.4601
 16      0.0524      0.2354      1.9044      1.2360      0.0808      0.3438      0.1646      0.6544      0.0000
 17      0.0000      0.2096      0.0000      0.2916      0.0864      0.3832      0.8835      0.0901      0.9873
 18      0.0000      0.2681      0.2298      0.3038      1.8854      0.1696      0.3778      1.7879      0.0000
 19      0.0000      0.1791      0.0000      0.4613      0.0640      0.3371      0.0000      1.4586      1.2609
 20      0.0000      0.1726      0.8927      0.0000      0.6545      0.7363      0.1646      0.5252      0.9113
 21      0.0000      0.1928      0.1514      0.2715      0.5439      0.5342      0.7232      0.0000      0.0000
 22      1.8957      0.2061      0.0000      1.5831      0.0000      0.0000      0.8433      0.4746      0.5482
 23      0.0000      0.2404      2.2097      0.5244      0.2286      2.4620      0.1318      0.0492      0.0000
 24      0.0000      0.2130      0.1551      0.5361      1.0773      0.2562      0.3800      0.0000      0.0000
 25      0.0000      0.1961      0.0000      1.7165      0.7508      1.1974      1.3984      0.0000      0.6852
 26      0.0000      0.1669      0.8124      0.0000      0.2326      0.5764      0.3726      0.3246      0.4704
 27      0.0000      0.2007      0.4150      0.0000      0.0000      1.3056      0.9221      0.0000      0.0000
 28      1.3088      0.6814      0.4171      0.0248      0.2106      0.1004      1.2951      1.0645      0.2044
 29      0.0000      0.2006      0.2267      0.1312      0.3187      0.4304      0.2403      1.1402      0.7985
 30      0.0010      0.1893      0.0000      0.2967      0.2914      0.3077      0.3412      1.2280      0.0000
 31      0.0000      0.2124      0.5400      0.1905      0.3102      0.0000      2.0069      0.3935      0.0000
 32      4.9923      0.2019      0.0000      0.2398      0.0262      0.3158      0.6038      0.4323      0.2863
 33      0.0037      0.2074      0.0441      0.0000      0.5475      1.1367      1.1772      1.0398      0.9587
 34      0.0258      0.1673      0.7938      0.8390      1.1333      1.1129      0.0000      0.4824      0.4860
 35      0.0000      0.2722      0.7341      0.0000      1.5454      0.9610      1.2636      0.0000      0.1079
 36     21.3482      0.2233      0.5021      1.2339      0.5233      0.0448      0.0000      0.4256      0.0000
 37      0.0000      0.2018      1.1260      0.9388      0.0000      0.0000      0.6593      0.0000      0.6645
 38      0.0888      0.1848      0.0213      0.0000      0.4421      0.7611      0.5756      0.7109      0.1036
 39      0.0000      0.2114      0.0000      0.0000      0.5380      0.0523      0.8360      0.0058      0.4381
 40      0.1729      0.1844      0.0000      0.9128      0.0000      0.4135      0.7096      1.1405      0.1575
 41      3.6451      0.2417      0.1217      0.7383      0.1101      0.3084      0.7923      0.7714      0.3696
 42      0.0000      0.2126      0.0000      0.8053      0.6477      0.0000      0.3930      0.7153      0.8678
 43      0.0000      0.1738      0.4639      0.1125      0.3154      0.7965      0.0000      0.2381      0.0000
 44      0.1087      2.8882      1.8904      2.2566      2.1201      2.1481      1.8185      1.3518      1.6035
 45      0.0000     19.3729     19.0527     18.1634     18.2940     19.2232     17.6238     19.2404     18.5598
 46      0.0000      0.1795      0.0000      0.1440      0.3612      0.3022      0.0000      0.6267      1.0787
 47      0.0000      0.2051      0.4844      0.3456      0.0000      0.9158      0.7279      0.2244      1.3048
 48     22.5754      0.2795      1.6158      0.8625      1.2113      0.0511      1.0494      1.7298      0.3927
 49      0.0000      2.7780      2.4410      2.3825      2.6161      2.3566      1.2714      2.5078      2.4862
 50     14.7925     37.2301     27.5140     26.3391     25.6409     27.4513     28.2835     25.7191     29.3884
 51      2.3359      0.1993      1.1894      0.0825      0.0000      0.6153      0.1320      0.7145      0.0626
 52      0.0000      0.1925      1.8207      1.2881      0.4093      1.0162      0.0000      0.0000      0.8942
 53      0.0000      0.1939      1.1035      2.2195      0.5397      0.1782      0.7826      0.1331      0.3637
 54     11.8923      0.1967      0.6545      0.0000      1.0926      0.5858      0.4647      0.5040      0.4021
 55      0.1436      0.1807      0.4856      0.6907      0.8529      0.0000      0.4976      1.3198      0.2573
 56      0.0000      0.2080      0.2362      0.5961      0.0000      0.2889      0.6149      0.0000      0.3433
 57      0.0000      0.2171      0.7178      0.0000      0.0000      0.0098      0.5301      0.1431      0.1186
 58      0.0000      0.2372      1.2357      1.6934      0.8629      1.2650      0.5475      0.0000      0.3749
 59      0.0000      0.1804      0.0000      0.0000      1.2542      0.4086      0.9715      0.0174      0.6410
 60      0.0000      0.1396      0.4837      0.1987      0.8117      0.4252      0.3141      0.1141      0.0000
 61      0.0000     21.3664     16.0081     14.7552     16.4909     16.5501     16.3668     14.9054     19.3129
 62      0.0000      0.1857      0.1275      0.8404      0.5069      0.0000      0.0904      0.3084      0.1554
 63      6.0331      0.1633      0.6767      0.0000      0.0000      0.3103      0.0000      0.7143      0.5860
 64      0.0000      0.1447      0.7828      0.5287      0.0000      0.0000      0.1954      0.2871      0.7097
 65      0.0000      1.7714      1.3031      1.8891      2.2077      1.9513      1.0954      1.9666      1.6745
 66      5.6240      0.1806      0.5281      0.6144      1.0524      0.3239      0.3283      0.4836      0.3220

# j      m_j: min, <> & last-chain-values for 1 ...  7 chains
  1  0.0000E+00  3.9693E-04  3.4689E-04  1.6174E-03  0.0000E+00  1.8714E-03  5.5400E-04  1.0736E-03  4.0676E-05
  2  8.9898E-06  1.6725E-04  1.2296E-03  1.9424E-03  0.0000E+00  0.0000E+00  0.0000E+00  9.6971E-04  0.0000E+00
  3  0.0000E+00  2.5021E-04  1.8172E-03  3.9000E-04  2.0712E-03  0.0000E+00  8.2618E-04  0.0000E+00  9.5557E-05
  4  9.4473E-04  2.3653E-04  9.6475E-05  0.0000E+00  7.3547E-04  1.4245E-03  9.0290E-04  2.8003E-03  7.2104E-04
  5  0.0000E+00  4.0163E-04  1.0673E-03  0.0000E+00  1.4784E-03  4.4459E-04  1.2454E-03  3.8023E-04  2.5771E-03
  6  0.0000E+00  7.7096E-04  1.1858E-03  2.2054E-03  2.5716E-03  2.6638E-03  7.8258E-04  6.3624E-03  2.3538E-03
  7  0.0000E+00  1.1853E-03  3.7247E-03  0.0000E+00  8.3804E-03  3.6014E-03  4.9550E-03  1.3807E-02  1.5853E-04
  8  0.0000E+00  1.3284E-03  3.2397E-03  8.4476E-03  6.6050E-03  6.4782E-03  2.0267E-03  1.4955E-04  5.0256E-03
  9  2.3120E-06  1.2316E-03  0.0000E+00  1.5126E-02  7.0473E-03  2.1981E-03  3.0048E-03  4.8942E-03  3.0754E-03
 10  0.0000E+00  1.7928E-03  0.0000E+00  0.0000E+00  0.0000E+00  8.8604E-03  1.1173E-02  0.0000E+00  5.4951E-03
 11  0.0000E+00  4.0453E-03  1.1495E-02  8.7736E-03  6.8549E-04  4.7126E-05  3.2387E-02  1.4290E-02  2.7985E-02
 12  0.0000E+00  7.0710E-03  8.9666E-03  0.0000E+00  6.1794E-02  1.1540E-02  4.5701E-02  0.0000E+00  1.3150E-02
 13  0.0000E+00  1.4731E-02  2.0599E-02  7.5058E-02  2.5112E-02  6.2922E-02  0.0000E+00  4.9855E-02  2.1721E-02
 14  1.6322E+00  6.1418E-02  2.5266E-01  1.7995E-01  4.2456E-01  4.5255E-02  8.1001E-02  6.5711E-01  1.8935E-02
 15  0.0000E+00  8.0723E-02  0.0000E+00  9.6647E-01  2.8967E-01  5.3541E-01  0.0000E+00  8.4036E-02  2.6104E-01
 16  5.8757E-02  1.9223E-01  1.9318E+00  1.2778E+00  8.3203E-02  3.4738E-01  1.7043E-01  6.8393E-01  0.0000E+00
 17  0.0000E+00  2.2211E-01  0.0000E+00  3.9101E-01  1.1536E-01  5.0236E-01  1.1870E+00  1.2222E-01  1.2286E+00
 18  0.0000E+00  7.0435E-04  7.4980E-04  1.0103E-03  6.2441E-03  5.5130E-04  1.2587E-03  6.0120E-03  0.0000E+00
 19  0.0000E+00  1.8888E-04  0.0000E+00  6.1584E-04  8.5061E-05  4.3989E-04  0.0000E+00  1.9685E-03  1.5618E-03
 20  0.0000E+00  1.9871E-04  1.2766E-03  0.0000E+00  9.4972E-04  1.0488E-03  2.4033E-04  7.7387E-04  1.2324E-03
 21  0.0000E+00  2.6944E-04  2.6289E-04  4.8027E-04  9.5805E-04  9.2377E-04  1.2816E-03  0.0000E+00  0.0000E+00
 22  6.1454E-03  4.8703E-04  0.0000E+00  4.7356E-03  0.0000E+00  0.0000E+00  2.5269E-03  1.4354E-03  1.5215E-03
 23  0.0000E+00  7.6729E-04  8.7586E-03  2.1181E-03  9.1957E-04  9.7214E-03  5.3331E-04  2.0077E-04  0.0000E+00
 24  0.0000E+00  1.0111E-03  9.1468E-04  3.2221E-03  6.4469E-03  1.5051E-03  2.2877E-03  0.0000E+00  0.0000E+00
 25  0.0000E+00  1.2835E-03  0.0000E+00  1.4224E-02  6.1955E-03  9.6988E-03  1.1608E-02  0.0000E+00  5.2684E-03
 26  0.0000E+00  1.8269E-03  1.1041E-02  0.0000E+00  3.2081E-03  7.8039E-03  5.1701E-03  4.5453E-03  6.0466E-03
 27  0.0000E+00  4.3969E-03  1.1289E-02  0.0000E+00  0.0000E+00  3.5382E-02  2.5609E-02  0.0000E+00  0.0000E+00
 28  1.1412E-01  4.3313E-02  3.2927E-02  1.9970E-03  1.6876E-02  7.8931E-03  1.0439E-01  8.6595E-02  1.5261E-02
 29  2.9593E-08  2.2216E-02  3.1190E-02  1.8395E-02  4.4496E-02  5.8986E-02  3.3748E-02  1.6161E-01  1.0388E-01
 30  3.1792E-04  4.3810E-02  0.0000E+00  8.6900E-02  8.5001E-02  8.8086E-02  1.0010E-01  3.6365E-01  0.0000E+00
 31  0.0000E+00  8.6471E-02  2.7302E-01  9.8165E-02  1.5912E-01  0.0000E+00  1.0359E+00  2.0497E-01  0.0000E+00
 32  3.7507E+00  1.1059E-01  0.0000E+00  1.6622E-01  1.8074E-02  2.1398E-01  4.1936E-01  3.0299E-01  1.8417E-01
 33  6.2265E-03  2.5141E-01  6.6361E-02  0.0000E+00  8.3665E-01  1.7053E+00  1.8098E+00  1.6134E+00  1.3654E+00
 34  5.8155E-02  2.7475E-01  1.6188E+00  1.7436E+00  2.3454E+00  2.2610E+00  0.0000E+00  1.0136E+00  9.3720E-01
 35  0.0000E+00  5.7344E-04  1.9209E-03  0.0000E+00  4.1036E-03  2.5052E-03  3.3756E-03  0.0000E+00  2.6705E-04
 36  2.4961E-02  1.9034E-04  5.3161E-04  1.3313E-03  5.6220E-04  4.7208E-05  0.0000E+00  4.6421E-04  0.0000E+00
 37  0.0000E+00  1.8608E-04  1.2895E-03  1.0955E-03  0.0000E+00  0.0000E+00  7.7077E-04  0.0000E+00  7.1962E-04
 38  3.0409E-04  4.6168E-04  6.6217E-05  0.0000E+00  1.3918E-03  2.3521E-03  1.8229E-03  2.2722E-03  3.0390E-04
 39  0.0000E+00  7.6015E-04  0.0000E+00  0.0000E+00  2.4388E-03  2.3255E-04  3.8124E-03  2.6811E-05  1.8505E-03
 40  1.3783E-03  1.0722E-03  0.0000E+00  6.7165E-03  0.0000E+00  2.9744E-03  5.2302E-03  8.4843E-03  1.0752E-03
 41  4.5199E-02  2.1847E-03  1.3662E-03  8.4480E-03  1.2547E-03  3.4494E-03  9.0813E-03  8.9244E-03  3.9246E-03
 42  0.0000E+00  3.5285E-03  0.0000E+00  1.6917E-02  1.3548E-02  0.0000E+00  8.2715E-03  1.5193E-02  1.6917E-02
 43  0.0000E+00  4.2114E-03  1.3962E-02  3.4504E-03  9.6324E-03  2.3879E-02  0.0000E+00  7.3822E-03  0.0000E+00
 44  6.2204E-03  1.2050E-01  9.7962E-02  1.1917E-01  1.1149E-01  1.1089E-01  9.6202E-02  7.2176E-02  7.8579E-02
 45  0.0000E+00  1.6037E+00  1.9590E+00  1.9032E+00  1.9088E+00  1.9690E+00  1.8499E+00  2.0383E+00  1.8046E+00
 46  0.0000E+00  2.7318E-02  0.0000E+00  2.7740E-02  6.9270E-02  5.6896E-02  0.0000E+00  1.2204E-01  1.9278E-01
 47  0.0000E+00  6.3226E-02  1.8550E-01  1.3486E-01  0.0000E+00  3.4937E-01  2.8458E-01  8.8526E-02  4.7252E-01
 48  1.6839E+01  1.5198E-01  1.0913E+00  5.9368E-01  8.3016E-01  3.4405E-02  7.2358E-01  1.2037E+00  2.5084E-01
 49  0.0000E+00  3.4332E+00  3.7469E+00  3.7269E+00  4.0751E+00  3.6035E+00  1.9923E+00  3.9662E+00  3.6089E+00
 50  4.6446E+01  8.5219E+01  7.8223E+01  7.6313E+01  7.3974E+01  7.7746E+01  8.2091E+01  7.5338E+01  7.9012E+01
 51  4.0204E-03  2.5006E-04  1.8536E-03  1.3101E-04  0.0000E+00  9.5519E-04  2.1002E-04  1.1473E-03  9.2197E-05
 52  0.0000E+00  1.2377E-04  1.4541E-03  1.0484E-03  3.3174E-04  8.0848E-04  0.0000E+00  0.0000E+00  6.7535E-04
 53  0.0000E+00  1.8784E-04  1.3276E-03  2.7211E-03  6.5884E-04  2.1360E-04  9.6111E-04  1.6494E-04  4.1378E-04
 54  3.2375E-02  3.9037E-04  1.6134E-03  0.0000E+00  2.7329E-03  1.4386E-03  1.1693E-03  1.2799E-03  9.3737E-04
 55  6.0184E-04  5.5206E-04  1.8431E-03  2.6716E-03  3.2849E-03  0.0000E+00  1.9279E-03  5.1612E-03  9.2348E-04
 56  0.0000E+00  1.2579E-03  1.7745E-03  4.5635E-03  0.0000E+00  2.1621E-03  4.7154E-03  0.0000E+00  2.4389E-03
 57  0.0000E+00  1.7427E-03  7.1568E-03  0.0000E+00  0.0000E+00  9.7752E-05  5.3955E-03  1.4697E-03  1.1181E-03
 58  0.0000E+00  3.2205E-03  2.0839E-02  2.9104E-02  1.4768E-02  2.1252E-02  9.4262E-03  0.0000E+00  5.9784E-03
 59  0.0000E+00  5.2724E-03  0.0000E+00  0.0000E+00  4.6192E-02  1.4774E-02  3.5994E-02  6.5099E-04  2.2000E-02
 60  0.0000E+00  7.5765E-03  3.2604E-02  1.3648E-02  5.5526E-02  2.8554E-02  2.1618E-02  7.9276E-03  0.0000E+00
 61  0.0000E+00  2.5338E+00  2.3578E+00  2.2148E+00  2.4648E+00  2.4283E+00  2.4610E+00  2.2620E+00  2.6900E+00
 62  0.0000E+00  4.0155E-02  3.4254E-02  2.3002E-01  1.3813E-01  0.0000E+00  2.4785E-02  8.5322E-02  3.9462E-02
 63  3.5601E+00  7.0243E-02  3.6156E-01  0.0000E+00  0.0000E+00  1.6518E-01  0.0000E+00  3.9321E-01  2.9608E-01
 64  0.0000E+00  1.7212E-01  1.1568E+00  7.9623E-01  0.0000E+00  0.0000E+00  2.9484E-01  4.3722E-01  9.9189E-01
 65  0.0000E+00  4.4555E+00  4.0708E+00  6.0143E+00  6.9986E+00  6.0725E+00  3.4935E+00  6.3301E+00  4.9470E+00
 66  2.7412E+01  6.4182E-01  2.3307E+00  2.7632E+00  4.7131E+00  1.4238E+00  1.4790E+00  2.1988E+00  1.3437E+00

# AV, chi2 & Mass for <> & i_chain = 1 ...  7 solutions
AV      -1.0000     -0.9867     -1.0000     -1.0000     -1.0000     -1.0000     -1.0000     -1.0000     -1.0000
chi2 9.6680E-06  1.0569E-05  9.8808E-06  9.8802E-06  9.8926E-06  9.9072E-06  9.9054E-06  9.8748E-06  1.0011E-05
Mass 5.3826E-14  7.5165E-14  5.9446E-14  5.8331E-14  5.8581E-14  5.9674E-14  5.8229E-14  5.7695E-14  6.2862E-14
-217.94                                  [v0_min (km/s) before EX0s...]
   0.00                                  [vd_min (km/s) before EX0s...]


## Synthetic spectrum (Best Model) ##l_obs f_obs f_syn wei
 3478    [Nl_obs]
 3741.00    1.02826   0.76537    0.000
 3742.00    0.85790   0.73116    0.000
 3743.00    0.64567   0.70035    0.000
 3744.00    0.44792   0.67492    0.000
 3745.00    0.25862   0.62701   -1.000
 3746.00    0.12837   0.56572   -1.000
 3747.00    0.02810   0.55514   -1.000
 3748.00   -0.14274   0.61868    0.000
 3749.00   -0.34462   0.70520    0.000
 3750.00   -0.10700   0.77374    0.000
 3751.00    0.29655   0.83234   -1.000
 3752.00    0.29077   0.87964   -1.000
 3753.00    0.15381   0.88391   -1.000
 3754.00    0.44803   0.82874   -1.000
 3755.00    0.85780   0.76259   -1.000
 3756.00    0.91549   0.74676   -1.000
 3757.00    0.89590   0.77769   -1.000
 3758.00    0.57928   0.81348   -1.000
 3759.00    0.21079   0.82388   -1.000
 3760.00   -0.09465   0.80985    0.000
 3761.00   -0.39172   0.80135    0.000
 3762.00   -0.25903   0.80742    0.000
 3763.00   -0.08596   0.78852    0.000
 3764.00    0.03082   0.74706   -1.000
 3765.00    0.14436   0.72997   -1.000
 3766.00    0.04009   0.72374   -1.000
 3767.00   -0.06513   0.69437    0.000
 3768.00    0.33975   0.68569   -1.000
 3769.00    0.72127   0.73485   -1.000
 3770.00    0.53528   0.79604   -1.000
 3771.00    0.34482   0.82717   -1.000
 3772.00    0.09573   0.84162   -1.000
 3773.00   -0.08693   0.85931    0.000
 3774.00    0.31366   0.87608   -1.000
 3775.00    0.70916   0.88614   -1.000
 3776.00    1.07166   0.90682   -1.000
 3777.00    1.37421   0.93861   -1.000
 3778.00    1.37335   0.95438   -1.000
 3779.00    1.31841   0.95298   -1.000
 3780.00    1.04208   0.95736   -1.000
 3781.00    0.82143   0.96505   -1.000
 3782.00    0.78960   0.94125   -1.000
 3783.00    0.71114   0.88327   -1.000
 3784.00    0.49930   0.83841   -1.000
 3785.00    0.30545   0.81992   -1.000
 3786.00    0.15554   0.80706   -1.000
 3787.00    0.03815   0.80211   -1.000
 3788.00   -0.01070   0.81349    0.000
 3789.00   -0.11814   0.81775    0.000
 3790.00   -0.33288   0.79195    0.000
 3791.00   -0.54618   0.74640    0.000
 3792.00   -0.75714   0.70378    0.000
 3793.00   -0.66877   0.66618    0.000
 3794.00   -0.15997   0.61345    0.000
 3795.00    0.15835   0.56612   -1.000
 3796.00    0.24125   0.58136   -1.000
 3797.00    0.19428   0.65912   -1.000
 3798.00    0.00580   0.74194   -1.000
 3799.00   -0.29792   0.80125    0.000
 3800.00   -0.71239   0.84845    0.000
 3801.00   -1.04501   0.87923    0.000
 3802.00   -1.30828   0.87842    0.000
 3803.00   -1.09145   0.84766    0.000
 3804.00   -0.51636   0.82494    0.000
 3805.00   -0.03668   0.84615    0.000
 3806.00    0.38046   0.88892   -1.000
 3807.00    0.48189   0.91747   -1.000
 3808.00    0.40216   0.92178   -1.000
 3809.00    0.32300   0.89973   -1.000
 3810.00    0.24412   0.85718   -1.000
 3811.00    0.17484   0.81664   -1.000
 3812.00    0.10970   0.78613   -1.000
 3813.00    0.33188   0.77532   -1.000
 3814.00    0.66062   0.79419   -1.000
 3815.00    0.59195   0.79579   -1.000
 3816.00    0.39835   0.73669   -1.000
 3817.00   -0.03727   0.67499    0.000
 3818.00   -0.53638   0.68919    0.000
 3819.00   -0.21380   0.75183    0.000
 3820.00    0.28483   0.78387   -1.000
 3821.00   -0.00776   0.75879    0.000
 3822.00   -0.43463   0.71849    0.000
 3823.00    0.02091   0.70017   -1.000
 3824.00    0.58968   0.69996   -1.000
 3825.00    0.81478   0.70172   -1.000
 3826.00    1.00903   0.70193   -1.000
 3827.00    0.49386   0.70099   -1.000
 3828.00   -0.05944   0.68019    0.000
 3829.00   -0.18178   0.62944    0.000
 3830.00   -0.29281   0.57372    0.000
 3831.00   -0.17864   0.53052    0.000
 3832.00   -0.06781   0.51202    0.000
 3833.00   -0.03106   0.53046    0.000
 3834.00   -0.01834   0.56165    0.000
 3835.00   -0.30452   0.58136    0.000
 3836.00   -0.50596   0.60410    0.000
 3837.00    0.00890   0.63490   -1.000
 3838.00    0.48588   0.67686   -1.000
 3839.00    0.72457   0.73518   -1.000
 3840.00    0.90775   0.78232   -1.000
 3841.00    0.81699   0.80549   -1.000
 3842.00    0.71105   0.81166   -1.000
 3843.00    0.54427   0.81298   -1.000
 3844.00    0.37510   0.82413   -1.000
 3845.00    0.19792   0.83075   -1.000
 3846.00    0.07173   0.81041   -1.000
 3847.00    0.08869   0.78567    0.000
 3848.00    0.08744   0.79643    0.000
 3849.00    0.04249   0.82612    0.000
 3850.00   -0.05388   0.83014    0.000
 3851.00   -0.25684   0.81327    0.000
 3852.00   -0.29873   0.79261    0.000
 3853.00   -0.05009   0.77475    0.000
 3854.00    0.22416   0.77299    0.000
 3855.00    0.53878   0.76537    0.000
 3856.00    0.54457   0.73506    0.000
 3857.00    0.12282   0.71880    0.000
 3858.00   -0.15255   0.74722    0.000
 3859.00   -0.24958   0.79941    0.000
 3860.00   -0.19083   0.83037    0.000
 3861.00    0.03523   0.82721    0.000
 3862.00    0.11112   0.81209    0.000
 3863.00    0.04470   0.80342    0.000
 3864.00    0.05280   0.79734    0.000
 3865.00    0.12314   0.79555    0.000
 3866.00    0.25633   0.79572    0.000
 3867.00    0.43574   0.77714    0.000
 3868.00    0.52175   0.74219    0.000
 3869.00    0.54743   0.71786    0.000
 3870.00    0.61534   0.73490    0.000
 3871.00    0.70711   0.78496    0.000
 3872.00    0.69432   0.81970    0.000
 3873.00    0.63008   0.81158    0.000
 3874.00    0.47470   0.77487    0.000
 3875.00    0.28056   0.73709    0.000
 3876.00    0.11245   0.73662    0.000
 3877.00   -0.04617   0.75990    0.000
 3878.00    0.10053   0.75042    0.000
 3879.00    0.34136   0.71944    0.000
 3880.00    0.55165   0.72458    0.000
 3881.00    0.75411   0.74937   -1.000
 3882.00    0.71339   0.72028   -1.000
 3883.00    0.62184   0.64691   -1.000
 3884.00    0.06885   0.59320   -1.000
 3885.00   -0.56024   0.55987    0.000
 3886.00   -0.27413   0.54630    0.000
 3887.00    0.12533   0.59264   -1.000
 3888.00    0.26441   0.67953   -1.000
 3889.00    0.38122   0.75296   -1.000
 3890.00    0.11312   0.79000   -1.000
 3891.00   -0.17417   0.79737    0.000
 3892.00   -0.00914   0.79086    0.000
 3893.00    0.15762   0.80312   -1.000
 3894.00   -0.04166   0.83243    0.000
 3895.00   -0.23226   0.83406    0.000
 3896.00   -0.24520   0.81521    0.000
 3897.00   -0.22585   0.81996    0.000
 3898.00    0.17547   0.85196   -1.000
 3899.00    0.49318   0.85920   -1.000
 3900.00    0.12970   0.83994   -1.000
 3901.00   -0.14932   0.83118    0.000
 3902.00    0.08745   0.81423   -1.000
 3903.00    0.33413   0.80005   -1.000
 3904.00    0.62851   0.82750   -1.000
 3905.00    0.81545   0.87404   -1.000
 3906.00    0.58157   0.90211   -1.000
 3907.00    0.44881   0.90719   -1.000
 3908.00    0.64563   0.90867   -1.000
 3909.00    0.72849   0.91468   -1.000
 3910.00    0.49711   0.91468   -1.000
 3911.00    0.35908   0.90881   -1.000
 3912.00    0.44149   0.90415   -1.000
 3913.00    0.56528   0.88997   -1.000
 3914.00    0.77353   0.87510   -1.000
 3915.00    0.84920   0.85699   -1.000
 3916.00    0.68939   0.82043   -1.000
 3917.00    0.50946   0.77885   -1.000
 3918.00    0.29828   0.76181   -1.000
 3919.00    0.28614   0.77496   -1.000
 3920.00    0.54560   0.79272   -1.000
 3921.00    0.75902   0.80365   -1.000
 3922.00    0.91715   0.79372   -1.000
 3923.00    0.70625   0.76144   -1.000
 3924.00    0.10454   0.72566   -1.000
 3925.00    0.04113   0.69049   -1.000
 3926.00    0.48060   0.65965   -1.000
 3927.00    0.45079   0.63413   -1.000
 3928.00    0.03451   0.60703   -1.000
 3929.00    0.14554   0.57699   -1.000
 3930.00    0.63884   0.54925   -1.000
 3931.00    0.73199   0.54005   -1.000
 3932.00    0.57047   0.55726   -1.000
 3933.00    0.45391   0.59229   -1.000
 3934.00    0.36236   0.63420   -1.000
 3935.00    0.29398   0.67654   -1.000
 3936.00    0.23682   0.71841   -1.000
 3937.00    0.29068   0.74921   -1.000
 3938.00    0.39095   0.76014   -1.000
 3939.00    0.30142   0.76051   -1.000
 3940.00    0.14400   0.74896   -1.000
 3941.00    0.20920   0.73727   -1.000
 3942.00    0.34169   0.76662   -1.000
 3943.00    0.59213   0.82231   -1.000
 3944.00    0.87220   0.84032   -1.000
 3945.00    0.80113   0.82751   -1.000
 3946.00    0.65845   0.83738   -1.000
 3947.00    0.45520   0.87207   -1.000
 3948.00    0.24226   0.88806   -1.000
 3949.00    0.36157   0.86449   -1.000
 3950.00    0.52055   0.84902   -1.000
 3951.00    0.61078   0.87173   -1.000
 3952.00    0.69540   0.87904   -1.000
 3953.00    0.64012   0.84750   -1.000
 3954.00    0.57841   0.82762   -1.000
 3955.00    0.67631   0.84063   -1.000
 3956.00    0.77528   0.85257   -1.000
 3957.00    0.82357   0.81813   -1.000
 3958.00    0.85501   0.73788   -1.000
 3959.00    0.56736   0.67599   -1.000
 3960.00    0.30553   0.65715    0.000
 3961.00    0.33480   0.63605    0.000
 3962.00    0.35969   0.59467    0.000
 3963.00    0.35014   0.54356    0.000
 3964.00    0.33500   0.48436    0.000
 3965.00    0.28666   0.42572    0.000
 3966.00    0.23647   0.38361    0.000
 3967.00    0.17764   0.38198    0.000
 3968.00    0.23335   0.43370    0.000
 3969.00    0.72806   0.50851    0.000
 3970.00    0.96661   0.57364    0.000
 3971.00    0.38638   0.63536    0.000
 3972.00    0.04177   0.69827    0.000
 3973.00    0.33529   0.74425    0.000
 3974.00    0.68407   0.77896    0.000
 3975.00    1.16117   0.81912    0.000
 3976.00    1.36788   0.86078    0.000
 3977.00    1.03148   0.89140    0.000
 3978.00    0.88480   0.89305    0.000
 3979.00    1.06996   0.87371    0.000
 3980.00    1.03434   0.86452    0.000
 3981.00    0.66071   0.87546   -1.000
 3982.00    0.64095   0.89748   -1.000
 3983.00    1.09711   0.91024   -1.000
 3984.00    1.28867   0.92255   -1.000
 3985.00    1.16688   0.94830   -1.000
 3986.00    0.97347   0.94714   -1.000
 3987.00    0.70525   0.92773   -1.000
 3988.00    0.60123   0.93436   -1.000
 3989.00    0.64844   0.95528   -1.000
 3990.00    0.66856   0.96562   -1.000
 3991.00    0.66669   0.95228   -1.000
 3992.00    0.88638   0.93193   -1.000
 3993.00    1.26436   0.91662   -1.000
 3994.00    1.34325   0.90020   -1.000
 3995.00    1.23460   0.90188   -1.000
 3996.00    1.03270   0.94339   -1.000
 3997.00    0.77969   0.98286   -1.000
 3998.00    0.87375   0.98868   -1.000
 3999.00    1.13313   0.99452   -1.000
 4000.00    1.00727   1.00284   -1.000
 4001.00    0.72309   0.96313   -1.000
 4002.00    0.37478   0.88528   -1.000
 4003.00    0.00396   0.85922   -1.000
 4004.00    0.00217   0.90147   -1.000
 4005.00    0.10972   0.93945   -1.000
 4006.00    0.37582   0.94542   -1.000
 4007.00    0.68086   0.95153   -1.000
 4008.00    0.65365   0.96733   -1.000
 4009.00    0.56037   0.97739   -1.000
 4010.00    0.73270   0.98521   -1.000
 4011.00    0.94630   0.99099   -1.000
 4012.00    0.60342   1.00398   -1.000
 4013.00    0.19656   1.00701   -1.000
 4014.00    0.47166   0.98290   -1.000
 4015.00    0.79950   0.97834   -1.000
 4016.00    0.99682   1.00753   -1.000
 4017.00    1.18864   1.01609   -1.000
 4018.00    1.33598   0.99690   -1.000
 4019.00    1.47090   0.98341   -1.000
 4020.00    1.07950   0.97267   -1.000
 4021.00    0.73698   0.94069   -1.000
 4022.00    1.25639   0.90565   -1.000
 4023.00    1.70263   0.90732   -1.000
 4024.00    1.36160   0.95168   -1.000
 4025.00    1.06307   1.00255   -1.000
 4026.00    1.08715   1.00185   -1.000
 4027.00    1.07082   0.93427   -1.000
 4028.00    0.82143   0.87143   -1.000
 4029.00    0.66411   0.85444   -1.000
 4030.00    0.92880   0.84987   -1.000
 4031.00    1.09667   0.85884   -1.000
 4032.00    0.90138   0.89420   -1.000
 4033.00    0.82051   0.95560   -1.000
 4034.00    1.09830   1.01709   -1.000
 4035.00    1.26263   1.04214   -1.000
 4036.00    1.12513   1.02782   -1.000
 4037.00    0.98604   0.99309   -1.000
 4038.00    0.84331   0.97400   -1.000
 4039.00    0.77554   0.98988   -1.000
 4040.00    0.85594   0.97974   -1.000
 4041.00    1.01591   0.89691   -1.000
 4042.00    1.31297   0.79483   -1.000
 4043.00    1.36675   0.77230   -1.000
 4044.00    1.05353   0.85510   -1.000
 4045.00    0.83458   0.94431   -1.000
 4046.00    0.74059   0.98228   -1.000
 4047.00    0.79366   1.00269   -1.000
 4048.00    1.01841   1.00937   -1.000
 4049.00    0.99408   0.98962   -1.000
 4050.00    0.71329   0.96414   -1.000
 4051.00    0.61678   0.93869   -1.000
 4052.00    0.68761   0.91956   -1.000
 4053.00    0.81941   0.91823   -1.000
 4054.00    1.00000   0.90244   -1.000
 4055.00    1.11303   0.88205   -1.000
 4056.00    1.17848   0.90311   -1.000
 4057.00    1.17151   0.94704   -1.000
 4058.00    1.11982   0.95854   -1.000
 4059.00    1.18039   0.90387   -1.000
 4060.00    1.30153   0.81894   -1.000
 4061.00    1.08818   0.80231   -1.000
 4062.00    0.71805   0.86749   -1.000
 4063.00    0.72727   0.90602   -1.000
 4064.00    0.88975   0.89910   -1.000
 4065.00    0.88599   0.91851   -1.000
 4066.00    0.82492   0.95563   -1.000
 4067.00    0.99349   0.93842   -1.000
 4068.00    1.22874   0.86401   -1.000
 4069.00    1.27623   0.83610   -1.000
 4070.00    1.27862   0.90070   -1.000
 4071.00    1.17322   0.95058   -1.000
 4072.00    1.04693   0.92111   -1.000
 4073.00    1.14109   0.85388   -1.000
 4074.00    1.26847   0.80721   -1.000
 4075.00    1.15602   0.81787   -1.000
 4076.00    1.01704   0.87512   -1.000
 4077.00    1.14042   0.94473    0.054
 4078.00    1.28301   0.99451    0.026
 4079.00    1.03983   0.99112    0.025
 4080.00    0.78188   0.95026    0.025
 4081.00    0.26092   0.91894    0.025
 4082.00   -0.23117   0.91367    0.000
 4083.00    0.41946   0.93453    0.026
 4084.00    1.05808   0.97453    0.026
 4085.00    1.49876   1.00337    0.026
 4086.00    1.82831   1.00317    0.027
 4087.00    1.01420   0.99116    0.026
 4088.00    0.40874   0.97556    0.026
 4089.00    1.33438   0.95256    0.026
 4090.00    2.04008   0.95006    0.026
 4091.00    1.51191   0.95231    0.026
 4092.00    1.15954   0.90428    0.000
 4093.00    1.59389   0.84055    0.000
 4094.00    1.68565   0.81242    0.000
 4095.00    0.51922   0.80854    0.000
 4096.00   -0.23283   0.78947    0.000
 4097.00    0.28951   0.71964    0.000
 4098.00    0.76267   0.62720    0.000
 4099.00    1.10728   0.61099    0.000
 4100.00    1.21524   0.68259    0.000
 4101.00    0.79171   0.75912    0.000
 4102.00    0.56420   0.82095    0.000
 4103.00    0.71815   0.87753    0.000
 4104.00    0.77527   0.90406    0.000
 4105.00    0.66812   0.90464    0.000
 4106.00    0.66933   0.89355    0.000
 4107.00    0.83164   0.87890    0.000
 4108.00    0.89789   0.87470    0.000
 4109.00    0.83863   0.88778    0.000
 4110.00    0.65498   0.91787    0.000
 4111.00    0.32813   0.94174    0.000
 4112.00    0.39694   0.94641    0.000
 4113.00    0.86736   0.95165    0.023
 4114.00    1.11639   0.95047    0.031
 4115.00    1.16719   0.91180    0.103
 4116.00    0.92798   0.87148   -1.000
 4117.00    0.45996   0.87609   -1.000
 4118.00    0.36783   0.89175   -1.000
 4119.00    0.53653   0.89660   -1.000
 4120.00    0.84826   0.90568   -1.000
 4121.00    1.24700   0.93133   -1.000
 4122.00    1.37530   0.95525    0.072
 4123.00    1.35993   0.94541    0.028
 4124.00    0.84150   0.91695    0.024
 4125.00    0.09111   0.89624    0.024
 4126.00    0.18279   0.89476    0.024
 4127.00    0.60883   0.89099    0.024
 4128.00    0.47481   0.86464    0.024
 4129.00    0.15124   0.82551    0.024
 4130.00    0.35696   0.81828    0.024
 4131.00    0.71327   0.84248    0.024
 4132.00    0.46019   0.89005    0.024
 4133.00    0.06403   0.93671    0.023
 4134.00    0.49135   0.94174    0.024
 4135.00    1.07411   0.94192    0.024
 4136.00    1.25541   0.95315    0.025
 4137.00    1.37808   0.95524    0.025
 4138.00    1.15831   0.93246    0.025
 4139.00    0.90215   0.85541    0.024
 4140.00    0.61906   0.75893    0.024
 4141.00    0.33412   0.74704    0.023
 4142.00    0.76989   0.82605    0.024
 4143.00    1.23052   0.89210    0.024
 4144.00    1.42355   0.91245    0.024
 4145.00    1.60222   0.91007    0.024
 4146.00    1.32397   0.88699    0.024
 4147.00    1.04122   0.86704    0.024
 4148.00    0.68905   0.87185    0.024
 4149.00    0.34829   0.87336    0.024
 4150.00    0.12002   0.86254    0.024
 4151.00   -0.00501   0.85082    0.000
 4152.00    0.60287   0.85110    0.023
 4153.00    1.04250   0.85050    0.023
 4154.00    0.56370   0.85690    0.023
 4155.00    0.21644   0.88979    0.022
 4156.00    0.44418   0.92020    0.022
 4157.00    0.59589   0.92565    0.023
 4158.00    0.47414   0.92200    0.022
 4159.00    0.41389   0.93802    0.022
 4160.00    0.53923   0.95090    0.022
 4161.00    0.57481   0.93312    0.022
 4162.00    0.37991   0.91421    0.021
 4163.00    0.25742   0.89931    0.021
 4164.00    0.29489   0.87309    0.021
 4165.00    0.36185   0.86932    0.021
 4166.00    0.48532   0.89700    0.021
 4167.00    0.46319   0.91107    0.021
 4168.00    0.19772   0.88019    0.021
 4169.00    0.13108   0.81886    0.021
 4170.00    0.35570   0.78965    0.022
 4171.00    0.57508   0.81145    0.022
 4172.00    0.78771   0.84136    0.022
 4173.00    0.94655   0.85167    0.022
 4174.00    1.04435   0.84306    0.022
 4175.00    1.05610   0.84017    0.022
 4176.00    0.98173   0.86171    0.022
 4177.00    0.73738   0.88012    0.022
 4178.00    0.34300   0.86855    0.022
 4179.00    0.37418   0.85183    0.022
 4180.00    0.73634   0.86151    0.021
 4181.00    0.83394   0.88934    0.021
 4182.00    0.75061   0.91207    0.021
 4183.00    0.72668   0.88861    0.021
 4184.00    0.73836   0.83379    0.022
 4185.00    0.67813   0.83029    0.022
 4186.00    0.58028   0.87120    0.021
 4187.00    0.76722   0.88807    0.021
 4188.00    1.08332   0.87836    0.022
 4189.00    1.07086   0.89342    0.022
 4190.00    0.93019   0.93124    0.022
 4191.00    0.88649   0.92699    0.022
 4192.00    0.87502   0.87640    0.022
 4193.00    0.91710   0.83385    0.022
 4194.00    0.97410   0.81514    0.022
 4195.00    1.04772   0.79760    0.022
 4196.00    1.12516   0.79706    0.022
 4197.00    1.03650   0.81674    0.022
 4198.00    0.91732   0.81357    0.023
 4199.00    0.73869   0.80456    0.022
 4200.00    0.55166   0.83046    0.022
 4201.00    0.68797   0.86081    0.022
 4202.00    0.85726   0.87645    0.021
 4203.00    0.81402   0.89680    0.021
 4204.00    0.75694   0.91769    0.021
 4205.00    0.74373   0.92889    0.021
 4206.00    0.73229   0.91653    0.021
 4207.00    0.98231   0.89508    0.021
 4208.00    1.20868   0.90050    0.021
 4209.00    0.73997   0.91875    0.021
 4210.00    0.32362   0.91226    0.021
 4211.00    0.66937   0.87276    0.021
 4212.00    0.99577   0.81935    0.022
 4213.00    1.13908   0.81760    0.022
 4214.00    1.25211   0.88516    0.022
 4215.00    1.15699   0.94068    0.021
 4216.00    1.00230   0.95494    0.021
 4217.00    0.53100   0.96099    0.021
 4218.00    0.19687   0.96057    0.021
 4219.00    0.44865   0.92609    0.021
 4220.00    0.62467   0.87132    0.021
 4221.00    0.53379   0.81256    0.020
 4222.00    0.44392   0.73538    0.020
 4223.00    0.35708   0.65229    0.020
 4224.00    0.22923   0.64066    0.020
 4225.00   -0.00212   0.73978    0.000
 4226.00   -0.12763   0.85121    0.000
 4227.00   -0.02317   0.90734    0.000
 4228.00    0.17528   0.92973    0.020
 4229.00    0.55096   0.90904    0.019
 4230.00    0.80285   0.86564    0.019
 4231.00    0.85096   0.85788    0.019
 4232.00    0.65399   0.85391    0.018
 4233.00    0.10324   0.82876    0.018
 4234.00   -0.22388   0.83315    0.000
 4235.00   -0.26708   0.85443    0.000
 4236.00   -0.07543   0.86040    0.000
 4237.00    0.37897   0.87407    0.018
 4238.00    0.54808   0.90368    0.018
 4239.00    0.43569   0.91513    0.018
 4240.00    0.41172   0.92198    0.018
 4241.00    0.46469   0.95806    0.018
 4242.00    0.66358   0.97533    0.018
 4243.00    0.97435   0.93965    0.019
 4244.00    1.01629   0.88950    0.019
 4245.00    0.87708   0.85931    0.019
 4246.00    0.81572   0.83653    0.019
 4247.00    0.80033   0.80705    0.019
 4248.00    0.77584   0.81851    0.019
 4249.00    0.74666   0.86439    0.020
 4250.00    0.70668   0.85970    0.020
 4251.00    0.66189   0.81299    0.019
 4252.00    0.65482   0.81108    0.019
 4253.00    0.66222   0.87022    0.019
 4254.00    0.99307   0.91834    0.020
 4255.00    1.42933   0.89380    0.020
 4256.00    1.43338   0.82861    0.020
 4257.00    1.31946   0.77990    0.020
 4258.00    0.75087   0.78851    0.020
 4259.00    0.08039   0.86066    0.020
 4260.00    0.49282   0.93114    0.020
 4261.00    1.09891   0.95719    0.020
 4262.00    1.21142   0.96174    0.020
 4263.00    1.25639   0.94945    0.021
 4264.00    0.91918   0.90764    0.021
 4265.00    0.54465   0.87366    0.020
 4266.00    0.52945   0.85554    0.020
 4267.00    0.53624   0.80661    0.020
 4268.00    0.55778   0.73328    0.020
 4269.00    0.58241   0.71143    0.020
 4270.00    1.13549   0.74730    0.020
 4271.00    1.65284   0.76019    0.020
 4272.00    1.22574   0.76822    0.020
 4273.00    0.84019   0.82468    0.020
 4274.00    1.02589   0.89200    0.020
 4275.00    1.15414   0.92683    0.020
 4276.00    0.76043   0.90921    0.020
 4277.00    0.40485   0.86051    0.020
 4278.00    0.30324   0.84436    0.020
 4279.00    0.26174   0.85572    0.020
 4280.00    0.53146   0.86648    0.020
 4281.00    0.83408   0.86736    0.020
 4282.00    1.27403   0.84266   -2.000
 4283.00    1.66799   0.82859   -2.000
 4284.00    1.90321   0.83833   -2.000
 4285.00    1.96445   0.81964   -2.000
 4286.00    1.51997   0.75899   -2.000
 4287.00    1.16231   0.72446   -2.000
 4288.00    1.01996   0.75845   -2.000
 4289.00    0.82872   0.82362   -2.000
 4290.00    0.53293   0.85737   -2.000
 4291.00    0.39690   0.83745   -2.000
 4292.00    0.55751   0.82313   -2.000
 4293.00    0.76551   0.82487   -2.000
 4294.00    1.05036   0.80171   -2.000
 4295.00    1.13022   0.75122   -2.000
 4296.00    0.91846   0.68793   -2.000
 4297.00    0.67914   0.66170   -2.000
 4298.00    0.40533   0.68600    0.020
 4299.00    0.37645   0.70055    0.019
 4300.00    0.61776   0.69954    0.019
 4301.00    0.62010   0.71165    0.019
 4302.00    0.38995   0.71384    0.019
 4303.00    0.35240   0.69501    0.019
 4304.00    0.48011   0.65993    0.019
 4305.00    0.52776   0.62785    0.019
 4306.00    0.51492   0.63731    0.019
 4307.00    0.56756   0.67953    0.019
 4308.00    0.66370   0.72420    0.019
 4309.00    0.62632   0.76108    0.019
 4310.00    0.51131   0.79070    0.018
 4311.00    0.56723   0.81677    0.018
 4312.00    0.70979   0.87363    0.018
 4313.00    0.83454   0.96178    0.018
 4314.00    0.95147   1.00671    0.018
 4315.00    0.94184   0.99602    0.018
 4316.00    0.88454   0.97308    0.018
 4317.00    0.93456   0.95112    0.018
 4318.00    1.01889   0.92950    0.017
 4319.00    0.83974   0.90680    0.018
 4320.00    0.59017   0.84418    0.018
 4321.00    0.66927   0.75113    0.018
 4322.00    0.82029   0.68256    0.018
 4323.00    0.84618   0.69580    0.018
 4324.00    0.85031   0.80200    0.018
 4325.00    0.96162   0.91243    0.018
 4326.00    1.08710   0.95026    0.018
 4327.00    1.19815   0.92766    0.018
 4328.00    1.30786   0.90997    0.018
 4329.00    1.23982   0.91958    0.018
 4330.00    1.16162   0.92920    0.000
 4331.00    1.22131   0.93831    0.000
 4332.00    1.28115   0.94263    0.000
 4333.00    0.98972   0.89435    0.000
 4334.00    0.72024   0.78491    0.000
 4335.00    0.97756   0.68948    0.000
 4336.00    1.23795   0.62816    0.000
 4337.00    1.53824   0.58704    0.000
 4338.00    1.78212   0.62497    0.000
 4339.00    1.53323   0.72855    0.000
 4340.00    1.28442   0.79399    0.000
 4341.00    1.03617   0.81905    0.000
 4342.00    0.84175   0.85725    0.000
 4343.00    0.91893   0.88209    0.000
 4344.00    0.99920   0.88721    0.000
 4345.00    1.09209   0.91724    0.000
 4346.00    1.20838   0.95133    0.000
 4347.00    1.40387   0.91330    0.000
 4348.00    1.53482   0.81268    0.000
 4349.00    1.48162   0.76486    0.000
 4350.00    1.37844   0.81021    0.000
 4351.00    1.15344   0.86559    0.053
 4352.00    1.13998   0.89057   -1.000
 4353.00    1.57148   0.91833   -1.000
 4354.00    1.75452   0.93822   -1.000
 4355.00    1.48333   0.91319   -1.000
 4356.00    1.18143   0.87771   -1.000
 4357.00    0.83044   0.89252   -1.000
 4358.00    0.74435   0.93826    0.086
 4359.00    1.02964   0.95829    0.025
 4360.00    1.29155   0.95628    0.018
 4361.00    1.52461   0.97474    0.018
 4362.00    1.73783   0.99409    0.018
 4363.00    1.92949   0.96350    0.019
 4364.00    1.75034   0.90604    0.019
 4365.00    1.21549   0.88247    0.018
 4366.00    1.07651   0.89561    0.018
 4367.00    1.27239   0.90553    0.018
 4368.00    1.25615   0.90785    0.018
 4369.00    1.08191   0.90334    0.019
 4370.00    0.80548   0.87039    0.019
 4371.00    0.46216   0.81816    0.019
 4372.00    0.57612   0.79727    0.019
 4373.00    0.95198   0.83655    0.019
 4374.00    0.93710   0.90099    0.018
 4375.00    0.72731   0.93342    0.018
 4376.00    0.92731   0.92273    0.018
 4377.00    1.30415   0.89682    0.018
 4378.00    1.30325   0.86246    0.019
 4379.00    1.16257   0.78052    0.019
 4380.00    1.18406   0.66684    0.019
 4381.00    1.25641   0.62869    0.018
 4382.00    1.12579   0.70334    0.018
 4383.00    0.94207   0.79947    0.018
 4384.00    1.02241   0.83004    0.018
 4385.00    1.15916   0.81976    0.018
 4386.00    1.26181   0.81742    0.018
 4387.00    1.35869   0.82043    0.018
 4388.00    1.30804   0.83582    0.018
 4389.00    1.23854   0.86549    0.018
 4390.00    1.20684   0.87579    0.018
 4391.00    1.17852   0.85548    0.018
 4392.00    1.20523   0.84813    0.018
 4393.00    1.23488   0.89227    0.018
 4394.00    1.11321   0.94531    0.018
 4395.00    0.98899   0.94542    0.017
 4396.00    0.89850   0.90067    0.017
 4397.00    0.81747   0.85321    0.017
 4398.00    0.94427   0.85481    0.017
 4399.00    1.05014   0.88997    0.017
 4400.00    0.89759   0.85913    0.017
 4401.00    0.74915   0.76489    0.018
 4402.00    0.63542   0.73204    0.018
 4403.00    0.58809   0.78250    0.018
 4404.00    0.95695   0.81624    0.017
 4405.00    1.27539   0.81681    0.017
 4406.00    1.34579   0.85046    0.018
 4407.00    1.39879   0.91103    0.018
 4408.00    1.38231   0.94840    0.017
 4409.00    1.33858   0.96152    0.017
 4410.00    1.20448   0.93918    0.017
 4411.00    1.14643   0.86011    0.017
 4412.00    1.30142   0.79307    0.017
 4413.00    1.36779   0.80882    0.017
 4414.00    1.22178   0.86340    0.017
 4415.00    1.05066   0.91335    0.016
 4416.00    0.82755   0.95377    0.016
 4417.00    0.76604   0.96033    0.017
 4418.00    0.99544   0.92325    0.017
 4419.00    1.14635   0.87591    0.017
 4420.00    1.17368   0.86728    0.017
 4421.00    1.19239   0.89090    0.016
 4422.00    1.19920   0.89965    0.016
 4423.00    1.14568   0.89189    0.016
 4424.00    1.01877   0.89448    0.016
 4425.00    0.99637   0.90958    0.016
 4426.00    1.08602   0.90318    0.017
 4427.00    1.13759   0.87283    0.017
 4428.00    1.15314   0.87740    0.017
 4429.00    0.98425   0.90170    0.017
 4430.00    0.66155   0.88200    0.017
 4431.00    0.63507   0.82880    0.017
 4432.00    0.82606   0.79855    0.017
 4433.00    0.84927   0.82794    0.017
 4434.00    0.76429   0.89471    0.016
 4435.00    0.76855   0.95039    0.016
 4436.00    0.82314   0.97011    0.016
 4437.00    1.05593   0.94089    0.017
 4438.00    1.37620   0.88156    0.017
 4439.00    1.31293   0.83512    0.017
 4440.00    1.08691   0.83260    0.016
 4441.00    1.03810   0.87878    0.016
 4442.00    1.05369   0.93774    0.016
 4443.00    1.10844   0.95547    0.017
 4444.00    1.17524   0.93900    0.017
 4445.00    1.02032   0.94004    0.016
 4446.00    0.80864   0.94335    0.016
 4447.00    0.82299   0.92630    0.016
 4448.00    0.88445   0.92158    0.016
 4449.00    0.87440   0.92117    0.016
 4450.00    0.85260   0.89093    0.017
 4451.00    0.98480   0.83662    0.016
 4452.00    1.13597   0.80000    0.016
 4453.00    1.00211   0.81096    0.016
 4454.00    0.84401   0.83268    0.016
 4455.00    0.94240   0.82975    0.016
 4456.00    1.05344   0.81892    0.016
 4457.00    1.29306   0.81192    0.016
 4458.00    1.52588   0.79792    0.016
 4459.00    1.20340   0.80867    0.016
 4460.00    0.91383   0.86328    0.016
 4461.00    1.29103   0.89836    0.000
 4462.00    1.61823   0.89117    0.000
 4463.00    1.35784   0.88236    0.000
 4464.00    1.08524   0.88167    0.000
 4465.00    0.71355   0.87038    0.000
 4466.00    0.45886   0.84779    0.000
 4467.00    0.91620   0.83935    0.000
 4468.00    1.29925   0.85251    0.000
 4469.00    1.32590   0.88876    0.000
 4470.00    1.31618   0.93485    0.000
 4471.00    1.16442   0.95477    0.000
 4472.00    0.99946   0.95110    0.000
 4473.00    0.79162   0.96359    0.000
 4474.00    0.60838   0.99114    0.000
 4475.00    0.49280   0.98691    0.000
 4476.00    0.40273   0.93188    0.000
 4477.00    0.37274   0.86165    0.000
 4478.00    0.37011   0.82516    0.000
 4479.00    0.42319   0.84276    0.000
 4480.00    0.54592   0.90045    0.000
 4481.00    0.79210   0.95563    0.000
 4482.00    0.93587   0.98510    0.016
 4483.00    0.92084   0.98962    0.016
 4484.00    0.91795   0.96259    0.016
 4485.00    0.93162   0.91080    0.016
 4486.00    0.87509   0.86890    0.016
 4487.00    0.73437   0.86966    0.016
 4488.00    0.77474   0.90756    0.016
 4489.00    1.00656   0.93773    0.016
 4490.00    1.03291   0.92126    0.016
 4491.00    0.86766   0.87289    0.016
 4492.00    0.76674   0.84924    0.016
 4493.00    0.71871   0.86670    0.016
 4494.00    0.75168   0.90520    0.016
 4495.00    0.84325   0.94379    0.016
 4496.00    0.73466   0.96007    0.016
 4497.00    0.49892   0.94551    0.016
 4498.00    0.63235   0.92241    0.016
 4499.00    0.97084   0.94232    0.016
 4500.00    1.04364   0.99858    0.016
 4501.00    0.98808   1.02828    0.016
 4502.00    1.05609   1.01854    0.016
 4503.00    1.17564   0.99399    0.016
 4504.00    1.29484   0.97341    0.016
 4505.00    1.41390   0.96876    0.016
 4506.00    1.16015   0.97977    0.016
 4507.00    0.79400   0.99128    0.016
 4508.00    0.67337   0.98241    0.016
 4509.00    0.61425   0.95282    0.016
 4510.00    0.82399   0.92487    0.016
 4511.00    1.08839   0.91247    0.015
 4512.00    0.92218   0.92006    0.015
 4513.00    0.68727   0.93215    0.016
 4514.00    0.63253   0.92435    0.016
 4515.00    0.59920   0.91763    0.016
 4516.00    0.86941   0.93951    0.016
 4517.00    1.16418   0.96878    0.016
 4518.00    1.10199   0.97427    0.016
 4519.00    1.02357   0.94472    0.015
 4520.00    0.97724   0.91471    0.015
 4521.00    0.93092   0.90531    0.015
 4522.00    0.86568   0.88379    0.015
 4523.00    0.80109   0.84575    0.015
 4524.00    0.74859   0.81142    0.016
 4525.00    0.69714   0.79152    0.016
 4526.00    0.65739   0.79478    0.015
 4527.00    0.63694   0.81714    0.015
 4528.00    0.76758   0.84546    0.015
 4529.00    0.89777   0.86681    0.015
 4530.00    1.02540   0.85306    0.016
 4531.00    1.12808   0.81706    0.016
 4532.00    1.11395   0.81059    0.015
 4533.00    1.09319   0.86383    0.015
 4534.00    1.04710   0.93779    0.015
 4535.00    1.00513   0.95848    0.015
 4536.00    0.97629   0.92780    0.015
 4537.00    0.91586   0.89115    0.015
 4538.00    0.77008   0.88100    0.015
 4539.00    0.71701   0.90437    0.015
 4540.00    0.87878   0.92187    0.015
 4541.00    0.96040   0.90413    0.015
 4542.00    0.88136   0.88386    0.015
 4543.00    0.85515   0.88991    0.015
 4544.00    0.92115   0.89776    0.015
 4545.00    1.04860   0.88167    0.015
 4546.00    1.26994   0.85938    0.015
 4547.00    1.24809   0.87012    0.015
 4548.00    0.89980   0.89230    0.015
 4549.00    0.72204   0.88361    0.015
 4550.00    0.74589   0.86251    0.000
 4551.00    0.80907   0.85027    0.000
 4552.00    0.91324   0.85698    0.000
 4553.00    1.03897   0.89314    0.000
 4554.00    1.18452   0.93759    0.000
 4555.00    1.22712   0.95939    0.000
 4556.00    1.18629   0.95965    0.000
 4557.00    0.94745   0.95476    0.000
 4558.00    0.56741   0.95615    0.000
 4559.00    0.55376   0.94792    0.000
 4560.00    0.76940   0.91107    0.000
 4561.00    0.85286   0.87199    0.000
 4562.00    0.86402   0.86636    0.000
 4563.00    0.78802   0.89992    0.000
 4564.00    0.67059   0.94366    0.000
 4565.00    0.70870   0.96135    0.000
 4566.00    0.81060   0.95271    0.000
 4567.00    0.76235   0.92308    0.000
 4568.00    0.66149   0.88690    0.000
 4569.00    0.76663   0.89601    0.000
 4570.00    0.93264   0.93929    0.000
 4571.00    0.97169   0.95113    0.000
 4572.00    0.97963   0.94008    0.000
 4573.00    0.88297   0.94033    0.000
 4574.00    0.76558   0.93832    0.000
 4575.00    0.79860   0.91452    0.000
 4576.00    0.85490   0.87485    0.000
 4577.00    0.93631   0.84789    0.000
 4578.00    1.02059   0.85538    0.000
 4579.00    1.05335   0.88005    0.000
 4580.00    1.08215   0.88783    0.000
 4581.00    0.91817   0.87800    0.000
 4582.00    0.74617   0.86782    0.000
 4583.00    1.03073   0.87202    0.000
 4584.00    1.30439   0.90189    0.000
 4585.00    0.93939   0.93714    0.000
 4586.00    0.60239   0.94838    0.000
 4587.00    0.75470   0.92790    0.000
 4588.00    0.89967   0.89416    0.000
 4589.00    0.96605   0.87578    0.000
 4590.00    1.01669   0.87565    0.000
 4591.00    0.94828   0.87193    0.000
 4592.00    0.88702   0.86271    0.000
 4593.00    0.86677   0.86336    0.000
 4594.00    0.80171   0.87308    0.000
 4595.00    0.53188   0.88578    0.000
 4596.00    0.36924   0.88900    0.000
 4597.00    0.60762   0.87352    0.000
 4598.00    0.80737   0.86839    0.000
 4599.00    0.88635   0.88123    0.000
 4600.00    0.93934   0.88723    0.000
 4601.00    0.92333   0.88140    0.000
 4602.00    0.90423   0.87472    0.000
 4603.00    0.87807   0.88748    0.000
 4604.00    0.86581   0.92316    0.000
 4605.00    0.88098   0.96242    0.000
 4606.00    0.87807   0.97625    0.000
 4607.00    0.84409   0.95734    0.000
 4608.00    0.82705   0.93111    0.000
 4609.00    0.83554   0.91473    0.000
 4610.00    0.83338   0.91044    0.000
 4611.00    0.81712   0.92532    0.000
 4612.00    0.81583   0.94170    0.000
 4613.00    0.83199   0.94361    0.000
 4614.00    0.88204   0.94398    0.000
 4615.00    0.96694   0.93249    0.000
 4616.00    1.02021   0.91653    0.000
 4617.00    1.04480   0.92741    0.000
 4618.00    1.03485   0.94510    0.000
 4619.00    0.99732   0.94259    0.000
 4620.00    0.89377   0.93942    0.000
 4621.00    0.74382   0.93812    0.000
 4622.00    0.74158   0.92630    0.000
 4623.00    0.83039   0.92117    0.000
 4624.00    0.76062   0.92907    0.000
 4625.00    0.60543   0.92590    0.000
 4626.00    0.68740   0.91248    0.000
 4627.00    0.88029   0.91962    0.000
 4628.00    0.93274   0.93751    0.000
 4629.00    0.92857   0.92708    0.000
 4630.00    0.83449   0.89981    0.000
 4631.00    0.70950   0.89119    0.000
 4632.00    0.74978   0.89607    0.000
 4633.00    0.83793   0.89075    0.000
 4634.00    0.81742   0.87086    0.000
 4635.00    0.77089   0.85273    0.000
 4636.00    0.86351   0.84495    0.000
 4637.00    0.98301   0.85257    0.000
 4638.00    0.87633   0.87808    0.000
 4639.00    0.73571   0.89363    0.000
 4640.00    0.87325   0.88470    0.000
 4641.00    1.04140   0.86535    0.000
 4642.00    0.98444   0.83412    0.000
 4643.00    0.91111   0.79506    0.000
 4644.00    0.92110   0.78047    0.000
 4645.00    0.93424   0.79890    0.000
 4646.00    0.71422   0.82994    0.000
 4647.00    0.49947   0.85808    0.000
 4648.00    0.52435   0.87988    0.000
 4649.00    0.55581   0.89460    0.000
 4650.00    0.69481   0.88857    0.000
 4651.00    0.81501   0.85963    0.000
 4652.00    0.74284   0.83944    0.000
 4653.00    0.68294   0.84612    0.000
 4654.00    0.71264   0.87910    0.000
 4655.00    0.74349   0.92670    0.000
 4656.00    0.78076   0.95828    0.000
 4657.00    0.80765   0.95387    0.000
 4658.00    0.78819   0.92130    0.000
 4659.00    0.76819   0.88486    0.000
 4660.00    0.74622   0.86519    0.000
 4661.00    0.70442   0.86169    0.000
 4662.00    0.60182   0.84222    0.000
 4663.00    0.47973   0.78870    0.000
 4664.00    0.30682   0.74509    0.000
 4665.00    0.22868   0.75848    0.000
 4666.00    0.36297   0.81180    0.000
 4667.00    0.49916   0.86119    0.000
 4668.00    0.63905   0.88378    0.000
 4669.00    0.71931   0.87743    0.000
 4670.00    0.69861   0.86160    0.000
 4671.00    0.70759   0.85995    0.000
 4672.00    0.76062   0.87840    0.000
 4673.00    0.83288   0.89816    0.000
 4674.00    0.93022   0.89189    0.000
 4675.00    0.95670   0.86519    0.000
 4676.00    0.90174   0.84254    0.000
 4677.00    0.84706   0.82984    0.000
 4678.00    0.79265   0.82709    0.000
 4679.00    0.78676   0.84215    0.000
 4680.00    0.82423   0.86536    0.000
 4681.00    0.84007   0.87275    0.000
 4682.00    0.83888   0.86697    0.000
 4683.00    0.76036   0.86153    0.000
 4684.00    0.62827   0.85559    0.000
 4685.00    0.65399   0.85498    0.000
 4686.00    0.77556   0.85938    0.000
 4687.00    0.85065   0.85459    0.000
 4688.00    0.90110   0.84657    0.000
 4689.00    0.83457   0.85075    0.000
 4690.00    0.71423   0.86311    0.000
 4691.00    0.74623   0.87936    0.000
 4692.00    0.83860   0.89711    0.000
 4693.00    0.85857   0.89811    0.000
 4694.00    0.85410   0.86760    0.000
 4695.00    0.79669   0.82660    0.000
 4696.00    0.72425   0.81339    0.000
 4697.00    0.73837   0.82302    0.000
 4698.00    0.77277   0.82108    0.000
 4699.00    0.82454   0.80675    0.000
 4700.00    0.87958   0.80744    0.000
 4701.00    0.95866   0.82982    0.000
 4702.00    1.04122   0.84569    0.000
 4703.00    0.96941   0.83715    0.000
 4704.00    0.88127   0.81853    0.000
 4705.00    0.65320   0.80827    0.000
 4706.00    0.41553   0.81505    0.000
 4707.00    0.46373   0.84230    0.000
 4708.00    0.52167   0.86687    0.000
 4709.00    0.68172   0.85904    0.000
 4710.00    0.83573   0.83061    0.000
 4711.00    0.78809   0.81516    0.000
 4712.00    0.75423   0.83420    0.000
 4713.00    0.93176   0.87088    0.000
 4714.00    1.08108   0.89458    0.000
 4715.00    0.95384   0.90746    0.000
 4716.00    0.84477   0.92041    0.000
 4717.00    0.86413   0.92348    0.000
 4718.00    0.89127   0.91026    0.000
 4719.00    0.96070   0.89562    0.000
 4720.00    0.99863   0.90032    0.000
 4721.00    0.89927   0.91903    0.000
 4722.00    0.84539   0.92023    0.000
 4723.00    0.95467   0.88293    0.000
 4724.00    1.03035   0.82683    0.000
 4725.00    1.00487   0.79469    0.000
 4726.00    0.94934   0.79576    0.000
 4727.00    0.81684   0.80919    0.000
 4728.00    0.74529   0.82745    0.000
 4729.00    0.80809   0.84765    0.000
 4730.00    0.84074   0.86040    0.000
 4731.00    0.81573   0.86803    0.000
 4732.00    0.74316   0.86420    0.000
 4733.00    0.59125   0.84627    0.000
 4734.00    0.57311   0.85049    0.000
 4735.00    0.75055   0.87914    0.000
 4736.00    0.86156   0.88646    0.000
 4737.00    0.88718   0.86927    0.000
 4738.00    0.85970   0.86167    0.000
 4739.00    0.77207   0.87351    0.000
 4740.00    0.72513   0.88431    0.000
 4741.00    0.71882   0.88008    0.000
 4742.00    0.77532   0.87926    0.000
 4743.00    0.88717   0.89343    0.000
 4744.00    0.85719   0.90136    0.000
 4745.00    0.71708   0.89691    0.000
 4746.00    0.75970   0.89553    0.000
 4747.00    0.92706   0.89552    0.000
 4748.00    1.07300   0.88448    0.000
 4749.00    1.20614   0.86738    0.000
 4750.00    1.22646   0.85480    0.000
 4751.00    1.18790   0.84791    0.000
 4752.00    1.11157   0.84698    0.000
 4753.00    1.01814   0.84981    0.000
 4754.00    0.94214   0.85535    0.000
 4755.00    0.87292   0.86454    0.000
 4756.00    0.78395   0.87516    0.000
 4757.00    0.68843   0.87177    0.000
 4758.00    0.86511   0.84584    0.000
 4759.00    1.11744   0.82068    0.000
 4760.00    1.18155   0.81122    0.000
 4761.00    1.20260   0.80061    0.013
 4762.00    0.83909   0.78528    0.013
 4763.00    0.40516   0.78677    0.013
 4764.00    0.38629   0.81081    0.013
 4765.00    0.42587   0.84227    0.013
 4766.00    0.54520   0.86615    0.013
 4767.00    0.67262   0.86509    0.013
 4768.00    0.72875   0.84429    0.013
 4769.00    0.78026   0.83845    0.013
 4770.00    0.74835   0.86098    0.013
 4771.00    0.71421   0.88585    0.012
 4772.00    0.83244   0.88850    0.013
 4773.00    0.94702   0.88481    0.013
 4774.00    0.95611   0.89038    0.013
 4775.00    0.96262   0.88880    0.012
 4776.00    0.93197   0.87716    0.013
 4777.00    0.91865   0.86991    0.013
 4778.00    1.06843   0.86136    0.012
 4779.00    1.16081   0.84064    0.012
 4780.00    0.86023   0.82767    0.012
 4781.00    0.61221   0.83598    0.012
 4782.00    0.64263   0.83582    0.012
 4783.00    0.68723   0.82312    0.012
 4784.00    0.79227   0.82558    0.012
 4785.00    0.86292   0.83077    0.012
 4786.00    0.81270   0.82683    0.012
 4787.00    0.75846   0.83060    0.012
 4788.00    0.69235   0.84341    0.012
 4789.00    0.66801   0.86255    0.012
 4790.00    0.74884   0.89107    0.012
 4791.00    0.80724   0.91440    0.012
 4792.00    0.81701   0.91455    0.012
 4793.00    0.83683   0.89589    0.012
 4794.00    0.87557   0.87054    0.012
 4795.00    0.87691   0.84442    0.012
 4796.00    0.81680   0.82988    0.012
 4797.00    0.78705   0.84079    0.012
 4798.00    0.80106   0.87022    0.012
 4799.00    0.78328   0.89228    0.013
 4800.00    0.72523   0.88877    0.012
 4801.00    0.71754   0.86592    0.012
 4802.00    0.76610   0.84733    0.012
 4803.00    0.75132   0.83854    0.012
 4804.00    0.67417   0.82891    0.012
 4805.00    0.61528   0.82848    0.012
 4806.00    0.57226   0.84362    0.012
 4807.00    0.66771   0.85722    0.012
 4808.00    0.86913   0.85907    0.012
 4809.00    0.87005   0.85529    0.012
 4810.00    0.73611   0.85381    0.012
 4811.00    0.70901   0.85770    0.012
 4812.00    0.74488   0.86664    0.012
 4813.00    0.78279   0.87828    0.012
 4814.00    0.82175   0.88737    0.012
 4815.00    0.83136   0.89334    0.012
 4816.00    0.82790   0.89522    0.012
 4817.00    0.75372   0.89005    0.012
 4818.00    0.65249   0.87509    0.012
 4819.00    0.71830   0.84213    0.012
 4820.00    0.83842   0.81098    0.012
 4821.00    0.88887   0.81786    0.013
 4822.00    0.92035   0.84886    0.012
 4823.00    0.93303   0.86317    0.012
 4824.00    0.94151   0.85236    0.012
 4825.00    0.75629   0.83810    0.012
 4826.00    0.53655   0.83835    0.012
 4827.00    0.61411   0.83794    0.012
 4828.00    0.73218   0.82101    0.012
 4829.00    0.74634   0.81432    0.012
 4830.00    0.75041   0.83394    0.012
 4831.00    0.78423   0.85302    0.012
 4832.00    0.81986   0.85469    0.012
 4833.00    0.85190   0.85177    0.012
 4834.00    0.88322   0.84754    0.012
 4835.00    0.80059   0.83026    0.012
 4836.00    0.71940   0.80940    0.012
 4837.00    0.67599   0.80723    0.012
 4838.00    0.64090   0.81688    0.012
 4839.00    0.71946   0.81427    0.012
 4840.00    0.79252   0.81078    0.012
 4841.00    0.81588   0.82965    0.012
 4842.00    0.82592   0.85327    0.012
 4843.00    0.74755   0.85324    0.012
 4844.00    0.70101   0.82814    0.012
 4845.00    0.81867   0.80495    0.012
 4846.00    0.90370   0.81070    0.012
 4847.00    0.85287   0.82769    0.012
 4848.00    0.79029   0.82940    0.000
 4849.00    0.68724   0.82315    0.000
 4850.00    0.59990   0.80510    0.000
 4851.00    0.55807   0.76421    0.000
 4852.00    0.53902   0.73353    0.000
 4853.00    0.57633   0.74155    0.000
 4854.00    0.67559   0.75308    0.000
 4855.00    0.90698   0.72440    0.000
 4856.00    0.97642   0.65268    0.000
 4857.00    0.74572   0.57285    0.000
 4858.00    0.65870   0.55174    0.000
 4859.00    0.80425   0.60922    0.000
 4860.00    0.86943   0.67696    0.000
 4861.00    0.82049   0.71582    0.000
 4862.00    0.82264   0.74501    0.000
 4863.00    0.88864   0.76650    0.000
 4864.00    0.88799   0.77444    0.000
 4865.00    0.81394   0.77954    0.000
 4866.00    0.76677   0.77137    0.000
 4867.00    0.74570   0.73062    0.000
 4868.00    0.70666   0.69649    0.000
 4869.00    0.65224   0.71605    0.000
 4870.00    0.55554   0.75919    0.000
 4871.00    0.42696   0.77869    0.000
 4872.00    0.45902   0.78374    0.000
 4873.00    0.59755   0.79456    0.000
 4874.00    0.72167   0.80651    0.000
 4875.00    0.83743   0.82620    0.012
 4876.00    0.79873   0.84398    0.012
 4877.00    0.68190   0.82802    0.012
 4878.00    0.65731   0.80060    0.012
 4879.00    0.67311   0.80157    0.012
 4880.00    0.60514   0.80870    0.012
 4881.00    0.50568   0.78886    0.012
 4882.00    0.53164   0.75969    0.012
 4883.00    0.59759   0.75340    0.012
 4884.00    0.71640   0.76757    0.012
 4885.00    0.84929   0.77566    0.012
 4886.00    0.85858   0.75668    0.012
 4887.00    0.84090   0.71930    0.012
 4888.00    0.68538   0.71948    0.012
 4889.00    0.50596   0.77683    0.012
 4890.00    0.67471   0.83969    0.012
 4891.00    0.88932   0.87631    0.012
 4892.00    0.76299   0.88915    0.012
 4893.00    0.60499   0.88708    0.012
 4894.00    0.63401   0.88039    0.012
 4895.00    0.67364   0.86295    0.012
 4896.00    0.66080   0.83661    0.012
 4897.00    0.64638   0.82837    0.012
 4898.00    0.58862   0.83364    0.012
 4899.00    0.53507   0.82352    0.012
 4900.00    0.58159   0.81145    0.012
 4901.00    0.63036   0.82704    0.012
 4902.00    0.70822   0.85794    0.012
 4903.00    0.77816   0.86724    0.012
 4904.00    0.77931   0.84631    0.012
 4905.00    0.78520   0.81270    0.012
 4906.00    0.82161   0.78136    0.012
 4907.00    0.85392   0.77049    0.012
 4908.00    0.86565   0.78706    0.012
 4909.00    0.86088   0.81116    0.012
 4910.00    0.78900   0.82869    0.012
 4911.00    0.74177   0.84650    0.012
 4912.00    0.77772   0.85899    0.012
 4913.00    0.75353   0.84407    0.012
 4914.00    0.55811   0.79257    0.012
 4915.00    0.47833   0.72372    0.012
 4916.00    0.67985   0.67293    0.012
 4917.00    0.78914   0.66679    0.012
 4918.00    0.70482   0.70673    0.012
 4919.00    0.67274   0.75255    0.012
 4920.00    0.73595   0.76558    0.012
 4921.00    0.75290   0.76416    0.012
 4922.00    0.69609   0.78644    0.012
 4923.00    0.66483   0.82008    0.012
 4924.00    0.66933   0.84065    0.012
 4925.00    0.73532   0.85721    0.012
 4926.00    0.87701   0.86858    0.011
 4927.00    0.87086   0.86818    0.011
 4928.00    0.70420   0.85611    0.012
 4929.00    0.63617   0.82001    0.012
 4930.00    0.66259   0.78355    0.012
 4931.00    0.66652   0.79018    0.012
 4932.00    0.65146   0.81307    0.012
 4933.00    0.63744   0.79955    0.012
 4934.00    0.62419   0.75424    0.011
 4935.00    0.67184   0.72385    0.011
 4936.00    0.75927   0.74324    0.011
 4937.00    0.81763   0.79398    0.011
 4938.00    0.85938   0.82862    0.011
 4939.00    0.91397   0.84332    0.012
 4940.00    0.97494   0.85435    0.000
 4941.00    0.86166   0.85031    0.000
 4942.00    0.67336   0.83352    0.000
 4943.00    0.63120   0.83320    0.000
 4944.00    0.64300   0.84885    0.000
 4945.00    0.69945   0.85839    0.000
 4946.00    0.76986   0.86133    0.000
 4947.00    0.77816   0.86698    0.000
 4948.00    0.77025   0.86580    0.000
 4949.00    0.77836   0.85042    0.000
 4950.00    0.78988   0.83546    0.000
 4951.00    0.76767   0.82668    0.000
 4952.00    0.73977   0.79836    0.000
 4953.00    0.83920   0.73001    0.000
 4954.00    0.95483   0.68335    0.000
 4955.00    1.00776   0.72357    0.000
 4956.00    1.05512   0.79828    0.000
 4957.00    0.83817   0.83323    0.000
 4958.00    0.60727   0.83201    0.000
 4959.00    0.72341   0.83010    0.000
 4960.00    0.84377   0.82610    0.000
 4961.00    0.77518   0.80081    0.000
 4962.00    0.71257   0.77219    0.000
 4963.00    0.78020   0.76521    0.000
 4964.00    0.84549   0.77002    0.000
 4965.00    0.88207   0.77631    0.000
 4966.00    0.91242   0.78342    0.000
 4967.00    0.89053   0.79351    0.000
 4968.00    0.84620   0.80945    0.000
 4969.00    0.66177   0.82309    0.000
 4970.00    0.53428   0.83179    0.000
 4971.00    0.68600   0.83418    0.000
 4972.00    0.81866   0.82711    0.000
 4973.00    0.87543   0.81396    0.000
 4974.00    0.90698   0.79248    0.000
 4975.00    0.85507   0.77228    0.000
 4976.00    0.83644   0.76641    0.000
 4977.00    0.91082   0.75561    0.000
 4978.00    0.94747   0.71927    0.000
 4979.00    0.89391   0.68333    0.000
 4980.00    0.80870   0.68238    0.000
 4981.00    0.65809   0.70610    0.000
 4982.00    0.59061   0.73489    0.000
 4983.00    0.67249   0.76929    0.000
 4984.00    0.70115   0.79453    0.000
 4985.00    0.64619   0.79542    0.000
 4986.00    0.66019   0.78128    0.000
 4987.00    0.76930   0.76799    0.000
 4988.00    0.82568   0.77240    0.000
 4989.00    0.81804   0.78153    0.000
 4990.00    0.80985   0.77699    0.000
 4991.00    0.80107   0.77906    0.000
 4992.00    0.77691   0.79134    0.000
 4993.00    0.73823   0.79499    0.000
 4994.00    0.74371   0.78743    0.000
 4995.00    0.78594   0.76535    0.000
 4996.00    0.80678   0.73627    0.000
 4997.00    0.81194   0.72095    0.000
 4998.00    0.83302   0.72161    0.000
 4999.00    0.86434   0.72996    0.000
 5000.00    0.84356   0.73195    0.000
 5001.00    0.79345   0.71185    0.000
 5002.00    0.79885   0.68137    0.000
 5003.00    0.83144   0.68151    0.000
 5004.00    0.89256   0.72235    0.000
 5005.00    0.96577   0.76061    0.000
 5006.00    1.00093   0.76739    0.000
 5007.00    1.02229   0.75206    0.000
 5008.00    0.94411   0.72156    0.000
 5009.00    0.83539   0.68739    0.000
 5010.00    0.84045   0.66587    0.000
 5011.00    0.87457   0.66846    0.000
 5012.00    0.80262   0.69196    0.000
 5013.00    0.70863   0.70640    0.000
 5014.00    0.76429   0.70298    0.000
 5015.00    0.84445   0.70728    0.000
 5016.00    0.83824   0.72399    0.000
 5017.00    0.82143   0.72902    0.000
 5018.00    0.91108   0.71610    0.000
 5019.00    1.00973   0.71371    0.000
 5020.00    0.94643   0.73427    0.000
 5021.00    0.87522   0.75233    0.000
 5022.00    0.86242   0.75323    0.000
 5023.00    0.85027   0.73518    0.000
 5024.00    0.82241   0.72135    0.000
 5025.00    0.79383   0.73816    0.000
 5026.00    0.75080   0.76255    0.000
 5027.00    0.71675   0.77455    0.000
 5028.00    0.78769   0.78841    0.000
 5029.00    0.84697   0.80817    0.011
 5030.00    0.81225   0.81129    0.011
 5031.00    0.78222   0.77774    0.011
 5032.00    0.78072   0.73320    0.011
 5033.00    0.79611   0.72500    0.011
 5034.00    0.89222   0.73524    0.011
 5035.00    0.92861   0.71802    0.011
 5036.00    0.73239   0.67123    0.011
 5037.00    0.59932   0.62718    0.011
 5038.00    0.67109   0.63712    0.011
 5039.00    0.73805   0.69995    0.011
 5040.00    0.79183   0.75636    0.011
 5041.00    0.81962   0.78961    0.011
 5042.00    0.78628   0.81107    0.011
 5043.00    0.76063   0.80554    0.011
 5044.00    0.75058   0.76569    0.011
 5045.00    0.74363   0.72433    0.011
 5046.00    0.74215   0.71155    0.011
 5047.00    0.75253   0.71555    0.011
 5048.00    0.78125   0.72106    0.011
 5049.00    0.77223   0.73609    0.011
 5050.00    0.71190   0.76103    0.011
 5051.00    0.63542   0.77987    0.011
 5052.00    0.53962   0.78384    0.011
 5053.00    0.55515   0.78281    0.011
 5054.00    0.68818   0.78815    0.011
 5055.00    0.74110   0.79282    0.011
 5056.00    0.71945   0.79634    0.011
 5057.00    0.75775   0.80693    0.011
 5058.00    0.84522   0.81521    0.011
 5059.00    0.84368   0.80280    0.011
 5060.00    0.77784   0.76013    0.011
 5061.00    0.74203   0.71738    0.011
 5062.00    0.72525   0.71597    0.011
 5063.00    0.70085   0.73263    0.011
 5064.00    0.67224   0.73215    0.011
 5065.00    0.63312   0.73212    0.011
 5066.00    0.58894   0.75029    0.011
 5067.00    0.58930   0.75766    0.011
 5068.00    0.60821   0.73825    0.011
 5069.00    0.61882   0.72990    0.011
 5070.00    0.62649   0.74457    0.011
 5071.00    0.60622   0.74949    0.011
 5072.00    0.57756   0.74356    0.011
 5073.00    0.66205   0.74868    0.011
 5074.00    0.77482   0.74536    0.011
 5075.00    0.80875   0.70172    0.011
 5076.00    0.82670   0.65608    0.011
 5077.00    0.80359   0.65850    0.011
 5078.00    0.77395   0.68677    0.011
 5079.00    0.78384   0.70027    0.011
 5080.00    0.79840   0.70721    0.011
 5081.00    0.71872   0.72593    0.011
 5082.00    0.63146   0.74359    0.011
 5083.00    0.69130   0.74691    0.011
 5084.00    0.75775   0.74581    0.011
 5085.00    0.75098   0.75145    0.011
 5086.00    0.74330   0.75695    0.011
 5087.00    0.73379   0.75745    0.011
 5088.00    0.72265   0.76468    0.011
 5089.00    0.68132   0.78027    0.011
 5090.00    0.64787   0.78581    0.010
 5091.00    0.70231   0.77293    0.011
 5092.00    0.76290   0.75187    0.011
 5093.00    0.87132   0.72820    0.011
 5094.00    0.95394   0.69818    0.011
 5095.00    0.88454   0.67202    0.011
 5096.00    0.80524   0.68137    0.011
 5097.00    0.67973   0.72076    0.011
 5098.00    0.59452   0.74922    0.011
 5099.00    0.66293   0.74931    0.011
 5100.00    0.72263   0.73611    0.011
 5101.00    0.75463   0.72808    0.011
 5102.00    0.77054   0.72316    0.011
 5103.00    0.74307   0.70914    0.011
 5104.00    0.69886   0.69721    0.011
 5105.00    0.61597   0.69641    0.011
 5106.00    0.58320   0.69386    0.011
 5107.00    0.65072   0.70184    0.011
 5108.00    0.68395   0.72391    0.011
 5109.00    0.65742   0.73701    0.011
 5110.00    0.60469   0.74345    0.011
 5111.00    0.51199   0.75023    0.011
 5112.00    0.53504   0.75678    0.011
 5113.00    0.71321   0.76955    0.011
 5114.00    0.83745   0.78015    0.011
 5115.00    0.89808   0.77665    0.011
 5116.00    0.95408   0.76093    0.011
 5117.00    1.00527   0.74030    0.011
 5118.00    0.94101   0.71960    0.011
 5119.00    0.77079   0.69231    0.011
 5120.00    0.74848   0.66872    0.011
 5121.00    0.84584   0.66892    0.011
 5122.00    0.82183   0.68127    0.011
 5123.00    0.71142   0.68551    0.011
 5124.00    0.69040   0.68307    0.011
 5125.00    0.72521   0.68070    0.011
 5126.00    0.79271   0.68548    0.011
 5127.00    0.87806   0.70216    0.011
 5128.00    0.89282   0.71734    0.011
 5129.00    0.87410   0.72068    0.011
 5130.00    0.73077   0.72468    0.011
 5131.00    0.53645   0.74092    0.011
 5132.00    0.71382   0.74327    0.011
 5133.00    1.02113   0.72107    0.011
 5134.00    0.98565   0.69571    0.011
 5135.00    0.84912   0.67654    0.011
 5136.00    0.79851   0.68441    0.011
 5137.00    0.76890   0.70578    0.011
 5138.00    0.76065   0.69231    0.011
 5139.00    0.75662   0.67332    0.011
 5140.00    0.77806   0.68771    0.011
 5141.00    0.80342   0.69963    0.011
 5142.00    0.68978   0.68821    0.011
 5143.00    0.56031   0.67507    0.011
 5144.00    0.61766   0.67617    0.011
 5145.00    0.68926   0.69122    0.011
 5146.00    0.63570   0.69747    0.011
 5147.00    0.57699   0.68554    0.011
 5148.00    0.65490   0.67411    0.011
 5149.00    0.73222   0.67127    0.011
 5150.00    0.73726   0.67361    0.011
 5151.00    0.74481   0.68642    0.011
 5152.00    0.79593   0.70906    0.011
 5153.00    0.84171   0.73291    0.011
 5154.00    0.83056   0.74682    0.011
 5155.00    0.81511   0.74491    0.011
 5156.00    0.76734   0.74401    0.011
 5157.00    0.72887   0.74374    0.011
 5158.00    0.74359   0.72662    0.011
 5159.00    0.77132   0.70917    0.011
 5160.00    0.85825   0.69658    0.011
 5161.00    0.91205   0.66057    0.011
 5162.00    0.84216   0.59512    0.011
 5163.00    0.76140   0.52698    0.011
 5164.00    0.64666   0.50230    0.011
 5165.00    0.57072   0.54077    0.011
 5166.00    0.59753   0.59659    0.011
 5167.00    0.60700   0.59210    0.011
 5168.00    0.57704   0.52316    0.011
 5169.00    0.56925   0.48715    0.011
 5170.00    0.60508   0.54446    0.011
 5171.00    0.60983   0.63214    0.011
 5172.00    0.56124   0.67722    0.011
 5173.00    0.50153   0.68939    0.011
 5174.00    0.42511   0.69754    0.011
 5175.00    0.40586   0.69849    0.011
 5176.00    0.46214   0.68681    0.011
 5177.00    0.51015   0.66072    0.011
 5178.00    0.54853   0.60336    0.011
 5179.00    0.59246   0.51871    0.011
 5180.00    0.64210   0.48176    0.011
 5181.00    0.64399   0.54294    0.011
 5182.00    0.60266   0.63776    0.011
 5183.00    0.64568   0.69218    0.011
 5184.00    0.75597   0.70058    0.011
 5185.00    0.75381   0.70521    0.011
 5186.00    0.67275   0.71936    0.011
 5187.00    0.67412   0.69485    0.011
 5188.00    0.72622   0.63998    0.011
 5189.00    0.70420   0.62707    0.011
 5190.00    0.64235   0.65413    0.000
 5191.00    0.57367   0.66666    0.000
 5192.00    0.50180   0.67101    0.000
 5193.00    0.50478   0.68802    0.000
 5194.00    0.53786   0.70650    0.000
 5195.00    0.59152   0.72131    0.000
 5196.00    0.65225   0.72976    0.000
 5197.00    0.69938   0.72574    0.000
 5198.00    0.74259   0.71452    0.000
 5199.00    0.74698   0.70391    0.000
 5200.00    0.74209   0.67651    0.000
 5201.00    0.70572   0.63086    0.000
 5202.00    0.66328   0.60703    0.000
 5203.00    0.69185   0.61041    0.000
 5204.00    0.73105   0.60332    0.000
 5205.00    0.69655   0.60080    0.000
 5206.00    0.65398   0.62793    0.000
 5207.00    0.60941   0.66789    0.000
 5208.00    0.56470   0.70717    0.000
 5209.00    0.60990   0.73385    0.000
 5210.00    0.65845   0.73457    0.000
 5211.00    0.75601   0.70822    0.011
 5212.00    0.84997   0.68227    0.011
 5213.00    0.80458   0.68318    0.011
 5214.00    0.75554   0.70734    0.011
 5215.00    0.64737   0.73312    0.011
 5216.00    0.55273   0.74562    0.011
 5217.00    0.59586   0.75046    0.011
 5218.00    0.64899   0.74807    0.011
 5219.00    0.77494   0.72953    0.011
 5220.00    0.85938   0.69510    0.011
 5221.00    0.71257   0.65332    0.011
 5222.00    0.60346   0.60928    0.011
 5223.00    0.66202   0.58832    0.011
 5224.00    0.71326   0.62759    0.011
 5225.00    0.73776   0.69092    0.011
 5226.00    0.74636   0.72444    0.011
 5227.00    0.70632   0.73483    0.011
 5228.00    0.69631   0.71950    0.011
 5229.00    0.76444   0.68614    0.011
 5230.00    0.77781   0.67437    0.011
 5231.00    0.66870   0.68870    0.011
 5232.00    0.62162   0.71724    0.011
 5233.00    0.69476   0.74579    0.011
 5234.00    0.77614   0.75697    0.011
 5235.00    0.87145   0.75183    0.011
 5236.00    0.90794   0.74581    0.011
 5237.00    0.85732   0.74732    0.011
 5238.00    0.80172   0.74555    0.011
 5239.00    0.73966   0.74138    0.011
 5240.00    0.73650   0.75235    0.010
 5241.00    0.80092   0.76334    0.010
 5242.00    0.79857   0.73700    0.010
 5243.00    0.72869   0.69148    0.010
 5244.00    0.69481   0.68167    0.010
 5245.00    0.69305   0.69323    0.010
 5246.00    0.67027   0.68220    0.011
 5247.00    0.63096   0.67368    0.011
 5248.00    0.65383   0.69236    0.011
 5249.00    0.71970   0.71181    0.011
 5250.00    0.70209   0.70639    0.011
 5251.00    0.63387   0.68848    0.011
 5252.00    0.65311   0.70182    0.011
 5253.00    0.71863   0.74297    0.011
 5254.00    0.73024   0.77108    0.011
 5255.00    0.71710   0.77397    0.011
 5256.00    0.71109   0.75656    0.011
 5257.00    0.70789   0.72394    0.011
 5258.00    0.61525   0.68089    0.011
 5259.00    0.49248   0.63872    0.011
 5260.00    0.58358   0.60860    0.011
 5261.00    0.73522   0.58711    0.011
 5262.00    0.81707   0.58154    0.011
 5263.00    0.88263   0.61398    0.011
 5264.00    0.83516   0.63390    0.011
 5265.00    0.76650   0.58353    0.011
 5266.00    0.68037   0.53957    0.011
 5267.00    0.59172   0.58426    0.011
 5268.00    0.60882   0.65652    0.011
 5269.00    0.63704   0.68539    0.011
 5270.00    0.71543   0.68452    0.011
 5271.00    0.79723   0.67212    0.011
 5272.00    0.60464   0.67575    0.011
 5273.00    0.40285   0.71663    0.011
 5274.00    0.55372   0.75615    0.011
 5275.00    0.70087   0.76114    0.011
 5276.00    0.71684   0.73911    0.011
 5277.00    0.73617   0.71121    0.011
 5278.00    0.80687   0.69070    0.011
 5279.00    0.85744   0.67500    0.011
 5280.00    0.71165   0.67358    0.011
 5281.00    0.58460   0.71013    0.011
 5282.00    0.58954   0.76025    0.011
 5283.00    0.61975   0.78026    0.011
 5284.00    0.78701   0.77081    0.011
 5285.00    0.90676   0.76379    0.011
 5286.00    0.82002   0.77331    0.011
 5287.00    0.76036   0.78223    0.011
 5288.00    0.79758   0.77536    0.011
 5289.00    0.83345   0.76061    0.011
 5290.00    0.86523   0.75462    0.011
 5291.00    0.85291   0.74885    0.013
 5292.00    0.72782   0.71890    0.031
 5293.00    0.64948   0.66782   -1.000
 5294.00    0.67402   0.63890   -1.000
 5295.00    0.67662   0.66399   -1.000
 5296.00    0.63737   0.70187   -1.000
 5297.00    0.62490   0.70725   -1.000
 5298.00    0.65703   0.70500   -1.000
 5299.00    0.69216   0.72545   -1.000
 5300.00    0.73166   0.75896   -1.000
 5301.00    0.74526   0.77996   -1.000
 5302.00    0.72564   0.77610   -1.000
 5303.00    0.73201   0.75859    0.044
 5304.00    0.76778   0.75390    0.014
 5305.00    0.78806   0.76797    0.010
 5306.00    0.79291   0.77967    0.010
 5307.00    0.75355   0.77843    0.010
 5308.00    0.67531   0.76965    0.010
 5309.00    0.62949   0.75924    0.010
 5310.00    0.60879   0.75445    0.010
 5311.00    0.57649   0.75068    0.010
 5312.00    0.53628   0.73789    0.011
 5313.00    0.58869   0.72938    0.011
 5314.00    0.69640   0.73581    0.010
 5315.00    0.76293   0.74113    0.010
 5316.00    0.80801   0.73978    0.010
 5317.00    0.79387   0.73845    0.010
 5318.00    0.75299   0.73427    0.010
 5319.00    0.81567   0.71523    0.010
 5320.00    0.91859   0.68770    0.011
 5321.00    0.84408   0.68670    0.011
 5322.00    0.71092   0.69425    0.010
 5323.00    0.64107   0.65063    0.010
 5324.00    0.58878   0.57620    0.010
 5325.00    0.70127   0.57112    0.010
 5326.00    0.85133   0.64178    0.011
 5327.00    0.75901   0.70316    0.011
 5328.00    0.62245   0.71645    0.011
 5329.00    0.68674   0.71285    0.011
 5330.00    0.77920   0.72905    0.011
 5331.00    0.72138   0.75058    0.011
 5332.00    0.64840   0.75193    0.011
 5333.00    0.60147   0.74286    0.011
 5334.00    0.55622   0.73753    0.011
 5335.00    0.69213   0.71674    0.011
 5336.00    0.83317   0.67433    0.010
 5337.00    0.86175   0.65932    0.011
 5338.00    0.88615   0.69153    0.011
 5339.00    0.79088   0.72487    0.011
 5340.00    0.70624   0.73415    0.010
 5341.00    0.77404   0.72256    0.010
 5342.00    0.82980   0.70985    0.010
 5343.00    0.77274   0.71269    0.010
 5344.00    0.71991   0.70631    0.010
 5345.00    0.69599   0.68916    0.010
 5346.00    0.68041   0.69663    0.010
 5347.00    0.70891   0.72809    0.010
 5348.00    0.73157   0.74985    0.010
 5349.00    0.72945   0.75277    0.010
 5350.00    0.73653   0.76105    0.010
 5351.00    0.77588   0.77828    0.010
 5352.00    0.82078   0.78561    0.010
 5353.00    0.88206   0.78481    0.010
 5354.00    0.90017   0.78371    0.010
 5355.00    0.80978   0.78235    0.010
 5356.00    0.74592   0.77627    0.010
 5357.00    0.73950   0.75932    0.010
 5358.00    0.76601   0.73990    0.010
 5359.00    0.85441   0.73341    0.010
 5360.00    0.86166   0.72815    0.010
 5361.00    0.73580   0.71597    0.010
 5362.00    0.63880   0.71321    0.010
 5363.00    0.58330   0.71568    0.010
 5364.00    0.56616   0.71386    0.010
 5365.00    0.59756   0.69580    0.010
 5366.00    0.62672   0.65414    0.010
 5367.00    0.65336   0.62117    0.010
 5368.00    0.65391   0.63985   -2.000
 5369.00    0.62878   0.69772   -2.000
 5370.00    0.67483   0.74135   -2.000
 5371.00    0.78258   0.75780   -2.000
 5372.00    0.84766   0.75345   -2.000
 5373.00    0.88012   0.74101   -2.000
 5374.00    0.92868   0.74301   -2.000
 5375.00    0.98805   0.75040   -2.000
 5376.00    0.97408   0.74481   -2.000
 5377.00    0.91697   0.73405   -2.000
 5378.00    0.78260   0.72570   -2.000
 5379.00    0.60859   0.71623   -2.000
 5380.00    0.56659   0.72023   -2.000
 5381.00    0.58324   0.73684   -2.000
 5382.00    0.65487   0.74263   -2.000
 5383.00    0.74749   0.73802    0.010
 5384.00    0.77608   0.72974    0.011
 5385.00    0.78390   0.71378    0.011
 5386.00    0.76207   0.69626    0.011
 5387.00    0.73220   0.68848    0.010
 5388.00    0.75639   0.68844    0.010
 5389.00    0.79264   0.68900    0.010
 5390.00    0.69493   0.68958    0.010
 5391.00    0.57343   0.68887    0.010
 5392.00    0.49616   0.66612    0.010
 5393.00    0.42488   0.63393    0.010
 5394.00    0.47490   0.64820    0.010
 5395.00    0.53665   0.68854    0.010
 5396.00    0.63351   0.70153    0.010
 5397.00    0.73249   0.70207    0.010
 5398.00    0.73342   0.71194    0.010
 5399.00    0.73152   0.70166    0.010
 5400.00    0.68407   0.65692    0.010
 5401.00    0.63917   0.61206    0.010
 5402.00    0.65990   0.60498    0.010
 5403.00    0.68256   0.63924    0.010
 5404.00    0.73147   0.66994    0.010
 5405.00    0.77283   0.66160    0.010
 5406.00    0.74628   0.64310    0.010
 5407.00    0.71918   0.66130    0.010
 5408.00    0.68850   0.70007    0.010
 5409.00    0.66315   0.71987    0.010
 5410.00    0.66525   0.71607    0.010
 5411.00    0.67920   0.71148    0.010
 5412.00    0.74236   0.72577    0.010
 5413.00    0.76319   0.74422    0.010
 5414.00    0.63860   0.74494    0.010
 5415.00    0.56631   0.73087    0.010
 5416.00    0.64534   0.71301    0.010
 5417.00    0.71457   0.70949    0.010
 5418.00    0.75959   0.72199    0.010
 5419.00    0.79667   0.71539    0.010
 5420.00    0.81685   0.68962    0.010
 5421.00    0.81432   0.69372    0.010
 5422.00    0.76980   0.72699    0.010
 5423.00    0.74847   0.75023    0.010
 5424.00    0.76462   0.72970    0.010
 5425.00    0.76449   0.66861    0.010
 5426.00    0.74129   0.64388    0.010
 5427.00    0.74449   0.67847    0.010
 5428.00    0.78062   0.69453    0.010
 5429.00    0.77636   0.67426    0.010
 5430.00    0.72773   0.65260    0.010
 5431.00    0.74947   0.64735    0.010
 5432.00    0.83945   0.66064    0.010
 5433.00    0.82158   0.68661    0.010
 5434.00    0.71151   0.72055    0.010
 5435.00    0.67883   0.74643    0.010
 5436.00    0.70441   0.75665    0.010
 5437.00    0.70924   0.75666    0.010
 5438.00    0.70036   0.75581    0.010
 5439.00    0.72735   0.75494    0.010
 5440.00    0.77513   0.74004    0.010
 5441.00    0.74965   0.70238    0.010
 5442.00    0.68720   0.65115    0.010
 5443.00    0.67846   0.62691    0.010
 5444.00    0.69320   0.65959    0.010
 5445.00    0.67921   0.70482    0.010
 5446.00    0.65445   0.72428    0.010
 5447.00    0.61841   0.72305    0.010
 5448.00    0.57878   0.71539    0.010
 5449.00    0.60983   0.70294    0.010
 5450.00    0.65966   0.67593    0.010
 5451.00    0.65804   0.63651    0.010
 5452.00    0.64522   0.63146    0.010
 5453.00    0.68183   0.67433    0.010
 5454.00    0.72698   0.71674    0.009
 5455.00    0.75035   0.72890    0.010
 5456.00    0.77086   0.71697    0.010
 5457.00    0.72175   0.70010    0.010
 5458.00    0.66620   0.67971    0.010
 5459.00    0.61364   0.66084    0.010
 5460.00    0.56124   0.67160    0.010
 5461.00    0.63179   0.69685    0.010
 5462.00    0.70495   0.70168    0.009
 5463.00    0.76389   0.70097    0.009
 5464.00    0.82031   0.70897    0.009
 5465.00    0.81744   0.70668    0.009
 5466.00    0.81666   0.69168    0.009
 5467.00    0.84271   0.68757    0.010
 5468.00    0.85843   0.69045    0.010
 5469.00    0.78469   0.67779    0.010
 5470.00    0.71884   0.66963    0.010
 5471.00    0.70362   0.66658    0.010
 5472.00    0.69417   0.63503    0.010
 5473.00    0.71364   0.61362    0.010
 5474.00    0.73040   0.64835    0.010
 5475.00    0.73618   0.69060    0.010
 5476.00    0.74131   0.68624    0.010
 5477.00    0.74426   0.65378    0.010
 5478.00    0.75212   0.64681   -2.000
 5479.00    0.77391   0.66859   -2.000
 5480.00    0.83194   0.69704   -2.000
 5481.00    0.97795   0.71859   -2.000
 5482.00    0.99909   0.71284   -2.000
 5483.00    0.75862   0.68335   -2.000
 5484.00    0.70528   0.66954   -2.000
 5485.00    0.99273   0.68143   -2.000
 5486.00    1.24544   0.68904   -2.000
 5487.00    1.44285   0.69605   -2.000
 5488.00    1.72008   0.70276   -2.000
 5489.00    2.10879   0.69251   -2.000
 5490.00    2.06171   0.68492   -2.000
 5491.00    1.47886   0.69528   -2.000
 5492.00    0.97914   0.69565   -2.000
 5493.00    0.56952   0.67723   -2.000
 5494.00    0.36941   0.67950   -2.000
 5495.00    0.36958   0.70650   -2.000
 5496.00    0.48918   0.71039   -2.000
 5497.00    0.70944   0.68455   -2.000
 5498.00    0.77506   0.66742   -2.000
 5499.00    0.72591   0.67205   -2.000
 5500.00    0.71387   0.68146   -2.000
 5501.00    0.72603   0.67706   -2.000
 5502.00    0.68624   0.65625    0.009
 5503.00    0.61681   0.65558    0.009
 5504.00    0.58663   0.68160    0.009
 5505.00    0.57595   0.69368    0.009
 5506.00    0.61301   0.68742    0.009
 5507.00    0.67058   0.67230    0.009
 5508.00    0.63864   0.64882    0.009
 5509.00    0.57371   0.63819    0.009
 5510.00    0.61323   0.64603    0.009
 5511.00    0.68534   0.65902    0.009
 5512.00    0.73651   0.67040    0.009
 5513.00    0.78225   0.68275    0.009
 5514.00    0.77043   0.70360    0.009
 5515.00    0.74640   0.71711    0.009
 5516.00    0.72436   0.71339    0.009
 5517.00    0.70266   0.70634    0.009
 5518.00    0.67544   0.70433    0.009
 5519.00    0.64752   0.70517    0.009
 5520.00    0.64548   0.70428    0.009
 5521.00    0.64573   0.69652    0.009
 5522.00    0.65724   0.68253    0.009
 5523.00    0.66935   0.65927    0.009
 5524.00    0.65687   0.63666    0.009
 5525.00    0.64528   0.64696    0.009
 5526.00    0.73584   0.68103    0.009
 5527.00    0.82010   0.69840    0.010
 5528.00    0.76865   0.69466    0.009
 5529.00    0.72238   0.68866    0.009
 5530.00    0.73922   0.68215    0.009
 5531.00    0.75308   0.67315    0.010
 5532.00    0.74209   0.67710    0.010
 5533.00    0.73135   0.68539    0.010
 5534.00    0.72216   0.68527    0.010
 5535.00    0.72746   0.69186    0.009
 5536.00    0.80364   0.70667    0.010
 5537.00    0.84017   0.71521    0.010
 5538.00    0.71926   0.70688    0.010
 5539.00    0.61319   0.69014    0.011
 5540.00    0.55609   0.68633    0.025
 5541.00    0.54943   0.69037   -1.000
 5542.00    0.68344   0.68746   -1.000
 5543.00    0.77382   0.69186   -1.000
 5544.00    0.76008   0.70951   -1.000
 5545.00    0.73641   0.72008   -1.000
 5546.00    0.69228   0.72029   -1.000
 5547.00    0.67515   0.71875    0.050
 5548.00    0.70644   0.71230    0.013
 5549.00    0.73422   0.69772    0.009
 5550.00    0.75648   0.68538    0.009
 5551.00    0.73630   0.68675    0.009
 5552.00    0.65767   0.69477    0.009
 5553.00    0.60874   0.69384    0.009
 5554.00    0.59582   0.69033    0.009
 5555.00    0.62248   0.69378    0.009
 5556.00    0.69142   0.69505    0.009
 5557.00    0.74996   0.68991    0.009
 5558.00    0.79870   0.67874    0.009
 5559.00    0.81156   0.67065    0.009
 5560.00    0.79460   0.67420    0.009
 5561.00    0.75138   0.67260    0.009
 5562.00    0.68895   0.66304    0.009
 5563.00    0.66215   0.66312    0.009
 5564.00    0.65825   0.66745    0.009
 5565.00    0.64984   0.66312    0.009
 5566.00    0.63890   0.66683    0.009
 5567.00    0.62534   0.68064    0.009
 5568.00    0.61051   0.66935    0.009
 5569.00    0.59495   0.65422    0.009
 5570.00    0.57909   0.67207    0.009
 5571.00    0.58948   0.68713    0.009
 5572.00    0.60937   0.68253    0.009
 5573.00    0.63517   0.68513    0.009
 5574.00    0.66279   0.68832    0.009
 5575.00    0.67892   0.68652    0.009
 5576.00    0.69211   0.69137    0.009
 5577.00    0.73886   0.68958    0.009
 5578.00    0.79256   0.68086    0.009
 5579.00    0.82399   0.68117    0.009
 5580.00    0.85179   0.67897    0.010
 5581.00    0.84484   0.66322    0.010
 5582.00    0.83364   0.63544    0.009
 5583.00    0.73932   0.60753    0.009
 5584.00    0.63802   0.59809    0.009
 5585.00    0.63380   0.60618    0.009
 5586.00    0.63428   0.62515    0.009
 5587.00    0.60987   0.64347    0.009
 5588.00    0.58726   0.64853    0.009
 5589.00    0.69340   0.64532    0.009
 5590.00    0.79259   0.64243    0.009
 5591.00    0.75370   0.65825    0.009
 5592.00    0.71819   0.68658    0.009
 5593.00    0.72193   0.68513    0.009
 5594.00    0.73282   0.65617    0.009
 5595.00    0.80124   0.64209    0.009
 5596.00    0.85267   0.64090    0.009
 5597.00    0.80150   0.63049    0.009
 5598.00    0.75050   0.62045    0.009
 5599.00    0.70036   0.62770    0.009
 5600.00    0.66098   0.65771    0.009
 5601.00    0.66339   0.68817    0.009
 5602.00    0.66175   0.70351    0.009
 5603.00    0.64699   0.70639    0.009
 5604.00    0.63040   0.70288    0.009
 5605.00    0.60882   0.69914    0.009
 5606.00    0.59050   0.69803    0.009
 5607.00    0.57984   0.70210    0.009
 5608.00    0.59400   0.70839    0.009
 5609.00    0.65848   0.70232    0.009
 5610.00    0.71027   0.66455    0.009
 5611.00    0.73967   0.61270    0.009
 5612.00    0.74893   0.60574    0.009
 5613.00    0.72708   0.64128    0.009
 5614.00    0.71568   0.66225    0.009
 5615.00    0.71844   0.65891    0.009
 5616.00    0.73765   0.65770    0.009
 5617.00    0.77649   0.67027    0.009
 5618.00    0.73494   0.68064    0.009
 5619.00    0.60871   0.66614    0.009
 5620.00    0.59010   0.63211    0.009
 5621.00    0.67152   0.61849    0.009
 5622.00    0.68721   0.63821    0.009
 5623.00    0.64905   0.65838    0.009
 5624.00    0.68398   0.66772    0.009
 5625.00    0.77161   0.68040    0.009
 5626.00    0.78630   0.69158    0.009
 5627.00    0.75485   0.69380    0.009
 5628.00    0.74970   0.68992    0.009
 5629.00    0.75910   0.68294    0.009
 5630.00    0.74338   0.67428    0.009
 5631.00    0.71557   0.66603    0.009
 5632.00    0.73773   0.65607    0.009
 5633.00    0.78065   0.64690    0.009
 5634.00    0.71581   0.64914    0.009
 5635.00    0.61269   0.65872    0.009
 5636.00    0.58618   0.65745    0.009
 5637.00    0.58264   0.64560    0.008
 5638.00    0.59933   0.64499    0.008
 5639.00    0.62105   0.65384    0.009
 5640.00    0.64179   0.65829    0.008
 5641.00    0.66233   0.66191    0.008
 5642.00    0.67372   0.66630    0.008
 5643.00    0.68365   0.67023    0.008
 5644.00    0.68966   0.66961    0.008
 5645.00    0.69520   0.66298    0.008
 5646.00    0.68534   0.66140    0.008
 5647.00    0.67424   0.67152    0.008
 5648.00    0.62802   0.68287    0.009
 5649.00    0.58022   0.68053    0.009
 5650.00    0.66625   0.66331    0.009
 5651.00    0.75284   0.65303    0.009
 5652.00    0.79329   0.65977    0.009
 5653.00    0.82616   0.64735    0.009
 5654.00    0.71937   0.60950    0.009
 5655.00    0.62271   0.60406    0.009
 5656.00    0.63819   0.63546    0.009
 5657.00    0.65264   0.64682    0.009
 5658.00    0.65914   0.63388    0.009
 5659.00    0.65913   0.63464    0.009
 5660.00    0.62085   0.65482    0.009
 5661.00    0.61067   0.67002    0.009
 5662.00    0.73121   0.66747    0.009
 5663.00    0.81528   0.65414    0.009
 5664.00    0.76067   0.64783    0.009
 5665.00    0.71401   0.65207    0.009
 5666.00    0.69257   0.65690    0.009
 5667.00    0.66652   0.66202    0.009
 5668.00    0.62807   0.67519    0.009
 5669.00    0.60241   0.69006    0.009
 5670.00    0.60629   0.69065    0.009
 5671.00    0.63434   0.68191    0.009
 5672.00    0.71065   0.68283    0.009
 5673.00    0.78876   0.68938    0.009
 5674.00    0.87002   0.68405    0.009
 5675.00    0.92768   0.67436    0.009
 5676.00    0.94941   0.67255    0.009
 5677.00    0.92653   0.66731    0.009
 5678.00    0.84397   0.65039    0.009
 5679.00    0.75540   0.64274    0.009
 5680.00    0.65974   0.65395    0.009
 5681.00    0.62409   0.66241    0.009
 5682.00    0.65079   0.65411    0.008
 5683.00    0.68428   0.63997    0.008
 5684.00    0.72402   0.63728    0.008
 5685.00    0.73647   0.64831    0.008
 5686.00    0.72689   0.66394    0.008
 5687.00    0.71529   0.67487    0.008
 5688.00    0.70224   0.68358    0.008
 5689.00    0.68760   0.68591    0.008
 5690.00    0.67196   0.67943    0.008
 5691.00    0.66922   0.67459    0.008
 5692.00    0.67351   0.67576    0.008
 5693.00    0.68865   0.67111    0.008
 5694.00    0.70892   0.65643    0.008
 5695.00    0.71053   0.64874    0.009
 5696.00    0.70452   0.64488    0.009
 5697.00    0.71957   0.63376    0.009
 5698.00    0.74196   0.62971    0.009
 5699.00    0.71702   0.64138    0.009
 5700.00    0.67816   0.65404    0.009
 5701.00    0.68239   0.65052    0.009
 5702.00    0.69712   0.63385    0.009
 5703.00    0.73475   0.61960    0.009
 5704.00    0.77689   0.60710    0.009
 5705.00    0.75891   0.59877    0.009
 5706.00    0.73170   0.60479    0.009
 5707.00    0.69909   0.61029    0.009
 5708.00    0.66586   0.61636    0.009
 5709.00    0.61436   0.63947    0.009
 5710.00    0.56149   0.65946    0.009
 5711.00    0.60065   0.66566    0.008
 5712.00    0.64356   0.66972    0.008
 5713.00    0.69780   0.67043    0.008
 5714.00    0.74971   0.66988    0.008
 5715.00    0.70203   0.67542    0.008
 5716.00    0.65900   0.68063    0.008
 5717.00    0.69596   0.68478    0.008
 5718.00    0.72277   0.69134    0.008
 5719.00    0.64216   0.69441    0.008
 5720.00    0.57064   0.69231    0.008
 5721.00    0.56723   0.68683    0.008
 5722.00    0.56666   0.67301    0.008
 5723.00    0.58224   0.65839    0.008
 5724.00    0.60104   0.66343    0.008
 5725.00    0.63447   0.67892    0.008
 5726.00    0.67108   0.67664    0.008
 5727.00    0.71956   0.65922    0.008
 5728.00    0.75494   0.65627    0.008
 5729.00    0.74955   0.67215    0.008
 5730.00    0.73739   0.68471    0.008
 5731.00    0.70735   0.68612    0.009
 5732.00    0.67686   0.68097    0.009
 5733.00    0.64537   0.67511    0.009
 5734.00    0.61476   0.67257    0.009
 5735.00    0.58586   0.67228    0.009
 5736.00    0.57630   0.67301    0.009
 5737.00    0.59986   0.67287    0.009
 5738.00    0.62172   0.66883    0.009
 5739.00    0.64105   0.66596    0.009
 5740.00    0.67062   0.67407    0.000
 5741.00    0.71371   0.68670    0.000
 5742.00    0.69745   0.68691    0.000
 5743.00    0.61228   0.66949    0.000
 5744.00    0.58090   0.65320    0.000
 5745.00    0.60459   0.66045    0.000
 5746.00    0.63163   0.67796    0.000
 5747.00    0.66169   0.67865    0.000
 5748.00    0.68113   0.65836    0.000
 5749.00    0.69210   0.63400    0.000
 5750.00    0.71427   0.62729    0.000
 5751.00    0.74428   0.64664    0.000
 5752.00    0.77781   0.67310    0.000
 5753.00    0.81348   0.68643    0.000
 5754.00    0.80826   0.68653    0.000
 5755.00    0.78110   0.67522    0.000
 5756.00    0.74906   0.65695    0.000
 5757.00    0.71473   0.63858    0.000
 5758.00    0.74592   0.62684    0.000
 5759.00    0.80341   0.63358    0.000
 5760.00    0.80273   0.66042    0.000
 5761.00    0.78214   0.68179    0.000
 5762.00    0.76842   0.68666    0.000
 5763.00    0.75667   0.68668    0.000
 5764.00    0.74321   0.68526    0.000
 5765.00    0.72935   0.68133    0.000
 5766.00    0.73285   0.67754    0.000
 5767.00    0.73967   0.67255    0.000
 5768.00    0.77163   0.66644    0.000
 5769.00    0.80733   0.66439    0.000
 5770.00    0.81266   0.66256    0.000
 5771.00    0.81468   0.66262    0.000
 5772.00    0.73589   0.66944    0.000
 5773.00    0.65130   0.67464    0.000
 5774.00    0.64609   0.67271    0.000
 5775.00    0.64381   0.66022    0.000
 5776.00    0.74570   0.63341    0.000
 5777.00    0.84410   0.60702    0.000
 5778.00    0.80214   0.60353    0.000
 5779.00    0.76209   0.61324    0.000
 5780.00    0.75295   0.61183    0.000
 5781.00    0.74610   0.60419    0.000
 5782.00    0.76242   0.61519    0.000
 5783.00    0.76532   0.63920    0.000
 5784.00    0.67095   0.65447    0.000
 5785.00    0.58884   0.65873    0.000
 5786.00    0.57480   0.65022    0.000
 5787.00    0.57311   0.64118    0.000
 5788.00    0.62615   0.64881    0.000
 5789.00    0.67748   0.66262    0.000
 5790.00    0.72258   0.67296    0.000
 5791.00    0.75127   0.67888   -2.000
 5792.00    0.72983   0.67151   -2.000
 5793.00    0.72646   0.65269   -2.000
 5794.00    0.77001   0.64626   -2.000
 5795.00    0.80194   0.66415   -2.000
 5796.00    0.80793   0.68462   -2.000
 5797.00    0.78584   0.69211   -2.000
 5798.00    0.70942   0.69130   -2.000
 5799.00    0.65400   0.67997   -2.000
 5800.00    0.63402   0.66167   -2.000
 5801.00    0.63165   0.65302   -2.000
 5802.00    0.65532   0.65608   -2.000
 5803.00    0.66858   0.66182   -2.000
 5804.00    0.66833   0.66541   -2.000
 5805.00    0.69730   0.66770   -2.000
 5806.00    0.75973   0.67177   -2.000
 5807.00    0.79930   0.67507   -2.000
 5808.00    0.81579   0.67460   -2.000
 5809.00    0.79205   0.67189   -2.000
 5810.00    0.73247   0.66415   -2.000
 5811.00    0.67199   0.65015    0.000
 5812.00    0.61080   0.64186    0.000
 5813.00    0.59794   0.65166    0.000
 5814.00    0.61842   0.67121    0.000
 5815.00    0.62441   0.68262    0.000
 5816.00    0.62165   0.68463    0.000
 5817.00    0.63505   0.68256    0.000
 5818.00    0.65699   0.67748    0.000
 5819.00    0.69759   0.67299    0.000
 5820.00    0.74674   0.67332    0.000
 5821.00    0.75508   0.67697    0.000
 5822.00    0.74731   0.67747    0.000
 5823.00    0.77709   0.67557    0.000
 5824.00    0.81948   0.67638    0.000
 5825.00    0.77366   0.68019    0.000
 5826.00    0.70294   0.68094    0.000
 5827.00    0.68621   0.67751    0.000
 5828.00    0.68204   0.67531    0.000
 5829.00    0.76775   0.67195    0.000
 5830.00    0.87025   0.66452    0.000
 5831.00    0.80565   0.66217    0.000
 5832.00    0.71694   0.66859    0.000
 5833.00    0.66708   0.66961    0.000
 5834.00    0.62128   0.66290    0.000
 5835.00    0.65966   0.66411    0.000
 5836.00    0.70374   0.67441    0.000
 5837.00    0.71631   0.68265    0.000
 5838.00    0.72783   0.68512    0.000
 5839.00    0.71554   0.68370    0.000
 5840.00    0.70231   0.67854    0.000
 5841.00    0.65992   0.67052    0.000
 5842.00    0.62063   0.66080    0.000
 5843.00    0.62812   0.65252    0.000
 5844.00    0.64007   0.65141    0.000
 5845.00    0.69538   0.65606    0.000
 5846.00    0.74027   0.65871    0.000
 5847.00    0.71203   0.65330    0.000
 5848.00    0.68034   0.63950    0.000
 5849.00    0.62998   0.62819    0.000
 5850.00    0.58584   0.63110    0.000
 5851.00    0.56871   0.63774    0.000
 5852.00    0.56206   0.62810    0.000
 5853.00    0.59281   0.60843    0.000
 5854.00    0.61507   0.60394    0.000
 5855.00    0.61189   0.61954    0.000
 5856.00    0.64037   0.63709    0.000
 5857.00    0.74962   0.64430    0.000
 5858.00    0.82333   0.64013    0.000
 5859.00    0.81901   0.63889    0.000
 5860.00    0.79692   0.64505    0.000
 5861.00    0.74097   0.64554    0.000
 5862.00    0.68533   0.63631    0.000
 5863.00    0.63018   0.63331    0.000
 5864.00    0.59401   0.64438    0.000
 5865.00    0.58548   0.65693    0.000
 5866.00    0.59857   0.66209    0.000
 5867.00    0.63936   0.65970    0.000
 5868.00    0.69053   0.65281    0.000
 5869.00    0.75343   0.64714    0.000
 5870.00    0.81330   0.64593    0.000
 5871.00    0.87016   0.64506    0.000
 5872.00    0.88100   0.64171    0.000
 5873.00    0.85144   0.63989    0.000
 5874.00    0.80981   0.63824    0.000
 5875.00    0.75885   0.63022    0.000
 5876.00    0.72093   0.62273    0.000
 5877.00    0.69189   0.62617    0.000
 5878.00    0.70270   0.63326    0.000
 5879.00    0.73727   0.63054    0.000
 5880.00    0.78834   0.62493    0.000
 5881.00    0.84799   0.62698    0.000
 5882.00    0.81596   0.62708    0.000
 5883.00    0.74260   0.60538    0.000
 5884.00    0.67673   0.54620    0.000
 5885.00    0.61377   0.46564    0.000
 5886.00    0.60758   0.43031    0.000
 5887.00    0.62010   0.47299    0.000
 5888.00    0.61025   0.53300    0.000
 5889.00    0.59421   0.55838    0.000
 5890.00    0.62089   0.54334    0.000
 5891.00    0.65728   0.49533    0.000
 5892.00    0.61658   0.47276    0.000
 5893.00    0.56186   0.51508    0.000
 5894.00    0.54043   0.56842    0.000
 5895.00    0.52365   0.59294    0.000
 5896.00    0.56850   0.60780    0.000
 5897.00    0.61955   0.62085    0.000
 5898.00    0.65172   0.62603    0.000
 5899.00    0.68269   0.62789    0.000
 5900.00    0.66401   0.62811    0.000
 5901.00    0.64400   0.62399    0.008
 5902.00    0.66811   0.62245    0.008
 5903.00    0.69068   0.62833    0.008
 5904.00    0.66989   0.63422    0.008
 5905.00    0.65255   0.63483    0.008
 5906.00    0.68429   0.63578    0.008
 5907.00    0.71755   0.63991    0.008
 5908.00    0.76492   0.63767    0.008
 5909.00    0.79851   0.62309    0.008
 5910.00    0.73847   0.60766    0.008
 5911.00    0.68456   0.60405    0.008
 5912.00    0.66292   0.60971    0.008
 5913.00    0.65134   0.61985    0.008
 5914.00    0.68238   0.62835    0.008
 5915.00    0.71024   0.63326    0.008
 5916.00    0.72699   0.63648    0.008
 5917.00    0.74104   0.63361    0.008
 5918.00    0.74722   0.62843    0.008
 5919.00    0.74939   0.62953    0.008
 5920.00    0.74155   0.63451    0.008
 5921.00    0.72452   0.63868    0.008
 5922.00    0.68766   0.64071    0.008
 5923.00    0.65806   0.63675    0.008
 5924.00    0.64207   0.62707    0.008
 5925.00    0.64372   0.61639    0.008
 5926.00    0.67427   0.61422    0.008
 5927.00    0.69474   0.62635    0.008
 5928.00    0.70077   0.63758    0.008
 5929.00    0.68288   0.63281    0.008
 5930.00    0.63479   0.61989    0.008
 5931.00    0.60596   0.61769    0.008
 5932.00    0.59857   0.62823    0.008
 5933.00    0.59929   0.63643    0.008
 5934.00    0.60799   0.63999    0.008
 5935.00    0.61546   0.64045    0.008
 5936.00    0.62187   0.63103    0.008
 5937.00    0.62297   0.61839    0.008
 5938.00    0.62004   0.61712    0.008
 5939.00    0.59711   0.62485    0.008
 5940.00    0.56078   0.63372    0.008
 5941.00    0.53995   0.64127    0.008
 5942.00    0.52822   0.64320    0.008
 5943.00    0.53699   0.63466    0.008
 5944.00    0.55627   0.61954    0.008
 5945.00    0.58852   0.61366    0.008
 5946.00    0.62652   0.62285    0.008
 5947.00    0.64736   0.62835    0.008
 5948.00    0.66168   0.61900    0.008
 5949.00    0.63974   0.61306    0.008
 5950.00    0.60608   0.62191    0.008
 5951.00    0.58063   0.62721    0.008
 5952.00    0.55740   0.61905    0.008
 5953.00    0.56810   0.61197    0.008
 5954.00    0.58632   0.61586    0.008
 5955.00    0.60305   0.62618    0.008
 5956.00    0.61951   0.63654    0.008
 5957.00    0.64801   0.64280    0.008
 5958.00    0.67815   0.64371    0.008
 5959.00    0.67433   0.64117    0.008
 5960.00    0.66725   0.63677    0.008
 5961.00    0.66123   0.63009    0.008
 5962.00    0.65527   0.62817    0.008
 5963.00    0.64700   0.63470    0.008
 5964.00    0.63868   0.64081    0.008
 5965.00    0.62994   0.64387    0.008
 5966.00    0.62166   0.64695    0.008
 5967.00    0.62511   0.64863    0.008
 5968.00    0.62535   0.64775    0.008
 5969.00    0.58236   0.64491    0.008
 5970.00    0.54344   0.63745    0.008
 5971.00    0.54090   0.62463    0.008
 5972.00    0.54369   0.61320    0.008
 5973.00    0.58155   0.60950    0.008
 5974.00    0.61717   0.61326    0.008
 5975.00    0.64129   0.62297    0.008
 5976.00    0.65790   0.63338    0.008
 5977.00    0.64346   0.63578    0.008
 5978.00    0.62595   0.62617    0.008
 5979.00    0.59791   0.60773    0.008
 5980.00    0.58113   0.59535    0.008
 5981.00    0.59683   0.60206    0.008
 5982.00    0.61784   0.61586    0.008
 5983.00    0.65192   0.62205    0.008
 5984.00    0.67521   0.62572    0.008
 5985.00    0.67554   0.63066    0.008
 5986.00    0.66039   0.63015    0.008
 5987.00    0.61668   0.62437    0.008
 5988.00    0.60438   0.62589    0.008
 5989.00    0.64273   0.63682    0.008
 5990.00    0.67386   0.64356    0.008
 5991.00    0.69479   0.63913    0.008
 5992.00    0.70240   0.62679    0.008
 5993.00    0.69344   0.61467    0.008
 5994.00    0.68213   0.61177    0.008
 5995.00    0.66822   0.61808    0.008
 5996.00    0.66980   0.62564    0.008
 5997.00    0.68638   0.62559    0.008
 5998.00    0.69942   0.61703    0.008
 5999.00    0.70943   0.61362    0.008
 6000.00    0.69378   0.62024    0.008
 6001.00    0.65884   0.62199    0.008
 6002.00    0.63609   0.61180    0.008
 6003.00    0.62139   0.59658    0.008
 6004.00    0.62269   0.59135    0.008
 6005.00    0.63323   0.60709    0.008
 6006.00    0.64006   0.62702    0.008
 6007.00    0.64501   0.62867    0.008
 6008.00    0.64110   0.61494    0.008
 6009.00    0.63332   0.60491    0.008
 6010.00    0.67308   0.60828    0.008
 6011.00    0.73064   0.61237    0.008
 6012.00    0.72629   0.60813    0.008
 6013.00    0.70229   0.60674    0.008
 6014.00    0.67264   0.60975    0.008
 6015.00    0.64149   0.60576    0.008
 6016.00    0.65339   0.59888    0.008
 6017.00    0.67462   0.59977    0.008
 6018.00    0.67352   0.60558    0.008
 6019.00    0.66858   0.60959    0.008
 6020.00    0.63542   0.61363    0.008
 6021.00    0.59859   0.62068    0.008
 6022.00    0.60945   0.62345    0.008
 6023.00    0.62471   0.62343    0.008
 6024.00    0.64990   0.62909    0.008
 6025.00    0.67565   0.63462    0.008
 6026.00    0.67612   0.63434    0.008
 6027.00    0.67570   0.63357    0.008
 6028.00    0.64251   0.63696    0.008
 6029.00    0.60850   0.64014    0.008
 6030.00    0.55548   0.64001    0.008
 6031.00    0.50768   0.63901    0.008
 6032.00    0.52646   0.63931    0.008
 6033.00    0.54783   0.64003    0.008
 6034.00    0.59148   0.63820    0.008
 6035.00    0.63259   0.63325    0.008
 6036.00    0.65751   0.62940    0.008
 6037.00    0.67250   0.62851    0.008
 6038.00    0.63778   0.63060    0.008
 6039.00    0.60276   0.63712    0.008
 6040.00    0.56644   0.64269    0.008
 6041.00    0.53223   0.64414    0.008
 6042.00    0.50513   0.64469    0.008
 6043.00    0.49585   0.64434    0.008
 6044.00    0.53705   0.64202    0.008
 6045.00    0.57214   0.64149    0.008
 6046.00    0.59244   0.64410    0.008
 6047.00    0.61266   0.64367    0.008
 6048.00    0.63273   0.63749    0.008
 6049.00    0.65788   0.63016    0.008
 6050.00    0.69227   0.62556    0.008
 6051.00    0.71036   0.62123    0.008
 6052.00    0.70255   0.61725    0.008
 6053.00    0.67685   0.61882    0.008
 6054.00    0.62619   0.62579    0.008
 6055.00    0.58157   0.63353    0.008
 6056.00    0.54434   0.63710    0.008
 6057.00    0.54759   0.63446    0.008
 6058.00    0.59462   0.62667    0.008
 6059.00    0.63361   0.61609    0.008
 6060.00    0.66495   0.60299    0.008
 6061.00    0.66297   0.59609    0.008
 6062.00    0.63297   0.60947    0.008
 6063.00    0.61107   0.63229    0.008
 6064.00    0.59519   0.64452    0.008
 6065.00    0.60604   0.64625    0.008
 6066.00    0.63428   0.64575    0.008
 6067.00    0.64235   0.64636    0.008
 6068.00    0.63893   0.64730    0.008
 6069.00    0.64767   0.64743    0.008
 6070.00    0.66245   0.64641    0.008
 6071.00    0.69136   0.64330    0.008
 6072.00    0.72634   0.63680    0.008
 6073.00    0.70020   0.62579    0.008
 6074.00    0.65160   0.61466    0.008
 6075.00    0.65167   0.61320    0.008
 6076.00    0.66691   0.61615    0.008
 6077.00    0.65519   0.61085    0.008
 6078.00    0.63648   0.60530    0.008
 6079.00    0.64059   0.60939    0.008
 6080.00    0.64954   0.61350    0.008
 6081.00    0.69208   0.61194    0.008
 6082.00    0.74024   0.61301    0.008
 6083.00    0.68550   0.61902    0.008
 6084.00    0.61779   0.62050    0.008
 6085.00    0.56400   0.61150    0.008
 6086.00    0.51143   0.60192    0.008
 6087.00    0.54608   0.60169    0.008
 6088.00    0.58524   0.60485    0.008
 6089.00    0.62361   0.60872    0.008
 6090.00    0.66143   0.61852    0.008
 6091.00    0.66040   0.62664    0.008
 6092.00    0.65938   0.62381    0.008
 6093.00    0.65845   0.61882    0.008
 6094.00    0.65602   0.62191    0.008
 6095.00    0.63525   0.62909    0.008
 6096.00    0.61347   0.62618    0.008
 6097.00    0.58333   0.60059    0.008
 6098.00    0.55674   0.56778    0.007
 6099.00    0.55222   0.56584    0.007
 6100.00    0.54986   0.59462    0.007
 6101.00    0.55804   0.61731    0.008
 6102.00    0.57962   0.62020    0.008
 6103.00    0.65425   0.61466    0.008
 6104.00    0.70648   0.61510    0.008
 6105.00    0.68496   0.62234    0.008
 6106.00    0.66286   0.62232    0.008
 6107.00    0.63913   0.61541    0.008
 6108.00    0.62082   0.61714    0.008
 6109.00    0.61541   0.62743    0.008
 6110.00    0.60372   0.63236    0.008
 6111.00    0.57907   0.62532    0.008
 6112.00    0.56025   0.61636    0.008
 6113.00    0.55185   0.61735    0.008
 6114.00    0.56654   0.61902    0.008
 6115.00    0.61738   0.60903    0.008
 6116.00    0.64060   0.59109    0.008
 6117.00    0.62587   0.57207    0.008
 6118.00    0.61077   0.56758    0.008
 6119.00    0.59521   0.58852    0.008
 6120.00    0.57276   0.61082    0.008
 6121.00    0.54296   0.61389    0.008
 6122.00    0.53116   0.60722    0.008
 6123.00    0.53631   0.60063    0.007
 6124.00    0.55933   0.59846    0.007
 6125.00    0.59718   0.60517    0.007
 6126.00    0.61013   0.61638    0.007
 6127.00    0.60491   0.62319    0.007
 6128.00    0.59836   0.62479    0.007
 6129.00    0.59095   0.62105    0.007
 6130.00    0.57059   0.60500    0.007
 6131.00    0.54295   0.57307    0.007
 6132.00    0.54501   0.53667    0.007
 6133.00    0.56155   0.52727    0.007
 6134.00    0.59698   0.56000    0.008
 6135.00    0.64037   0.60031    0.008
 6136.00    0.66182   0.60962    0.008
 6137.00    0.67535   0.59616    0.008
 6138.00    0.67329   0.59418    0.008
 6139.00    0.66648   0.61073    0.008
 6140.00    0.65310   0.62426    0.008
 6141.00    0.63806   0.62562    0.008
 6142.00    0.61851   0.62129    0.008
 6143.00    0.59803   0.61382    0.008
 6144.00    0.58881   0.60356    0.008
 6145.00    0.58143   0.59507    0.008
 6146.00    0.58661   0.59381    0.008
 6147.00    0.59332   0.60061    0.008
 6148.00    0.59752   0.60905    0.008
 6149.00    0.60151   0.60860    0.008
 6150.00    0.58709   0.59908    0.007
 6151.00    0.57179   0.59408    0.007
 6152.00    0.55644   0.59648    0.007
 6153.00    0.54128   0.59753    0.007
 6154.00    0.53720   0.59552    0.007
 6155.00    0.53494   0.58534    0.007
 6156.00    0.56848   0.55551    0.007
 6157.00    0.60085   0.51733    0.007
 6158.00    0.61956   0.50195    0.008
 6159.00    0.63771   0.51845    0.008
 6160.00    0.65140   0.54610    0.008
 6161.00    0.66205   0.56437    0.008
 6162.00    0.65448   0.57376    0.008
 6163.00    0.64975   0.57609    0.008
 6164.00    0.65855   0.55983    0.008
 6165.00    0.66050   0.53663    0.008
 6166.00    0.63584   0.53955    0.008
 6167.00    0.60909   0.56517    0.008
 6168.00    0.57558   0.58090    0.008
 6169.00    0.55481   0.58128    0.008
 6170.00    0.56887   0.58123    0.008
 6171.00    0.57407   0.58134    0.008
 6172.00    0.55852   0.57892    0.008
 6173.00    0.53800   0.58166    0.008
 6174.00    0.50740   0.58903    0.008
 6175.00    0.48860   0.59030    0.008
 6176.00    0.49062   0.58909    0.008
 6177.00    0.49753   0.59394    0.008
 6178.00    0.51201   0.59864    0.007
 6179.00    0.52263   0.59833    0.007
 6180.00    0.52803   0.59586    0.007
 6181.00    0.53548   0.58840    0.007
 6182.00    0.54537   0.57616    0.007
 6183.00    0.56751   0.56827    0.007
 6184.00    0.60253   0.56730    0.007
 6185.00    0.62354   0.56377    0.007
 6186.00    0.63156   0.54729    0.008
 6187.00    0.62060   0.53281    0.008
 6188.00    0.59412   0.54506    0.008
 6189.00    0.57055   0.57085    0.008
 6190.00    0.54909   0.58508    0.008
 6191.00    0.54608   0.59015    0.008
 6192.00    0.55473   0.59467    0.008
 6193.00    0.62003   0.59414    0.008
 6194.00    0.71662   0.58112    0.008
 6195.00    0.88458   0.56419    0.008
 6196.00    1.08681   0.56239   -2.000
 6197.00    1.33418   0.57686   -2.000
 6198.00    1.60025   0.59092   -2.000
 6199.00    1.64678   0.59471   -2.000
 6200.00    1.61548   0.59263   -2.000
 6201.00    1.35613   0.59247   -2.000
 6202.00    1.02854   0.59450   -2.000
 6203.00    0.75294   0.59516   -2.000
 6204.00    0.49025   0.59403   -2.000
 6205.00    0.46026   0.59068   -2.000
 6206.00    0.47713   0.58548   -2.000
 6207.00    0.52046   0.57911   -2.000
 6208.00    0.56795   0.56599    0.008
 6209.00    0.54232   0.54700    0.008
 6210.00    0.50812   0.53464    0.008
 6211.00    0.51762   0.53487    0.007
 6212.00    0.53060   0.54601    0.007
 6213.00    0.56217   0.55856    0.007
 6214.00    0.59457   0.55805    0.007
 6215.00    0.58034   0.54760    0.007
 6216.00    0.56643   0.54389    0.007
 6217.00    0.59194   0.55177    0.007
 6218.00    0.61516   0.56127    0.007
 6219.00    0.59662   0.56286    0.007
 6220.00    0.57968   0.56126    0.007
 6221.00    0.58031   0.56413    0.008
 6222.00    0.58039   0.56783    0.008
 6223.00    0.57613   0.56818    0.008
 6224.00    0.57137   0.56049    0.007
 6225.00    0.56366   0.53969    0.008
 6226.00    0.56146   0.51939    0.008
 6227.00    0.58492   0.51912    0.008
 6228.00    0.59866   0.53430    0.008
 6229.00    0.57558   0.55395    0.008
 6230.00    0.54974   0.57311    0.008
 6231.00    0.51516   0.58222    0.008
 6232.00    0.48969   0.57814    0.008
 6233.00    0.48865   0.56792    0.008
 6234.00    0.49790   0.55607    0.007
 6235.00    0.53084   0.54473    0.007
 6236.00    0.55861   0.54207    0.007
 6237.00    0.57608   0.54526    0.007
 6238.00    0.57512   0.53909    0.007
 6239.00    0.54218   0.53065    0.007
 6240.00    0.50255   0.53249    0.007
 6241.00    0.45276   0.53671    0.007
 6242.00    0.43135   0.54317    0.007
 6243.00    0.44781   0.55744    0.007
 6244.00    0.47924   0.56955    0.007
 6245.00    0.52827   0.57171    0.007
 6246.00    0.57035   0.56458    0.007
 6247.00    0.60523   0.54788    0.007
 6248.00    0.62834   0.53122    0.007
 6249.00    0.64068   0.52682    0.008
 6250.00    0.62084   0.53099    0.008
 6251.00    0.57506   0.53145    0.008
 6252.00    0.56478   0.52327    0.008
 6253.00    0.57967   0.51212    0.008
 6254.00    0.59030   0.51063    0.008
 6255.00    0.59830   0.52534    0.008
 6256.00    0.59776   0.54269    0.008
 6257.00    0.59260   0.55469    0.008
 6258.00    0.61480   0.56719    0.008
 6259.00    0.64994   0.57252    0.008
 6260.00    0.70391   0.56250    0.008
 6261.00    0.76556   0.55312    0.009
 6262.00    0.76773   0.55780    0.009
 6263.00    0.74921   0.56458    0.010
 6264.00    0.67705   0.56264    0.009
 6265.00    0.58917   0.55825    0.009
 6266.00    0.52730   0.55846    0.009
 6267.00    0.47176   0.56323    0.008
 6268.00    0.47416   0.56883    0.008
 6269.00    0.48794   0.57005    0.007
 6270.00    0.53043   0.56835    0.007
 6271.00    0.57732   0.56849    0.007
 6272.00    0.61756   0.56926    0.007
 6273.00    0.65706   0.56879    0.007
 6274.00    0.65976   0.56533    0.007
 6275.00    0.65970   0.55624    0.007
 6276.00    0.61989   0.54845    0.007
 6277.00    0.57849   0.55074    0.008
 6278.00    0.55206   0.56024    0.008
 6279.00    0.52703   0.57010    0.008
 6280.00    0.55443   0.57334    0.000
 6281.00    0.58230   0.57269    0.000
 6282.00    0.61837   0.57662    0.000
 6283.00    0.65143   0.58386    0.000
 6284.00    0.65287   0.58825    0.000
 6285.00    0.64942   0.58478    0.000
 6286.00    0.60940   0.57483    0.000
 6287.00    0.57803   0.56653    0.000
 6288.00    0.59587   0.56380    0.000
 6289.00    0.60784   0.56665    0.000
 6290.00    0.59322   0.56986    0.000
 6291.00    0.58066   0.56300    0.000
 6292.00    0.57572   0.54960    0.000
 6293.00    0.57922   0.54489    0.000
 6294.00    0.60895   0.55199    0.000
 6295.00    0.63723   0.55791    0.000
 6296.00    0.66172   0.55195    0.000
 6297.00    0.67028   0.54189    0.000
 6298.00    0.64281   0.54298    0.000
 6299.00    0.61073   0.55407    0.000
 6300.00    0.56961   0.56131    0.000
 6301.00    0.54728   0.56329    0.000
 6302.00    0.55706   0.57043    0.000
 6303.00    0.56616   0.58080    0.000
 6304.00    0.57426   0.58392    0.000
 6305.00    0.57685   0.57758    0.000
 6306.00    0.57219   0.56705    0.000
 6307.00    0.57840   0.56075    0.000
 6308.00    0.59721   0.56221    0.000
 6309.00    0.59435   0.56087    0.000
 6310.00    0.56932   0.55058    0.000
 6311.00    0.54357   0.54537    0.000
 6312.00    0.51715   0.54677    0.000
 6313.00    0.50090   0.53997    0.000
 6314.00    0.49274   0.53411    0.000
 6315.00    0.49310   0.54405    0.000
 6316.00    0.49943   0.55780    0.000
 6317.00    0.50211   0.56146    0.000
 6318.00    0.50255   0.56176    0.000
 6319.00    0.50486   0.56815    0.000
 6320.00    0.50816   0.57541    0.000
 6321.00    0.49678   0.57750    0.007
 6322.00    0.47859   0.57488    0.007
 6323.00    0.49366   0.57381    0.007
 6324.00    0.52207   0.57662    0.007
 6325.00    0.54502   0.57495    0.007
 6326.00    0.56611   0.57109    0.007
 6327.00    0.56758   0.57487    0.007
 6328.00    0.56341   0.58257    0.007
 6329.00    0.54357   0.58041    0.007
 6330.00    0.52001   0.56139    0.007
 6331.00    0.52123   0.54050    0.007
 6332.00    0.52721   0.53803    0.007
 6333.00    0.55126   0.54952    0.007
 6334.00    0.57800   0.55849    0.007
 6335.00    0.58681   0.56556    0.007
 6336.00    0.59368   0.57379    0.007
 6337.00    0.59178   0.57407    0.007
 6338.00    0.58926   0.56262    0.007
 6339.00    0.58602   0.54882    0.007
 6340.00    0.58275   0.54692    0.007
 6341.00    0.54494   0.55598    0.007
 6342.00    0.50800   0.56398    0.007
 6343.00    0.50625   0.56904    0.007
 6344.00    0.50455   0.57411    0.007
 6345.00    0.50358   0.57693    0.007
 6346.00    0.50137   0.57757    0.007
 6347.00    0.48657   0.57786    0.007
 6348.00    0.47801   0.57484    0.007
 6349.00    0.51452   0.56485    0.007
 6350.00    0.54869   0.55354    0.007
 6351.00    0.56991   0.55220    0.007
 6352.00    0.57843   0.55579    0.007
 6353.00    0.53078   0.54839    0.007
 6354.00    0.49399   0.53465    0.007
 6355.00    0.49670   0.52935    0.007
 6356.00    0.51209   0.52866    0.007
 6357.00    0.56614   0.52422    0.007
 6358.00    0.60773   0.52195    0.008
 6359.00    0.61705   0.52835    0.008
 6360.00    0.62010   0.53938    0.008
 6361.00    0.60916   0.54915    0.008
 6362.00    0.58628   0.55794    0.008
 6363.00    0.54034   0.56752    0.008
 6364.00    0.52149   0.57266    0.008
 6365.00    0.54823   0.56997    0.008
 6366.00    0.56665   0.56729    0.008
 6367.00    0.57280   0.57220    0.008
 6368.00    0.55779   0.58030    0.007
 6369.00    0.51533   0.58296    0.007
 6370.00    0.49222   0.58050    0.007
 6371.00    0.49123   0.57953    0.007
 6372.00    0.49721   0.57935    0.007
 6373.00    0.51020   0.57362    0.007
 6374.00    0.52660   0.56555    0.007
 6375.00    0.54604   0.56212    0.007
 6376.00    0.55579   0.56261    0.007
 6377.00    0.55795   0.56661    0.007
 6378.00    0.54380   0.57106    0.007
 6379.00    0.51842   0.56959    0.007
 6380.00    0.47922   0.56643    0.007
 6381.00    0.43167   0.56935    0.007
 6382.00    0.39490   0.57485    0.007
 6383.00    0.36381   0.57642    0.007
 6384.00    0.35535   0.57581    0.007
 6385.00    0.35725   0.57653    0.007
 6386.00    0.38957   0.57511    0.007
 6387.00    0.43387   0.56385    0.007
 6388.00    0.48505   0.54308    0.007
 6389.00    0.53854   0.53267    0.007
 6390.00    0.55333   0.54555    0.007
 6391.00    0.55721   0.56613    0.007
 6392.00    0.51251   0.57830    0.007
 6393.00    0.45653   0.57795    0.007
 6394.00    0.41380   0.55991    0.007
 6395.00    0.37353   0.53311    0.007
 6396.00    0.37945   0.53056    0.007
 6397.00    0.39200   0.55556    0.007
 6398.00    0.41224   0.57681    0.007
 6399.00    0.43327   0.58340    0.007
 6400.00    0.47071   0.58215    0.007
 6401.00    0.50927   0.57598    0.007
 6402.00    0.55581   0.56403    0.007
 6403.00    0.60262   0.55258    0.007
 6404.00    0.57795   0.55580    0.007
 6405.00    0.55314   0.56559    0.007
 6406.00    0.52417   0.56113    0.007
 6407.00    0.49655   0.55159    0.007
 6408.00    0.48934   0.55337    0.007
 6409.00    0.48067   0.55921    0.007
 6410.00    0.45785   0.56271    0.007
 6411.00    0.43567   0.56766    0.007
 6412.00    0.41796   0.57114    0.007
 6413.00    0.40750   0.56867    0.007
 6414.00    0.43608   0.55954    0.007
 6415.00    0.46377   0.54488    0.007
 6416.00    0.48766   0.53483    0.007
 6417.00    0.49966   0.54256    0.007
 6418.00    0.46930   0.56352    0.007
 6419.00    0.44474   0.57658    0.007
 6420.00    0.43748   0.57632    0.007
 6421.00    0.44015   0.57560    0.007
 6422.00    0.46810   0.58020    0.007
 6423.00    0.48815   0.58364    0.007
 6424.00    0.49089   0.57724    0.007
 6425.00    0.49380   0.55771    0.007
 6426.00    0.49704   0.53860    0.007
 6427.00    0.50301   0.53929    0.007
 6428.00    0.51350   0.55466    0.008
 6429.00    0.52457   0.56765    0.008
 6430.00    0.53649   0.57415    0.008
 6431.00    0.53599   0.57704    0.008
 6432.00    0.51961   0.57412    0.008
 6433.00    0.51859   0.55856    0.008
 6434.00    0.53489   0.54056    0.008
 6435.00    0.53818   0.54391    0.007
 6436.00    0.52853   0.56535    0.007
 6437.00    0.53586   0.58111    0.007
 6438.00    0.55807   0.58509    0.007
 6439.00    0.55164   0.58428    0.008
 6440.00    0.52310   0.58467    0.008
 6441.00    0.50098   0.58754    0.007
 6442.00    0.48320   0.58773    0.007
 6443.00    0.47188   0.57524    0.007
 6444.00    0.46441   0.54388    0.007
 6445.00    0.46463   0.51386    0.007
 6446.00    0.46885   0.51602    0.007
 6447.00    0.48205   0.54175    0.007
 6448.00    0.49927   0.56421    0.007
 6449.00    0.48144   0.57181    0.007
 6450.00    0.45005   0.56350    0.007
 6451.00    0.41899   0.55268    0.007
 6452.00    0.38803   0.55595    0.007
 6453.00    0.39640   0.57039    0.007
 6454.00    0.41562   0.58265    0.007
 6455.00    0.45778   0.58668    0.007
 6456.00    0.50516   0.57681    0.007
 6457.00    0.48080   0.54988    0.007
 6458.00    0.44345   0.52872    0.007
 6459.00    0.41638   0.53677    0.007
 6460.00    0.39075   0.55736    0.007
 6461.00    0.42418   0.57028    0.007
 6462.00    0.46351   0.57621    0.008
 6463.00    0.48449   0.57759    0.007
 6464.00    0.50430   0.57281    0.007
 6465.00    0.52138   0.56573    0.007
 6466.00    0.53826   0.55892    0.007
 6467.00    0.52147   0.55674    0.007
 6468.00    0.50519   0.56369    0.007
 6469.00    0.50316   0.56754    0.007
 6470.00    0.50339   0.56185    0.007
 6471.00    0.53538   0.55908    0.007
 6472.00    0.56463   0.56535    0.007
 6473.00    0.56836   0.57045    0.007
 6474.00    0.56840   0.57068    0.007
 6475.00    0.54355   0.56831    0.007
 6476.00    0.52415   0.55737    0.007
 6477.00    0.53333   0.54006    0.007
 6478.00    0.54345   0.53284    0.007
 6479.00    0.55756   0.54140    0.007
 6480.00    0.56984   0.55371    0.007
 6481.00    0.57576   0.56084    0.007
 6482.00    0.57638   0.56417    0.007
 6483.00    0.56146   0.56624    0.007
 6484.00    0.54566   0.56424    0.007
 6485.00    0.52768   0.55684    0.007
 6486.00    0.50940   0.54937    0.007
 6487.00    0.49047   0.54382    0.007
 6488.00    0.48444   0.52834    0.007
 6489.00    0.50257   0.49657    0.007
 6490.00    0.51137   0.47044    0.007
 6491.00    0.50494   0.46833    0.007
 6492.00    0.49142   0.48225    0.007
 6493.00    0.46777   0.49896    0.007
 6494.00    0.45075   0.50845    0.007
 6495.00    0.44207   0.51715    0.007
 6496.00    0.45370   0.53041    0.007
 6497.00    0.48789   0.54137    0.007
 6498.00    0.51697   0.54810    0.007
 6499.00    0.54105   0.55224    0.007
 6500.00    0.55334   0.55618    0.007
 6501.00    0.55545   0.56014    0.007
 6502.00    0.54900   0.56023    0.007
 6503.00    0.53602   0.55418    0.007
 6504.00    0.52003   0.54939    0.007
 6505.00    0.50202   0.55221    0.007
 6506.00    0.47872   0.55821    0.007
 6507.00    0.45230   0.56054    0.007
 6508.00    0.42231   0.56055    0.007
 6509.00    0.39050   0.55916    0.007
 6510.00    0.36318   0.55355    0.007
 6511.00    0.33786   0.54626    0.007
 6512.00    0.34748   0.54138    0.007
 6513.00    0.37039   0.53651    0.007
 6514.00    0.41383   0.53522    0.007
 6515.00    0.46388   0.54399    0.007
 6516.00    0.50328   0.55507    0.007
 6517.00    0.53980   0.55960    0.007
 6518.00    0.53291   0.55931    0.007
 6519.00    0.51640   0.56012    0.007
 6520.00    0.50372   0.56133    0.007
 6521.00    0.49172   0.55548    0.007
 6522.00    0.49563   0.54569    0.007
 6523.00    0.50169   0.54444    0.007
 6524.00    0.51089   0.55178    0.007
 6525.00    0.52038   0.55771    0.007
 6526.00    0.52056   0.55583    0.007
 6527.00    0.52018   0.54751    0.007
 6528.00    0.51637   0.54121    0.000
 6529.00    0.51235   0.54389    0.000
 6530.00    0.49116   0.55347    0.000
 6531.00    0.46932   0.55993    0.000
 6532.00    0.43152   0.55783    0.000
 6533.00    0.39898   0.55486    0.000
 6534.00    0.43703   0.55885    0.000
 6535.00    0.47221   0.56505    0.000
 6536.00    0.48191   0.56461    0.000
 6537.00    0.49262   0.55778    0.000
 6538.00    0.50996   0.55078    0.000
 6539.00    0.52897   0.54608    0.000
 6540.00    0.55644   0.53831    0.000
 6541.00    0.58330   0.52585    0.000
 6542.00    0.60760   0.52246    0.000
 6543.00    0.63233   0.53226    0.000
 6544.00    0.65850   0.54208    0.000
 6545.00    0.67074   0.54341    0.000
 6546.00    0.64283   0.53776    0.000
 6547.00    0.60354   0.53276    0.000
 6548.00    0.53625   0.52928    0.000
 6549.00    0.48308   0.52156    0.000
 6550.00    0.45983   0.51085    0.000
 6551.00    0.45839   0.50610    0.000
 6552.00    0.49713   0.51046    0.000
 6553.00    0.52693   0.51587    0.000
 6554.00    0.54235   0.51454    0.000
 6555.00    0.61001   0.50478    0.000
 6556.00    0.75146   0.47235    0.000
 6557.00    0.95379   0.40424    0.000
 6558.00    1.23179   0.35117    0.000
 6559.00    1.44711   0.37845    0.000
 6560.00    1.59380   0.44995    0.000
 6561.00    1.59964   0.49924    0.000
 6562.00    1.46940   0.52065    0.000
 6563.00    1.27638   0.52585    0.000
 6564.00    1.02986   0.51962    0.000
 6565.00    0.83309   0.51608    0.000
 6566.00    0.67364   0.51983    0.000
 6567.00    0.57133   0.51930    0.000
 6568.00    0.50667   0.51099    0.000
 6569.00    0.47894   0.50350    0.000
 6570.00    0.47250   0.50398    0.000
 6571.00    0.46745   0.51620    0.000
 6572.00    0.46308   0.53233    0.000
 6573.00    0.45774   0.54192    0.000
 6574.00    0.45197   0.54247    0.000
 6575.00    0.50531   0.53561    0.000
 6576.00    0.58073   0.52685    0.000
 6577.00    0.67544   0.52654    0.000
 6578.00    0.77625   0.53389    0.000
 6579.00    0.84814   0.53936    0.000
 6580.00    0.91238   0.53948    0.000
 6581.00    0.91550   0.53582    0.000
 6582.00    0.90541   0.53712    0.000
 6583.00    0.83826   0.54433    0.000
 6584.00    0.76133   0.54911    0.000
 6585.00    0.67043   0.54965    0.000
 6586.00    0.57771   0.54306    0.000
 6587.00    0.53460   0.52255    0.000
 6588.00    0.49602   0.49786    0.000
 6589.00    0.46286   0.49454    0.000
 6590.00    0.42999   0.51360    0.000
 6591.00    0.42838   0.53047    0.000
 6592.00    0.42771   0.53324    0.000
 6593.00    0.45310   0.52778    0.000
 6594.00    0.47743   0.52588    0.000
 6595.00    0.47718   0.53390    0.000
 6596.00    0.47579   0.54441    0.000
 6597.00    0.45996   0.54836    0.000
 6598.00    0.44615   0.54565    0.000
 6599.00    0.44967   0.53908    0.000
 6600.00    0.45466   0.53191    0.000
 6601.00    0.46907   0.52782    0.000
 6602.00    0.47610   0.52481    0.000
 6603.00    0.44638   0.51780    0.000
 6604.00    0.42591   0.50930    0.000
 6605.00    0.44280   0.51365    0.000
 6606.00    0.45460   0.53064    0.000
 6607.00    0.44934   0.54154    0.000
 6608.00    0.45286   0.53916    0.000
 6609.00    0.48125   0.53514    0.007
 6610.00    0.50546   0.54008    0.007
 6611.00    0.51955   0.54579    0.007
 6612.00    0.51325   0.54426    0.007
 6613.00    0.46441   0.54135    0.007
 6614.00    0.44008   0.54254    0.007
 6615.00    0.46023   0.54591    0.007
 6616.00    0.47010   0.54809    0.007
 6617.00    0.46367   0.54628    0.007
 6618.00    0.45916   0.53856    0.007
 6619.00    0.45733   0.52599    0.007
 6620.00    0.47276   0.51796    0.007
 6621.00    0.50934   0.52271    0.007
 6622.00    0.54732   0.53062    0.007
 6623.00    0.58679   0.53303    0.007
 6624.00    0.60102   0.53219    0.007
 6625.00    0.59119   0.53002    0.007
 6626.00    0.56119   0.52723    0.007
 6627.00    0.51425   0.52111    0.007
 6628.00    0.48487   0.51012    0.007
 6629.00    0.46849   0.50252    0.007
 6630.00    0.43938   0.50841    0.007
 6631.00    0.40200   0.52170    0.007
 6632.00    0.42013   0.53139    0.007
 6633.00    0.46982   0.53354    0.007
 6634.00    0.46196   0.52892    0.007
 6635.00    0.42562   0.52508    0.007
 6636.00    0.39435   0.52945    0.007
 6637.00    0.36525   0.53099    0.007
 6638.00    0.37632   0.52004    0.007
 6639.00    0.40213   0.51216    0.007
 6640.00    0.43624   0.51883    0.007
 6641.00    0.47294   0.52714    0.007
 6642.00    0.47539   0.52689    0.007
 6643.00    0.46897   0.52502    0.007
 6644.00    0.45196   0.52760    0.007
 6645.00    0.43270   0.52976    0.007
 6646.00    0.42054   0.52764    0.007
 6647.00    0.40956   0.52471    0.007
 6648.00    0.45015   0.52366    0.007
 6649.00    0.49721   0.52413    0.007
 6650.00    0.50325   0.52592    0.007
 6651.00    0.50571   0.52588    0.008
 6652.00    0.47109   0.52462    0.007
 6653.00    0.43456   0.52540    0.007
 6654.00    0.44548   0.52578    0.007
 6655.00    0.45738   0.52315    0.007
 6656.00    0.47909   0.51939    0.007
 6657.00    0.49946   0.51279    0.007
 6658.00    0.49126   0.50161    0.007
 6659.00    0.48276   0.49830    0.007
 6660.00    0.47054   0.50595    0.007
 6661.00    0.45661   0.51073    0.007
 6662.00    0.42867   0.50966    0.007
 6663.00    0.40430   0.51024    0.007
 6664.00    0.40193   0.51638    0.007
 6665.00    0.40130   0.52456    0.007
 6666.00    0.40905   0.52887    0.007
 6667.00    0.41657   0.52870    0.007
 6668.00    0.42317   0.52762    0.007
 6669.00    0.43732   0.52749    0.007
 6670.00    0.47625   0.52814    0.007
 6671.00    0.51759   0.52285    0.007
 6672.00    0.56562   0.50380    0.007
 6673.00    0.59274   0.48366    0.007
 6674.00    0.57014   0.48659    0.007
 6675.00    0.53643   0.50468    0.007
 6676.00    0.47993   0.51376    0.007
 6677.00    0.44371   0.51484    0.007
 6678.00    0.44371   0.51742    0.007
 6679.00    0.45448   0.52091    0.007
 6680.00    0.48207   0.52236    0.007
 6681.00    0.49491   0.52190    0.007
 6682.00    0.48752   0.51995    0.007
 6683.00    0.48075   0.51781    0.007
 6684.00    0.47474   0.51864    0.007
 6685.00    0.47626   0.52087    0.007
 6686.00    0.48579   0.52193    0.007
 6687.00    0.47072   0.52126    0.007
 6688.00    0.43254   0.52060    0.007
 6689.00    0.40402   0.51970    0.007
 6690.00    0.38349   0.51361    0.007
 6691.00    0.39765   0.50296    0.007
 6692.00    0.43709   0.49857    0.007
 6693.00    0.44747   0.50235    0.007
 6694.00    0.43926   0.50889    0.007
 6695.00    0.45309   0.51707    0.007
 6696.00    0.47924   0.52168    0.000
 6697.00    0.47666   0.51990    0.000
 6698.00    0.46008   0.51302    0.000
 6699.00    0.42829   0.50566    0.000
 6700.00    0.39011   0.50519    0.000
 6701.00    0.40765   0.51083    0.000
 6702.00    0.44525   0.51544    0.000
 6703.00    0.45806   0.51642    0.000
 6704.00    0.46333   0.51489    0.000
 6705.00    0.46874   0.51063    0.000
 6706.00    0.47418   0.50876    0.000
 6707.00    0.49348   0.50922    0.000
 6708.00    0.51564   0.50574    0.000
 6709.00    0.56260   0.50033    0.000
 6710.00    0.61358   0.49460    0.000
 6711.00    0.67633   0.48669    0.000
 6712.00    0.74052   0.47789    0.000
 6713.00    0.79962   0.47818    0.000
 6714.00    0.85830   0.49200    0.000
 6715.00    0.81471   0.50372    0.000
 6716.00    0.76626   0.50518    0.000
 6717.00    0.69831   0.50342    0.000
 6718.00    0.63028   0.50710    0.000
 6719.00    0.57373   0.51139    0.000
 6720.00    0.51859   0.50841    0.000
 6721.00    0.49103   0.50195    0.000
 6722.00    0.46884   0.50133    0.000
 6723.00    0.50822   0.50569    0.000
 6724.00    0.55414   0.50952    0.000
 6725.00    0.65217   0.51240    0.000
 6726.00    0.73977   0.51356    0.000
 6727.00    0.76475   0.51152    0.000
 6728.00    0.78236   0.50748    0.000
 6729.00    0.76510   0.50608    0.000
 6730.00    0.73350   0.50845    0.000
 6731.00    0.64654   0.51120    0.000
 6732.00    0.56421   0.50862    0.000
 6733.00    0.49680   0.50072    0.000
 6734.00    0.43592   0.49521    0.000
 6735.00    0.39286   0.49747    0.000
 6736.00    0.36624   0.50282    0.000
 6737.00    0.37805   0.50136    0.000
 6738.00    0.39160   0.49632    0.000
 6739.00    0.40866   0.49756    0.000
 6740.00    0.42071   0.50170    0.000
 6741.00    0.42395   0.50093    0.000
 6742.00    0.44179   0.49817    0.000
 6743.00    0.48212   0.49584    0.000
 6744.00    0.50352   0.49316    0.000
 6745.00    0.49932   0.49076    0.000
 6746.00    0.50508   0.49323    0.000
 6747.00    0.52270   0.49443    0.000
 6748.00    0.52372   0.49110    0.000
 6749.00    0.50732   0.49423    0.000
 6750.00    0.48394   0.50014    0.000
 6751.00    0.45410   0.50398    0.000
 6752.00    0.43747   0.50843    0.000
 6753.00    0.43161   0.51257    0.008
 6754.00    0.45086   0.51475    0.008
 6755.00    0.48814   0.51553    0.008
 6756.00    0.50411   0.51401    0.008
 6757.00    0.50664   0.51078    0.008
 6758.00    0.47222   0.51042    0.008
 6759.00    0.41744   0.51183    0.008
 6760.00    0.44141   0.51001    0.008
 6761.00    0.50311   0.50277    0.009
 6762.00    0.59642   0.49383    0.009
 6763.00    0.70280   0.49188    0.009
 6764.00    0.71281   0.49778    0.009
 6765.00    0.68873   0.49947    0.009
 6766.00    0.66161   0.49500    0.009
 6767.00    0.63357   0.49505    0.009
 6768.00    0.60152   0.50244    0.009
 6769.00    0.56847   0.51051    0.009
 6770.00    0.51646   0.51488    0.008
 6771.00    0.46064   0.51629    0.008
 6772.00    0.49289   0.51486    0.008
 6773.00    0.53898   0.51456    0.008
 6774.00    0.54744   0.51751    0.008
 6775.00    0.55150   0.51789    0.008
 6776.00    0.48640   0.51342    0.008
 6777.00    0.41584   0.50431    0.008
 6778.00    0.43181   0.49204    0.008
 6779.00    0.45156   0.48298    0.008
 6780.00    0.46182   0.48238    0.008
 6781.00    0.47136   0.48673    0.008
 6782.00    0.45165   0.49397    0.008
 6783.00    0.43288   0.50194    0.008
 6784.00    0.43099   0.50409    0.008
 6785.00    0.43391   0.50276    0.008
 6786.00    0.48953   0.50389    0.008
 6787.00    0.54159   0.50372    0.008
 6788.00    0.56634   0.49828    0.008
 6789.00    0.58419   0.49418    0.008
 6790.00    0.56188   0.49483    0.009
 6791.00    0.53309   0.49618    0.009
 6792.00    0.47440   0.49862    0.008
 6793.00    0.43395   0.50053    0.008
 6794.00    0.46246   0.50112    0.008
 6795.00    0.48839   0.50292    0.008
 6796.00    0.50613   0.50569    0.008
 6797.00    0.52958   0.50701    0.008
 6798.00    0.56831   0.50448    0.008
 6799.00    0.59887   0.50080    0.008
 6800.00    0.61067   0.50144    0.008
 6801.00    0.59431   0.50162    0.008
 6802.00    0.52195   0.49910    0.008
 6803.00    0.47026   0.50076    0.008
 6804.00    0.45435   0.50137    0.008
 6805.00    0.45213   0.49825    0.008
 6806.00    0.47066   0.49909    0.008
 6807.00    0.48611   0.50240    0.008
 6808.00    0.49748   0.50234    0.008
 6809.00    0.48982   0.49688    0.008
 6810.00    0.45984   0.49192    0.008
 6811.00    0.44069   0.49661    0.008
 6812.00    0.43275   0.50541    0.009
 6813.00    0.42591   0.50754    0.009
 6814.00    0.42007   0.50269    0.009
 6815.00    0.46578   0.49665    0.009
 6816.00    0.55295   0.49745    0.009
 6817.00    0.56885   0.50415    0.008
 6818.00    0.53429   0.50942    0.008
 6819.00    0.48028   0.51065    0.008
 6820.00    0.41419   0.51003    0.008
 6821.00    0.39945   0.50882    0.008
 6822.00    0.41258   0.50347    0.008
 6823.00    0.42660   0.49469    0.008
 6824.00    0.44104   0.49249    0.008
 6825.00    0.40709   0.49904    0.008
 6826.00    0.35347   0.50526    0.008
 6827.00    0.36166   0.50468    0.008
 6828.00    0.39132   0.50194    0.008
 6829.00    0.42604   0.50397    0.008
 6830.00    0.46225   0.50816    0.008
 6831.00    0.46822   0.50775    0.009
 6832.00    0.46686   0.50333    0.008
 6833.00    0.44777   0.49787    0.008
 6834.00    0.42520   0.49025    0.008
 6835.00    0.46733   0.48184    0.008
 6836.00    0.51932   0.47401    0.008
 6837.00    0.60141   0.47160    0.009
 6838.00    0.68688   0.47794    0.009
 6839.00    0.69600   0.48978    0.009
 6840.00    0.69942   0.49963    0.009
 6841.00    0.64473   0.50282    0.008
 6842.00    0.58773   0.50267    0.008
 6843.00    0.50016   0.50271    0.008
 6844.00    0.41548   0.50131    0.008
 6845.00    0.45427   0.49922    0.008
 6846.00    0.48621   0.49868    0.008
 6847.00    0.40247   0.49988    0.008
 6848.00    0.33266   0.50017    0.008
 6849.00    0.40842   0.49219    0.008
 6850.00    0.47677   0.47987    0.008
 6851.00    0.49014   0.47799    0.008
 6852.00    0.50803   0.48365    0.008
 6853.00    0.55158   0.48733    0.008
 6854.00    0.57403   0.49015    0.008
 6855.00    0.50119   0.48783    0.008
 6856.00    0.46173   0.47852    0.008
 6857.00    0.54586   0.47637    0.008
 6858.00    0.60044   0.48816    0.008
 6859.00    0.56352   0.50104    0.008
 6860.00    0.54442   0.50331    0.008
 6861.00    0.57221   0.49706    0.008
 6862.00    0.58253   0.48627    0.008
 6863.00    0.55335   0.47770    0.008
 6864.00    0.51399   0.48102    0.008
 6865.00    0.45472   0.49039    0.008
 6866.00    0.40466   0.49098    0.008
 6867.00    0.37032   0.48433    0.008
 6868.00    0.33273   0.48339    0.008
 6869.00    0.29030   0.48775    0.008
 6870.00    0.26764   0.48857    0.008
 6871.00    0.27095   0.48879    0.008
 6872.00    0.30227   0.49427    0.008
 6873.00    0.36600   0.50035    0.008
 6874.00    0.44113   0.50113    0.008
 6875.00    0.52790   0.49807    0.008
 6876.00    0.56031   0.49074    0.008
 6877.00    0.54378   0.48149    0.008
 6878.00    0.50209   0.47913    0.008
 6879.00    0.44044   0.48691    0.008
 6880.00    0.41391   0.49320    0.008
 6881.00    0.41187   0.49206    0.008
 6882.00    0.42885   0.49422    0.008
 6883.00    0.45747   0.50023    0.008
 6884.00    0.44741   0.50334    0.008
 6885.00    0.41668   0.50504    0.008
 6886.00    0.42623   0.50706    0.008
 6887.00    0.45448   0.50557    0.008
 6888.00    0.49698   0.50245    0.008
 6889.00    0.54518   0.50128    0.008
 6890.00    0.55490   0.49835    0.008
 6891.00    0.55149   0.49596    0.008
 6892.00    0.55788   0.49846    0.008
 6893.00    0.56707   0.50228    0.008
 6894.00    0.51125   0.50121    0.008
 6895.00    0.44003   0.49684    0.008
 6896.00    0.43790   0.49790    0.008
 6897.00    0.44893   0.50389    0.008
 6898.00    0.43357   0.50552    0.009
 6899.00    0.41430   0.50232    0.009
 6900.00    0.38782   0.50011    0.009
 6901.00    0.36056   0.50208    0.009
 6902.00    0.39498   0.50628    0.009
 6903.00    0.43376   0.50771    0.009
 6904.00    0.38145   0.50803    0.008
 6905.00    0.32587   0.50736    0.008
 6906.00    0.39512   0.50374    0.008
 6907.00    0.46229   0.49916    0.008
 6908.00    0.44303   0.49360    0.008
 6909.00    0.42259   0.48730    0.008
 6910.00    0.38344   0.48783    0.008
 6911.00    0.35156   0.49203    0.008
 6912.00    0.39245   0.49223    0.008
 6913.00    0.42428   0.49437    0.008
 6914.00    0.39105   0.49916    0.008
 6915.00    0.36355   0.50339    0.008
 6916.00    0.36768   0.50600    0.008
 6917.00    0.37550   0.50609    0.008
 6918.00    0.39961   0.50057    0.008
 6919.00    0.40684   0.48893    0.008
 6920.00    0.35290   0.47993    0.008
 6921.00    0.32012   0.48080    0.008
 6922.00    0.35169   0.48973    0.008
 6923.00    0.39000   0.49735    0.009
 6924.00    0.44573   0.49950    0.009
 6925.00    0.47855   0.49960    0.008
 6926.00    0.46046   0.49854    0.008
 6927.00    0.44839   0.49405    0.008
 6928.00    0.44792   0.48773    0.008
 6929.00    0.44481   0.48938    0.008
 6930.00    0.43727   0.49742    0.008
 6931.00    0.43394   0.50006    0.008
 6932.00    0.43682   0.49795    0.008
 6933.00    0.46029   0.49715    0.008
 6934.00    0.51039   0.49998    0.008
 6935.00    0.51233   0.50422    0.008
 6936.00    0.45930   0.50589    0.008
 6937.00    0.41102   0.50203    0.008
 6938.00    0.36750   0.49464    0.009
 6939.00    0.33466   0.48558    0.009
 6940.00    0.31130   0.47874    0.008
 6941.00    0.32848   0.48278    0.009
 6942.00    0.37736   0.49366    0.009
 6943.00    0.40087   0.50000    0.009
 6944.00    0.40693   0.50208    0.009
 6945.00    0.43543   0.49920    0.009
 6946.00    0.47745   0.49076    0.009
 6947.00    0.44908   0.48579    0.009
 6948.00    0.38366   0.48558    0.009
 6949.00    0.41746   0.48566    0.009
 6950.00    0.49653   0.48908    0.009
 6951.00    0.52527   0.49567    0.009
 6952.00    0.53424   0.50003    0.009
 6953.00    0.50777   0.49990    0.009
 6954.00    0.46945   0.49927    0.009
 6955.00    0.47554   0.49928    0.008
 6956.00    0.49410   0.50083    0.008
 6957.00    0.43837   0.50232    0.008
 6958.00    0.36545   0.50352    0.008
 6959.00    0.36316   0.50403    0.008
 6960.00    0.37398   0.50036    0.009
 6961.00    0.39111   0.49642    0.009
 6962.00    0.40915   0.50034    0.009
 6963.00    0.47016   0.50781    0.009
 6964.00    0.53563   0.50912    0.009
 6965.00    0.42601   0.50371    0.009
 6966.00    0.30471   0.49765    0.009
 6967.00    0.34690   0.49902    0.009
 6968.00    0.39433   0.50506    0.009
 6969.00    0.37599   0.50388    0.009
 6970.00    0.35796   0.49543    0.009
 6971.00    0.34952   0.48678    0.009
 6972.00    0.34737   0.47522    0.009
 6973.00    0.43867   0.45871    0.009
 6974.00    0.51343   0.45338    0.009
 6975.00    0.42946   0.46899    0.009
 6976.00    0.36509   0.48827    0.009
 6977.00    0.43709   0.49926    0.009
 6978.00    0.49221   0.50500    0.009
 6979.00    0.45676   0.50704    0.009
 6980.00    0.42735   0.50655    0.009
 6981.00    0.42392   0.50547    0.009
 6982.00    0.41199   0.50357    0.009
 6983.00    0.36987   0.49879    0.009
 6984.00    0.37253   0.49255    0.009
 6985.00    0.50872   0.49183    0.009
 6986.00    0.58536   0.49804    0.009
 6987.00    0.51074   0.50398    0.009
 6988.00    0.46909   0.50479    0.009
 6989.00    0.49949   0.50100    0.009
 6990.00    0.49245   0.49865    0.009
 6991.00    0.41435   0.50031    0.009
 6992.00    0.34838   0.50203    0.009
 6993.00    0.30247   0.49882    0.009
 6994.00    0.30463   0.48898    0.009
 6995.00    0.37659   0.48142    0.009
 6996.00    0.43316   0.48585    0.009
 6997.00    0.47010   0.49506    0.009
 6998.00    0.49479   0.49621    0.009
 6999.00    0.50573   0.48890    0.009
 7000.00    0.49239   0.48366    0.009
 7001.00    0.45496   0.48405    0.009
 7002.00    0.39029   0.48741    0.009
 7003.00    0.30177   0.49199    0.009
 7004.00    0.31053   0.49661    0.009
 7005.00    0.39425   0.49668    0.009
 7006.00    0.40053   0.49280    0.009
 7007.00    0.35434   0.49276    0.009
 7008.00    0.31454   0.49676    0.009
 7009.00    0.27854   0.49487    0.009
 7010.00    0.29920   0.47964    0.009
 7011.00    0.34919   0.46120    0.009
 7012.00    0.36854   0.46236    0.009
 7013.00    0.37414   0.48265    0.009
 7014.00    0.34544   0.49917    0.009
 7015.00    0.30350   0.50508    0.009
 7016.00    0.32464   0.50484    0.009
 7017.00    0.36648   0.49707    0.009
 7018.00    0.35459   0.48303    0.009
 7019.00    0.32791   0.47399    0.009
 7020.00    0.33017   0.47739    0.009
 7021.00    0.33896   0.48683    0.009
 7022.00    0.47290   0.49153    0.009
 7023.00    0.62945   0.49258    0.009
 7024.00    0.53413   0.49429    0.009
 7025.00    0.40392   0.49665    0.010
 7026.00    0.46573   0.49728    0.009
 7027.00    0.54660   0.49553    0.009
 7028.00    0.52747   0.49378    0.010
 7029.00    0.50208   0.49353    0.010
 7030.00    0.45238   0.49580    0.010
 7031.00    0.40171   0.49942    0.010
 7032.00    0.27452   0.49314    0.010
 7033.00    0.15649   0.47823    0.010
 7034.00    0.28994   0.47745    0.010
 7035.00    0.41692   0.49612    0.010
 7036.00    0.45293   0.51375    0.010
 7037.00    0.48560   0.52058    0.009
 7038.00    0.48748   0.51880    0.009
 7039.00    0.49007   0.51035    0.009
 7040.00    0.49742   0.50216    0.009
 7041.00    0.49882   0.50382    0.009
 7042.00    0.46914   0.51219    0.009
 7043.00    0.44005   0.51913    0.009
 7044.00    0.41341   0.52086    0.009
 7045.00    0.40032   0.51719    0.009
 7046.00    0.43433   0.50860    0.010
 7047.00    0.45811   0.49278    0.010
 7048.00    0.45192   0.47548    0.010
 7049.00    0.46418   0.46655    0.010
 7050.00    0.52248   0.46695   -2.000
 7051.00    0.52565   0.47412   -2.000
 7052.00    0.41023   0.48143   -2.000
 7053.00    0.34121   0.48109   -2.000
 7054.00    0.35886   0.47134   -2.000
 7055.00    0.38155   0.46145   -2.000
 7056.00    0.41246   0.46083   -2.000
 7057.00    0.39564   0.46587   -2.000
 7058.00    0.31054   0.46993   -2.000
 7059.00    0.34228   0.47417   -2.000
 7060.00    0.52107   0.47471   -2.000
 7061.00    0.58601   0.46744   -2.000
 7062.00    0.52469   0.45689   -2.000
 7063.00    0.50455   0.44899   -2.000
 7064.00    0.52468   0.45200   -2.000
 7065.00    0.54459   0.46581   -2.000
 7066.00    0.56432   0.47723   -2.000
 7067.00    0.52175   0.47977   -2.000
 7068.00    0.43187   0.47968   -2.000
 7069.00    0.43147   0.48011   -2.000
 7070.00    0.49082   0.47925   -2.000
 7071.00    0.42756   0.47832   -2.000
 7072.00    0.29259   0.47918   -2.000
 7073.00    0.31077   0.48140   -2.000
 7074.00    0.40703   0.48310   -2.000
 7075.00    0.45600   0.48522   -2.000
 7076.00    0.48409   0.48607   -2.000
 7077.00    0.54387   0.47986   -2.000
 7078.00    0.61567   0.46530   -2.000
 7079.00    0.51180   0.44890   -2.000
 7080.00    0.35136   0.44299   -2.000
 7081.00    0.38445   0.44844   -2.000
 7082.00    0.46969   0.45026   -2.000
 7083.00    0.48744   0.44575   -2.000
 7084.00    0.49030   0.44157   -2.000
 7085.00    0.48788   0.43867   -2.000
 7086.00    0.48455   0.43913   -2.000
 7087.00    0.43377   0.44172   -2.000
 7088.00    0.37663   0.44138   -2.000
 7089.00    0.37904   0.44140   -2.000
 7090.00    0.38711   0.44163   -2.000
 7091.00    0.44004   0.44165   -2.000
 7092.00    0.49561   0.44350   -2.000
 7093.00    0.50977   0.44798   -2.000
 7094.00    0.52252   0.45627   -2.000
 7095.00    0.48116   0.45860   -2.000
 7096.00    0.44181   0.45557   -2.000
 7097.00    0.45246   0.45052   -2.000
 7098.00    0.46235   0.44944   -2.000
 7099.00    0.46227   0.45466   -2.000
 7100.00    0.46123   0.46012   -2.000
 7101.00    0.45171   0.45811   -2.000
 7102.00    0.43928   0.45277   -2.000
 7103.00    0.40786   0.45203   -2.000
 7104.00    0.38630   0.45341   -2.000
 7105.00    0.41496   0.44907   -2.000
 7106.00    0.44044   0.44236   -2.000
 7107.00    0.45278   0.44259   -2.000
 7108.00    0.46993   0.44922   -2.000
 7109.00    0.50342   0.45476   -2.000
 7110.00    0.51684   0.45679   -2.000
 7111.00    0.47256   0.45829   -2.000
 7112.00    0.43868   0.45838   -2.000
 7113.00    0.43029   0.45690   -2.000
 7114.00    0.44237   0.45562   -2.000
 7115.00    0.49775   0.45427   -2.000
 7116.00    0.51093   0.45180   -2.000
 7117.00    0.44650   0.44850   -2.000
 7118.00    0.41192   0.45092   -2.000
 7119.00    0.42530   0.45416   -2.000
 7120.00    0.46214   0.44861   -2.000
 7121.00    0.53205   0.44014   -2.000
 7122.00    0.54448   0.43787   -2.000
 7123.00    0.48562   0.44017   -2.000
 7124.00    0.40679   0.43749   -2.000
 7125.00    0.30613   0.42843   -2.000
 7126.00    0.36957   0.42385   -2.000
 7127.00    0.59126   0.42988   -2.000
 7128.00    0.62283   0.43935   -2.000
 7129.00    0.49272   0.44661   -2.000
 7130.00    0.42373   0.44918   -2.000
 7131.00    0.40050   0.45009   -2.000
 7132.00    0.39203   0.45225   -2.000
 7133.00    0.39326   0.44963   -2.000
 7134.00    0.46662   0.44346   -2.000
 7135.00    0.58154   0.44384   -2.000
 7136.00    0.54896   0.44976   -2.000
 7137.00    0.44237   0.45162   -2.000
 7138.00    0.48643   0.45024   -2.000
 7139.00    0.59591   0.44969   -2.000
 7140.00    0.52632   0.44924   -2.000
 7141.00    0.39002   0.44743   -2.000
 7142.00    0.37327   0.43992   -2.000
 7143.00    0.39428   0.43021   -2.000
 7144.00    0.30445   0.43130   -2.000
 7145.00    0.18540   0.43938   -2.000
 7146.00    0.32099   0.44580   -2.000
 7147.00    0.51146   0.45277   -2.000
 7148.00    0.46910   0.45853   -2.000
 7149.00    0.38693   0.45668   -2.000
 7150.00    0.17474   0.45099   -2.000
 7151.00   -0.05429   0.45260   -2.000
 7152.00    0.08450   0.45978   -2.000
 7153.00    0.25670   0.45931   -2.000
 7154.00    0.30868   0.45234   -2.000
 7155.00    0.35407   0.44785   -2.000
 7156.00    0.54373   0.45008   -2.000
 7157.00    0.73542   0.45352   -2.000
 7158.00    0.83773   0.44757   -2.000
 7159.00    0.91770   0.43303   -2.000
 7160.00    0.49071   0.42580   -2.000
 7161.00    0.12312   0.43491   -2.000
 7162.00    0.50362   0.44964   -2.000
 7163.00    0.83120   0.45769   -2.000
 7164.00    0.70737   0.45707   -2.000
 7165.00    0.60806   0.45484   -2.000
 7166.00    0.66409   0.45748   -2.000
 7167.00    0.68807   0.46283   -2.000
 7168.00    0.55288   0.46501   -2.000
 7169.00    0.42293   0.46168   -2.000
 7170.00    0.31405   0.45416   -2.000
 7171.00    0.27407   0.44854   -2.000
 7172.00    0.46425   0.45207   -2.000
 7173.00    0.56117   0.45847   -2.000
 7174.00    0.39497   0.45398   -2.000
 7175.00    0.31336   0.44018   -2.000
 7176.00    0.43577   0.43202   -2.000
 7177.00    0.50409   0.43916   -2.000
 7178.00    0.45975   0.45404   -2.000
 7179.00    0.43568   0.46136   -2.000
 7180.00    0.44829   0.45808   -2.000
 7181.00    0.38562   0.44798   -2.000
 7182.00    0.20378   0.43470   -2.000
 7183.00    0.14726   0.42783   -2.000
 7184.00    0.26484   0.43085   -2.000
 7185.00    0.40964   0.43911   -2.000
 7186.00    0.58774   0.44619   -2.000
 7187.00    0.60433   0.44541   -2.000
 7188.00    0.44683   0.44203   -2.000
 7189.00    0.35642   0.44487   -2.000
 7190.00    0.32978   0.45067   -2.000
 7191.00    0.31751   0.44973   -2.000
 7192.00    0.31729   0.44476   -2.000
 7193.00    0.33327   0.44606   -2.000
 7194.00    0.36121   0.45140   -2.000
 7195.00    0.36487   0.45256   -2.000
 7196.00    0.35280   0.44889   -2.000
 7197.00    0.31714   0.44668   -2.000
 7198.00    0.26810   0.45198   -2.000
 7199.00    0.28492   0.45946   -2.000
 7200.00    0.33426   0.45783   -2.000
 7201.00    0.32855   0.44316   -2.000
 7202.00    0.29933   0.42660   -2.000
 7203.00    0.30438   0.42435   -2.000
 7204.00    0.32197   0.43465   -2.000
 7205.00    0.43015   0.44814   -2.000
 7206.00    0.56639   0.45815   -2.000
 7207.00    0.44994   0.45762   -2.000
 7208.00    0.26827   0.45071   -2.000
 7209.00    0.33048   0.44591   -2.000
 7210.00    0.44399   0.44539   -2.000
 7211.00    0.49726   0.44862   -2.000
 7212.00    0.54053   0.45570   -2.000
 7213.00    0.37290   0.46115   -2.000
 7214.00    0.17892   0.45986   -2.000
 7215.00    0.17489   0.45557   -2.000
 7216.00    0.18731   0.45276   -2.000
 7217.00    0.26731   0.45124   -2.000
 7218.00    0.35074   0.45054   -2.000
