###################################################################
## OUTPUT of StarlightChains_v04.for    [Cid@UFSC - 01/Apr/2007] ##
###################################################################

## Some input info
KUG0210-078._46_48.txt                   [arq_obs]
Base.CB07.vall.4m                        [arq_base]
Masks.EmLines.NEW.gm                     [arq_masks]
StCv04.C11.config                        [arq_config]
   66                                    [N_base]
    0                                    [N_YAV_components = # of components with extra extinction!]
    0                                    [i_FitPowerLaw (1/0 = Yes/No)]
-9.99                                    [alpha_PowerLaw]
CCM                                      [red_law_option]
 1.458241                                [q_norm = A(l_norm)/A(V)]

## (Re)Sampling Parameters
 3741.00                                 [l_ini (A)]
 7218.00                                 [l_fin (A)]
    1.00                                 [dl    (A)]     (OBS: dl_cushion =    50.00 A)

## Normalization info
 4020.00                                 [l_norm (A) - for base]
 4010.00                                 [llow_norm (A) - window for f_obs]
 4060.00                                 [lupp_norm (A) - window for f_obs]
6.086772E-18                             [fobs_norm (in input units)]

## S/N
 3691.00                                 [llow_SN (A) - window for S/N]
 7268.00                                 [lupp_SN (A) - window for S/N]
   2.823                                 [S/N in S/N window]
   2.698                                 [S/N in norm. window]
   0.007                                 [S/N_err in S/N window]
   0.007                                 [S/N_err in norm. window]
  1.0000                                 [fscale_chi2]

## etc...
    -2007899                             [idum_orig]
  2369                                   [NOl_eff]
  2343                                   [Nl_eff]
    26    NSIGMA                         [Ntot_cliped & clip_method]
   518910                                [Nglobal_steps]
   7                                     [N_chains]
   7                                     [NEX0s_base = N_base in EX0s-fits]
 0   0   1       26   2.0   1.314E+03    [Clip-Bug, RC-Crash & Burn-In warning-flags, n_censored_weights, wei_nsig_threshold & wei_limit]
    16     15.992     15.453      0.539  [idt_all, wdt_TotTime, wdt_UsrTime & wdt_SysTime (sec)]

## Synthesis Results - Best model ##

 1.39324E-05                             [chi2/Nl_eff]
    40.40900                             [adev (%)]

   129.99998                             [sum-of-x (%)]
 2.26186E-18                             [Flux_tot (units of input spectrum!)]
 6.48921E-14                             [Mini_tot (???)]
 3.54329E-14                             [Mcor_tot (???)]

-250.78                                  [v0_min  (km/s)]
   0.00                                  [vd_min  (km/s)]
-0.9324                                  [AV_min  (mag)]
 0.0000                                  [YAV_min (mag)]

# j     x_j(%)      Mini_j(%)     Mcor_j(%)     age_j(yr)     Z_j      (L/M)_j    YAV?  Mstars   component_j        a/Fe...       SSP_chi2r SSP_adev(%)   SSP_AV   SSP_x(%)
  1      0.0000     0.0000E+00    0.0000E+00    1.000000E+06  0.00400  1.094E-02    0   1.0000   age020_m42            0.0000     1.6990E-05    49.3016   2.7279   116.8413
  2      0.0000     0.0000E+00    0.0000E+00    3.160000E+06  0.00400  4.007E-02    0   0.9999   age045_m42            0.0000     1.5843E-05    47.2823   1.9846   125.1039
  3      0.0000     0.0000E+00    0.0000E+00    5.010000E+06  0.00400  2.539E-02    0   0.9488   age055_m42            0.0000     1.6482E-05    48.4619   2.3222   121.5278
  4      0.0000     0.0000E+00    0.0000E+00    6.610000E+06  0.00400  2.620E-02    0   0.9220   age061_m42            0.0000     1.5948E-05    47.6362   1.9225   124.8932
  5      0.0000     0.0000E+00    0.0000E+00    1.000000E+07  0.00400  1.322E-02    0   0.8862   age070_m42            0.0000     1.6622E-05    49.9791   1.6927   125.4184
  6      0.0000     0.0000E+00    0.0000E+00    1.445000E+07  0.00400  7.883E-03    0   0.8571   age078_m42            0.0000     1.6902E-05    50.2914   2.0185   122.4019
  7      0.0000     0.0000E+00    0.0000E+00    2.512000E+07  0.00400  5.251E-03    0   0.8174   age090_m42            0.0000     1.6676E-05    50.2840   1.5713   125.7517
  8      0.0000     0.0000E+00    0.0000E+00    4.000000E+07  0.00400  3.649E-03    0   0.7851   age104_m42            0.0000     1.6394E-05    49.7366   1.3342   127.1179
  9      0.0000     0.0000E+00    0.0000E+00    5.500000E+07  0.00400  3.098E-03    0   0.7629   age110_m42            0.0000     1.5936E-05    48.1913   1.4606   128.1510
 10      0.0000     0.0000E+00    0.0000E+00    1.015200E+08  0.00400  2.228E-03    0   0.7207   age116_m42            0.0000     1.5632E-05    47.1025   1.4620   129.0896
 11      0.0000     0.0000E+00    0.0000E+00    2.861200E+08  0.00400  1.093E-03    0   0.6648   age125_m42            0.0000     1.5571E-05    47.2421   0.8988   132.3064
 12      0.0000     0.0000E+00    0.0000E+00    5.088000E+08  0.00400  6.597E-04    0   0.6365   age130_m42            0.0000     1.5071E-05    45.4495   0.8587   134.6245
 13      0.4355     5.4763E-02    5.8150E-02    1.434000E+09  0.00400  2.132E-04    0   0.5798   age139_m42            0.0000     1.4419E-05    44.7308  -0.1354   138.0520
 14      0.0000     0.0000E+00    0.0000E+00    4.250000E+09  0.00400  5.895E-05    0   0.5377   age158_m42            0.0000     1.4305E-05    44.6410  -0.6130   134.2445
 15      0.0000     0.0000E+00    0.0000E+00    7.500000E+09  0.00400  3.510E-05    0   0.5212   age171_m42            0.0000     1.4230E-05    44.0742  -0.8173   133.8537
 16      0.0000     0.0000E+00    0.0000E+00    1.300000E+10  0.00400  2.005E-05    0   0.5034   age193_m42            0.0000     1.4277E-05    43.6798  -0.9957   133.4527
 17      0.0000     0.0000E+00    0.0000E+00    1.800000E+10  0.00400  1.525E-05    0   0.4967   age213_m42            0.0000     1.4277E-05    44.0658  -1.0000   132.4478
 18      0.0000     0.0000E+00    0.0000E+00    1.000000E+06  0.00800  1.238E-02    0   1.0000   age020_m52            0.0000     1.7016E-05    49.3447   2.7251   117.0497
 19      0.0000     0.0000E+00    0.0000E+00    3.160000E+06  0.00800  3.074E-02    0   0.9966   age045_m52            0.0000     1.7002E-05    49.2746   2.6511   117.9737
 20      0.0000     0.0000E+00    0.0000E+00    5.010000E+06  0.00800  2.668E-02    0   0.9443   age055_m52            0.0000     1.6704E-05    49.0182   2.4109   120.2771
 21      0.0000     0.0000E+00    0.0000E+00    6.610000E+06  0.00800  2.136E-02    0   0.9177   age061_m52            0.0000     1.6475E-05    50.2428   1.1862   127.1222
 22      0.0000     0.0000E+00    0.0000E+00    1.000000E+07  0.00800  1.215E-02    0   0.8827   age070_m52            0.0000     1.7019E-05    51.0487   1.8855   124.6193
 23      0.0000     0.0000E+00    0.0000E+00    1.445000E+07  0.00800  8.717E-03    0   0.8552   age078_m52            0.0000     1.6811E-05    50.2935   1.9860   124.0182
 24      0.0000     0.0000E+00    0.0000E+00    2.512000E+07  0.00800  5.592E-03    0   0.8162   age090_m52            0.0000     1.6639E-05    50.3971   1.6357   127.1644
 25      0.0000     0.0000E+00    0.0000E+00    4.000000E+07  0.00800  3.896E-03    0   0.7841   age104_m52            0.0000     1.6255E-05    49.4711   1.5315   128.6947
 26      0.0000     0.0000E+00    0.0000E+00    1.015200E+08  0.00800  2.148E-03    0   0.7226   age116_m52            0.0000     1.5719E-05    47.9124   1.4397   129.6268
 27      0.0000     0.0000E+00    0.0000E+00    2.861200E+08  0.00800  9.925E-04    0   0.6683   age125_m52            0.0000     1.5009E-05    45.6900   0.9259   135.7844
 28      0.1124     9.5980E-03    1.0789E-02    9.047900E+08  0.00800  3.141E-04    0   0.6138   age135_m52            0.0000     1.4030E-05    43.3762   0.0688   143.4928
 29      0.0000     0.0000E+00    0.0000E+00    1.434000E+09  0.00800  1.719E-04    0   0.5853   age139_m52            0.0000     1.4103E-05    44.2903  -0.5132   140.5312
 30      0.0000     0.0000E+00    0.0000E+00    2.500000E+09  0.00800  7.872E-05    0   0.5600   age150_m52            0.0000     1.3861E-05    43.1325  -0.8208   138.3912
 31     30.6702     1.8965E+01    1.8846E+01    4.250000E+09  0.00800  4.336E-05    0   0.5426   age158_m52            0.0000     1.3936E-05    43.3590  -0.8362   137.1151
 32      0.0000     0.0000E+00    0.0000E+00    6.250000E+09  0.00800  3.159E-05    0   0.5319   age166_m52            0.0000     1.3831E-05    42.9845  -1.0000   136.3363
 33      0.0000     0.0000E+00    0.0000E+00    1.300000E+10  0.00800  1.361E-05    0   0.5073   age193_m52            0.0000     1.5121E-05    48.6315  -1.0000   122.3078
 34      0.0000     0.0000E+00    0.0000E+00    1.800000E+10  0.00800  9.886E-06    0   0.4990   age213_m52            0.0000     1.5784E-05    49.4000  -1.0000   118.4330
 35      0.0000     0.0000E+00    0.0000E+00    1.000000E+06  0.02000  1.544E-02    0   1.0000   age020_m62            0.0000     1.7087E-05    49.4097   2.7214   117.3044
 36      0.0000     0.0000E+00    0.0000E+00    3.160000E+06  0.02000  3.762E-02    0   0.9858   age045_m62            0.0000     1.7177E-05    49.4616   2.6630   118.1777
 37      0.0000     0.0000E+00    0.0000E+00    5.010000E+06  0.02000  3.296E-02    0   0.9342   age055_m62            0.0000     1.6249E-05    47.9945   2.2728   123.3138
 38      0.0000     0.0000E+00    0.0000E+00    8.710000E+06  0.02000  1.154E-02    0   0.8861   age067_m62            0.0000     1.8948E-05    56.2555   1.4237   124.4152
 39      0.0000     0.0000E+00    0.0000E+00    1.445000E+07  0.02000  7.663E-03    0   0.8472   age078_m62            0.0000     1.7427E-05    52.5185   1.5552   126.3081
 40      0.0000     0.0000E+00    0.0000E+00    2.512000E+07  0.02000  4.532E-03    0   0.8099   age090_m62            0.0000     1.7490E-05    52.6963   1.5543   125.6179
 41      0.0000     0.0000E+00    0.0000E+00    5.500000E+07  0.02000  2.733E-03    0   0.7595   age110_m62            0.0000     1.6367E-05    49.7651   1.5196   127.5915
 42      0.0000     0.0000E+00    0.0000E+00    1.609000E+08  0.02000  1.369E-03    0   0.6985   age120_m62            0.0000     1.5469E-05    46.9204   1.3127   132.7613
 43      0.0000     0.0000E+00    0.0000E+00    2.861200E+08  0.02000  9.013E-04    0   0.6714   age125_m62            0.0000     1.4935E-05    45.0235   1.0341   137.5892
 44      0.0000     0.0000E+00    0.0000E+00    5.088000E+08  0.02000  5.028E-04    0   0.6449   age130_m62            0.0000     1.4117E-05    42.4219   0.6029   143.3215
 45      0.0000     0.0000E+00    0.0000E+00    9.047900E+08  0.02000  2.428E-04    0   0.6179   age135_m62            0.0000     1.3734E-05    42.6012  -0.0141   143.5415
 46      0.0000     0.0000E+00    0.0000E+00    1.434000E+09  0.02000  1.263E-04    0   0.5908   age139_m62            0.0000     1.3727E-05    42.9057  -0.4714   141.8877
 47      0.0000     0.0000E+00    0.0000E+00    2.500000E+09  0.02000  5.985E-05    0   0.5673   age150_m62            0.0000     1.3672E-05    42.1234  -0.8715   141.1923
 48     98.7819     8.0970E+01    8.1085E+01    4.250000E+09  0.02000  3.271E-05    0   0.5468   age158_m62            0.0000     1.3734E-05    43.1282  -1.0000   135.5822
 49      0.0000     0.0000E+00    0.0000E+00    1.000000E+10  0.02000  1.360E-05    0   0.5167   age181_m62            0.0000     1.5019E-05    46.6974  -1.0000   124.7959
 50      0.0000     0.0000E+00    0.0000E+00    1.800000E+10  0.02000  7.124E-06    0   0.5013   age213_m62            0.0000     1.6507E-05    48.7663  -1.0000   117.0948
 51      0.0000     0.0000E+00    0.0000E+00    1.000000E+06  0.05000  2.592E-02    0   0.9998   age020_m72            0.0000     1.7243E-05    49.7001   2.7192   117.1923
 52      0.0000     0.0000E+00    0.0000E+00    3.160000E+06  0.05000  4.845E-02    0   0.9577   age045_m72            0.0000     1.6836E-05    48.8777   2.5410   119.8281
 53      0.0000     0.0000E+00    0.0000E+00    5.010000E+06  0.05000  3.072E-02    0   0.9147   age055_m72            0.0000     1.7402E-05    51.4054   2.1080   122.7704
 54      0.0000     0.0000E+00    0.0000E+00    6.610000E+06  0.05000  1.455E-02    0   0.8877   age061_m72            0.0000     2.0172E-05    58.0826   1.4762   124.2155
 55      0.0000     0.0000E+00    0.0000E+00    1.000000E+07  0.05000  9.074E-03    0   0.8524   age070_m72            0.0000     1.7589E-05    51.3399   2.2765   122.4500
 56      0.0000     0.0000E+00    0.0000E+00    2.512000E+07  0.05000  4.250E-03    0   0.7902   age090_m72            0.0000     1.7017E-05    50.7085   1.9837   124.6969
 57      0.0000     0.0000E+00    0.0000E+00    4.000000E+07  0.05000  3.087E-03    0   0.7618   age104_m72            0.0000     1.6871E-05    50.6636   1.7613   126.5357
 58      0.0000     0.0000E+00    0.0000E+00    1.015200E+08  0.05000  1.700E-03    0   0.7096   age116_m72            0.0000     1.5807E-05    47.8665   1.4699   131.5768
 59      0.0000     0.0000E+00    0.0000E+00    2.861200E+08  0.05000  7.384E-04    0   0.6633   age125_m72            0.0000     1.4399E-05    43.5127   0.8711   140.7277
 60      0.0000     0.0000E+00    0.0000E+00    5.088000E+08  0.05000  3.819E-04    0   0.6372   age130_m72            0.0000     1.3709E-05    42.2027   0.3334   144.8406
 61      0.0000     0.0000E+00    0.0000E+00    9.047900E+08  0.05000  1.676E-04    0   0.6110   age135_m72            0.0000     1.3451E-05    41.5660  -0.4183   144.2656
 62      0.0000     0.0000E+00    0.0000E+00    1.434000E+09  0.05000  8.837E-05    0   0.5874   age139_m72            0.0000     1.3596E-05    41.7533  -0.8859   143.6977
 63      0.0000     0.0000E+00    0.0000E+00    2.500000E+09  0.05000  4.233E-05    0   0.5598   age150_m72            0.0000     1.3648E-05    42.7751  -1.0000   136.8849
 64      0.0000     0.0000E+00    0.0000E+00    6.250000E+09  0.05000  1.435E-05    0   0.5249   age166_m72            0.0000     1.5559E-05    47.7928  -1.0000   121.2483
 65      0.0000     0.0000E+00    0.0000E+00    1.300000E+10  0.05000  6.513E-06    0   0.5036   age193_m72            0.0000     1.8016E-05    50.7362  -1.0000   112.8935
 66      0.0000     0.0000E+00    0.0000E+00    1.800000E+10  0.05000  4.527E-06    0   0.4945   age213_m72            0.0000     1.9746E-05    52.3143  -1.0000   107.0284


## Synthesis Results - Average & Chains ##

# j      x_j: min, <> & last-chain-values for 1 ...  7 chains
  1      0.0000      1.0498      0.0000      0.0000      0.0000      0.0000      0.0000      0.0000      0.0000
  2      0.0000      0.8466      0.0000      0.0000      0.0000      0.0000      0.0000      0.0000      0.0000
  3      0.0000      1.0529      0.0000      0.0000      0.0000      0.0000      0.0000      0.0000      0.0000
  4      0.0000      1.3560      0.0000      0.0000      0.0000      0.0000      0.0000      0.0000      0.0000
  5      0.0000      1.0254      0.0000      0.0000      0.0000      0.0000      0.0000      0.0000      0.0000
  6      0.0000      1.3006      0.0000      0.0000      0.0000      0.0000      0.0000      0.0000      0.0000
  7      0.0000      0.8668      0.0000      0.0000      0.0000      0.0000      0.0000      0.0002      0.0000
  8      0.0000      1.2019      0.0000      0.0000      0.0000      0.0000      0.0000      0.0000      0.0000
  9      0.0000      0.9520      0.0000      0.0000      0.0000      0.0000      0.0000      0.0000      0.0000
 10      0.0000      0.5909      0.0000      0.0000      0.0000      0.0000      0.0000      0.0001      0.0000
 11      0.0000      0.8112      0.0000      0.0000      0.0000      0.0000      0.0000      0.0011      0.0000
 12      0.0000      1.0014      0.0000      0.0000      0.0000      0.0000      0.0030      0.0000      0.0000
 13      0.4355      1.6281      1.0996      0.3995      1.0346      1.4345      0.6866      0.6623      0.0000
 14      0.0000      0.7569      0.0000      0.0000      0.0000      0.0000      0.0000      0.0000      0.0000
 15      0.0000      0.9045      0.0000      0.0020      0.0000      0.0000      0.0157      0.0128      0.0067
 16      0.0000      1.1982      0.0000      0.0000      0.0000      0.0000      0.0000      0.0000      0.0000
 17      0.0000      0.8304      0.0000      0.0000      0.0000      0.0000      0.0000      0.0000      0.0000
 18      0.0000      0.8272      0.0000      0.0000      0.0000      0.0005      0.0000      0.0000      0.0000
 19      0.0000      0.9815      0.0000      0.0000      0.0000      0.0000      0.0000      0.0014      0.0000
 20      0.0000      0.7064      0.0000      0.0000      0.0000      0.0000      0.0000      0.0000      0.0000
 21      0.0000      1.3674      0.0000      0.0000      0.0000      0.0000      0.0000      0.0000      0.0000
 22      0.0000      1.0182      0.0000      0.0000      0.0000      0.0000      0.0000      0.0000      0.0000
 23      0.0000      0.9969      0.0000      0.0000      0.0000      0.0000      0.0000      0.0000      0.0000
 24      0.0000      0.7664      0.0000      0.0000      0.0000      0.0000      0.0000      0.0000      0.0000
 25      0.0000      1.0782      0.0000      0.0000      0.0000      0.0000      0.0005      0.0000      0.0000
 26      0.0000      1.2469      0.0000      0.0000      0.0000      0.0000      0.0000      0.0000      0.0000
 27      0.0000      1.2612      0.0000      0.0002      0.0000      0.0000      0.0000      0.0040      0.0000
 28      0.1124      1.1135      0.1569      0.1032      0.1556      0.1828      0.1898      0.1775      0.0000
 29      0.0000      1.0262      0.0000      0.0000      0.0000      0.0000      0.0000      0.0000      0.0000
 30      0.0000      0.5884      0.0000      0.0000      0.0000      0.0000      0.0000      0.0000      0.0000
 31     30.6702     16.7295     32.9077     29.8903     27.1862     32.7531     32.8777     27.6737     32.8032
 32      0.0000      0.9294      0.0000      0.0000      0.0000      0.0000      0.0000      0.0000      0.0000
 33      0.0000      1.1604      0.0000      0.0000      0.0000      0.0000      0.0000      0.0000      0.0000
 34      0.0000      0.9253      0.0000      0.0000      0.0000      0.0000      0.0000      0.0000      0.0000
 35      0.0000      0.8868      0.0000      0.0000      0.0000      0.0000      0.0000      0.0000      0.0000
 36      0.0000      0.9321      0.0000      0.0000      0.0000      0.0000      0.0000      0.0000      0.0000
 37      0.0000      0.7910      0.0000      0.0000      0.0000      0.0000      0.0000      0.0000      0.0000
 38      0.0000      1.0967      0.0000      0.0000      0.0000      0.0000      0.0000      0.0000      0.0000
 39      0.0000      0.9141      0.0000      0.0000      0.0000      0.0000      0.0000      0.0000      0.0000
 40      0.0000      0.9425      0.0000      0.0000      0.0000      0.0000      0.0000      0.0000      0.0000
 41      0.0000      1.1140      0.0000      0.0000      0.0000      0.0000      0.0000      0.0000      0.0000
 42      0.0000      1.0108      0.0000      0.0000      0.0000      0.0000      0.0000      0.0000      0.0000
 43      0.0000      0.6991      0.0000      0.0000      0.0000      0.0000      0.0000      0.0000      0.0000
 44      0.0000      0.9536      0.0000      0.0000      0.0000      0.0000      0.0000      0.0000      0.0000
 45      0.0000      0.8780      0.2741      0.0000      1.0993      0.2416      0.4148      0.2260      0.0081
 46      0.0000      1.4490      1.8669      1.0274      2.4578      1.3311      2.1812      2.1302      0.4179
 47      0.0000      3.3142      0.0070      7.9440      5.3583      0.0000      0.0011      5.9319      8.2446
 48     98.7819     45.5463     93.6877     90.6334     92.7082     94.0560     93.6289     93.1756     88.5123
 49      0.0000      1.1619      0.0000      0.0000      0.0000      0.0000      0.0000      0.0001      0.0000
 50      0.0000      1.0757      0.0000      0.0000      0.0000      0.0000      0.0000      0.0000      0.0000
 51      0.0000      0.9971      0.0000      0.0000      0.0000      0.0000      0.0000      0.0000      0.0000
 52      0.0000      1.1931      0.0000      0.0000      0.0000      0.0000      0.0000      0.0000      0.0000
 53      0.0000      1.2586      0.0000      0.0000      0.0000      0.0000      0.0000      0.0000      0.0000
 54      0.0000      1.0990      0.0000      0.0000      0.0000      0.0000      0.0001      0.0000      0.0000
 55      0.0000      0.9911      0.0000      0.0000      0.0000      0.0000      0.0000      0.0000      0.0000
 56      0.0000      0.9489      0.0000      0.0000      0.0000      0.0000      0.0000      0.0000      0.0000
 57      0.0000      0.8743      0.0000      0.0000      0.0000      0.0003      0.0000      0.0000      0.0000
 58      0.0000      0.9165      0.0000      0.0000      0.0000      0.0000      0.0000      0.0000      0.0000
 59      0.0000      1.1653      0.0000      0.0000      0.0000      0.0000      0.0000      0.0000      0.0042
 60      0.0000      1.0022      0.0000      0.0000      0.0000      0.0000      0.0000      0.0000      0.0000
 61      0.0000      1.2906      0.0000      0.0000      0.0000      0.0000      0.0000      0.0000      0.0024
 62      0.0000      0.8577      0.0000      0.0000      0.0000      0.0000      0.0000      0.0000      0.0000
 63      0.0000      1.1140      0.0000      0.0000      0.0000      0.0000      0.0000      0.0000      0.0000
 64      0.0000      0.9153      0.0000      0.0000      0.0000      0.0000      0.0000      0.0032      0.0000
 65      0.0000      1.0876      0.0000      0.0000      0.0000      0.0000      0.0005      0.0000      0.0006
 66      0.0000      0.9551      0.0000      0.0000      0.0000      0.0000      0.0000      0.0000      0.0000

# j      m_j: min, <> & last-chain-values for 1 ...  7 chains
  1  0.0000E+00  6.0473E-03  0.0000E+00  0.0000E+00  0.0000E+00  0.0000E+00  0.0000E+00  0.0000E+00  0.0000E+00
  2  0.0000E+00  1.3313E-03  0.0000E+00  0.0000E+00  0.0000E+00  0.0000E+00  0.0000E+00  0.0000E+00  0.0000E+00
  3  0.0000E+00  2.4794E-03  0.0000E+00  0.0000E+00  0.0000E+00  0.0000E+00  0.0000E+00  0.0000E+00  0.0000E+00
  4  0.0000E+00  3.0073E-03  0.0000E+00  0.0000E+00  0.0000E+00  0.0000E+00  0.0000E+00  0.0000E+00  0.0000E+00
  5  0.0000E+00  4.3317E-03  0.0000E+00  0.0000E+00  0.0000E+00  0.0000E+00  0.0000E+00  0.0000E+00  0.0000E+00
  6  0.0000E+00  8.9114E-03  0.0000E+00  0.0000E+00  0.0000E+00  0.0000E+00  0.0000E+00  0.0000E+00  0.0000E+00
  7  0.0000E+00  8.5036E-03  0.0000E+00  0.0000E+00  0.0000E+00  0.0000E+00  0.0000E+00  1.6535E-06  0.0000E+00
  8  0.0000E+00  1.6297E-02  0.0000E+00  0.0000E+00  0.0000E+00  0.0000E+00  0.0000E+00  0.0000E+00  0.0000E+00
  9  0.0000E+00  1.4774E-02  0.0000E+00  0.0000E+00  0.0000E+00  0.0000E+00  0.0000E+00  0.0000E+00  0.0000E+00
 10  0.0000E+00  1.2046E-02  0.0000E+00  0.0000E+00  0.0000E+00  0.0000E+00  0.0000E+00  1.6202E-06  0.0000E+00
 11  0.0000E+00  3.1095E-02  0.0000E+00  0.0000E+00  0.0000E+00  0.0000E+00  0.0000E+00  3.3071E-05  0.0000E+00
 12  0.0000E+00  6.0889E-02  0.0000E+00  0.0000E+00  0.0000E+00  0.0000E+00  1.4686E-04  0.0000E+00  0.0000E+00
 13  5.8150E-02  2.7902E-01  1.5022E-01  5.5139E-02  1.4369E-01  1.9572E-01  9.3807E-02  9.1282E-02  0.0000E+00
 14  0.0000E+00  4.3505E-01  0.0000E+00  0.0000E+00  0.0000E+00  0.0000E+00  0.0000E+00  0.0000E+00  0.0000E+00
 15  0.0000E+00  8.4644E-01  0.0000E+00  1.4860E-03  0.0000E+00  0.0000E+00  1.1726E-02  9.6056E-03  5.0318E-03
 16  0.0000E+00  1.8958E+00  0.0000E+00  0.0000E+00  0.0000E+00  0.0000E+00  0.0000E+00  0.0000E+00  0.0000E+00
 17  0.0000E+00  1.7045E+00  0.0000E+00  0.0000E+00  0.0000E+00  0.0000E+00  0.0000E+00  0.0000E+00  0.0000E+00
 18  0.0000E+00  4.2107E-03  0.0000E+00  0.0000E+00  0.0000E+00  2.1991E-06  0.0000E+00  0.0000E+00  0.0000E+00
 19  0.0000E+00  2.0054E-03  0.0000E+00  0.0000E+00  0.0000E+00  0.0000E+00  0.0000E+00  2.3706E-06  0.0000E+00
 20  0.0000E+00  1.5756E-03  0.0000E+00  0.0000E+00  0.0000E+00  0.0000E+00  0.0000E+00  0.0000E+00  0.0000E+00
 21  0.0000E+00  3.7022E-03  0.0000E+00  0.0000E+00  0.0000E+00  0.0000E+00  0.0000E+00  0.0000E+00  0.0000E+00
 22  0.0000E+00  4.6614E-03  0.0000E+00  0.0000E+00  0.0000E+00  0.0000E+00  0.0000E+00  0.0000E+00  0.0000E+00
 23  0.0000E+00  6.1637E-03  0.0000E+00  0.0000E+00  0.0000E+00  0.0000E+00  0.0000E+00  0.0000E+00  0.0000E+00
 24  0.0000E+00  7.0496E-03  0.0000E+00  0.0000E+00  0.0000E+00  0.0000E+00  0.0000E+00  0.0000E+00  0.0000E+00
 25  0.0000E+00  1.3675E-02  0.0000E+00  0.0000E+00  0.0000E+00  0.0000E+00  5.5592E-06  0.0000E+00  0.0000E+00
 26  0.0000E+00  2.6434E-02  0.0000E+00  0.0000E+00  0.0000E+00  0.0000E+00  0.0000E+00  0.0000E+00  0.0000E+00
 27  0.0000E+00  5.3516E-02  0.0000E+00  6.2431E-06  0.0000E+00  0.0000E+00  0.0000E+00  1.3723E-04  0.0000E+00
 28  1.0789E-02  1.3713E-01  1.5404E-02  1.0231E-02  1.5527E-02  1.7921E-02  1.8638E-02  1.7575E-02  0.0000E+00
 29  0.0000E+00  2.2019E-01  0.0000E+00  0.0000E+00  0.0000E+00  0.0000E+00  0.0000E+00  0.0000E+00  0.0000E+00
 30  0.0000E+00  2.6379E-01  0.0000E+00  0.0000E+00  0.0000E+00  0.0000E+00  0.0000E+00  0.0000E+00  0.0000E+00
 31  1.8846E+01  1.3193E+01  2.0686E+01  1.8982E+01  1.7374E+01  2.0563E+01  2.0671E+01  1.7551E+01  2.0833E+01
 32  0.0000E+00  9.8613E-01  0.0000E+00  0.0000E+00  0.0000E+00  0.0000E+00  0.0000E+00  0.0000E+00  0.0000E+00
 33  0.0000E+00  2.7258E+00  0.0000E+00  0.0000E+00  0.0000E+00  0.0000E+00  0.0000E+00  0.0000E+00  0.0000E+00
 34  0.0000E+00  2.9434E+00  0.0000E+00  0.0000E+00  0.0000E+00  0.0000E+00  0.0000E+00  0.0000E+00  0.0000E+00
 35  0.0000E+00  3.6195E-03  0.0000E+00  0.0000E+00  0.0000E+00  0.0000E+00  0.0000E+00  0.0000E+00  0.0000E+00
 36  0.0000E+00  1.5393E-03  0.0000E+00  0.0000E+00  0.0000E+00  0.0000E+00  0.0000E+00  0.0000E+00  0.0000E+00
 37  0.0000E+00  1.4128E-03  0.0000E+00  0.0000E+00  0.0000E+00  0.0000E+00  0.0000E+00  0.0000E+00  0.0000E+00
 38  0.0000E+00  5.3068E-03  0.0000E+00  0.0000E+00  0.0000E+00  0.0000E+00  0.0000E+00  0.0000E+00  0.0000E+00
 39  0.0000E+00  6.3689E-03  0.0000E+00  0.0000E+00  0.0000E+00  0.0000E+00  0.0000E+00  0.0000E+00  0.0000E+00
 40  0.0000E+00  1.0614E-02  0.0000E+00  0.0000E+00  0.0000E+00  0.0000E+00  0.0000E+00  0.0000E+00  0.0000E+00
 41  0.0000E+00  1.9510E-02  0.0000E+00  0.0000E+00  0.0000E+00  0.0000E+00  0.0000E+00  0.0000E+00  0.0000E+00
 42  0.0000E+00  3.2501E-02  0.0000E+00  0.0000E+00  0.0000E+00  0.0000E+00  0.0000E+00  0.0000E+00  0.0000E+00
 43  0.0000E+00  3.2818E-02  0.0000E+00  0.0000E+00  0.0000E+00  0.0000E+00  0.0000E+00  0.0000E+00  0.0000E+00
 44  0.0000E+00  7.7081E-02  0.0000E+00  0.0000E+00  0.0000E+00  0.0000E+00  0.0000E+00  0.0000E+00  0.0000E+00
 45  0.0000E+00  1.4081E-01  3.5046E-02  0.0000E+00  1.4287E-01  3.0850E-02  5.3041E-02  2.9150E-02  1.0448E-03
 46  0.0000E+00  4.2715E-01  4.3868E-01  2.4389E-01  5.8713E-01  3.1238E-01  5.1262E-01  5.0501E-01  9.9214E-02
 47  0.0000E+00  1.9797E+00  3.3361E-03  3.8212E+00  2.5937E+00  0.0000E+00  5.2450E-04  2.8496E+00  3.9661E+00
 48  8.1085E+01  4.7981E+01  7.8671E+01  7.6886E+01  7.9144E+01  7.8881E+01  7.8637E+01  7.8940E+01  7.5093E+01
 49  0.0000E+00  2.7819E+00  0.0000E+00  0.0000E+00  0.0000E+00  0.0000E+00  0.0000E+00  1.6191E-04  0.0000E+00
 50  0.0000E+00  4.7704E+00  0.0000E+00  0.0000E+00  0.0000E+00  0.0000E+00  0.0000E+00  0.0000E+00  0.0000E+00
 51  0.0000E+00  2.4238E-03  0.0000E+00  0.0000E+00  0.0000E+00  0.0000E+00  0.0000E+00  0.0000E+00  0.0000E+00
 52  0.0000E+00  1.4862E-03  0.0000E+00  0.0000E+00  0.0000E+00  0.0000E+00  0.0000E+00  0.0000E+00  0.0000E+00
 53  0.0000E+00  2.3616E-03  0.0000E+00  0.0000E+00  0.0000E+00  0.0000E+00  0.0000E+00  0.0000E+00  0.0000E+00
 54  0.0000E+00  4.2255E-03  0.0000E+00  0.0000E+00  0.0000E+00  0.0000E+00  3.1734E-07  0.0000E+00  0.0000E+00
 55  0.0000E+00  5.8671E-03  0.0000E+00  0.0000E+00  0.0000E+00  0.0000E+00  0.0000E+00  0.0000E+00  0.0000E+00
 56  0.0000E+00  1.1119E-02  0.0000E+00  0.0000E+00  0.0000E+00  0.0000E+00  0.0000E+00  0.0000E+00  0.0000E+00
 57  0.0000E+00  1.3597E-02  0.0000E+00  0.0000E+00  0.0000E+00  4.0404E-06  0.0000E+00  0.0000E+00  0.0000E+00
 58  0.0000E+00  2.4108E-02  0.0000E+00  0.0000E+00  0.0000E+00  0.0000E+00  0.0000E+00  0.0000E+00  0.0000E+00
 59  0.0000E+00  6.5968E-02  0.0000E+00  0.0000E+00  0.0000E+00  0.0000E+00  0.0000E+00  0.0000E+00  1.9017E-04
 60  0.0000E+00  1.0538E-01  0.0000E+00  0.0000E+00  0.0000E+00  0.0000E+00  0.0000E+00  0.0000E+00  0.0000E+00
 61  0.0000E+00  2.9649E-01  0.0000E+00  0.0000E+00  0.0000E+00  0.0000E+00  0.0000E+00  0.0000E+00  4.3960E-04
 62  0.0000E+00  3.5929E-01  0.0000E+00  0.0000E+00  0.0000E+00  0.0000E+00  0.0000E+00  0.0000E+00  0.0000E+00
 63  0.0000E+00  9.2845E-01  0.0000E+00  0.0000E+00  0.0000E+00  0.0000E+00  0.0000E+00  0.0000E+00  0.0000E+00
 64  0.0000E+00  2.1099E+00  0.0000E+00  0.0000E+00  0.0000E+00  0.0000E+00  0.0000E+00  5.9635E-03  0.0000E+00
 65  0.0000E+00  5.2995E+00  0.0000E+00  0.0000E+00  0.0000E+00  0.0000E+00  2.1121E-03  0.0000E+00  2.3356E-03
 66  0.0000E+00  6.5748E+00  0.0000E+00  0.0000E+00  0.0000E+00  0.0000E+00  0.0000E+00  0.0000E+00  0.0000E+00

# AV, chi2 & Mass for <> & i_chain = 1 ...  7 solutions
AV      -0.9324     -0.9110     -0.9121     -0.9101     -0.9020     -0.9131     -0.9108     -0.9101     -0.9091
chi2 1.3932E-05  1.6845E-05  1.3937E-05  1.3940E-05  1.3940E-05  1.3936E-05  1.3937E-05  1.3939E-05  1.3941E-05
Mass 3.5433E-14  2.8413E-14  3.5593E-14  3.5328E-14  3.5489E-14  3.5590E-14  3.5649E-14  3.5374E-14  3.5373E-14
-250.78                                  [v0_min (km/s) before EX0s...]
   0.00                                  [vd_min (km/s) before EX0s...]


## Synthetic spectrum (Best Model) ##l_obs f_obs f_syn wei
 3478    [Nl_obs]
 3741.00    1.34185   0.62129    0.000
 3742.00    0.95436   0.57679    0.000
 3743.00    0.29851   0.54574    0.000
 3744.00   -0.23315   0.52686    0.000
 3745.00   -0.69246   0.45996    0.000
 3746.00   -0.53337   0.40723    0.000
 3747.00   -0.06025   0.47827    0.000
 3748.00   -0.19299   0.62738    0.000
 3749.00   -0.59214   0.74087    0.000
 3750.00   -0.44236   0.81396    0.000
 3751.00   -0.08534   0.89737    0.000
 3752.00    0.03183   0.95149    0.017
 3753.00    0.07213   0.89612    0.017
 3754.00    0.21383   0.73230    0.017
 3755.00    0.38271   0.59795    0.016
 3756.00    0.86547   0.61050    0.016
 3757.00    1.41712   0.69940    0.016
 3758.00    1.16783   0.75456    0.016
 3759.00    0.77871   0.75727    0.016
 3760.00    0.69246   0.73262    0.019
 3761.00    0.64645   0.73636    0.025
 3762.00    0.51960   0.76470    0.020
 3763.00    0.38515   0.72957    0.016
 3764.00    0.04776   0.67960    0.015
 3765.00   -0.30134   0.70810    0.000
 3766.00   -0.12287   0.74071    0.000
 3767.00    0.06916   0.72064    0.015
 3768.00    0.38780   0.74411    0.015
 3769.00    0.69195   0.83086    0.016
 3770.00    0.64414   0.88528    0.015
 3771.00    0.60352   0.87837    0.015
 3772.00    0.65715   0.86506    0.015
 3773.00    0.71276   0.87484    0.015
 3774.00    0.78579   0.88873    0.015
 3775.00    0.79723   0.90158    0.015
 3776.00    0.40933   0.94542    0.015
 3777.00    0.00881   0.99537    0.015
 3778.00   -0.45554   1.00133    0.000
 3779.00   -0.70126   0.99159    0.000
 3780.00   -0.05211   1.01227    0.000
 3781.00    0.28941   1.02536    0.015
 3782.00   -0.41245   0.94873    0.000
 3783.00   -0.68599   0.82108    0.000
 3784.00    0.26547   0.75788    0.016
 3785.00    0.71281   0.74260    0.016
 3786.00   -0.07154   0.72573    0.000
 3787.00   -0.75776   0.74284    0.000
 3788.00   -1.23715   0.79560    0.000
 3789.00   -1.26267   0.80199    0.000
 3790.00   -0.45686   0.74541    0.000
 3791.00    0.23541   0.68659    0.016
 3792.00    0.74594   0.66258    0.016
 3793.00    1.15914   0.64661    0.016
 3794.00    1.43565   0.59245    0.016
 3795.00    1.37511   0.54715    0.016
 3796.00    0.89799   0.59543    0.015
 3797.00    0.46538   0.70996    0.015
 3798.00    0.08127   0.80366    0.014
 3799.00   -0.16495   0.86880    0.000
 3800.00   -0.27865   0.92924    0.000
 3801.00   -0.08991   0.95094    0.000
 3802.00    0.35513   0.91867    0.015
 3803.00    0.82240   0.85616    0.015
 3804.00    1.30627   0.82323    0.016
 3805.00    1.35337   0.87118    0.016
 3806.00    1.11416   0.94710    0.015
 3807.00    0.78258   0.98396    0.015
 3808.00    0.39800   0.96857    0.014
 3809.00    0.16855   0.89786    0.014
 3810.00    0.01663   0.79807    0.015
 3811.00   -0.30969   0.71892    0.000
 3812.00   -0.71143   0.67143    0.000
 3813.00   -0.81625   0.68539    0.000
 3814.00   -0.81095   0.76303    0.000
 3815.00   -0.85039   0.78708    0.000
 3816.00   -0.90389   0.69632    0.000
 3817.00   -0.99398   0.59937    0.000
 3818.00   -1.09367   0.62451    0.000
 3819.00   -0.78715   0.71580    0.000
 3820.00   -0.39359   0.72128    0.000
 3821.00    0.27871   0.62772    0.015
 3822.00    0.99832   0.54756    0.015
 3823.00    0.55518   0.53026    0.015
 3824.00   -0.03717   0.54219    0.000
 3825.00    0.36628   0.55682    0.015
 3826.00    0.85910   0.57850    0.015
 3827.00    0.28334   0.59765    0.015
 3828.00   -0.34986   0.56622    0.000
 3829.00   -0.24855   0.49124    0.000
 3830.00   -0.12675   0.44444    0.000
 3831.00    0.48201   0.44770    0.015
 3832.00    1.04749   0.48291    0.015
 3833.00    0.65140   0.51954    0.015
 3834.00    0.29466   0.51634    0.015
 3835.00    0.42734   0.48777    0.015
 3836.00    0.50284   0.48626    0.015
 3837.00    0.09503   0.52087    0.015
 3838.00   -0.23788   0.60171    0.000
 3839.00   -0.09961   0.71066    0.000
 3840.00    0.07204   0.77837    0.014
 3841.00    0.40843   0.79762    0.014
 3842.00    0.65439   0.79495    0.015
 3843.00    0.53833   0.80147    0.015
 3844.00    0.42816   0.83351    0.015
 3845.00    0.33757   0.83438    0.015
 3846.00    0.11886   0.77654    0.015
 3847.00   -0.45962   0.74850    0.000
 3848.00   -0.74366   0.79935    0.000
 3849.00   -0.32047   0.84666    0.000
 3850.00    0.15646   0.82841    0.000
 3851.00    0.74484   0.78799    0.000
 3852.00    1.03308   0.75134    0.000
 3853.00    0.77997   0.72896    0.000
 3854.00    0.67174   0.72270    0.000
 3855.00    0.79201   0.67514    0.000
 3856.00    0.53148   0.60113    0.000
 3857.00   -0.25620   0.60806    0.000
 3858.00   -0.59867   0.71362    0.000
 3859.00   -0.39863   0.82779    0.000
 3860.00   -0.12986   0.87117    0.000
 3861.00    0.21274   0.85210    0.000
 3862.00    0.40351   0.82005    0.000
 3863.00    0.45040   0.80824    0.000
 3864.00    0.65417   0.81369    0.000
 3865.00    0.98898   0.81071    0.000
 3866.00    1.08831   0.78056    0.000
 3867.00    1.01444   0.72165    0.000
 3868.00    1.30654   0.66104    0.000
 3869.00    1.83504   0.63817    0.000
 3870.00    1.52433   0.69067    0.000
 3871.00    0.73936   0.79361    0.000
 3872.00    0.98758   0.85608    0.000
 3873.00    1.74403   0.82782    0.000
 3874.00    1.99006   0.73596    0.000
 3875.00    2.01906   0.66766    0.000
 3876.00    1.83791   0.70038    0.000
 3877.00    1.58021   0.75386    0.000
 3878.00    1.52479   0.72658    0.000
 3879.00    1.53174   0.68814    0.000
 3880.00    1.07265   0.72607    0.000
 3881.00    0.49393   0.76384    0.014
 3882.00    0.42646   0.69855    0.014
 3883.00    0.46588   0.60236    0.014
 3884.00    0.12223   0.57551    0.014
 3885.00   -0.28458   0.58422    0.000
 3886.00   -0.17946   0.61044    0.000
 3887.00   -0.01095   0.69516    0.000
 3888.00   -0.24198   0.80051    0.000
 3889.00   -0.50720   0.86394    0.000
 3890.00   -1.18395   0.87146    0.000
 3891.00   -1.88121   0.84644    0.000
 3892.00   -0.86896   0.82830    0.000
 3893.00    0.15525   0.85777    0.014
 3894.00    0.14390   0.89598    0.014
 3895.00    0.11601   0.88023    0.014
 3896.00   -0.25036   0.85464    0.000
 3897.00   -0.54448   0.88025    0.000
 3898.00    0.01582   0.92339    0.014
 3899.00    0.50676   0.90364    0.014
 3900.00    0.43269   0.85677    0.014
 3901.00    0.43561   0.83148    0.013
 3902.00    0.90883   0.79468    0.013
 3903.00    1.30001   0.79547    0.013
 3904.00    1.29640   0.87707    0.013
 3905.00    1.24093   0.96202    0.012
 3906.00    0.98237   0.99563    0.012
 3907.00    0.82122   1.00263    0.013
 3908.00    0.97755   1.02193    0.013
 3909.00    1.11438   1.03593    0.014
 3910.00    1.19744   1.01653    0.014
 3911.00    1.10324   0.99078    0.014
 3912.00    0.59045   0.97533    0.014
 3913.00    0.21008   0.94993    0.014
 3914.00    0.09999   0.93074    0.015
 3915.00    0.28118   0.90669    0.015
 3916.00    0.97974   0.85336    0.015
 3917.00    1.45455   0.79366    0.015
 3918.00    1.58171   0.77083    0.016
 3919.00    1.61400   0.79149    0.015
 3920.00    1.51683   0.82365    0.015
 3921.00    1.28010   0.83461    0.015
 3922.00    0.87572   0.79498    0.015
 3923.00    0.44032   0.72433    0.015
 3924.00   -0.02795   0.63934    0.000
 3925.00   -0.21175   0.54230    0.000
 3926.00   -0.12982   0.45822    0.000
 3927.00    0.13260   0.38645    0.014
 3928.00    0.54367   0.31726    0.014
 3929.00    0.66887   0.25588    0.014
 3930.00    0.58684   0.21656    0.014
 3931.00    0.54990   0.22113    0.014
 3932.00    0.54166   0.27444    0.014
 3933.00    0.81698   0.35828    0.015
 3934.00    1.25010   0.45282    0.015
 3935.00    1.10171   0.55069    0.014
 3936.00    0.67182   0.64194    0.014
 3937.00    0.36295   0.69883    0.014
 3938.00    0.10469   0.71749    0.014
 3939.00    0.28636   0.71512    0.014
 3940.00    0.62540   0.69812    0.014
 3941.00    1.04760   0.71408    0.014
 3942.00    1.49494   0.80774    0.014
 3943.00    1.49261   0.89630    0.014
 3944.00    1.37734   0.89642    0.014
 3945.00    1.29907   0.87656    0.014
 3946.00    1.22834   0.91650    0.014
 3947.00    0.83395   0.97838    0.014
 3948.00    0.38773   0.98097    0.015
 3949.00    0.29069   0.93585    0.015
 3950.00    0.23534   0.94284    0.014
 3951.00    1.14062   0.99756    0.015
 3952.00    2.12412   0.98331    0.015
 3953.00    1.73681   0.91451    0.015
 3954.00    1.28649   0.90077    0.015
 3955.00    0.96618   0.94205    0.015
 3956.00    0.65624   0.94641    0.015
 3957.00    0.80171   0.85046    0.015
 3958.00    0.95280   0.70532    0.015
 3959.00    1.21048   0.62056    0.015
 3960.00    1.44993   0.60123    0.000
 3961.00    1.48392   0.56653    0.000
 3962.00    1.38223   0.48261    0.000
 3963.00    0.21410   0.37320    0.000
 3964.00   -0.69069   0.27783    0.000
 3965.00   -0.03288   0.22951    0.000
 3966.00    0.53068   0.24492    0.000
 3967.00    0.65169   0.31723    0.000
 3968.00    0.60777   0.41608    0.000
 3969.00   -0.06818   0.50928    0.000
 3970.00   -0.39480   0.58945    0.000
 3971.00    0.39513   0.67267    0.000
 3972.00    0.93996   0.75693    0.000
 3973.00    0.82102   0.82172    0.000
 3974.00    0.55945   0.88153    0.000
 3975.00   -0.03330   0.95764    0.000
 3976.00   -0.15196   1.03065    0.000
 3977.00    0.68162   1.06520    0.000
 3978.00    1.24171   1.04565    0.000
 3979.00    1.32340   1.01096    0.000
 3980.00    1.27039   1.00526    0.000
 3981.00    1.01117   1.02821    0.014
 3982.00    0.98510   1.05713    0.014
 3983.00    1.27257   1.07427    0.014
 3984.00    1.04410   1.10474    0.014
 3985.00    0.20463   1.14015    0.015
 3986.00   -0.33855   1.12576    0.000
 3987.00   -0.57234   1.10697    0.000
 3988.00   -0.46981   1.13527    0.000
 3989.00   -0.05748   1.17133    0.000
 3990.00    0.28905   1.17610    0.014
 3991.00    0.58217   1.14806    0.014
 3992.00    1.02143   1.11099    0.014
 3993.00    1.56511   1.07185    0.014
 3994.00    1.57320   1.04724    0.014
 3995.00    1.24547   1.08462    0.014
 3996.00    0.94330   1.17026    0.014
 3997.00    0.65514   1.22013    0.014
 3998.00    0.86850   1.22889    0.014
 3999.00    1.32075   1.24857    0.014
 4000.00    0.95647   1.23581    0.014
 4001.00    0.25658   1.12512    0.014
 4002.00    0.38904   1.00504    0.014
 4003.00    0.81384   1.01382    0.014
 4004.00    0.50926   1.11731    0.014
 4005.00   -0.01143   1.19501    0.000
 4006.00    0.83463   1.21717    0.015
 4007.00    2.01644   1.22092    0.015
 4008.00    1.86968   1.22419    0.015
 4009.00    1.45878   1.22701    0.015
 4010.00    1.18152   1.23343    0.015
 4011.00    0.92503   1.24626    0.015
 4012.00    0.49850   1.26361    0.015
 4013.00    0.05241   1.24814    0.015
 4014.00    0.53021   1.21470    0.015
 4015.00    1.07943   1.23700    0.016
 4016.00    1.05186   1.28734    0.015
 4017.00    1.00000   1.28670    0.015
 4018.00    0.60366   1.25744    0.015
 4019.00    0.22289   1.24539    0.015
 4020.00    0.66218   1.22934    0.015
 4021.00    1.09552   1.20216    0.015
 4022.00    1.42389   1.21620    0.015
 4023.00    1.71182   1.27801    0.015
 4024.00    1.56480   1.33057    0.015
 4025.00    1.40322   1.33176    0.015
 4026.00    1.13113   1.24670    0.015
 4027.00    0.91183   1.10721    0.015
 4028.00    0.99702   1.02270    0.015
 4029.00    0.96413   1.00971    0.015
 4030.00    0.39013   1.01943    0.014
 4031.00    0.05099   1.06186    0.014
 4032.00    0.59282   1.14767    0.014
 4033.00    1.03892   1.25635    0.014
 4034.00    1.18493   1.33958    0.014
 4035.00    1.08819   1.35550    0.014
 4036.00    0.34562   1.31107    0.014
 4037.00   -0.27539   1.25653    0.000
 4038.00   -0.61885   1.25171    0.000
 4039.00   -0.47647   1.27071    0.000
 4040.00    0.62638   1.19849    0.014
 4041.00    1.29166   1.01630    0.014
 4042.00    1.20312   0.87424    0.014
 4043.00    1.04666   0.92212    0.014
 4044.00    0.78774   1.10217    0.014
 4045.00    0.80658   1.23265    0.014
 4046.00    1.19364   1.27930    0.014
 4047.00    1.55382   1.30011    0.014
 4048.00    1.88263   1.28856    0.014
 4049.00    1.99426   1.24393    0.015
 4050.00    1.88228   1.19826    0.015
 4051.00    1.82567   1.16087    0.015
 4052.00    1.81935   1.14311    0.014
 4053.00    1.79259   1.12987    0.014
 4054.00    1.74946   1.09175    0.014
 4055.00    1.43800   1.08578    0.014
 4056.00    0.93758   1.15744    0.015
 4057.00    0.68433   1.23071    0.015
 4058.00    0.58377   1.20249    0.014
 4059.00    0.60008   1.06488    0.014
 4060.00    0.67946   0.94951    0.014
 4061.00    0.79659   0.98462    0.014
 4062.00    0.93141   1.09064    0.014
 4063.00    1.27631   1.12522    0.014
 4064.00    1.70609   1.13882    0.014
 4065.00    1.83863   1.21335    0.014
 4066.00    1.86867   1.26327    0.014
 4067.00    1.68486   1.18537    0.015
 4068.00    1.43894   1.06889    0.015
 4069.00    1.79417   1.08362    0.015
 4070.00    2.29379   1.19205    0.015
 4071.00    2.32171   1.22481    0.015
 4072.00    2.25822   1.14112    0.015
 4073.00    2.22392   1.01700    0.015
 4074.00    2.19402   0.95390    0.015
 4075.00    1.80012   1.00641    0.015
 4076.00    1.36595   1.13141    0.015
 4077.00    1.41012   1.25293    0.015
 4078.00    1.48932   1.30803    0.014
 4079.00    1.39533   1.27243    0.014
 4080.00    1.29472   1.20329    0.014
 4081.00    1.13795   1.16780    0.015
 4082.00    0.98786   1.18173    0.015
 4083.00    1.10185   1.24139    0.015
 4084.00    1.18744   1.32135    0.014
 4085.00    0.80500   1.36869    0.014
 4086.00    0.54922   1.36076    0.015
 4087.00    1.59692   1.32214    0.015
 4088.00    2.43579   1.28017    0.015
 4089.00    1.74225   1.25971    0.014
 4090.00    1.11564   1.26847    0.014
 4091.00    0.86449   1.24448    0.014
 4092.00    0.66817   1.16181    0.000
 4093.00    0.71717   1.09626    0.000
 4094.00    0.89098   1.08319    0.000
 4095.00    1.52318   1.07725    0.000
 4096.00    1.95874   1.02173    0.000
 4097.00    1.78956   0.90527    0.000
 4098.00    1.49592   0.81720    0.000
 4099.00    0.87697   0.85309    0.000
 4100.00    0.64418   0.96545    0.000
 4101.00    1.27865   1.06582    0.000
 4102.00    1.77374   1.14520    0.000
 4103.00    1.99761   1.19784    0.000
 4104.00    2.00337   1.20763    0.000
 4105.00    1.63902   1.18999    0.000
 4106.00    1.30572   1.16269    0.000
 4107.00    1.01860   1.14435    0.000
 4108.00    0.67004   1.15164    0.000
 4109.00    0.24122   1.18646    0.000
 4110.00    0.26702   1.23306    0.000
 4111.00    0.81608   1.26714    0.000
 4112.00    1.11343   1.28916    0.000
 4113.00    1.15527   1.29502    0.013
 4114.00    1.16819   1.24948    0.013
 4115.00    1.15521   1.17447    0.013
 4116.00    1.08569   1.15576    0.013
 4117.00    0.97154   1.19235    0.013
 4118.00    0.57066   1.20612    0.013
 4119.00   -0.02920   1.19255    0.000
 4120.00    0.19624   1.20270    0.013
 4121.00    0.92387   1.24084    0.013
 4122.00    1.20119   1.25488    0.013
 4123.00    1.23929   1.22295    0.013
 4124.00    0.87027   1.18210    0.013
 4125.00    0.31354   1.16572    0.014
 4126.00    0.76755   1.16857    0.014
 4127.00    1.62290   1.15102    0.014
 4128.00    1.23895   1.09192    0.014
 4129.00    0.43556   1.03930    0.013
 4130.00    0.37105   1.04559    0.013
 4131.00    0.51677   1.10681    0.013
 4132.00    1.13970   1.19623    0.014
 4133.00    1.87468   1.25331    0.014
 4134.00    1.82003   1.26410    0.014
 4135.00    1.61634   1.27963    0.014
 4136.00    1.09943   1.29784    0.014
 4137.00    0.53677   1.28421    0.014
 4138.00    0.94753   1.20490    0.014
 4139.00    1.46173   1.06543    0.014
 4140.00    1.91492   0.97699    0.014
 4141.00    2.36388   1.02954    0.015
 4142.00    1.36499   1.14441    0.014
 4143.00    0.31617   1.21139    0.014
 4144.00    0.66670   1.22306    0.014
 4145.00    1.00846   1.19795    0.014
 4146.00    0.96921   1.15805    0.014
 4147.00    0.93193   1.14556    0.014
 4148.00    0.92510   1.15595    0.014
 4149.00    0.94021   1.15218    0.014
 4150.00    1.17157   1.12654    0.014
 4151.00    1.31689   1.10413    0.014
 4152.00    0.85131   1.10093    0.016
 4153.00    0.47035   1.10872    0.018
 4154.00    0.55131   1.14334    0.018
 4155.00    0.57652   1.20009    0.018
 4156.00    0.35798   1.23369    0.018
 4157.00    0.28809   1.23641    0.017
 4158.00    0.75283   1.25201    0.015
 4159.00    1.12672   1.28929    0.013
 4160.00    1.22647   1.29467    0.013
 4161.00    1.31925   1.26381    0.013
 4162.00    1.39412   1.23119    0.014
 4163.00    1.43542   1.18797    0.014
 4164.00    1.40255   1.15705    0.014
 4165.00    1.63447   1.18471    0.014
 4166.00    2.37362   1.22619    0.014
 4167.00    2.46449   1.20169    0.014
 4168.00    1.47190   1.10333    0.013
 4169.00    1.03150   1.01055    0.013
 4170.00    1.39999   1.00432    0.013
 4171.00    1.52224   1.06183    0.013
 4172.00    1.32734   1.10815    0.013
 4173.00    0.82585   1.10994    0.013
 4174.00   -0.02356   1.09298    0.000
 4175.00   -0.34964   1.10887    0.000
 4176.00   -0.15196   1.15420    0.000
 4177.00    0.47446   1.16700    0.013
 4178.00    1.47932   1.13535    0.013
 4179.00    2.20055   1.11948    0.013
 4180.00    2.70118   1.15259    0.013
 4181.00    2.32879   1.20915    0.013
 4182.00    1.35937   1.22122    0.013
 4183.00    0.93848   1.14768    0.013
 4184.00    0.84637   1.08270    0.013
 4185.00    1.15274   1.11941    0.013
 4186.00    1.66753   1.18581    0.013
 4187.00    1.45109   1.19341    0.013
 4188.00    0.90298   1.18912    0.013
 4189.00    0.76406   1.23837    0.013
 4190.00    0.78482   1.27855    0.013
 4191.00    1.10155   1.23059    0.013
 4192.00    1.51658   1.14151    0.013
 4193.00    1.35596   1.08402    0.013
 4194.00    1.03490   1.04726    0.013
 4195.00    1.12263   1.02848    0.013
 4196.00    1.30415   1.05575    0.013
 4197.00    1.50435   1.07804    0.013
 4198.00    1.70797   1.05891    0.013
 4199.00    1.60070   1.06477    0.013
 4200.00    1.44946   1.11352    0.013
 4201.00    1.43086   1.15379    0.013
 4202.00    1.42578   1.18550    0.013
 4203.00    1.54270   1.22592    0.012
 4204.00    1.66756   1.25996    0.012
 4205.00    1.69923   1.26183    0.012
 4206.00    1.72848   1.23169    0.013
 4207.00    2.03922   1.22034    0.013
 4208.00    2.33074   1.25012    0.013
 4209.00    2.05710   1.26980    0.013
 4210.00    1.79097   1.23181    0.013
 4211.00    1.63411   1.13947    0.013
 4212.00    1.45785   1.07277    0.013
 4213.00    1.09821   1.12286    0.013
 4214.00    0.79926   1.23508    0.013
 4215.00    0.91759   1.30010    0.013
 4216.00    1.04244   1.32223    0.013
 4217.00    1.20193   1.33807    0.013
 4218.00    1.39114   1.31729    0.013
 4219.00    1.70732   1.23914    0.013
 4220.00    1.94245   1.13446    0.013
 4221.00    1.89205   1.00678    0.013
 4222.00    1.73334   0.84589    0.013
 4223.00    1.25388   0.74339    0.013
 4224.00    0.97774   0.83130    0.013
 4225.00    1.21472   1.04583    0.013
 4226.00    1.29951   1.20767    0.013
 4227.00    1.05360   1.27803    0.013
 4228.00    0.91070   1.27672    0.012
 4229.00    0.96203   1.21182    0.012
 4230.00    0.88495   1.16275    0.012
 4231.00    0.59646   1.15240    0.012
 4232.00    0.50987   1.12090    0.012
 4233.00    0.71471   1.09974    0.012
 4234.00    0.87645   1.12376    0.012
 4235.00    0.98348   1.14425    0.012
 4236.00    1.09954   1.16000    0.012
 4237.00    1.22572   1.20831    0.012
 4238.00    1.19051   1.25190    0.012
 4239.00    0.99603   1.25991    0.012
 4240.00    1.25797   1.29082    0.012
 4241.00    1.91711   1.34006    0.012
 4242.00    2.02547   1.32419    0.013
 4243.00    1.71156   1.24536    0.013
 4244.00    1.57257   1.17445    0.013
 4245.00    1.55145   1.13197    0.013
 4246.00    1.64720   1.08739    0.013
 4247.00    1.81194   1.07637    0.013
 4248.00    1.64878   1.14453    0.013
 4249.00    1.31680   1.19899    0.013
 4250.00    1.36869   1.15500    0.013
 4251.00    1.59186   1.09813    0.013
 4252.00    1.52759   1.13870    0.013
 4253.00    1.35311   1.23611    0.013
 4254.00    1.37422   1.25771    0.013
 4255.00    1.45908   1.16986    0.013
 4256.00    1.20850   1.05628    0.012
 4257.00    0.86636   1.01353    0.012
 4258.00    0.88311   1.09326    0.012
 4259.00    0.98027   1.23193    0.013
 4260.00    1.52087   1.32060    0.013
 4261.00    2.14078   1.35060    0.013
 4262.00    1.59124   1.36200    0.013
 4263.00    0.88169   1.33458    0.013
 4264.00    1.29636   1.26645    0.013
 4265.00    1.82084   1.20503    0.013
 4266.00    1.43450   1.13275    0.013
 4267.00    0.99247   1.00928    0.013
 4268.00    0.83165   0.91539    0.012
 4269.00    0.67903   0.93857    0.012
 4270.00    0.64366   0.99126    0.012
 4271.00    0.62004   1.01216    0.012
 4272.00    0.90706   1.08109    0.012
 4273.00    1.17480   1.20154    0.012
 4274.00    1.17732   1.28894    0.012
 4275.00    1.16455   1.29031    0.012
 4276.00    1.01278   1.21613    0.012
 4277.00    0.96903   1.15749    0.012
 4278.00    1.64479   1.16330    0.013
 4279.00    2.17936   1.19168    0.013
 4280.00    1.98301   1.20863    0.013
 4281.00    1.71296   1.18207    0.012
 4282.00    1.13527   1.13319   -2.000
 4283.00    0.59052   1.12363   -2.000
 4284.00    0.15946   1.11944   -2.000
 4285.00   -0.06602   1.04620   -2.000
 4286.00    0.30602   0.95322   -2.000
 4287.00    0.68862   0.95357   -2.000
 4288.00    1.09738   1.05249   -2.000
 4289.00    1.44950   1.15115   -2.000
 4290.00    1.68054   1.16446   -2.000
 4291.00    1.74404   1.13167   -2.000
 4292.00    1.49646   1.11714   -2.000
 4293.00    1.37316   1.08987   -2.000
 4294.00    1.45140   1.01550   -2.000
 4295.00    1.59391   0.89972   -2.000
 4296.00    1.82785   0.80795   -2.000
 4297.00    1.76745   0.80994   -2.000
 4298.00    1.33867   0.85170    0.012
 4299.00    1.29749   0.86981    0.012
 4300.00    1.68387   0.89044    0.012
 4301.00    1.85694   0.90781    0.012
 4302.00    1.82249   0.89316    0.012
 4303.00    1.56990   0.84354    0.012
 4304.00    1.13016   0.77402    0.012
 4305.00    1.17549   0.74838    0.012
 4306.00    1.58737   0.79794    0.012
 4307.00    1.54785   0.87903    0.012
 4308.00    1.20856   0.95462    0.012
 4309.00    1.20012   1.02051    0.012
 4310.00    1.38409   1.07294    0.012
 4311.00    1.55681   1.15042    0.012
 4312.00    1.72384   1.29846    0.012
 4313.00    1.64647   1.43414    0.012
 4314.00    1.46186   1.46825    0.012
 4315.00    1.48551   1.43910    0.012
 4316.00    1.58761   1.39874    0.012
 4317.00    1.56890   1.35229    0.012
 4318.00    1.51157   1.31052    0.012
 4319.00    1.86016   1.23050    0.012
 4320.00    2.31724   1.08075    0.012
 4321.00    2.14541   0.92786    0.012
 4322.00    1.83596   0.87793    0.012
 4323.00    1.22958   0.99963    0.012
 4324.00    0.57154   1.20959    0.012
 4325.00    0.57159   1.34552    0.012
 4326.00    0.65868   1.35190    0.012
 4327.00    0.85678   1.31467    0.012
 4328.00    1.06525   1.31792    0.012
 4329.00    1.24983   1.34132    0.012
 4330.00    1.43304   1.35950    0.000
 4331.00    1.08308   1.38170    0.000
 4332.00    0.72819   1.35732    0.000
 4333.00    1.23152   1.22363    0.000
 4334.00    1.71851   1.05402    0.000
 4335.00    1.81308   0.93625    0.000
 4336.00    1.87372   0.85309    0.000
 4337.00    1.49282   0.84909    0.000
 4338.00    1.16318   0.97394    0.000
 4339.00    1.28143   1.10779    0.000
 4340.00    1.38365   1.16473    0.000
 4341.00    1.38230   1.21616    0.000
 4342.00    1.45170   1.27251    0.000
 4343.00    1.87807   1.28887    0.000
 4344.00    2.04325   1.31380    0.000
 4345.00    1.14235   1.37790    0.000
 4346.00    0.54995   1.37556    0.000
 4347.00    1.00123   1.23059    0.000
 4348.00    1.31802   1.07880    0.000
 4349.00    1.25105   1.08273    0.000
 4350.00    1.21510   1.18265    0.000
 4351.00    1.25478   1.24876    0.012
 4352.00    1.49718   1.29222    0.012
 4353.00    2.16601   1.34119    0.012
 4354.00    2.52223   1.33426    0.012
 4355.00    2.30697   1.26788    0.012
 4356.00    1.97657   1.24950    0.012
 4357.00    1.46222   1.31811    0.012
 4358.00    1.27866   1.38287    0.012
 4359.00    1.55888   1.39008    0.012
 4360.00    1.78209   1.40381    0.012
 4361.00    1.93497   1.44877    0.012
 4362.00    2.01299   1.44264    0.012
 4363.00    2.00959   1.35580    0.012
 4364.00    1.85245   1.27747    0.012
 4365.00    1.54784   1.27164    0.012
 4366.00    1.50620   1.29238    0.012
 4367.00    1.68699   1.30426    0.012
 4368.00    1.91655   1.31198    0.012
 4369.00    2.18241   1.28082    0.012
 4370.00    2.21479   1.19043    0.012
 4371.00    2.09440   1.11224    0.012
 4372.00    1.94349   1.13391    0.012
 4373.00    1.77512   1.24133    0.012
 4374.00    1.70175   1.33609    0.012
 4375.00    1.67577   1.35571    0.012
 4376.00    1.68433   1.32335    0.012
 4377.00    1.70780   1.28145    0.012
 4378.00    1.60969   1.18158    0.012
 4379.00    1.46661   0.97925    0.012
 4380.00    1.59717   0.81921    0.012
 4381.00    1.81356   0.86304    0.012
 4382.00    1.45834   1.04620    0.012
 4383.00    0.95358   1.18359    0.012
 4384.00    1.09941   1.21296    0.012
 4385.00    1.38420   1.19630    0.012
 4386.00    1.67777   1.17474    0.012
 4387.00    1.97282   1.17486    0.012
 4388.00    2.08393   1.21678    0.012
 4389.00    2.17155   1.25702    0.012
 4390.00    1.96162   1.24045    0.012
 4391.00    1.72515   1.20447    0.012
 4392.00    1.45564   1.24267    0.012
 4393.00    1.18437   1.34222    0.012
 4394.00    1.37882   1.38814    0.012
 4395.00    1.58406   1.34039    0.012
 4396.00    1.92550   1.24487    0.012
 4397.00    2.22193   1.20023    0.012
 4398.00    1.52879   1.25751    0.012
 4399.00    0.91629   1.28000    0.012
 4400.00    1.30022   1.15320    0.012
 4401.00    1.58981   1.03107    0.012
 4402.00    1.08585   1.06927    0.012
 4403.00    0.72025   1.15359    0.012
 4404.00    1.22189   1.16378    0.012
 4405.00    1.66286   1.18320    0.012
 4406.00    1.80542   1.27582    0.012
 4407.00    1.94072   1.36868    0.012
 4408.00    2.04705   1.41974    0.012
 4409.00    2.07023   1.42369    0.012
 4410.00    1.81767   1.33087    0.012
 4411.00    1.62912   1.18677    0.012
 4412.00    1.61994   1.14502    0.012
 4413.00    1.78543   1.21170    0.012
 4414.00    2.36958   1.29718    0.012
 4415.00    2.64772   1.38083    0.012
 4416.00    2.29253   1.43280    0.012
 4417.00    2.00917   1.40256    0.012
 4418.00    1.85512   1.31357    0.012
 4419.00    1.71097   1.26088    0.012
 4420.00    1.58240   1.28462    0.012
 4421.00    1.54854   1.31638    0.012
 4422.00    1.64554   1.31361    0.012
 4423.00    1.70724   1.30824    0.015
 4424.00    1.72602   1.33043    0.044
 4425.00    1.73065   1.34295   -1.000
 4426.00    1.72009   1.29681   -1.000
 4427.00    1.71660   1.27260   -1.000
 4428.00    1.71979   1.31366   -1.000
 4429.00    1.60736   1.31994   -1.000
 4430.00    1.39850   1.24438   -1.000
 4431.00    1.15409   1.15875   -1.000
 4432.00    0.88357   1.16257   -1.000
 4433.00    1.28792   1.26697   -1.000
 4434.00    2.12739   1.38388   -1.000
 4435.00    2.40187   1.44839    0.036
 4436.00    2.35768   1.43285    0.014
 4437.00    2.09927   1.34653    0.012
 4438.00    1.73571   1.24579    0.011
 4439.00    1.21358   1.19412    0.011
 4440.00    0.62416   1.23215    0.011
 4441.00    0.99968   1.33838    0.011
 4442.00    1.72589   1.41598    0.012
 4443.00    2.02511   1.40967    0.012
 4444.00    2.19302   1.39776    0.011
 4445.00    2.05402   1.40615    0.011
 4446.00    1.83643   1.38077    0.012
 4447.00    1.38509   1.35998    0.011
 4448.00    0.88504   1.37144    0.011
 4449.00    1.21047   1.35112    0.011
 4450.00    1.67153   1.26370    0.011
 4451.00    1.74810   1.16501    0.011
 4452.00    1.77727   1.14679    0.011
 4453.00    1.68102   1.19000    0.011
 4454.00    1.57411   1.20674    0.011
 4455.00    1.94824   1.19173    0.011
 4456.00    2.34612   1.18371    0.011
 4457.00    2.13925   1.16115    0.011
 4458.00    1.92258   1.14641    0.011
 4459.00    1.69519   1.21683    0.011
 4460.00    1.47187   1.30685    0.011
 4461.00    1.33118   1.32677    0.000
 4462.00    1.21386   1.31448    0.000
 4463.00    1.37139   1.31307    0.000
 4464.00    1.51057   1.30459    0.000
 4465.00    1.50100   1.27058    0.000
 4466.00    1.57910   1.25982    0.000
 4467.00    2.19068   1.29846    0.000
 4468.00    2.57836   1.35489    0.000
 4469.00    1.89194   1.41086    0.000
 4470.00    1.29656   1.44550    0.000
 4471.00    1.05675   1.43992    0.000
 4472.00    0.87914   1.43800    0.000
 4473.00    0.90379   1.48025    0.000
 4474.00    0.91427   1.50903    0.000
 4475.00    0.88579   1.45346    0.000
 4476.00    0.91770   1.33637    0.000
 4477.00    1.09189   1.23865    0.000
 4478.00    1.30439   1.21642    0.000
 4479.00    1.59494   1.28461    0.000
 4480.00    1.66734   1.38907    0.000
 4481.00    1.35302   1.46344    0.000
 4482.00    1.05025   1.49623    0.011
 4483.00    0.76540   1.47984    0.011
 4484.00    0.91752   1.40537    0.011
 4485.00    1.66477   1.31238    0.011
 4486.00    1.99836   1.27261    0.011
 4487.00    1.83595   1.31631    0.011
 4488.00    1.58097   1.39041    0.011
 4489.00    1.22814   1.40715    0.011
 4490.00    1.34493   1.33853    0.011
 4491.00    1.89965   1.27051    0.011
 4492.00    1.99644   1.26940    0.011
 4493.00    1.71675   1.32163    0.011
 4494.00    1.48248   1.39548    0.011
 4495.00    1.28107   1.44600    0.011
 4496.00    1.07317   1.44476    0.011
 4497.00    0.86115   1.39542    0.010
 4498.00    1.16131   1.38775    0.011
 4499.00    1.74596   1.47263    0.011
 4500.00    1.98686   1.55551    0.011
 4501.00    2.06170   1.56892    0.011
 4502.00    1.78815   1.53861    0.011
 4503.00    1.36927   1.49733    0.010
 4504.00    1.52607   1.47112    0.010
 4505.00    1.88832   1.47688    0.010
 4506.00    1.80851   1.50511    0.010
 4507.00    1.59541   1.51494    0.010
 4508.00    1.29520   1.47997    0.010
 4509.00    0.97317   1.42798    0.010
 4510.00    1.08346   1.39040    0.010
 4511.00    1.28164   1.38498    0.010
 4512.00    1.24561   1.40803    0.010
 4513.00    1.17221   1.40693    0.011
 4514.00    1.03587   1.38211    0.011
 4515.00    0.89204   1.39754    0.011
 4516.00    1.45004   1.44763    0.011
 4517.00    2.06482   1.48259    0.011
 4518.00    1.68692   1.45267    0.011
 4519.00    1.26388   1.39041    0.011
 4520.00    1.28381   1.37043    0.010
 4521.00    1.30965   1.34978    0.010
 4522.00    1.35876   1.29071    0.010
 4523.00    1.40299   1.22592    0.010
 4524.00    1.35546   1.17954    0.010
 4525.00    1.31859   1.16690    0.010
 4526.00    1.40104   1.19427    0.010
 4527.00    1.47111   1.23807    0.010
 4528.00    1.44433   1.28792    0.010
 4529.00    1.42751   1.29086    0.010
 4530.00    1.46963   1.23126    0.010
 4531.00    1.52550   1.18402    0.010
 4532.00    1.64578   1.23074    0.010
 4533.00    1.72790   1.36938    0.010
 4534.00    1.66415   1.46188    0.010
 4535.00    1.57682   1.44482    0.010
 4536.00    1.41431   1.38120    0.010
 4537.00    1.37948   1.33894    0.010
 4538.00    1.68965   1.35970    0.010
 4539.00    1.84220   1.40416    0.010
 4540.00    1.62956   1.39145    0.010
 4541.00    1.43156   1.34323    0.010
 4542.00    1.26292   1.33467    0.010
 4543.00    1.15969   1.35435    0.010
 4544.00    1.17064   1.34299    0.010
 4545.00    1.03834   1.28812    0.010
 4546.00    0.68715   1.27459    0.010
 4547.00    0.70534   1.33032    0.010
 4548.00    1.21938   1.35423    0.010
 4549.00    1.43287   1.32446    0.010
 4550.00    1.29105   1.28227    0.000
 4551.00    1.23234   1.26207    0.000
 4552.00    1.26024   1.30186    0.000
 4553.00    1.36379   1.38672    0.000
 4554.00    1.53689   1.44748    0.000
 4555.00    1.61865   1.46349    0.000
 4556.00    1.62640   1.45803    0.000
 4557.00    1.47324   1.46051    0.000
 4558.00    1.20532   1.46464    0.000
 4559.00    1.10429   1.41888    0.000
 4560.00    1.10772   1.33875    0.000
 4561.00    1.21112   1.29492    0.000
 4562.00    1.36922   1.32597    0.000
 4563.00    1.41880   1.41235    0.000
 4564.00    1.41680   1.47276    0.000
 4565.00    1.30986   1.47729    0.000
 4566.00    1.15988   1.44351    0.000
 4567.00    1.12578   1.36462    0.000
 4568.00    1.13229   1.32920    0.000
 4569.00    1.50094   1.40234    0.000
 4570.00    1.97662   1.46205    0.000
 4571.00    1.78917   1.45243    0.000
 4572.00    1.43928   1.44269    0.000
 4573.00    1.34291   1.44749    0.000
 4574.00    1.29677   1.42753    0.000
 4575.00    1.44330   1.36524    0.000
 4576.00    1.61965   1.29486    0.000
 4577.00    1.48418   1.27293    0.000
 4578.00    1.31303   1.30786    0.000
 4579.00    1.40298   1.33688    0.000
 4580.00    1.51299   1.33139    0.000
 4581.00    1.65460   1.31708    0.000
 4582.00    1.79752   1.31025    0.000
 4583.00    1.49717   1.34468    0.000
 4584.00    1.20269   1.41013    0.000
 4585.00    1.32552   1.45503    0.000
 4586.00    1.44546   1.44927    0.000
 4587.00    1.51482   1.39618    0.000
 4588.00    1.56657   1.34232    0.000
 4589.00    1.42990   1.33080    0.000
 4590.00    1.30818   1.33607    0.000
 4591.00    1.29946   1.32431    0.000
 4592.00    1.27964   1.31944    0.000
 4593.00    1.19603   1.32870    0.000
 4594.00    1.10186   1.34488    0.000
 4595.00    0.95949   1.36538    0.000
 4596.00    0.88880   1.34516    0.000
 4597.00    1.08624   1.32218    0.000
 4598.00    1.26462   1.34306    0.000
 4599.00    1.38336   1.36159    0.000
 4600.00    1.47555   1.35868    0.000
 4601.00    1.49724   1.34141    0.000
 4602.00    1.56494   1.34589    0.000
 4603.00    1.73746   1.39126    0.000
 4604.00    1.71145   1.46210    0.000
 4605.00    1.29376   1.51530    0.000
 4606.00    1.10640   1.50520    0.000
 4607.00    1.31510   1.45447    0.000
 4608.00    1.44946   1.41719    0.000
 4609.00    1.47189   1.39681    0.000
 4610.00    1.50542   1.40901    0.000
 4611.00    1.55365   1.44392    0.000
 4612.00    1.50249   1.44701    0.000
 4613.00    1.33548   1.44957    0.000
 4614.00    1.11115   1.44952    0.000
 4615.00    0.82791   1.41531    0.000
 4616.00    0.80843   1.41368    0.000
 4617.00    1.02805   1.45622    0.000
 4618.00    1.11215   1.46388    0.000
 4619.00    1.08797   1.45215    0.000
 4620.00    0.88186   1.45535    0.000
 4621.00    0.54789   1.44029    0.000
 4622.00    0.67942   1.41933    0.000
 4623.00    1.09795   1.43140    0.000
 4624.00    1.22110   1.44097    0.000
 4625.00    1.18518   1.41447    0.000
 4626.00    1.10396   1.41047    0.000
 4627.00    1.00157   1.45433    0.000
 4628.00    1.13597   1.46118    0.000
 4629.00    1.36583   1.40762    0.000
 4630.00    1.50423   1.37483    0.000
 4631.00    1.61115   1.38202    0.000
 4632.00    1.40216   1.38644    0.000
 4633.00    1.10165   1.35919    0.000
 4634.00    1.14954   1.32640    0.000
 4635.00    1.28088   1.31284    0.000
 4636.00    1.36193   1.31238    0.000
 4637.00    1.43328   1.35396    0.000
 4638.00    1.22536   1.40184    0.000
 4639.00    0.97552   1.39527    0.000
 4640.00    0.83683   1.36240    0.000
 4641.00    0.71037   1.32178    0.000
 4642.00    0.90162   1.25247    0.000
 4643.00    1.11598   1.20357    0.000
 4644.00    1.15054   1.21786    0.000
 4645.00    1.17830   1.27298    0.000
 4646.00    0.80082   1.33408    0.000
 4647.00    0.43048   1.37326    0.000
 4648.00    0.40118   1.39403    0.000
 4649.00    0.41195   1.39923    0.000
 4650.00    1.07791   1.35577    0.000
 4651.00    1.67573   1.30118    0.000
 4652.00    1.57614   1.28783    0.000
 4653.00    1.47845   1.32141    0.000
 4654.00    1.39470   1.40338    0.000
 4655.00    1.36206   1.48453    0.000
 4656.00    1.61519   1.50957    0.000
 4657.00    1.79298   1.47292    0.000
 4658.00    1.63460   1.40738    0.000
 4659.00    1.43460   1.35152    0.000
 4660.00    1.08212   1.33710    0.000
 4661.00    0.84914   1.33298    0.000
 4662.00    0.98280   1.25852    0.000
 4663.00    1.17054   1.14350    0.000
 4664.00    1.49929   1.11421    0.000
 4665.00    1.63748   1.19403    0.000
 4666.00    1.34859   1.29443    0.000
 4667.00    1.07072   1.36069    0.000
 4668.00    0.81425   1.37309    0.000
 4669.00    0.82088   1.34737    0.000
 4670.00    1.27309   1.33294    0.000
 4671.00    1.49242   1.35526    0.000
 4672.00    1.36621   1.40482    0.000
 4673.00    1.25094   1.41772    0.000
 4674.00    1.14992   1.36977    0.000
 4675.00    1.07408   1.31685    0.000
 4676.00    1.02717   1.28918    0.000
 4677.00    1.05357   1.27437    0.000
 4678.00    1.15425   1.28592    0.000
 4679.00    1.18740   1.33386    0.000
 4680.00    1.16018   1.37135    0.000
 4681.00    1.12749   1.37364    0.000
 4682.00    1.09049   1.36829    0.000
 4683.00    1.21984   1.35183    0.000
 4684.00    1.46443   1.33385    0.000
 4685.00    1.43554   1.34005    0.000
 4686.00    1.24056   1.34018    0.000
 4687.00    1.27842   1.31881    0.000
 4688.00    1.43974   1.31677    0.000
 4689.00    1.61231   1.33817    0.000
 4690.00    1.79008   1.36300    0.000
 4691.00    1.48972   1.39711    0.000
 4692.00    0.99991   1.42300    0.000
 4693.00    1.04107   1.39678    0.000
 4694.00    1.26152   1.31830    0.000
 4695.00    1.36499   1.26398    0.000
 4696.00    1.43528   1.27612    0.000
 4697.00    1.40316   1.28720    0.000
 4698.00    1.34708   1.25778    0.000
 4699.00    1.35126   1.23068    0.000
 4700.00    1.36678   1.26387    0.000
 4701.00    1.32586   1.31940    0.000
 4702.00    1.27672   1.32517    0.000
 4703.00    1.18366   1.28484    0.000
 4704.00    1.08596   1.25050    0.000
 4705.00    1.15239   1.24534    0.000
 4706.00    1.23009   1.28050    0.000
 4707.00    1.08141   1.34787    0.000
 4708.00    0.92503   1.37698    0.000
 4709.00    0.93648   1.34631    0.000
 4710.00    0.95313   1.28961    0.000
 4711.00    1.13051   1.27713    0.000
 4712.00    1.30352   1.34009    0.000
 4713.00    1.40955   1.39728    0.000
 4714.00    1.51205   1.41703    0.000
 4715.00    1.57989   1.43902    0.000
 4716.00    1.58653   1.45853    0.000
 4717.00    1.16044   1.44731    0.000
 4718.00    0.81586   1.41458    0.000
 4719.00    0.91477   1.40297    0.000
 4720.00    1.01432   1.43512    0.000
 4721.00    1.11660   1.46471    0.000
 4722.00    1.15320   1.43346    0.000
 4723.00    0.95418   1.33383    0.000
 4724.00    0.90089   1.24478    0.000
 4725.00    1.28635   1.22946    0.000
 4726.00    1.50363   1.24919    0.000
 4727.00    1.28996   1.27170    0.000
 4728.00    1.13869   1.30988    0.000
 4729.00    1.12494   1.34199    0.000
 4730.00    1.22595   1.35726    0.000
 4731.00    1.54633   1.37093    0.000
 4732.00    1.68099   1.33789    0.000
 4733.00    1.50583   1.30643    0.000
 4734.00    1.39244   1.35764    0.000
 4735.00    1.36934   1.40430    0.000
 4736.00    1.33731   1.37882    0.000
 4737.00    1.29380   1.34717    0.000
 4738.00    1.20526   1.36009    0.000
 4739.00    1.06572   1.39296    0.000
 4740.00    0.98051   1.39524    0.000
 4741.00    0.94958   1.37595    0.000
 4742.00    1.00052   1.39261    0.000
 4743.00    1.12359   1.42216    0.000
 4744.00    1.28158   1.41759    0.000
 4745.00    1.46667   1.40863    0.000
 4746.00    1.53351   1.41673    0.000
 4747.00    1.51962   1.41095    0.000
 4748.00    1.54134   1.37961    0.000
 4749.00    1.58435   1.35287    0.000
 4750.00    1.55987   1.33331    0.000
 4751.00    1.50016   1.32499    0.000
 4752.00    1.34687   1.32622    0.000
 4753.00    1.15122   1.33537    0.000
 4754.00    1.10615   1.35163    0.000
 4755.00    1.11972   1.37606    0.000
 4756.00    1.20882   1.39352    0.000
 4757.00    1.32295   1.36075    0.000
 4758.00    1.32227   1.29639    0.000
 4759.00    1.28967   1.26912    0.000
 4760.00    1.49560   1.26376    0.000
 4761.00    1.75609   1.23698    0.009
 4762.00    1.67364   1.21797    0.009
 4763.00    1.52836   1.24898    0.009
 4764.00    1.38357   1.30429    0.009
 4765.00    1.23884   1.35925    0.009
 4766.00    0.96372   1.38721    0.009
 4767.00    0.67538   1.35165    0.009
 4768.00    0.96859   1.31271    0.009
 4769.00    1.29940   1.33504    0.009
 4770.00    0.99218   1.39700    0.009
 4771.00    0.66704   1.42313    0.009
 4772.00    1.02571   1.40540    0.009
 4773.00    1.37512   1.41212    0.009
 4774.00    1.45607   1.42560    0.009
 4775.00    1.51971   1.40571    0.009
 4776.00    1.33296   1.38501    0.009
 4777.00    1.17397   1.38364    0.009
 4778.00    1.27611   1.35962    0.009
 4779.00    1.37637   1.31236    0.009
 4780.00    1.46382   1.31426    0.009
 4781.00    1.49955   1.33965    0.009
 4782.00    1.26134   1.30716    0.009
 4783.00    1.09818   1.29108    0.009
 4784.00    1.25464   1.31599    0.009
 4785.00    1.34538   1.30836    0.009
 4786.00    1.20520   1.30240    0.009
 4787.00    1.13304   1.32560    0.009
 4788.00    1.26185   1.35007    0.009
 4789.00    1.30399   1.39139    0.009
 4790.00    1.12789   1.44690    0.009
 4791.00    1.06277   1.46998    0.009
 4792.00    1.23831   1.44788    0.009
 4793.00    1.39786   1.40758    0.009
 4794.00    1.52735   1.35858    0.009
 4795.00    1.58110   1.31456    0.009
 4796.00    1.51040   1.30945    0.009
 4797.00    1.40516   1.35403    0.009
 4798.00    1.25017   1.41142    0.009
 4799.00    1.25099   1.43013    0.009
 4800.00    1.44929   1.39735    0.009
 4801.00    1.55673   1.35020    0.009
 4802.00    1.56268   1.33698    0.009
 4803.00    1.48697   1.32498    0.009
 4804.00    1.33081   1.30719    0.009
 4805.00    1.33758   1.32404    0.009
 4806.00    1.48588   1.35688    0.009
 4807.00    1.36488   1.36839    0.009
 4808.00    1.03779   1.36614    0.009
 4809.00    0.99195   1.36383    0.009
 4810.00    1.13528   1.36768    0.009
 4811.00    1.19169   1.37904    0.009
 4812.00    1.19687   1.39732    0.009
 4813.00    1.12116   1.41444    0.009
 4814.00    1.00388   1.42426    0.009
 4815.00    1.07139   1.43650    0.009
 4816.00    1.22118   1.43313    0.009
 4817.00    1.41793   1.41510    0.014
 4818.00    1.63264   1.37585    0.071
 4819.00    1.51748   1.29901   -1.000
 4820.00    1.29508   1.26794   -1.000
 4821.00    1.27887   1.32327   -1.000
 4822.00    1.31881   1.37827   -1.000
 4823.00    1.33524   1.37813   -1.000
 4824.00    1.34640   1.34688   -1.000
 4825.00    1.29973   1.33088   -1.000
 4826.00    1.24274   1.34206   -1.000
 4827.00    1.27804   1.32402   -1.000
 4828.00    1.32592   1.28739   -1.000
 4829.00    1.43342   1.30573    0.019
 4830.00    1.54671   1.35240    0.009
 4831.00    1.38412   1.36592    0.009
 4832.00    1.20479   1.35564    0.009
 4833.00    1.30937   1.35597    0.009
 4834.00    1.42141   1.34009    0.009
 4835.00    1.52298   1.29440    0.009
 4836.00    1.61503   1.26772    0.009
 4837.00    1.45876   1.28733    0.009
 4838.00    1.31751   1.30338    0.009
 4839.00    1.38128   1.28552    0.009
 4840.00    1.43621   1.29749    0.008
 4841.00    1.41123   1.34936    0.008
 4842.00    1.39372   1.37430    0.009
 4843.00    1.42585   1.34668    0.009
 4844.00    1.44481   1.29018    0.009
 4845.00    1.39582   1.27199    0.009
 4846.00    1.38533   1.31284    0.009
 4847.00    1.53510   1.33423    0.009
 4848.00    1.63732   1.32222    0.000
 4849.00    1.57584   1.31096    0.000
 4850.00    1.43996   1.25912    0.000
 4851.00    1.08832   1.17587    0.000
 4852.00    0.86063   1.16006    0.000
 4853.00    0.93968   1.20750    0.000
 4854.00    1.05721   1.20630    0.000
 4855.00    1.25682   1.11444    0.000
 4856.00    1.40091   0.96271    0.000
 4857.00    1.44209   0.84512    0.000
 4858.00    1.46314   0.89190    0.000
 4859.00    1.45163   1.04007    0.000
 4860.00    1.29744   1.12581    0.000
 4861.00    0.94065   1.17281    0.000
 4862.00    0.86368   1.21976    0.000
 4863.00    1.13629   1.24179    0.000
 4864.00    1.34414   1.24628    0.000
 4865.00    1.48069   1.25203    0.000
 4866.00    1.48527   1.20758    0.000
 4867.00    1.36168   1.11104    0.000
 4868.00    1.17526   1.09116    0.000
 4869.00    0.93503   1.17370    0.000
 4870.00    0.95628   1.23852    0.000
 4871.00    1.17477   1.24627    0.000
 4872.00    1.27186   1.25536    0.000
 4873.00    1.28848   1.27625    0.000
 4874.00    1.31167   1.29469    0.000
 4875.00    1.33866   1.34287    0.009
 4876.00    1.47133   1.36008    0.009
 4877.00    1.65747   1.30133    0.009
 4878.00    1.71766   1.26839    0.009
 4879.00    1.72270   1.29251    0.009
 4880.00    1.31116   1.28528    0.009
 4881.00    0.74305   1.22838    0.009
 4882.00    0.78992   1.19104    0.009
 4883.00    1.03294   1.20567    0.009
 4884.00    1.22279   1.23374    0.009
 4885.00    1.39847   1.22858    0.009
 4886.00    1.30664   1.17105    0.009
 4887.00    1.15645   1.11264    0.009
 4888.00    1.09448   1.17542    0.009
 4889.00    1.04780   1.30835    0.009
 4890.00    1.10683   1.39476    0.009
 4891.00    1.17979   1.43328    0.009
 4892.00    1.07747   1.43681    0.009
 4893.00    0.95887   1.42591    0.009
 4894.00    0.83014   1.41144    0.009
 4895.00    0.70084   1.36726    0.009
 4896.00    0.85875   1.32534    0.009
 4897.00    1.02381   1.33651    0.009
 4898.00    1.25485   1.34091    0.009
 4899.00    1.47329   1.30600    0.009
 4900.00    1.39260   1.30212    0.009
 4901.00    1.31482   1.35620    0.009
 4902.00    1.27485   1.40536    0.009
 4903.00    1.22534   1.39062    0.009
 4904.00    1.09298   1.33371    0.009
 4905.00    1.00034   1.26990    0.009
 4906.00    1.16333   1.22071    0.009
 4907.00    1.28113   1.22742    0.009
 4908.00    1.17168   1.27808    0.009
 4909.00    1.10626   1.31929    0.009
 4910.00    1.22006   1.34698    0.009
 4911.00    1.29307   1.38065    0.009
 4912.00    1.22839   1.38544    0.009
 4913.00    1.21192   1.32300    0.009
 4914.00    1.33268   1.20551    0.009
 4915.00    1.35427   1.09174    0.009
 4916.00    1.13460   1.04564    0.009
 4917.00    0.94800   1.09546    0.009
 4918.00    0.83084   1.19556    0.008
 4919.00    0.78952   1.24182    0.008
 4920.00    0.88660   1.22406    0.008
 4921.00    0.99008   1.23349    0.008
 4922.00    1.10377   1.29697    0.008
 4923.00    1.14881   1.34274    0.008
 4924.00    1.09778   1.36366    0.008
 4925.00    1.10762   1.39342    0.008
 4926.00    1.19243   1.40206    0.008
 4927.00    1.23074   1.39120    0.008
 4928.00    1.21857   1.35416    0.008
 4929.00    1.15259   1.26907    0.008
 4930.00    1.03509   1.22968    0.008
 4931.00    1.12019   1.28227    0.008
 4932.00    1.37636   1.30747    0.008
 4933.00    1.31409   1.24588    0.008
 4934.00    1.01505   1.16379    0.008
 4935.00    0.98242   1.14905    0.008
 4936.00    1.12380   1.23001    0.008
 4937.00    1.25398   1.32458    0.008
 4938.00    1.37777   1.36024    0.008
 4939.00    1.38824   1.37698    0.008
 4940.00    1.34230   1.38765    0.000
 4941.00    1.31361   1.35870    0.000
 4942.00    1.29235   1.33103    0.000
 4943.00    1.30147   1.35339    0.000
 4944.00    1.32181   1.38431    0.000
 4945.00    1.55824   1.39159    0.000
 4946.00    1.86227   1.39524    0.000
 4947.00    1.73582   1.40353    0.000
 4948.00    1.49705   1.38812    0.000
 4949.00    1.27765   1.35713    0.000
 4950.00    1.06239   1.34456    0.000
 4951.00    1.24090   1.32825    0.000
 4952.00    1.48576   1.24445    0.000
 4953.00    1.61037   1.10658    0.000
 4954.00    1.71967   1.09344    0.000
 4955.00    1.48878   1.23657    0.000
 4956.00    1.22770   1.34907    0.000
 4957.00    1.23528   1.36419    0.000
 4958.00    1.25702   1.34988    0.000
 4959.00    1.32129   1.35239    0.000
 4960.00    1.38372   1.33261    0.000
 4961.00    1.23803   1.27379    0.000
 4962.00    1.10711   1.23838    0.000
 4963.00    1.29737   1.24385    0.000
 4964.00    1.46198   1.25179    0.000
 4965.00    1.31157   1.25999    0.000
 4966.00    1.17162   1.27129    0.000
 4967.00    1.11932   1.29352    0.000
 4968.00    1.06846   1.32563    0.000
 4969.00    1.02661   1.34456    0.000
 4970.00    1.00984   1.35728    0.000
 4971.00    1.11604   1.35527    0.000
 4972.00    1.17625   1.33531    0.000
 4973.00    1.05340   1.30687    0.000
 4974.00    1.04087   1.26529    0.000
 4975.00    1.39331   1.24065    0.000
 4976.00    1.57876   1.23500    0.000
 4977.00    1.29741   1.19397    0.000
 4978.00    1.09828   1.11438    0.000
 4979.00    1.09577   1.07296    0.000
 4980.00    1.04616   1.10187    0.000
 4981.00    0.89925   1.15442    0.000
 4982.00    0.87244   1.21298    0.000
 4983.00    1.06139   1.27792    0.000
 4984.00    1.24561   1.30189    0.000
 4985.00    1.42241   1.28017    0.000
 4986.00    1.56956   1.25023    0.000
 4987.00    1.67580   1.23851    0.000
 4988.00    1.67715   1.26029    0.000
 4989.00    1.55116   1.26745    0.000
 4990.00    1.41158   1.25588    0.000
 4991.00    1.25744   1.27577    0.000
 4992.00    1.22556   1.29578    0.000
 4993.00    1.30912   1.28912    0.000
 4994.00    1.32217   1.26436    0.000
 4995.00    1.27653   1.21498    0.000
 4996.00    1.31257   1.17410    0.000
 4997.00    1.40847   1.16817    0.000
 4998.00    1.36128   1.17889    0.000
 4999.00    1.22202   1.19183    0.000
 5000.00    1.04244   1.17972    0.000
 5001.00    0.84015   1.12540    0.000
 5002.00    0.85704   1.08397    0.000
 5003.00    0.98131   1.12701    0.000
 5004.00    1.21850   1.21674    0.000
 5005.00    1.50351   1.25964    0.000
 5006.00    1.56203   1.24352    0.000
 5007.00    1.53843   1.19846    0.000
 5008.00    1.41364   1.13266    0.000
 5009.00    1.25781   1.08179    0.000
 5010.00    1.25215   1.07303    0.000
 5011.00    1.28484   1.11160    0.000
 5012.00    1.22806   1.15393    0.000
 5013.00    1.15270   1.14534    0.000
 5014.00    1.20998   1.12650    0.000
 5015.00    1.28898   1.15138    0.000
 5016.00    1.33326   1.18449    0.000
 5017.00    1.37327   1.17738    0.000
 5018.00    1.33418   1.15424    0.000
 5019.00    1.28841   1.17190    0.000
 5020.00    1.25009   1.21578    0.000
 5021.00    1.21214   1.23177    0.000
 5022.00    1.22257   1.21487    0.000
 5023.00    1.23431   1.17672    0.000
 5024.00    1.28043   1.17603    0.000
 5025.00    1.32386   1.22639    0.000
 5026.00    1.31306   1.25856    0.000
 5027.00    1.29021   1.27432    0.000
 5028.00    1.12650   1.30791    0.000
 5029.00    1.00266   1.33525    0.008
 5030.00    1.20063   1.30768    0.008
 5031.00    1.36760   1.22409    0.008
 5032.00    1.34663   1.16799    0.008
 5033.00    1.31245   1.18539    0.008
 5034.00    1.21507   1.18839    0.008
 5035.00    1.11102   1.12485    0.008
 5036.00    0.98099   1.03561    0.008
 5037.00    0.89242   0.99240    0.008
 5038.00    0.93829   1.06744    0.008
 5039.00    1.02516   1.19464    0.008
 5040.00    1.22459   1.27246    0.008
 5041.00    1.32900   1.31744    0.008
 5042.00    1.20998   1.33766    0.008
 5043.00    1.14266   1.29724    0.008
 5044.00    1.18041   1.21362    0.008
 5045.00    1.25314   1.15938    0.008
 5046.00    1.38778   1.15719    0.008
 5047.00    1.39789   1.16711    0.008
 5048.00    1.21525   1.18149    0.008
 5049.00    1.15392   1.22214    0.008
 5050.00    1.25751   1.26881    0.008
 5051.00    1.28857   1.29215    0.008
 5052.00    1.23281   1.29121    0.008
 5053.00    1.17067   1.29008    0.008
 5054.00    1.10180   1.29867    0.008
 5055.00    1.22239   1.30379    0.008
 5056.00    1.51935   1.31361    0.008
 5057.00    1.55305   1.33421    0.008
 5058.00    1.37072   1.33470    0.008
 5059.00    1.10061   1.28641    0.008
 5060.00    0.76709   1.19958    0.008
 5061.00    0.76629   1.15338    0.008
 5062.00    0.97643   1.18162    0.008
 5063.00    1.00468   1.20278    0.008
 5064.00    0.93209   1.19357    0.008
 5065.00    0.93459   1.20949    0.008
 5066.00    0.97331   1.24250    0.008
 5067.00    1.03911   1.22934    0.008
 5068.00    1.11618   1.19119    0.008
 5069.00    1.18891   1.20044    0.008
 5070.00    1.26010   1.22653    0.008
 5071.00    1.09346   1.22060    0.008
 5072.00    0.85530   1.21772    0.008
 5073.00    0.92430   1.22815    0.008
 5074.00    1.07002   1.18671    0.008
 5075.00    1.21178   1.08853    0.008
 5076.00    1.35274   1.04469    0.008
 5077.00    1.28240   1.08914    0.008
 5078.00    1.17848   1.13657    0.008
 5079.00    1.28957   1.14830    0.008
 5080.00    1.42610   1.16920    0.008
 5081.00    1.24774   1.20929    0.008
 5082.00    1.04405   1.22963    0.008
 5083.00    1.02082   1.22501    0.008
 5084.00    1.00570   1.22636    0.008
 5085.00    1.19736   1.23932    0.008
 5086.00    1.38598   1.24487    0.008
 5087.00    1.30190   1.24869    0.008
 5088.00    1.22180   1.27037    0.008
 5089.00    1.21590   1.29274    0.008
 5090.00    1.21668   1.28696    0.008
 5091.00    1.29198   1.25510    0.008
 5092.00    1.36713   1.21274    0.008
 5093.00    1.44114   1.16034    0.008
 5094.00    1.47459   1.10376    0.008
 5095.00    1.26914   1.08519    0.008
 5096.00    1.12242   1.14108    0.008
 5097.00    1.24971   1.21622    0.008
 5098.00    1.33953   1.24252    0.008
 5099.00    1.28655   1.22440    0.008
 5100.00    1.21852   1.20200    0.007
 5101.00    1.10266   1.19180    0.007
 5102.00    0.95568   1.17560    0.007
 5103.00    0.72478   1.14661    0.007
 5104.00    0.64078   1.13553    0.007
 5105.00    0.89650   1.13805    0.007
 5106.00    1.06919   1.13919    0.007
 5107.00    1.07580   1.17006    0.008
 5108.00    1.07458   1.21014    0.008
 5109.00    1.05972   1.22483    0.008
 5110.00    1.09342   1.23283    0.008
 5111.00    1.20116   1.24155    0.008
 5112.00    1.26380   1.25688    0.008
 5113.00    1.26601   1.28113    0.008
 5114.00    1.21321   1.28860    0.008
 5115.00    1.09550   1.27033    0.008
 5116.00    1.09526   1.23738    0.008
 5117.00    1.21724   1.20064    0.008
 5118.00    1.31180   1.15988    0.008
 5119.00    1.38119   1.11134    0.008
 5120.00    1.35837   1.08727    0.008
 5121.00    1.26095   1.10345    0.008
 5122.00    1.19143   1.12368    0.008
 5123.00    1.14176   1.12557    0.007
 5124.00    1.21764   1.11956    0.007
 5125.00    1.37193   1.11815    0.008
 5126.00    1.45974   1.13565    0.008
 5127.00    1.51126   1.16610    0.008
 5128.00    1.42529   1.18247    0.008
 5129.00    1.27409   1.18636    0.008
 5130.00    1.06332   1.20381    0.008
 5131.00    0.82817   1.22553    0.008
 5132.00    0.81762   1.20432    0.008
 5133.00    0.88559   1.15489    0.007
 5134.00    0.93697   1.11583    0.008
 5135.00    0.98347   1.10223    0.008
 5136.00    1.04539   1.13374    0.008
 5137.00    1.11109   1.14861    0.008
 5138.00    1.04628   1.10828    0.008
 5139.00    0.95570   1.10431    0.008
 5140.00    1.30842   1.14516    0.008
 5141.00    1.72951   1.14775    0.008
 5142.00    1.49735   1.11816    0.008
 5143.00    1.19080   1.10403    0.008
 5144.00    1.27178   1.12047    0.009
 5145.00    1.38233   1.14682    0.009
 5146.00    1.29613   1.14256    0.009
 5147.00    1.20183   1.11599    0.008
 5148.00    0.93613   1.10337    0.008
 5149.00    0.68153   1.10415    0.008
 5150.00    0.95347   1.11557    0.008
 5151.00    1.20322   1.14792    0.008
 5152.00    1.06833   1.19038    0.008
 5153.00    0.96855   1.22366    0.008
 5154.00    1.24231   1.23295    0.008
 5155.00    1.46914   1.22762    0.008
 5156.00    1.34278   1.22840    0.008
 5157.00    1.21694   1.21320    0.008
 5158.00    1.09408   1.17719    0.008
 5159.00    1.02288   1.15450    0.008
 5160.00    1.18706   1.11850    0.008
 5161.00    1.24988   1.02497    0.008
 5162.00    0.93453   0.89709    0.008
 5163.00    0.75687   0.80575    0.008
 5164.00    1.00879   0.82287    0.008
 5165.00    1.19216   0.92627    0.008
 5166.00    1.19397   0.98616    0.008
 5167.00    1.17024   0.90784    0.008
 5168.00    1.08847   0.78903    0.008
 5169.00    1.05133   0.81207    0.008
 5170.00    1.10209   0.97204    0.008
 5171.00    1.10641   1.10565    0.008
 5172.00    1.03103   1.14830    0.008
 5173.00    1.05247   1.15974    0.008
 5174.00    1.21944   1.16892    0.007
 5175.00    1.27590   1.16000    0.007
 5176.00    1.18641   1.12735    0.007
 5177.00    1.15441   1.05225    0.007
 5178.00    1.18931   0.91065    0.007
 5179.00    1.23875   0.77719    0.007
 5180.00    1.30312   0.79992    0.007
 5181.00    1.32976   0.96753    0.007
 5182.00    1.32227   1.11291    0.007
 5183.00    1.29397   1.15896    0.007
 5184.00    1.24910   1.15728    0.007
 5185.00    1.19898   1.17438    0.007
 5186.00    1.14518   1.17490    0.007
 5187.00    0.98876   1.09796    0.007
 5188.00    0.76920   1.02862    0.007
 5189.00    0.79988   1.05215    0.007
 5190.00    0.96507   1.09604    0.000
 5191.00    1.06748   1.10147    0.000
 5192.00    1.14060   1.11441    0.000
 5193.00    1.10354   1.14804    0.000
 5194.00    1.02216   1.17845    0.000
 5195.00    1.11282   1.20261    0.000
 5196.00    1.26253   1.21053    0.000
 5197.00    1.21564   1.19622    0.000
 5198.00    1.11196   1.17595    0.000
 5199.00    1.09685   1.14652    0.000
 5200.00    1.10289   1.08267    0.000
 5201.00    0.99617   1.01862    0.000
 5202.00    0.86774   1.00735    0.000
 5203.00    1.01904   1.01157    0.000
 5204.00    1.21216   0.99786    0.000
 5205.00    1.21121   1.01819    0.000
 5206.00    1.18900   1.08258    0.000
 5207.00    1.34902   1.15164    0.000
 5208.00    1.52219   1.20775    0.000
 5209.00    1.48678   1.22817    0.000
 5210.00    1.44358   1.19800    0.000
 5211.00    1.17192   1.14325    0.008
 5212.00    0.90952   1.11835    0.008
 5213.00    1.02284   1.14432    0.008
 5214.00    1.13322   1.19362    0.008
 5215.00    1.19593   1.23003    0.008
 5216.00    1.25614   1.24397    0.008
 5217.00    1.29089   1.24575    0.008
 5218.00    1.30596   1.22891    0.008
 5219.00    1.17783   1.18320    0.008
 5220.00    1.05925   1.11542    0.008
 5221.00    0.99390   1.03629    0.008
 5222.00    0.94763   0.97148    0.008
 5223.00    0.98620   0.98532    0.008
 5224.00    1.04212   1.08685    0.008
 5225.00    1.16139   1.17723    0.008
 5226.00    1.30388   1.21017    0.008
 5227.00    1.51738   1.20499    0.008
 5228.00    1.56324   1.15814    0.008
 5229.00    1.17288   1.11276    0.008
 5230.00    0.98722   1.11786    0.008
 5231.00    1.25937   1.15811    0.007
 5232.00    1.41618   1.21011    0.007
 5233.00    1.34944   1.24728    0.007
 5234.00    1.30669   1.25210    0.007
 5235.00    1.30451   1.24189    0.007
 5236.00    1.32746   1.23995    0.007
 5237.00    1.38765   1.24149    0.007
 5238.00    1.30410   1.23343    0.007
 5239.00    1.03340   1.23711    0.007
 5240.00    0.94333   1.26020    0.007
 5241.00    1.06043   1.25104    0.007
 5242.00    1.24538   1.18613    0.007
 5243.00    1.49895   1.13554    0.007
 5244.00    1.50922   1.14191    0.007
 5245.00    1.30243   1.14381    0.007
 5246.00    1.24771   1.12159    0.007
 5247.00    1.31256   1.13188    0.007
 5248.00    1.34412   1.16957    0.007
 5249.00    1.35267   1.18015    0.007
 5250.00    1.34062   1.15498    0.007
 5251.00    1.31609   1.14851    0.007
 5252.00    1.29139   1.20175    0.007
 5253.00    1.26660   1.26656    0.007
 5254.00    1.31208   1.29099    0.007
 5255.00    1.38984   1.27556    0.007
 5256.00    1.34902   1.22922    0.007
 5257.00    1.26133   1.15830    0.007
 5258.00    1.19208   1.07984    0.007
 5259.00    1.12903   1.01762    0.007
 5260.00    1.19993   0.97522    0.007
 5261.00    1.30874   0.95266    0.007
 5262.00    1.30499   0.97952    0.008
 5263.00    1.27496   1.03514    0.008
 5264.00    1.24860   1.00922    0.008
 5265.00    1.22292   0.91388    0.008
 5266.00    1.23027   0.91486    0.008
 5267.00    1.24241   1.03247    0.008
 5268.00    1.15735   1.12236    0.008
 5269.00    1.06206   1.13481    0.008
 5270.00    1.19814   1.11645    0.008
 5271.00    1.35000   1.10679    0.008
 5272.00    1.34525   1.15021    0.008
 5273.00    1.33525   1.22922    0.008
 5274.00    1.26406   1.26867    0.008
 5275.00    1.19130   1.24826    0.008
 5276.00    1.06995   1.20111    0.008
 5277.00    0.96605   1.15923    0.008
 5278.00    1.12783   1.12897    0.008
 5279.00    1.25721   1.11308    0.008
 5280.00    1.07053   1.14450    0.008
 5281.00    0.93336   1.22668    0.008
 5282.00    1.14481   1.29037    0.008
 5283.00    1.33040   1.29538    0.008
 5284.00    1.37577   1.27842    0.008
 5285.00    1.38431   1.28228    0.008
 5286.00    1.23281   1.30063    0.008
 5287.00    1.11863   1.30157    0.008
 5288.00    1.13797   1.27960    0.007
 5289.00    1.18832   1.26017    0.007
 5290.00    1.33185   1.25196    0.008
 5291.00    1.39092   1.22159    0.008
 5292.00    1.23409   1.14829    0.007
 5293.00    1.13435   1.07622    0.007
 5294.00    1.16022   1.07626    0.007
 5295.00    1.18254   1.13895    0.007
 5296.00    1.19806   1.17834    0.007
 5297.00    1.20783   1.17604    0.007
 5298.00    1.20804   1.18973    0.007
 5299.00    1.20375   1.23831    0.007
 5300.00    1.19292   1.28561    0.007
 5301.00    1.16503   1.29715    0.007
 5302.00    1.11526   1.27518    0.007
 5303.00    1.04532   1.25529    0.007
 5304.00    0.95257   1.26674    0.007
 5305.00    1.00456   1.29250    0.007
 5306.00    1.20091   1.30170    0.007
 5307.00    1.26783   1.29165    0.007
 5308.00    1.22092   1.27424    0.007
 5309.00    1.19077   1.26097    0.007
 5310.00    1.17363   1.25330    0.007
 5311.00    1.15790   1.23538    0.007
 5312.00    1.14313   1.21223    0.007
 5313.00    1.18342   1.21248    0.007
 5314.00    1.25660   1.22919    0.007
 5315.00    1.33061   1.23555    0.007
 5316.00    1.40506   1.23314    0.007
 5317.00    1.29480   1.22757    0.007
 5318.00    1.10110   1.20577    0.007
 5319.00    1.02830   1.16269    0.007
 5320.00    1.00247   1.13709    0.007
 5321.00    1.01053   1.14664    0.007
 5322.00    1.02980   1.11624    0.007
 5323.00    1.05754   1.00696    0.007
 5324.00    1.08764   0.93626    0.007
 5325.00    1.22054   1.00519    0.007
 5326.00    1.37688   1.12885    0.007
 5327.00    1.39105   1.18963    0.007
 5328.00    1.37927   1.19099    0.007
 5329.00    1.28689   1.20050    0.007
 5330.00    1.18322   1.23505    0.007
 5331.00    1.31293   1.25310    0.007
 5332.00    1.46618   1.24214    0.007
 5333.00    1.27595   1.22895    0.007
 5334.00    1.06369   1.20831    0.007
 5335.00    1.17409   1.15265    0.007
 5336.00    1.29388   1.10281    0.007
 5337.00    1.32624   1.12375    0.007
 5338.00    1.35198   1.18600    0.007
 5339.00    1.18840   1.22178    0.007
 5340.00    1.04355   1.21719    0.007
 5341.00    1.16731   1.19527    0.007
 5342.00    1.27052   1.18723    0.007
 5343.00    1.18129   1.18383    0.007
 5344.00    1.12110   1.16116    0.007
 5345.00    1.25893   1.15324    0.007
 5346.00    1.41046   1.19073    0.007
 5347.00    1.63430   1.23730    0.007
 5348.00    1.75958   1.25373    0.007
 5349.00    1.46633   1.26014    0.007
 5350.00    1.22394   1.28397    0.007
 5351.00    1.15984   1.30691    0.007
 5352.00    1.14422   1.31195    0.007
 5353.00    1.27149   1.30991    0.007
 5354.00    1.40573   1.30850    0.007
 5355.00    1.55751   1.30277    0.007
 5356.00    1.64548   1.28203    0.007
 5357.00    1.59538   1.24866    0.007
 5358.00    1.50711   1.22519    0.007
 5359.00    1.34713   1.21461    0.007
 5360.00    1.22599   1.19832    0.007
 5361.00    1.16858   1.18598    0.007
 5362.00    1.21660   1.18871    0.007
 5363.00    1.41627   1.19065    0.007
 5364.00    1.48583   1.17253    0.007
 5365.00    1.39081   1.11893    0.007
 5366.00    1.33467   1.05457    0.007
 5367.00    1.32189   1.04796    0.007
 5368.00    1.29600   1.12091   -2.000
 5369.00    1.25723   1.20889   -2.000
 5370.00    1.22710   1.25690   -2.000
 5371.00    1.20448   1.26493   -2.000
 5372.00    1.24606   1.24956   -2.000
 5373.00    1.33670   1.24024   -2.000
 5374.00    1.43342   1.24656   -2.000
 5375.00    1.53422   1.24419   -2.000
 5376.00    1.49292   1.22784   -2.000
 5377.00    1.36806   1.21243   -2.000
 5378.00    1.32326   1.19842   -2.000
 5379.00    1.31952   1.19595   -2.000
 5380.00    1.26006   1.21765   -2.000
 5381.00    1.17584   1.23825   -2.000
 5382.00    1.16857   1.23785   -2.000
 5383.00    1.19066   1.22589    0.007
 5384.00    1.11031   1.20461    0.007
 5385.00    0.99673   1.17572    0.007
 5386.00    1.09815   1.15520    0.007
 5387.00    1.25796   1.14911    0.007
 5388.00    1.22604   1.14852    0.007
 5389.00    1.15141   1.14966    0.007
 5390.00    1.13710   1.15167    0.007
 5391.00    1.13351   1.13101    0.007
 5392.00    1.06613   1.08182    0.007
 5393.00    0.99010   1.06960    0.007
 5394.00    1.05539   1.11984    0.007
 5395.00    1.13433   1.16248    0.007
 5396.00    1.14075   1.17157    0.007
 5397.00    1.14280   1.18246    0.007
 5398.00    1.05008   1.17963    0.007
 5399.00    0.95638   1.12497    0.007
 5400.00    1.11012   1.04654    0.007
 5401.00    1.25631   1.00973    0.007
 5402.00    1.20780   1.04263    0.007
 5403.00    1.16301   1.10098    0.007
 5404.00    1.16878   1.11552    0.007
 5405.00    1.18062   1.08998    0.007
 5406.00    1.24712   1.09502    0.007
 5407.00    1.29732   1.14886    0.007
 5408.00    1.23983   1.19669    0.007
 5409.00    1.20397   1.20326    0.007
 5410.00    1.27942   1.19089    0.007
 5411.00    1.35612   1.19952    0.007
 5412.00    1.43805   1.22934    0.007
 5413.00    1.45158   1.24445    0.007
 5414.00    1.23012   1.23088    0.007
 5415.00    1.09544   1.20363    0.007
 5416.00    1.21178   1.18791    0.007
 5417.00    1.31169   1.19780    0.007
 5418.00    1.37102   1.19964    0.007
 5419.00    1.31759   1.16687    0.007
 5420.00    1.02410   1.15081    0.009
 5421.00    0.76422   1.18942    0.009
 5422.00    0.56648   1.24014    0.009
 5423.00    0.44767   1.23824    0.009
 5424.00    0.45638   1.16223    0.010
 5425.00    0.63570   1.09171    0.009
 5426.00    1.05687   1.10992    0.008
 5427.00    1.29133   1.15529    0.007
 5428.00    1.29293   1.14760    0.007
 5429.00    1.27221   1.10983    0.007
 5430.00    1.22696   1.08759    0.007
 5431.00    1.16455   1.09700    0.007
 5432.00    1.08551   1.13364    0.007
 5433.00    1.15593   1.18729    0.007
 5434.00    1.35412   1.23766    0.007
 5435.00    1.34800   1.26460    0.007
 5436.00    1.18804   1.26959    0.007
 5437.00    1.12398   1.26763    0.007
 5438.00    1.12336   1.26624    0.007
 5439.00    1.06063   1.24968    0.007
 5440.00    0.96193   1.19949    0.007
 5441.00    0.96529   1.12082    0.007
 5442.00    1.02016   1.06250    0.007
 5443.00    1.12606   1.08328    0.007
 5444.00    1.25425   1.15738    0.007
 5445.00    1.32740   1.21095    0.007
 5446.00    1.37990   1.22345    0.007
 5447.00    1.36766   1.21529    0.007
 5448.00    1.33481   1.19868    0.007
 5449.00    1.30043   1.16232    0.007
 5450.00    1.26565   1.10019    0.007
 5451.00    1.30181   1.06388    0.007
 5452.00    1.35341   1.10538    0.007
 5453.00    1.26275   1.18234    0.007
 5454.00    1.14751   1.22530    0.007
 5455.00    1.23472   1.22147    0.007
 5456.00    1.34847   1.19543    0.007
 5457.00    1.18842   1.15979    0.007
 5458.00    1.00307   1.12206    0.007
 5459.00    1.05869   1.11855    0.007
 5460.00    1.12786   1.15425    0.007
 5461.00    1.17810   1.17917    0.007
 5462.00    1.22631   1.18205    0.007
 5463.00    1.10571   1.18974    0.007
 5464.00    0.99992   1.19427    0.007
 5465.00    1.24160   1.17885    0.007
 5466.00    1.46513   1.16454    0.007
 5467.00    1.45542   1.16384    0.007
 5468.00    1.43510   1.15227    0.007
 5469.00    1.32293   1.13477    0.007
 5470.00    1.22503   1.12456    0.007
 5471.00    1.21853   1.08676    0.007
 5472.00    1.21071   1.04005    0.007
 5473.00    1.19624   1.06180    0.007
 5474.00    1.17027   1.13239    0.007
 5475.00    1.09764   1.15893    0.007
 5476.00    1.04411   1.12323    0.007
 5477.00    1.05490   1.09457    0.007
 5478.00    1.11535   1.11269   -2.000
 5479.00    1.31683   1.15680   -2.000
 5480.00    1.40403   1.19797   -2.000
 5481.00    1.21382   1.20671   -2.000
 5482.00    1.08198   1.17230   -2.000
 5483.00    1.07242   1.13731   -2.000
 5484.00    1.12667   1.13976   -2.000
 5485.00    1.29714   1.15655   -2.000
 5486.00    1.66995   1.17005   -2.000
 5487.00    2.36484   1.18190   -2.000
 5488.00    2.92777   1.17529   -2.000
 5489.00    3.30637   1.16026   -2.000
 5490.00    3.21680   1.16643   -2.000
 5491.00    2.55167   1.17473   -2.000
 5492.00    1.92364   1.15595   -2.000
 5493.00    1.33581   1.14516   -2.000
 5494.00    1.13686   1.17462   -2.000
 5495.00    1.30965   1.19736   -2.000
 5496.00    1.33278   1.17275   -2.000
 5497.00    1.22977   1.13628   -2.000
 5498.00    1.18268   1.12962   -2.000
 5499.00    1.17710   1.14458   -2.000
 5500.00    1.20551   1.14822   -2.000
 5501.00    1.25609   1.12402   -2.000
 5502.00    1.21858   1.10811    0.006
 5503.00    1.13081   1.13362    0.006
 5504.00    1.12219   1.16323    0.006
 5505.00    1.15290   1.16486    0.006
 5506.00    1.14183   1.14574    0.006
 5507.00    1.11280   1.11159    0.006
 5508.00    1.16131   1.08482    0.006
 5509.00    1.23837   1.08708    0.006
 5510.00    1.27278   1.10844    0.006
 5511.00    1.29386   1.13026    0.006
 5512.00    1.30348   1.14922    0.006
 5513.00    1.31012   1.17683    0.006
 5514.00    1.38859   1.20334    0.006
 5515.00    1.48231   1.20828    0.006
 5516.00    1.37099   1.19871    0.006
 5517.00    1.22525   1.19155    0.007
 5518.00    1.27057   1.19062    0.006
 5519.00    1.34009   1.19046    0.006
 5520.00    1.26759   1.18124    0.006
 5521.00    1.18257   1.15961    0.006
 5522.00    1.13178   1.12398    0.006
 5523.00    1.08277   1.08298    0.006
 5524.00    1.03498   1.07865    0.006
 5525.00    0.98738   1.12378    0.006
 5526.00    0.95257   1.16730    0.006
 5527.00    0.92887   1.17615    0.006
 5528.00    1.14435   1.16708    0.006
 5529.00    1.34611   1.15461    0.006
 5530.00    1.38054   1.13870    0.006
 5531.00    1.39897   1.13768    0.006
 5532.00    1.28394   1.15213    0.006
 5533.00    1.19799   1.15948    0.006
 5534.00    1.29292   1.16617    0.006
 5535.00    1.37435   1.18552    0.006
 5536.00    1.38981   1.20419    0.006
 5537.00    1.35574   1.20039    0.006
 5538.00    1.12502   1.17540    0.006
 5539.00    0.93116   1.15917    0.007
 5540.00    0.85900   1.16168    0.017
 5541.00    0.83838   1.16235   -1.000
 5542.00    0.96152   1.16546   -1.000
 5543.00    1.04191   1.18704   -1.000
 5544.00    1.02030   1.20963   -1.000
 5545.00    0.98611   1.21724   -1.000
 5546.00    0.92599   1.21658   -1.000
 5547.00    0.90361   1.20901    0.034
 5548.00    0.94892   1.18813    0.009
 5549.00    1.03774   1.16354    0.006
 5550.00    1.19482   1.15678    0.006
 5551.00    1.34113   1.16858    0.006
 5552.00    1.47261   1.17469    0.006
 5553.00    1.48373   1.17075    0.006
 5554.00    1.34898   1.17236    0.006
 5555.00    1.29567   1.17577    0.006
 5556.00    1.32936   1.17142    0.006
 5557.00    1.34322   1.15587    0.006
 5558.00    1.33837   1.13744    0.006
 5559.00    1.24987   1.13460    0.006
 5560.00    1.09186   1.13576    0.006
 5561.00    1.06560   1.12575    0.006
 5562.00    1.13573   1.12122    0.006
 5563.00    1.16821   1.12632    0.006
 5564.00    1.17653   1.12277    0.006
 5565.00    1.12244   1.12341    0.006
 5566.00    1.03329   1.14308    0.007
 5567.00    1.03169   1.13815    0.007
 5568.00    1.07289   1.11075    0.007
 5569.00    1.14561   1.12263    0.007
 5570.00    1.23165   1.15321    0.007
 5571.00    1.18793   1.15582    0.006
 5572.00    1.09728   1.15540    0.006
 5573.00    1.09039   1.16206    0.006
 5574.00    1.10913   1.16278    0.006
 5575.00    1.10891   1.16826    0.006
 5576.00    1.10386   1.16905    0.006
 5577.00    1.20167   1.15695    0.006
 5578.00    1.32077   1.15361    0.006
 5579.00    1.23901   1.15432    0.006
 5580.00    1.12449   1.13698    0.006
 5581.00    1.08377   1.09476    0.006
 5582.00    1.05206   1.04218    0.006
 5583.00    1.09824   1.01218    0.006
 5584.00    1.15097   1.01565    0.006
 5585.00    1.17947   1.04300    0.006
 5586.00    1.20680   1.07822    0.006
 5587.00    1.09570   1.09776    0.006
 5588.00    0.98816   1.09719    0.006
 5589.00    1.21497   1.08737    0.006
 5590.00    1.43649   1.09982    0.006
 5591.00    1.55284   1.14438    0.006
 5592.00    1.64089   1.16291    0.006
 5593.00    1.40036   1.12753    0.006
 5594.00    1.18359   1.09406    0.006
 5595.00    1.15789   1.08746    0.006
 5596.00    1.14519   1.07427    0.006
 5597.00    1.21100   1.05211    0.006
 5598.00    1.25317   1.05143    0.006
 5599.00    1.18257   1.09335    0.006
 5600.00    1.12069   1.15158    0.006
 5601.00    1.09264   1.18901    0.006
 5602.00    1.07281   1.20060    0.006
 5603.00    1.07955   1.19725    0.006
 5604.00    1.08793   1.19094    0.006
 5605.00    1.10080   1.18743    0.006
 5606.00    1.12197   1.19081    0.006
 5607.00    1.16262   1.20028    0.006
 5608.00    1.16406   1.19907    0.006
 5609.00    1.08594   1.15308    0.006
 5610.00    1.06034   1.06543    0.006
 5611.00    1.12749   1.02268    0.006
 5612.00    1.17746   1.06409    0.006
 5613.00    1.20091   1.11391    0.006
 5614.00    1.15775   1.12295    0.006
 5615.00    1.02419   1.11893    0.006
 5616.00    0.97225   1.13300    0.006
 5617.00    1.01782   1.15457    0.006
 5618.00    1.09621   1.14547    0.006
 5619.00    1.20915   1.09442    0.006
 5620.00    1.21437   1.05591    0.006
 5621.00    1.11952   1.07306    0.006
 5622.00    1.05847   1.10995    0.006
 5623.00    1.02511   1.13197    0.006
 5624.00    1.02803   1.15255    0.006
 5625.00    1.05710   1.17374    0.006
 5626.00    1.08423   1.18269    0.006
 5627.00    1.11013   1.17949    0.006
 5628.00    1.16204   1.16809    0.006
 5629.00    1.22833   1.15284    0.006
 5630.00    1.21194   1.13883    0.006
 5631.00    1.15576   1.12368    0.006
 5632.00    1.17431   1.10587    0.006
 5633.00    1.22389   1.10139    0.006
 5634.00    1.24705   1.11684    0.006
 5635.00    1.26081   1.12366    0.006
 5636.00    1.27032   1.10654    0.006
 5637.00    1.27856   1.09750    0.006
 5638.00    1.21279   1.10930    0.006
 5639.00    1.12859   1.11994    0.006
 5640.00    1.06980   1.12673    0.006
 5641.00    1.01614   1.13446    0.006
 5642.00    0.98278   1.14301    0.006
 5643.00    0.95264   1.14563    0.006
 5644.00    1.00666   1.13554    0.006
 5645.00    1.07060   1.12545    0.006
 5646.00    1.08671   1.13435    0.006
 5647.00    1.09900   1.15461    0.006
 5648.00    1.12768   1.15980    0.006
 5649.00    1.15708   1.13666    0.006
 5650.00    0.98450   1.11113    0.006
 5651.00    0.81319   1.11577    0.006
 5652.00    0.81614   1.10773    0.006
 5653.00    0.82259   1.04971    0.006
 5654.00    0.89374   1.01797    0.006
 5655.00    0.96142   1.05902    0.006
 5656.00    0.99062   1.09546    0.006
 5657.00    1.03078   1.08400    0.006
 5658.00    1.15597   1.07500    0.006
 5659.00    1.24402   1.10101    0.006
 5660.00    1.11402   1.13347    0.006
 5661.00    0.99852   1.14003    0.006
 5662.00    0.95044   1.12071    0.006
 5663.00    0.92629   1.10434    0.006
 5664.00    0.99309   1.10664    0.006
 5665.00    1.05494   1.11626    0.006
 5666.00    1.10108   1.12483    0.006
 5667.00    1.14390   1.14289    0.006
 5668.00    1.17779   1.16835    0.006
 5669.00    1.21158   1.17743    0.006
 5670.00    1.24517   1.16505    0.006
 5671.00    1.27076   1.15996    0.006
 5672.00    1.28035   1.17038    0.006
 5673.00    1.28172   1.16886    0.006
 5674.00    1.26880   1.15417    0.006
 5675.00    1.25695   1.14831    0.006
 5676.00    1.24674   1.14241    0.006
 5677.00    1.20064   1.11478    0.006
 5678.00    1.10652   1.09171    0.006
 5679.00    1.02014   1.10058    0.006
 5680.00    0.94289   1.11935    0.006
 5681.00    0.89473   1.11583    0.006
 5682.00    0.87681   1.09415    0.006
 5683.00    0.92205   1.08176    0.006
 5684.00    1.02516   1.09279    0.006
 5685.00    1.06382   1.11822    0.006
 5686.00    1.05044   1.13865    0.006
 5687.00    1.03888   1.15526    0.006
 5688.00    1.02860   1.16412    0.006
 5689.00    1.08395   1.15757    0.006
 5690.00    1.18022   1.14951    0.006
 5691.00    1.22048   1.15239    0.006
 5692.00    1.23022   1.15095    0.006
 5693.00    1.22306   1.12808    0.006
 5694.00    1.20789   1.10914    0.006
 5695.00    1.17139   1.10202    0.006
 5696.00    1.12620   1.08466    0.006
 5697.00    1.11012   1.07190    0.006
 5698.00    1.10420   1.08522    0.006
 5699.00    1.03492   1.10953    0.006
 5700.00    0.94701   1.11164    0.006
 5701.00    0.93805   1.08685    0.006
 5702.00    0.94832   1.06172    0.006
 5703.00    1.01226   1.03980    0.006
 5704.00    1.08678   1.01904    0.006
 5705.00    1.13815   1.02114    0.006
 5706.00    1.18596   1.03138    0.006
 5707.00    1.13527   1.03910    0.006
 5708.00    1.07342   1.07364    0.006
 5709.00    1.09011   1.11319    0.006
 5710.00    1.11275   1.12909    0.006
 5711.00    1.08675   1.13764    0.006
 5712.00    1.05877   1.14168    0.006
 5713.00    0.98994   1.13944    0.006
 5714.00    0.92345   1.14708    0.006
 5715.00    0.96631   1.15765    0.006
 5716.00    1.01291   1.16487    0.006
 5717.00    1.12365   1.17535    0.006
 5718.00    1.21774   1.18285    0.006
 5719.00    1.13565   1.18136    0.006
 5720.00    1.06052   1.17490    0.006
 5721.00    1.03758   1.15733    0.006
 5722.00    1.01145   1.13025    0.006
 5723.00    0.96715   1.12793    0.006
 5724.00    0.94466   1.15289    0.006
 5725.00    1.02123   1.15999    0.006
 5726.00    1.07871   1.13361    0.006
 5727.00    1.06513   1.11673    0.006
 5728.00    1.06613   1.13571    0.006
 5729.00    1.11256   1.16075    0.006
 5730.00    1.15231   1.16996    0.006
 5731.00    1.17442   1.16500    0.006
 5732.00    1.17261   1.15504    0.006
 5733.00    1.11654   1.14975    0.006
 5734.00    1.09503   1.14888    0.006
 5735.00    1.14144   1.14967    0.006
 5736.00    1.19582   1.14973    0.006
 5737.00    1.26387   1.14328    0.006
 5738.00    1.30834   1.13567    0.006
 5739.00    1.31745   1.14322    0.006
 5740.00    1.28818   1.16441    0.000
 5741.00    1.20830   1.17376    0.000
 5742.00    1.15523   1.15184    0.000
 5743.00    1.13328   1.11835    0.000
 5744.00    1.11032   1.11826    0.000
 5745.00    1.08631   1.14722    0.000
 5746.00    1.06550   1.15965    0.000
 5747.00    1.04756   1.13338    0.000
 5748.00    1.06793   1.08820    0.000
 5749.00    1.11879   1.06305    0.000
 5750.00    1.14341   1.08493    0.000
 5751.00    1.14966   1.13177    0.000
 5752.00    1.19312   1.16289    0.000
 5753.00    1.25944   1.17110    0.000
 5754.00    1.25765   1.15890    0.000
 5755.00    1.21933   1.13193    0.000
 5756.00    1.19004   1.10089    0.000
 5757.00    1.16495   1.07390    0.000
 5758.00    1.15117   1.07061    0.000
 5759.00    1.14193   1.10925    0.000
 5760.00    1.14102   1.15332    0.000
 5761.00    1.14295   1.16933    0.000
 5762.00    1.09478   1.17101    0.000
 5763.00    1.03217   1.16989    0.000
 5764.00    1.01272   1.16445    0.000
 5765.00    1.00354   1.15890    0.000
 5766.00    0.99261   1.15167    0.000
 5767.00    0.98134   1.13987    0.000
 5768.00    1.03130   1.13441    0.000
 5769.00    1.09037   1.13092    0.000
 5770.00    1.11985   1.12761    0.000
 5771.00    1.14609   1.13687    0.000
 5772.00    1.16325   1.14919    0.000
 5773.00    1.17977   1.15158    0.000
 5774.00    1.16079   1.13893    0.000
 5775.00    1.14051   1.09993    0.000
 5776.00    1.20899   1.04880    0.000
 5777.00    1.27680   1.02995    0.000
 5778.00    1.30744   1.04461    0.000
 5779.00    1.33506   1.04977    0.000
 5780.00    1.31426   1.03449    0.000
 5781.00    1.29104   1.04195    0.000
 5782.00    1.24320   1.08020    0.000
 5783.00    1.20341   1.11090    0.000
 5784.00    1.22192   1.12605    0.000
 5785.00    1.23600   1.11779    0.000
 5786.00    1.22558   1.09639    0.000
 5787.00    1.21514   1.10023    0.000
 5788.00    1.20462   1.12126    0.000
 5789.00    1.21184   1.13937    0.000
 5790.00    1.28376   1.15437    0.000
 5791.00    1.34555   1.15164   -2.000
 5792.00    1.37641   1.12242   -2.000
 5793.00    1.40627   1.09983   -2.000
 5794.00    1.43348   1.11986   -2.000
 5795.00    1.45265   1.15776   -2.000
 5796.00    1.45385   1.17729   -2.000
 5797.00    1.44204   1.18146   -2.000
 5798.00    1.40505   1.16820   -2.000
 5799.00    1.35015   1.13594   -2.000
 5800.00    1.26501   1.11372   -2.000
 5801.00    1.18588   1.11403   -2.000
 5802.00    1.11564   1.12407   -2.000
 5803.00    1.07413   1.13234   -2.000
 5804.00    1.06995   1.13601   -2.000
 5805.00    1.04669   1.14305   -2.000
 5806.00    1.00158   1.15186   -2.000
 5807.00    0.95573   1.15445   -2.000
 5808.00    0.90914   1.15213   -2.000
 5809.00    0.93170   1.14244   -2.000
 5810.00    1.01584   1.11948   -2.000
 5811.00    1.05173   1.09720    0.000
 5812.00    1.04974   1.10396    0.000
 5813.00    1.04601   1.13798    0.000
 5814.00    1.04107   1.16385    0.000
 5815.00    1.02810   1.17063    0.000
 5816.00    1.01025   1.16879    0.000
 5817.00    1.04910   1.16174    0.000
 5818.00    1.11788   1.15308    0.000
 5819.00    1.20435   1.15098    0.000
 5820.00    1.29892   1.15708    0.000
 5821.00    1.35646   1.15934    0.000
 5822.00    1.39940   1.15569    0.000
 5823.00    1.40194   1.15510    0.000
 5824.00    1.39090   1.16205    0.000
 5825.00    1.34587   1.16607    0.000
 5826.00    1.29123   1.15996    0.000
 5827.00    1.28390   1.15511    0.000
 5828.00    1.28758   1.15240    0.000
 5829.00    1.29073   1.14086    0.000
 5830.00    1.29378   1.13161    0.000
 5831.00    1.24994   1.14080    0.000
 5832.00    1.19933   1.14792    0.000
 5833.00    1.13624   1.13741    0.000
 5834.00    1.07184   1.13434    0.000
 5835.00    1.05945   1.14957    0.000
 5836.00    1.05058   1.16518    0.000
 5837.00    1.10742   1.17094    0.000
 5838.00    1.16643   1.17056    0.000
 5839.00    1.23898   1.16405    0.000
 5840.00    1.30882   1.15317    0.000
 5841.00    1.29290   1.13792    0.000
 5842.00    1.27558   1.12119    0.000
 5843.00    1.23709   1.11489    0.000
 5844.00    1.19724   1.12194    0.000
 5845.00    1.14430   1.13058    0.000
 5846.00    1.08804   1.12779    0.000
 5847.00    1.00862   1.10744    0.000
 5848.00    0.93874   1.08035    0.000
 5849.00    0.92044   1.07687    0.000
 5850.00    0.91974   1.09343    0.000
 5851.00    0.99530   1.08799    0.000
 5852.00    1.06028   1.05121    0.000
 5853.00    1.08751   1.03012    0.000
 5854.00    1.11078   1.05130    0.000
 5855.00    1.12219   1.08548    0.000
 5856.00    1.12920   1.10605    0.000
 5857.00    1.12494   1.10112    0.000
 5858.00    1.11051   1.09599    0.000
 5859.00    1.07376   1.10799    0.000
 5860.00    1.04311   1.11543    0.000
 5861.00    1.02411   1.10091    0.000
 5862.00    1.04360   1.08754    0.000
 5863.00    1.12708   1.10075    0.000
 5864.00    1.18092   1.12382    0.000
 5865.00    1.19160   1.13758    0.000
 5866.00    1.19505   1.13827    0.000
 5867.00    1.18927   1.12884    0.000
 5868.00    1.22823   1.11786    0.000
 5869.00    1.31771   1.11999    0.000
 5870.00    1.34720   1.12869    0.000
 5871.00    1.31697   1.12636    0.000
 5872.00    1.30428   1.11702    0.000
 5873.00    1.30700   1.10803    0.000
 5874.00    1.26616   1.09552    0.000
 5875.00    1.19162   1.07843    0.000
 5876.00    1.16737   1.07845    0.000
 5877.00    1.17732   1.09319    0.000
 5878.00    1.23463   1.09202    0.000
 5879.00    1.32017   1.07838    0.000
 5880.00    1.31842   1.08052    0.000
 5881.00    1.27128   1.09100    0.000
 5882.00    1.20071   1.07767    0.000
 5883.00    1.11957   1.00598    0.000
 5884.00    1.03017   0.86182    0.000
 5885.00    0.93757   0.74970    0.000
 5886.00    0.92498   0.79550    0.000
 5887.00    0.93878   0.91150    0.000
 5888.00    0.96061   0.97531    0.000
 5889.00    0.98465   0.97779    0.000
 5890.00    0.98103   0.89945    0.000
 5891.00    0.97111   0.81815    0.000
 5892.00    0.93698   0.86679    0.000
 5893.00    0.89843   0.97119    0.000
 5894.00    0.90648   1.02078    0.000
 5895.00    0.92103   1.04507    0.000
 5896.00    0.95754   1.07072    0.000
 5897.00    0.99626   1.08168    0.000
 5898.00    1.06351   1.08419    0.000
 5899.00    1.13258   1.08756    0.000
 5900.00    1.07112   1.08080    0.000
 5901.00    1.00594   1.07344    0.005
 5902.00    0.97594   1.08116    0.005
 5903.00    0.94566   1.09449    0.005
 5904.00    0.90746   1.09628    0.005
 5905.00    0.87762   1.09394    0.005
 5906.00    0.96697   1.10257    0.005
 5907.00    1.04944   1.10694    0.005
 5908.00    1.06787   1.08549    0.005
 5909.00    1.07976   1.05194    0.005
 5910.00    1.04714   1.04003    0.005
 5911.00    1.01554   1.04716    0.005
 5912.00    0.98923   1.06464    0.005
 5913.00    0.95820   1.08153    0.005
 5914.00    0.90714   1.09072    0.005
 5915.00    0.87183   1.10012    0.005
 5916.00    0.89160   1.09911    0.005
 5917.00    0.91398   1.08694    0.005
 5918.00    0.94403   1.08499    0.005
 5919.00    0.95581   1.09366    0.005
 5920.00    0.92180   1.10117    0.005
 5921.00    0.91749   1.10639    0.005
 5922.00    0.97731   1.10234    0.005
 5923.00    1.01764   1.08801    0.005
 5924.00    1.02145   1.06754    0.005
 5925.00    0.99918   1.05253    0.005
 5926.00    0.93421   1.06921    0.005
 5927.00    0.89085   1.09747    0.005
 5928.00    0.87851   1.09890    0.005
 5929.00    0.86826   1.07402    0.005
 5930.00    0.86062   1.06037    0.005
 5931.00    0.86239   1.07771    0.005
 5932.00    0.87461   1.09547    0.005
 5933.00    0.89944   1.10163    0.005
 5934.00    0.93664   1.10807    0.005
 5935.00    0.96266   1.09853    0.005
 5936.00    0.97899   1.07243    0.005
 5937.00    0.98759   1.06276    0.005
 5938.00    0.99030   1.07303    0.005
 5939.00    0.97372   1.08692    0.005
 5940.00    0.94421   1.10114    0.005
 5941.00    0.93818   1.10964    0.005
 5942.00    0.94593   1.10084    0.005
 5943.00    0.95734   1.07257    0.005
 5944.00    0.97062   1.05138    0.005
 5945.00    0.97894   1.06622    0.005
 5946.00    0.98506   1.08812    0.005
 5947.00    0.95849   1.07541    0.005
 5948.00    0.91945   1.05415    0.005
 5949.00    0.94385   1.06757    0.005
 5950.00    0.98877   1.08732    0.005
 5951.00    0.96064   1.07680    0.005
 5952.00    0.91273   1.05848    0.005
 5953.00    0.89433   1.06015    0.005
 5954.00    0.88249   1.07568    0.005
 5955.00    0.91577   1.09376    0.005
 5956.00    0.95705   1.10751    0.005
 5957.00    0.93636   1.11221    0.005
 5958.00    0.90731   1.10920    0.005
 5959.00    0.87036   1.10419    0.005
 5960.00    0.83265   1.09185    0.005
 5961.00    0.82812   1.08124    0.005
 5962.00    0.82558   1.09016    0.005
 5963.00    0.92858   1.10194    0.005
 5964.00    1.03371   1.10714    0.005
 5965.00    1.05066   1.11297    0.005
 5966.00    1.06560   1.11793    0.005
 5967.00    1.02955   1.11796    0.005
 5968.00    0.99427   1.11548    0.005
 5969.00    0.96946   1.10649    0.005
 5970.00    0.95437   1.08441    0.005
 5971.00    1.02642   1.06010    0.005
 5972.00    1.08673   1.05023    0.005
 5973.00    1.06979   1.05448    0.005
 5974.00    1.05352   1.06897    0.005
 5975.00    1.04076   1.09051    0.005
 5976.00    1.02147   1.10146    0.005
 5977.00    0.97519   1.09276    0.005
 5978.00    0.92892   1.06139    0.005
 5979.00    0.88265   1.02685    0.005
 5980.00    0.86379   1.02837    0.005
 5981.00    0.92401   1.05651    0.005
 5982.00    0.98057   1.06975    0.005
 5983.00    1.02811   1.07443    0.005
 5984.00    1.05388   1.08587    0.005
 5985.00    1.03343   1.09034    0.005
 5986.00    1.01490   1.07758    0.005
 5987.00    0.99995   1.07149    0.005
 5988.00    0.98714   1.09073    0.005
 5989.00    0.97778   1.10958    0.005
 5990.00    0.97570   1.10772    0.005
 5991.00    0.98394   1.08868    0.005
 5992.00    1.00558   1.06339    0.005
 5993.00    1.04392   1.05188    0.005
 5994.00    1.05889   1.06161    0.005
 5995.00    1.04821   1.07776    0.005
 5996.00    1.00900   1.08463    0.005
 5997.00    0.94216   1.06973    0.005
 5998.00    0.88277   1.05420    0.005
 5999.00    0.82974   1.06525    0.005
 6000.00    0.81546   1.07621    0.005
 6001.00    0.83030   1.06525    0.005
 6002.00    0.84505   1.03812    0.005
 6003.00    0.85972   1.01321    0.005
 6004.00    0.86443   1.03012    0.005
 6005.00    0.86340   1.07468    0.005
 6006.00    0.85677   1.09158    0.005
 6007.00    0.84733   1.07056    0.005
 6008.00    0.86612   1.04327    0.005
 6009.00    0.89722   1.04456    0.005
 6010.00    0.89989   1.05875    0.005
 6011.00    0.89192   1.05170    0.005
 6012.00    0.92065   1.04309    0.005
 6013.00    0.96103   1.05351    0.005
 6014.00    0.97089   1.05098    0.005
 6015.00    0.97266   1.03185    0.005
 6016.00    1.00031   1.02710    0.005
 6017.00    1.03358   1.03806    0.005
 6018.00    1.09954   1.04721    0.005
 6019.00    1.17113   1.04989    0.005
 6020.00    1.13361   1.06326    0.005
 6021.00    1.08185   1.07438    0.005
 6022.00    1.06943   1.07029    0.005
 6023.00    1.06062   1.07697    0.005
 6024.00    1.08326   1.09126    0.005
 6025.00    1.10765   1.09420    0.005
 6026.00    1.07614   1.09075    0.005
 6027.00    1.04305   1.09553    0.005
 6028.00    0.97332   1.10236    0.005
 6029.00    0.90518   1.10173    0.005
 6030.00    0.87395   1.09957    0.005
 6031.00    0.84661   1.10059    0.005
 6032.00    0.86895   1.10314    0.005
 6033.00    0.89219   1.10282    0.005
 6034.00    0.92312   1.09439    0.005
 6035.00    0.94915   1.08517    0.005
 6036.00    0.94383   1.08269    0.005
 6037.00    0.93751   1.08158    0.005
 6038.00    0.92615   1.09063    0.005
 6039.00    0.91788   1.10364    0.005
 6040.00    0.92204   1.10677    0.005
 6041.00    0.92586   1.10697    0.005
 6042.00    0.92854   1.10825    0.005
 6043.00    0.92642   1.10579    0.005
 6044.00    0.91072   1.10313    0.005
 6045.00    0.90171   1.10683    0.005
 6046.00    0.90894   1.10887    0.005
 6047.00    0.90867   1.10146    0.005
 6048.00    0.89271   1.08799    0.005
 6049.00    0.89094   1.07879    0.005
 6050.00    0.91495   1.07211    0.005
 6051.00    0.93891   1.06264    0.005
 6052.00    0.96280   1.06337    0.005
 6053.00    0.97574   1.07529    0.005
 6054.00    0.97341   1.08923    0.005
 6055.00    0.99919   1.09755    0.005
 6056.00    1.05947   1.09653    0.005
 6057.00    1.09704   1.08540    0.005
 6058.00    1.11003   1.06905    0.005
 6059.00    1.10304   1.04874    0.005
 6060.00    1.07697   1.02444    0.005
 6061.00    1.03558   1.03363    0.005
 6062.00    0.98130   1.07722    0.005
 6063.00    0.95048   1.10650    0.005
 6064.00    0.93704   1.11205    0.005
 6065.00    0.92926   1.11066    0.005
 6066.00    0.92516   1.11077    0.005
 6067.00    0.93674   1.11189    0.005
 6068.00    0.95726   1.11254    0.005
 6069.00    0.97749   1.11204    0.005
 6070.00    0.99757   1.10891    0.005
 6071.00    0.99862   1.10023    0.005
 6072.00    0.99150   1.08363    0.005
 6073.00    0.92521   1.05896    0.005
 6074.00    0.83718   1.04940    0.005
 6075.00    0.83511   1.06176    0.005
 6076.00    0.85980   1.06023    0.005
 6077.00    0.89858   1.04422    0.005
 6078.00    0.94103   1.04504    0.005
 6079.00    0.92813   1.05530    0.005
 6080.00    0.90351   1.05312    0.005
 6081.00    0.92641   1.05087    0.005
 6082.00    0.95725   1.06088    0.005
 6083.00    0.93411   1.07061    0.005
 6084.00    0.90417   1.06044    0.005
 6085.00    0.88468   1.03883    0.005
 6086.00    0.86611   1.03436    0.005
 6087.00    0.91770   1.04087    0.005
 6088.00    0.97293   1.04362    0.005
 6089.00    0.98246   1.05603    0.005
 6090.00    0.99076   1.07647    0.005
 6091.00    0.96951   1.07777    0.005
 6092.00    0.94775   1.06541    0.005
 6093.00    0.91522   1.06579    0.005
 6094.00    0.88707   1.07901    0.005
 6095.00    0.91194   1.08485    0.005
 6096.00    0.93486   1.05551    0.005
 6097.00    0.94161   0.98843    0.005
 6098.00    0.94229   0.95660    0.005
 6099.00    0.90529   1.00406    0.005
 6100.00    0.86653   1.05728    0.005
 6101.00    0.81916   1.07086    0.005
 6102.00    0.77994   1.06091    0.005
 6103.00    0.77301   1.05340    0.005
 6104.00    0.78500   1.06604    0.005
 6105.00    0.85930   1.07568    0.005
 6106.00    0.91717   1.06244    0.005
 6107.00    0.92929   1.05614    0.005
 6108.00    0.94013   1.07223    0.005
 6109.00    0.94791   1.08684    0.005
 6110.00    0.94225   1.08133    0.005
 6111.00    0.90892   1.06110    0.005
 6112.00    0.88797   1.05804    0.005
 6113.00    0.88915   1.06894    0.005
 6114.00    0.87537   1.05988    0.005
 6115.00    0.83819   1.03316    0.005
 6116.00    0.81301   1.00029    0.005
 6117.00    0.80432   0.97354    0.005
 6118.00    0.80995   0.99588    0.005
 6119.00    0.83291   1.04478    0.005
 6120.00    0.85316   1.05967    0.005
 6121.00    0.87053   1.04979    0.005
 6122.00    0.88968   1.03854    0.005
 6123.00    0.91051   1.03020    0.005
 6124.00    0.91963   1.03567    0.005
 6125.00    0.91904   1.05421    0.005
 6126.00    0.93085   1.06836    0.005
 6127.00    0.95173   1.07260    0.005
 6128.00    0.97175   1.07296    0.005
 6129.00    0.99122   1.05783    0.005
 6130.00    1.04360   1.01386    0.005
 6131.00    1.11443   0.94498    0.005
 6132.00    1.12073   0.89746    0.005
 6133.00    1.09553   0.93335    0.005
 6134.00    1.04388   1.01636    0.005
 6135.00    0.98108   1.05345    0.005
 6136.00    0.94473   1.03000    0.005
 6137.00    0.91792   1.01062    0.005
 6138.00    0.88948   1.03627    0.005
 6139.00    0.86053   1.06854    0.005
 6140.00    0.86108   1.07540    0.005
 6141.00    0.86911   1.06993    0.005
 6142.00    0.91006   1.05989    0.005
 6143.00    0.95780   1.04342    0.005
 6144.00    0.92945   1.02966    0.005
 6145.00    0.88872   1.02578    0.005
 6146.00    0.86469   1.03412    0.005
 6147.00    0.84269   1.04866    0.005
 6148.00    0.86070   1.05515    0.005
 6149.00    0.88205   1.04053    0.005
 6150.00    0.88848   1.02521    0.005
 6151.00    0.89419   1.02940    0.005
 6152.00    0.88906   1.03518    0.005
 6153.00    0.88436   1.03449    0.005
 6154.00    0.91296   1.02847    0.005
 6155.00    0.93798   0.99246    0.005
 6156.00    0.89266   0.92218    0.005
 6157.00    0.85048   0.87309    0.005
 6158.00    0.84453   0.88660    0.005
 6159.00    0.84283   0.93591    0.005
 6160.00    0.87520   0.97529    0.005
 6161.00    0.90363   0.99203    0.005
 6162.00    0.90836   1.00296    0.005
 6163.00    0.90747   0.98920    0.005
 6164.00    0.87985   0.94150    0.005
 6165.00    0.85895   0.92367    0.005
 6166.00    0.86409   0.96655    0.005
 6167.00    0.86121   1.00774    0.005
 6168.00    0.83242   1.01090    0.005
 6169.00    0.82449   1.00840    0.005
 6170.00    0.87353   1.01176    0.005
 6171.00    0.91669   1.00789    0.005
 6172.00    0.94610   1.00679    0.005
 6173.00    0.97414   1.02027    0.005
 6174.00    0.99943   1.02775    0.005
 6175.00    1.00339   1.02129    0.005
 6176.00    0.96975   1.02637    0.005
 6177.00    0.92790   1.03943    0.005
 6178.00    0.87338   1.04169    0.005
 6179.00    0.83788   1.03847    0.005
 6180.00    0.82813   1.03095    0.005
 6181.00    0.82720   1.01125    0.005
 6182.00    0.83679   0.99353    0.005
 6183.00    0.84026   0.98960    0.005
 6184.00    0.83729   0.98974    0.005
 6185.00    0.83252   0.97055    0.005
 6186.00    0.82609   0.93330    0.005
 6187.00    0.80670   0.93558    0.005
 6188.00    0.77669   0.98445    0.005
 6189.00    0.75222   1.01855    0.005
 6190.00    0.73172   1.02732    0.005
 6191.00    0.74971   1.03437    0.005
 6192.00    0.79202   1.03933    0.005
 6193.00    0.95851   1.02557    0.005
 6194.00    1.19358   0.99335    0.005
 6195.00    1.56588   0.97646    0.005
 6196.00    2.00407   0.99515   -2.000
 6197.00    2.34207   1.02429   -2.000
 6198.00    2.63854   1.03671   -2.000
 6199.00    2.42768   1.03431   -2.000
 6200.00    2.03702   1.03253   -2.000
 6201.00    1.39524   1.03666   -2.000
 6202.00    0.67831   1.03921   -2.000
 6203.00    0.32582   1.03745   -2.000
 6204.00    0.06385   1.03315   -2.000
 6205.00    0.18560   1.02572   -2.000
 6206.00    0.38462   1.01718   -2.000
 6207.00    0.60386   1.00107   -2.000
 6208.00    0.82629   0.96835    0.005
 6209.00    0.88946   0.94035    0.005
 6210.00    0.93396   0.93542    0.005
 6211.00    0.90944   0.94972    0.005
 6212.00    0.87944   0.97505    0.005
 6213.00    0.82055   0.98390    0.005
 6214.00    0.76040   0.96569    0.005
 6215.00    0.82973   0.95158    0.005
 6216.00    0.90101   0.96083    0.005
 6217.00    0.99768   0.98098    0.005
 6218.00    1.08868   0.99080    0.005
 6219.00    1.07625   0.98669    0.005
 6220.00    1.06107   0.98834    0.005
 6221.00    1.01548   0.99564    0.005
 6222.00    0.97627   0.99728    0.005
 6223.00    0.98634   0.99074    0.005
 6224.00    0.99584   0.96298    0.005
 6225.00    1.00199   0.92081    0.005
 6226.00    1.00465   0.90541    0.005
 6227.00    0.99114   0.92744    0.005
 6228.00    0.98169   0.95917    0.005
 6229.00    0.98761   0.99353    0.005
 6230.00    0.98918   1.01739    0.005
 6231.00    0.97694   1.01540    0.005
 6232.00    0.96195   0.99773    0.005
 6233.00    0.93956   0.97872    0.005
 6234.00    0.91565   0.96097    0.005
 6235.00    0.88823   0.95010    0.005
 6236.00    0.86326   0.95696    0.005
 6237.00    0.84319   0.95563    0.005
 6238.00    0.83108   0.93544    0.005
 6239.00    0.83277   0.93029    0.005
 6240.00    0.83456   0.93686    0.005
 6241.00    0.83650   0.94086    0.005
 6242.00    0.83033   0.96024    0.005
 6243.00    0.81334   0.98843    0.005
 6244.00    0.78580   1.00091    0.005
 6245.00    0.74587   0.99577    0.005
 6246.00    0.74515   0.97232    0.005
 6247.00    0.78507   0.93652    0.005
 6248.00    0.78659   0.91830    0.005
 6249.00    0.75299   0.92307    0.005
 6250.00    0.73748   0.92983    0.005
 6251.00    0.73655   0.92211    0.005
 6252.00    0.76160   0.90447    0.005
 6253.00    0.80508   0.89430    0.005
 6254.00    0.83491   0.91002    0.005
 6255.00    0.85623   0.94279    0.005
 6256.00    0.87248   0.96371    0.005
 6257.00    0.88597   0.98247    0.005
 6258.00    1.03522   0.99972    0.005
 6259.00    1.24861   0.99059    0.005
 6260.00    1.34408   0.96781    0.005
 6261.00    1.39149   0.96915    0.006
 6262.00    1.25514   0.98644    0.006
 6263.00    1.05484   0.98876    0.006
 6264.00    0.85344   0.97925    0.006
 6265.00    0.65171   0.97468    0.006
 6266.00    0.64444   0.97910    0.006
 6267.00    0.68441   0.98978    0.005
 6268.00    0.75262   0.99656    0.005
 6269.00    0.82638   0.99507    0.005
 6270.00    0.83769   0.99457    0.005
 6271.00    0.83945   0.99604    0.005
 6272.00    0.82520   0.99386    0.005
 6273.00    0.80916   0.98847    0.005
 6274.00    0.86242   0.97601    0.005
 6275.00    0.92090   0.95956    0.005
 6276.00    0.99742   0.95827    0.005
 6277.00    1.07465   0.97317    0.005
 6278.00    1.02068   0.99108    0.005
 6279.00    0.96443   1.00242    0.005
 6280.00    0.85472   1.00135    0.000
 6281.00    0.75343   1.00393    0.000
 6282.00    0.79581   1.01514    0.000
 6283.00    0.83758   1.02370    0.000
 6284.00    0.87311   1.02123    0.000
 6285.00    0.90185   1.00507    0.000
 6286.00    0.88002   0.98804    0.000
 6287.00    0.85953   0.98209    0.000
 6288.00    0.84670   0.98505    0.000
 6289.00    0.84269   0.99271    0.000
 6290.00    0.87864   0.98929    0.000
 6291.00    0.90967   0.96742    0.000
 6292.00    0.92244   0.95093    0.000
 6293.00    0.92425   0.95672    0.000
 6294.00    0.89206   0.96990    0.000
 6295.00    0.87168   0.96581    0.000
 6296.00    0.88242   0.94611    0.000
 6297.00    0.90305   0.93909    0.000
 6298.00    0.94608   0.95708    0.000
 6299.00    0.95988   0.97736    0.000
 6300.00    0.91635   0.98319    0.000
 6301.00    0.87050   0.98972    0.000
 6302.00    0.82068   1.00549    0.000
 6303.00    0.80035   1.01429    0.000
 6304.00    0.82417   1.00761    0.000
 6305.00    0.85836   0.99165    0.000
 6306.00    0.90618   0.97844    0.000
 6307.00    0.93037   0.97755    0.000
 6308.00    0.92718   0.97958    0.000
 6309.00    0.89316   0.96417    0.000
 6310.00    0.82761   0.94595    0.000
 6311.00    0.75761   0.94824    0.000
 6312.00    0.68360   0.94533    0.000
 6313.00    0.61031   0.92949    0.000
 6314.00    0.53759   0.93700    0.000
 6315.00    0.53071   0.96420    0.000
 6316.00    0.56984   0.97710    0.000
 6317.00    0.68132   0.97545    0.000
 6318.00    0.83714   0.98203    0.000
 6319.00    0.89246   0.99820    0.000
 6320.00    0.89397   1.00654    0.000
 6321.00    0.88664   1.00373    0.005
 6322.00    0.87520   0.99813    0.005
 6323.00    0.88113   0.99979    0.005
 6324.00    0.89402   1.00107    0.005
 6325.00    0.84898   0.99315    0.005
 6326.00    0.78416   0.99459    0.005
 6327.00    0.74755   1.00887    0.005
 6328.00    0.71906   1.01401    0.005
 6329.00    0.68269   0.99051    0.005
 6330.00    0.64445   0.94998    0.005
 6331.00    0.68645   0.93161    0.005
 6332.00    0.74379   0.94666    0.005
 6333.00    0.81288   0.96618    0.005
 6334.00    0.88371   0.97736    0.005
 6335.00    0.82547   0.99236    0.005
 6336.00    0.75324   1.00086    0.005
 6337.00    0.72505   0.98763    0.005
 6338.00    0.70000   0.96295    0.005
 6339.00    0.75142   0.95097    0.005
 6340.00    0.80561   0.96317    0.005
 6341.00    0.78680   0.97990    0.005
 6342.00    0.76822   0.98833    0.005
 6343.00    0.76733   0.99642    0.005
 6344.00    0.76918   1.00301    0.005
 6345.00    0.81487   1.00424    0.005
 6346.00    0.85781   1.00459    0.005
 6347.00    0.87309   1.00216    0.005
 6348.00    0.88855   0.98972    0.005
 6349.00    0.90529   0.96957    0.005
 6350.00    0.91590   0.96007    0.005
 6351.00    0.89256   0.96757    0.005
 6352.00    0.86878   0.96474    0.005
 6353.00    0.84301   0.94150    0.005
 6354.00    0.82139   0.92604    0.005
 6355.00    0.81483   0.92609    0.005
 6356.00    0.81050   0.92173    0.005
 6357.00    0.81291   0.91377    0.005
 6358.00    0.81749   0.91843    0.005
 6359.00    0.82766   0.93581    0.005
 6360.00    0.81750   0.95399    0.005
 6361.00    0.76205   0.96844    0.005
 6362.00    0.72674   0.98300    0.005
 6363.00    0.73031   0.99438    0.005
 6364.00    0.77026   0.99316    0.005
 6365.00    0.87147   0.98659    0.005
 6366.00    0.92252   0.98979    0.005
 6367.00    0.89957   1.00283    0.005
 6368.00    0.85377   1.01123    0.005
 6369.00    0.77834   1.00934    0.005
 6370.00    0.71235   1.00610    0.005
 6371.00    0.65715   1.00575    0.005
 6372.00    0.63905   0.99992    0.005
 6373.00    0.65835   0.98731    0.005
 6374.00    0.69419   0.97926    0.005
 6375.00    0.74475   0.97814    0.005
 6376.00    0.75271   0.98150    0.005
 6377.00    0.72731   0.98964    0.005
 6378.00    0.72750   0.99167    0.005
 6379.00    0.74532   0.98544    0.005
 6380.00    0.76995   0.98596    0.005
 6381.00    0.79870   0.99547    0.005
 6382.00    0.81250   1.00148    0.005
 6383.00    0.81841   1.00049    0.005
 6384.00    0.81488   0.99950    0.005
 6385.00    0.80702   0.99828    0.005
 6386.00    0.80173   0.98583    0.005
 6387.00    0.79746   0.95490    0.005
 6388.00    0.80693   0.92624    0.005
 6389.00    0.82102   0.93446    0.005
 6390.00    0.84068   0.97008    0.005
 6391.00    0.86191   0.99716    0.004
 6392.00    0.86633   1.00368    0.005
 6393.00    0.86684   0.98370    0.005
 6394.00    0.86992   0.93860    0.005
 6395.00    0.87349   0.91360    0.005
 6396.00    0.89032   0.94574    0.005
 6397.00    0.90907   0.99165    0.005
 6398.00    0.89784   1.00996    0.005
 6399.00    0.88348   1.01043    0.005
 6400.00    0.86109   1.00219    0.005
 6401.00    0.83816   0.98395    0.005
 6402.00    0.81578   0.96133    0.005
 6403.00    0.79341   0.95630    0.005
 6404.00    0.77036   0.97395    0.005
 6405.00    0.74531   0.97784    0.005
 6406.00    0.65818   0.95969    0.005
 6407.00    0.57614   0.95544    0.005
 6408.00    0.57028   0.96800    0.005
 6409.00    0.57077   0.97541    0.005
 6410.00    0.63265   0.98018    0.005
 6411.00    0.68619   0.98673    0.005
 6412.00    0.68145   0.98699    0.004
 6413.00    0.68089   0.97683    0.004
 6414.00    0.70281   0.95490    0.004
 6415.00    0.72724   0.93198    0.005
 6416.00    0.76251   0.93340    0.004
 6417.00    0.78380   0.96463    0.004
 6418.00    0.75531   0.99584    0.005
 6419.00    0.72735   1.00271    0.005
 6420.00    0.70103   0.99960    0.005
 6421.00    0.68178   1.00394    0.005
 6422.00    0.68055   1.01072    0.005
 6423.00    0.68613   1.00588    0.005
 6424.00    0.70665   0.98050    0.005
 6425.00    0.72980   0.94510    0.005
 6426.00    0.75794   0.93241    0.005
 6427.00    0.78838   0.95253    0.005
 6428.00    0.82263   0.97787    0.005
 6429.00    0.83276   0.99264    0.005
 6430.00    0.80783   1.00032    0.005
 6431.00    0.78668   0.99965    0.005
 6432.00    0.77039   0.98033    0.005
 6433.00    0.78651   0.94667    0.005
 6434.00    0.83914   0.93619    0.005
 6435.00    0.84748   0.96612    0.005
 6436.00    0.81179   1.00038    0.005
 6437.00    0.78330   1.01292    0.005
 6438.00    0.76112   1.01295    0.005
 6439.00    0.74501   1.01205    0.005
 6440.00    0.73358   1.01495    0.005
 6441.00    0.74714   1.01730    0.005
 6442.00    0.77768   1.00555    0.005
 6443.00    0.77400   0.96506    0.005
 6444.00    0.74997   0.90970    0.005
 6445.00    0.72447   0.89180    0.005
 6446.00    0.69820   0.92718    0.005
 6447.00    0.74576   0.97018    0.005
 6448.00    0.82654   0.98959    0.005
 6449.00    0.83981   0.98212    0.005
 6450.00    0.82697   0.96054    0.005
 6451.00    0.77563   0.95499    0.005
 6452.00    0.71162   0.97591    0.005
 6453.00    0.69970   1.00088    0.005
 6454.00    0.70215   1.01251    0.005
 6455.00    0.71085   1.00415    0.005
 6456.00    0.72096   0.96686    0.005
 6457.00    0.70072   0.92166    0.005
 6458.00    0.67499   0.91804    0.005
 6459.00    0.68076   0.95343    0.005
 6460.00    0.69092   0.98252    0.005
 6461.00    0.69283   0.99463    0.005
 6462.00    0.69393   0.99793    0.005
 6463.00    0.72597   0.99191    0.005
 6464.00    0.75997   0.97987    0.004
 6465.00    0.79560   0.96852    0.004
 6466.00    0.83112   0.96120    0.005
 6467.00    0.82372   0.96767    0.004
 6468.00    0.81501   0.98009    0.004
 6469.00    0.77006   0.97714    0.005
 6470.00    0.72957   0.96804    0.005
 6471.00    0.75214   0.97284    0.005
 6472.00    0.77575   0.98471    0.005
 6473.00    0.80905   0.98867    0.005
 6474.00    0.83182   0.98608    0.005
 6475.00    0.78335   0.97348    0.005
 6476.00    0.74201   0.94673    0.005
 6477.00    0.73806   0.92703    0.005
 6478.00    0.73719   0.93446    0.005
 6479.00    0.74931   0.95630    0.005
 6480.00    0.76289   0.97162    0.005
 6481.00    0.78156   0.97779    0.005
 6482.00    0.80995   0.98092    0.005
 6483.00    0.86684   0.98034    0.005
 6484.00    0.91420   0.97130    0.005
 6485.00    0.93773   0.95761    0.005
 6486.00    0.92510   0.94603    0.005
 6487.00    0.83455   0.92642    0.004
 6488.00    0.77539   0.88092    0.004
 6489.00    0.77498   0.82846    0.004
 6490.00    0.76279   0.80957    0.004
 6491.00    0.73134   0.82698    0.004
 6492.00    0.67582   0.85773    0.004
 6493.00    0.58581   0.88113    0.004
 6494.00    0.56174   0.89473    0.005
 6495.00    0.62079   0.91396    0.005
 6496.00    0.70253   0.93542    0.005
 6497.00    0.80947   0.94940    0.005
 6498.00    0.87059   0.95736    0.005
 6499.00    0.88681   0.96310    0.005
 6500.00    0.85361   0.96935    0.005
 6501.00    0.77771   0.97216    0.005
 6502.00    0.72554   0.96577    0.005
 6503.00    0.69144   0.95654    0.005
 6504.00    0.70124   0.95718    0.005
 6505.00    0.74040   0.96611    0.005
 6506.00    0.78392   0.97197    0.005
 6507.00    0.82999   0.97225    0.005
 6508.00    0.84894   0.97014    0.005
 6509.00    0.85403   0.96215    0.005
 6510.00    0.85567   0.94875    0.005
 6511.00    0.85579   0.93844    0.005
 6512.00    0.84088   0.93129    0.005
 6513.00    0.82026   0.92706    0.004
 6514.00    0.81168   0.93669    0.004
 6515.00    0.80698   0.95659    0.004
 6516.00    0.79038   0.96861    0.004
 6517.00    0.77057   0.96992    0.004
 6518.00    0.75134   0.96976    0.005
 6519.00    0.73225   0.97115    0.005
 6520.00    0.75197   0.96475    0.005
 6521.00    0.77853   0.94862    0.005
 6522.00    0.79346   0.94071    0.005
 6523.00    0.80682   0.94971    0.005
 6524.00    0.79460   0.96193    0.005
 6525.00    0.77993   0.96319    0.005
 6526.00    0.75291   0.95216    0.005
 6527.00    0.72515   0.93958    0.005
 6528.00    0.79207   0.93827    0.000
 6529.00    0.86118   0.95039    0.000
 6530.00    0.90427   0.96380    0.000
 6531.00    0.94333   0.96555    0.000
 6532.00    0.88088   0.96017    0.000
 6533.00    0.82122   0.96192    0.000
 6534.00    0.79869   0.97110    0.000
 6535.00    0.77967   0.97430    0.000
 6536.00    0.79189   0.96631    0.000
 6537.00    0.80646   0.95505    0.000
 6538.00    0.83640   0.94713    0.000
 6539.00    0.85819   0.93681    0.000
 6540.00    0.83838   0.91702    0.000
 6541.00    0.82054   0.90401    0.000
 6542.00    0.81088   0.91440    0.000
 6543.00    0.80493   0.93291    0.000
 6544.00    0.81172   0.94008    0.000
 6545.00    0.81683   0.93457    0.000
 6546.00    0.81713   0.92555    0.000
 6547.00    0.81008   0.91883    0.000
 6548.00    0.78499   0.90851    0.000
 6549.00    0.77309   0.89125    0.000
 6550.00    0.78918   0.87803    0.000
 6551.00    0.81098   0.87974    0.000
 6552.00    0.84330   0.88912    0.000
 6553.00    0.84954   0.88977    0.000
 6554.00    0.81378   0.87413    0.000
 6555.00    0.81732   0.82678    0.000
 6556.00    0.87635   0.72138    0.000
 6557.00    0.98274   0.60828    0.000
 6558.00    1.14799   0.60956    0.000
 6559.00    1.25685   0.72571    0.000
 6560.00    1.30396   0.83511    0.000
 6561.00    1.28254   0.88725    0.000
 6562.00    1.19494   0.90417    0.000
 6563.00    1.08504   0.90015    0.000
 6564.00    0.95614   0.89257    0.000
 6565.00    0.84204   0.89642    0.000
 6566.00    0.73905   0.89998    0.000
 6567.00    0.67432   0.89059    0.000
 6568.00    0.63480   0.87694    0.000
 6569.00    0.61608   0.87308    0.000
 6570.00    0.60938   0.88789    0.000
 6571.00    0.60941   0.91527    0.000
 6572.00    0.61284   0.93617    0.000
 6573.00    0.66850   0.94179    0.000
 6574.00    0.74688   0.93375    0.000
 6575.00    0.81551   0.91954    0.000
 6576.00    0.88050   0.91481    0.000
 6577.00    0.94938   0.92434    0.000
 6578.00    1.01950   0.93470    0.000
 6579.00    1.07252   0.93623    0.000
 6580.00    1.12102   0.93053    0.000
 6581.00    1.07803   0.92834    0.000
 6582.00    1.01527   0.93681    0.000
 6583.00    0.98738   0.94687    0.000
 6584.00    0.96548   0.95050    0.000
 6585.00    0.92082   0.94405    0.000
 6586.00    0.87321   0.91736    0.000
 6587.00    0.83855   0.87588    0.000
 6588.00    0.80507   0.85668    0.000
 6589.00    0.81973   0.87936    0.000
 6590.00    0.83705   0.91307    0.000
 6591.00    0.87304   0.92601    0.000
 6592.00    0.90877   0.91997    0.000
 6593.00    0.88155   0.91414    0.000
 6594.00    0.85522   0.92277    0.000
 6595.00    0.84898   0.93975    0.000
 6596.00    0.84208   0.94975    0.000
 6597.00    0.82673   0.94809    0.000
 6598.00    0.81241   0.93800    0.000
 6599.00    0.80693   0.92529    0.000
 6600.00    0.79661   0.91746    0.000
 6601.00    0.75551   0.91365    0.000
 6602.00    0.72566   0.90475    0.000
 6603.00    0.75180   0.89041    0.000
 6604.00    0.77816   0.88999    0.000
 6605.00    0.80544   0.91330    0.000
 6606.00    0.80876   0.93651    0.000
 6607.00    0.73185   0.93878    0.000
 6608.00    0.67883   0.93147    0.000
 6609.00    0.69336   0.93474    0.005
 6610.00    0.71909   0.94490    0.005
 6611.00    0.77186   0.94660    0.005
 6612.00    0.81122   0.94217    0.005
 6613.00    0.82256   0.94226    0.005
 6614.00    0.82015   0.94722    0.005
 6615.00    0.79280   0.95128    0.005
 6616.00    0.79065   0.95055    0.005
 6617.00    0.82848   0.94189    0.005
 6618.00    0.83428   0.92445    0.005
 6619.00    0.79550   0.90849    0.005
 6620.00    0.72621   0.90907    0.005
 6621.00    0.61957   0.92037    0.005
 6622.00    0.58357   0.92673    0.005
 6623.00    0.62387   0.92723    0.005
 6624.00    0.66024   0.92535    0.005
 6625.00    0.69287   0.92145    0.005
 6626.00    0.73250   0.91251    0.005
 6627.00    0.77802   0.89484    0.005
 6628.00    0.79476   0.87768    0.005
 6629.00    0.79022   0.87985    0.005
 6630.00    0.74694   0.90024    0.005
 6631.00    0.67849   0.92022    0.005
 6632.00    0.66091   0.92861    0.005
 6633.00    0.67225   0.92450    0.005
 6634.00    0.67931   0.91736    0.005
 6635.00    0.68426   0.92058    0.005
 6636.00    0.67789   0.92555    0.005
 6637.00    0.66668   0.91249    0.005
 6638.00    0.67950   0.89432    0.005
 6639.00    0.70113   0.89760    0.005
 6640.00    0.72688   0.91355    0.005
 6641.00    0.75390   0.91901    0.005
 6642.00    0.77309   0.91624    0.005
 6643.00    0.79026   0.91819    0.005
 6644.00    0.79932   0.92286    0.005
 6645.00    0.80667   0.92305    0.005
 6646.00    0.78400   0.91997    0.005
 6647.00    0.75631   0.91770    0.005
 6648.00    0.74306   0.91696    0.005
 6649.00    0.73162   0.91826    0.005
 6650.00    0.73243   0.91963    0.005
 6651.00    0.73430   0.91905    0.005
 6652.00    0.72523   0.91912    0.005
 6653.00    0.71559   0.91932    0.005
 6654.00    0.71667   0.91651    0.005
 6655.00    0.71864   0.91095    0.005
 6656.00    0.77054   0.90092    0.005
 6657.00    0.82052   0.88303    0.005
 6658.00    0.83002   0.87163    0.005
 6659.00    0.83517   0.87957    0.005
 6660.00    0.78802   0.89129    0.005
 6661.00    0.74738   0.89290    0.005
 6662.00    0.76053   0.89205    0.005
 6663.00    0.77006   0.89908    0.005
 6664.00    0.75724   0.91164    0.005
 6665.00    0.74671   0.92064    0.005
 6666.00    0.74726   0.92224    0.005
 6667.00    0.73829   0.92079    0.005
 6668.00    0.69174   0.92048    0.005
 6669.00    0.65392   0.92113    0.005
 6670.00    0.64473   0.91623    0.005
 6671.00    0.63776   0.89334    0.005
 6672.00    0.63693   0.86009    0.005
 6673.00    0.64432   0.85198    0.005
 6674.00    0.67125   0.87526    0.005
 6675.00    0.69388   0.89636    0.005
 6676.00    0.70767   0.90303    0.005
 6677.00    0.70020   0.90671    0.005
 6678.00    0.65473   0.91127    0.005
 6679.00    0.61445   0.91389    0.005
 6680.00    0.58227   0.91401    0.005
 6681.00    0.57847   0.91179    0.005
 6682.00    0.61358   0.90875    0.005
 6683.00    0.64034   0.90861    0.005
 6684.00    0.65702   0.91117    0.005
 6685.00    0.66784   0.91319    0.005
 6686.00    0.67243   0.91291    0.005
 6687.00    0.68880   0.91186    0.005
 6688.00    0.71621   0.91119    0.005
 6689.00    0.71552   0.90430    0.005
 6690.00    0.69156   0.88831    0.005
 6691.00    0.67538   0.87697    0.005
 6692.00    0.66486   0.87964    0.005
 6693.00    0.68938   0.88933    0.005
 6694.00    0.73632   0.90144    0.005
 6695.00    0.76690   0.91079    0.005
 6696.00    0.78832   0.91118    0.000
 6697.00    0.75607   0.90200    0.000
 6698.00    0.69768   0.88873    0.000
 6699.00    0.68177   0.88353    0.000
 6700.00    0.68372   0.88995    0.000
 6701.00    0.66486   0.89862    0.000
 6702.00    0.63850   0.90214    0.000
 6703.00    0.67236   0.90094    0.000
 6704.00    0.72456   0.89586    0.000
 6705.00    0.71865   0.89181    0.000
 6706.00    0.69802   0.89142    0.000
 6707.00    0.72387   0.88728    0.000
 6708.00    0.75928   0.87927    0.000
 6709.00    0.77030   0.87148    0.000
 6710.00    0.77736   0.86075    0.000
 6711.00    0.80582   0.84549    0.000
 6712.00    0.83687   0.83924    0.000
 6713.00    0.86082   0.85558    0.000
 6714.00    0.88418   0.87871    0.000
 6715.00    0.90604   0.88749    0.000
 6716.00    0.92784   0.88570    0.000
 6717.00    0.89919   0.88898    0.000
 6718.00    0.86882   0.89639    0.000
 6719.00    0.78184   0.89497    0.000
 6720.00    0.70045   0.88525    0.000
 6721.00    0.72781   0.88063    0.000
 6722.00    0.75778   0.88583    0.000
 6723.00    0.81767   0.89335    0.000
 6724.00    0.87355   0.89860    0.000
 6725.00    0.89748   0.90093    0.000
 6726.00    0.91749   0.89850    0.000
 6727.00    0.91399   0.89216    0.000
 6728.00    0.90685   0.88810    0.000
 6729.00    0.88246   0.89050    0.000
 6730.00    0.85400   0.89508    0.000
 6731.00    0.80976   0.89343    0.000
 6732.00    0.76395   0.88297    0.000
 6733.00    0.71309   0.87237    0.000
 6734.00    0.68070   0.87211    0.000
 6735.00    0.69866   0.88007    0.000
 6736.00    0.72777   0.88184    0.000
 6737.00    0.78295   0.87526    0.000
 6738.00    0.81828   0.87379    0.000
 6739.00    0.81354   0.87905    0.000
 6740.00    0.80387   0.88061    0.000
 6741.00    0.78555   0.87782    0.000
 6742.00    0.76853   0.87405    0.000
 6743.00    0.75352   0.86865    0.000
 6744.00    0.75180   0.86289    0.000
 6745.00    0.76804   0.86440    0.000
 6746.00    0.81755   0.86850    0.000
 6747.00    0.90669   0.86617    0.000
 6748.00    0.95369   0.86826    0.000
 6749.00    0.95647   0.87698    0.000
 6750.00    0.93679   0.88374    0.000
 6751.00    0.89631   0.88954    0.000
 6752.00    0.90129   0.89594    0.000
 6753.00    0.94336   0.90063    0.005
 6754.00    0.95357   0.90266    0.005
 6755.00    0.94088   0.90135    0.005
 6756.00    0.91105   0.89727    0.005
 6757.00    0.87040   0.89576    0.005
 6758.00    0.81056   0.89712    0.005
 6759.00    0.74012   0.89509    0.005
 6760.00    0.72116   0.88570    0.006
 6761.00    0.72686   0.87116    0.006
 6762.00    0.79596   0.86318    0.006
 6763.00    0.89130   0.86913    0.006
 6764.00    0.94498   0.87547    0.006
 6765.00    0.98393   0.87107    0.006
 6766.00    1.00892   0.86746    0.006
 6767.00    1.02974   0.87520    0.006
 6768.00    0.96230   0.88830    0.006
 6769.00    0.87300   0.89821    0.005
 6770.00    0.84384   0.90268    0.005
 6771.00    0.82676   0.90157    0.005
 6772.00    0.82151   0.90007    0.005
 6773.00    0.81813   0.90357    0.005
 6774.00    0.80982   0.90635    0.005
 6775.00    0.80094   0.90201    0.005
 6776.00    0.82561   0.89034    0.005
 6777.00    0.85293   0.87271    0.005
 6778.00    0.93548   0.85670    0.005
 6779.00    1.02044   0.85203    0.005
 6780.00    0.90887   0.85664    0.005
 6781.00    0.79648   0.86604    0.005
 6782.00    0.74216   0.87847    0.005
 6783.00    0.69320   0.88541    0.005
 6784.00    0.74145   0.88500    0.005
 6785.00    0.79023   0.88543    0.005
 6786.00    0.84488   0.88580    0.005
 6787.00    0.88630   0.87905    0.005
 6788.00    0.82595   0.87090    0.005
 6789.00    0.78069   0.86972    0.005
 6790.00    0.82330   0.87186    0.005
 6791.00    0.85858   0.87527    0.005
 6792.00    0.85998   0.87842    0.005
 6793.00    0.86722   0.87991    0.005
 6794.00    0.89655   0.88243    0.005
 6795.00    0.89809   0.88628    0.005
 6796.00    0.81188   0.88899    0.005
 6797.00    0.76587   0.88644    0.005
 6798.00    0.82754   0.88018    0.005
 6799.00    0.90917   0.87890    0.005
 6800.00    1.03669   0.87939    0.005
 6801.00    1.08777   0.87637    0.005
 6802.00    0.98686   0.87736    0.005
 6803.00    0.90196   0.87891    0.005
 6804.00    0.84482   0.87484    0.005
 6805.00    0.78990   0.87363    0.005
 6806.00    0.73836   0.87833    0.005
 6807.00    0.69056   0.88051    0.005
 6808.00    0.64775   0.87387    0.005
 6809.00    0.63207   0.86492    0.005
 6810.00    0.64823   0.86851    0.005
 6811.00    0.64655   0.88161    0.005
 6812.00    0.62642   0.88839    0.005
 6813.00    0.67480   0.88380    0.006
 6814.00    0.78572   0.87423    0.006
 6815.00    0.81972   0.87197    0.005
 6816.00    0.79183   0.88029    0.005
 6817.00    0.74159   0.88954    0.005
 6818.00    0.67554   0.89379    0.005
 6819.00    0.68784   0.89388    0.005
 6820.00    0.74881   0.89215    0.005
 6821.00    0.76584   0.88470    0.005
 6822.00    0.75902   0.87087    0.005
 6823.00    0.76953   0.86379    0.005
 6824.00    0.78821   0.87143    0.005
 6825.00    0.74671   0.88238    0.005
 6826.00    0.68074   0.88426    0.005
 6827.00    0.66203   0.88061    0.005
 6828.00    0.65973   0.88153    0.005
 6829.00    0.68913   0.88673    0.005
 6830.00    0.72780   0.88759    0.005
 6831.00    0.71084   0.88169    0.005
 6832.00    0.68041   0.87268    0.005
 6833.00    0.74589   0.86108    0.005
 6834.00    0.83013   0.84771    0.005
 6835.00    0.84206   0.83418    0.005
 6836.00    0.84295   0.82680    0.005
 6837.00    0.77865   0.83252    0.006
 6838.00    0.70703   0.84944    0.006
 6839.00    0.75359   0.86837    0.006
 6840.00    0.80897   0.87871    0.006
 6841.00    0.70904   0.88072    0.005
 6842.00    0.60295   0.88022    0.005
 6843.00    0.54052   0.87803    0.005
 6844.00    0.48488   0.87523    0.005
 6845.00    0.68715   0.87415    0.005
 6846.00    0.87124   0.87570    0.005
 6847.00    0.74840   0.87710    0.005
 6848.00    0.63527   0.86702    0.005
 6849.00    0.62368   0.84711    0.005
 6850.00    0.61925   0.83850    0.005
 6851.00    0.66795   0.84407    0.005
 6852.00    0.70823   0.85073    0.005
 6853.00    0.70074   0.85655    0.005
 6854.00    0.69805   0.85649    0.005
 6855.00    0.71708   0.84454    0.005
 6856.00    0.73811   0.83693    0.005
 6857.00    0.76651   0.84952    0.005
 6858.00    0.77805   0.87009    0.005
 6859.00    0.73736   0.87912    0.005
 6860.00    0.72568   0.87337    0.005
 6861.00    0.79031   0.85879    0.005
 6862.00    0.83149   0.84441    0.005
 6863.00    0.81971   0.84317    0.005
 6864.00    0.78670   0.85347    0.005
 6865.00    0.71213   0.85885    0.005
 6866.00    0.67578   0.85217    0.005
 6867.00    0.70466   0.84837    0.005
 6868.00    0.70174   0.85333    0.005
 6869.00    0.65129   0.85538    0.005
 6870.00    0.58799   0.85509    0.005
 6871.00    0.50780   0.86160    0.005
 6872.00    0.52214   0.87131    0.005
 6873.00    0.64584   0.87506    0.005
 6874.00    0.73857   0.87224    0.005
 6875.00    0.79967   0.86190    0.005
 6876.00    0.75037   0.84653    0.005
 6877.00    0.60168   0.83911    0.005
 6878.00    0.56899   0.84817    0.005
 6879.00    0.62831   0.85908    0.005
 6880.00    0.71272   0.85951    0.005
 6881.00    0.81464   0.86126    0.005
 6882.00    0.77011   0.86937    0.005
 6883.00    0.63597   0.87630    0.005
 6884.00    0.58480   0.87937    0.005
 6885.00    0.57798   0.88207    0.005
 6886.00    0.65833   0.88258    0.005
 6887.00    0.77912   0.87948    0.005
 6888.00    0.80096   0.87515    0.005
 6889.00    0.78327   0.86966    0.005
 6890.00    0.78892   0.86605    0.005
 6891.00    0.80253   0.86838    0.005
 6892.00    0.75231   0.87278    0.005
 6893.00    0.68379   0.87310    0.005
 6894.00    0.66752   0.86913    0.005
 6895.00    0.66362   0.86933    0.005
 6896.00    0.66947   0.87563    0.005
 6897.00    0.67719   0.87967    0.005
 6898.00    0.74799   0.87700    0.005
 6899.00    0.82812   0.87298    0.006
 6900.00    0.83824   0.87331    0.006
 6901.00    0.84081   0.87901    0.006
 6902.00    0.77931   0.88347    0.006
 6903.00    0.71328   0.88483    0.006
 6904.00    0.63433   0.88331    0.005
 6905.00    0.55491   0.87762    0.005
 6906.00    0.57729   0.87128    0.005
 6907.00    0.59805   0.86340    0.005
 6908.00    0.55126   0.85181    0.005
 6909.00    0.50712   0.84710    0.005
 6910.00    0.50488   0.85196    0.005
 6911.00    0.50921   0.85483    0.005
 6912.00    0.57919   0.85895    0.005
 6913.00    0.63870   0.86684    0.005
 6914.00    0.62298   0.87405    0.005
 6915.00    0.61639   0.87901    0.005
 6916.00    0.66011   0.88083    0.005
 6917.00    0.69700   0.87480    0.005
 6918.00    0.70373   0.85800    0.005
 6919.00    0.70826   0.84110    0.006
 6920.00    0.70478   0.83825    0.006
 6921.00    0.71200   0.85091    0.006
 6922.00    0.75175   0.86504    0.006
 6923.00    0.76006   0.87026    0.006
 6924.00    0.68708   0.87050    0.006
 6925.00    0.64439   0.86921    0.006
 6926.00    0.66901   0.86362    0.006
 6927.00    0.67813   0.85332    0.006
 6928.00    0.65735   0.85216    0.006
 6929.00    0.60489   0.86310    0.006
 6930.00    0.49918   0.86986    0.005
 6931.00    0.49260   0.86823    0.005
 6932.00    0.63204   0.86669    0.006
 6933.00    0.71738   0.87019    0.006
 6934.00    0.73268   0.87621    0.006
 6935.00    0.75281   0.87899    0.006
 6936.00    0.77847   0.87496    0.006
 6937.00    0.83199   0.86523    0.006
 6938.00    0.91357   0.85065    0.006
 6939.00    0.89855   0.83630    0.006
 6940.00    0.79781   0.83799    0.006
 6941.00    0.71179   0.85383    0.006
 6942.00    0.63727   0.86581    0.006
 6943.00    0.59709   0.87110    0.006
 6944.00    0.58052   0.86842    0.006
 6945.00    0.61543   0.85574    0.006
 6946.00    0.68137   0.84624    0.006
 6947.00    0.74793   0.84525    0.006
 6948.00    0.81481   0.84653    0.006
 6949.00    0.80875   0.85112    0.006
 6950.00    0.76938   0.85997    0.006
 6951.00    0.72566   0.86761    0.006
 6952.00    0.68021   0.86949    0.006
 6953.00    0.62667   0.86894    0.006
 6954.00    0.57042   0.86816    0.006
 6955.00    0.56600   0.86947    0.006
 6956.00    0.57613   0.87204    0.006
 6957.00    0.65045   0.87417    0.006
 6958.00    0.73963   0.87543    0.006
 6959.00    0.75177   0.87044    0.006
 6960.00    0.74962   0.86301    0.006
 6961.00    0.75120   0.86639    0.006
 6962.00    0.75332   0.87736    0.006
 6963.00    0.83301   0.88198    0.006
 6964.00    0.92074   0.87635    0.006
 6965.00    0.85534   0.86615    0.006
 6966.00    0.77973   0.86484    0.006
 6967.00    0.71966   0.87288    0.006
 6968.00    0.66010   0.87394    0.006
 6969.00    0.62039   0.86271    0.006
 6970.00    0.58384   0.84834    0.006
 6971.00    0.64447   0.82942    0.006
 6972.00    0.69324   0.80254    0.006
 6973.00    0.56554   0.78798    0.006
 6974.00    0.45972   0.80739    0.006
 6975.00    0.56406   0.84022    0.006
 6976.00    0.67381   0.86172    0.006
 6977.00    0.82118   0.87290    0.006
 6978.00    0.93107   0.87771    0.006
 6979.00    0.83973   0.87742    0.006
 6980.00    0.75568   0.87534    0.006
 6981.00    0.70304   0.87253    0.006
 6982.00    0.65739   0.86618    0.006
 6983.00    0.63655   0.85722    0.006
 6984.00    0.63647   0.85525    0.006
 6985.00    0.69829   0.86363    0.006
 6986.00    0.72765   0.87321    0.006
 6987.00    0.67454   0.87591    0.006
 6988.00    0.66400   0.87108    0.006
 6989.00    0.74657   0.86696    0.006
 6990.00    0.75824   0.86886    0.006
 6991.00    0.63543   0.87181    0.006
 6992.00    0.59083   0.86860    0.006
 6993.00    0.67572   0.85387    0.006
 6994.00    0.63954   0.83888    0.006
 6995.00    0.42761   0.84171    0.006
 6996.00    0.38851   0.85648    0.006
 6997.00    0.57000   0.86122    0.006
 6998.00    0.68719   0.85078    0.006
 6999.00    0.73206   0.84062    0.006
 7000.00    0.74398   0.83929    0.006
 7001.00    0.72321   0.84359    0.006
 7002.00    0.72542   0.85129    0.006
 7003.00    0.74775   0.85979    0.006
 7004.00    0.73231   0.86200    0.006
 7005.00    0.68777   0.85645    0.006
 7006.00    0.61015   0.85399    0.006
 7007.00    0.51011   0.85958    0.006
 7008.00    0.55952   0.86036    0.006
 7009.00    0.69767   0.83992    0.006
 7010.00    0.66583   0.80643    0.006
 7011.00    0.54595   0.79889    0.006
 7012.00    0.52158   0.82805    0.006
 7013.00    0.54008   0.85881    0.006
 7014.00    0.53264   0.87314    0.006
 7015.00    0.51519   0.87593    0.006
 7016.00    0.51304   0.86548    0.006
 7017.00    0.51590   0.84212    0.006
 7018.00    0.60364   0.82372    0.006
 7019.00    0.71473   0.82609    0.006
 7020.00    0.70610   0.84164    0.006
 7021.00    0.67041   0.85187    0.006
 7022.00    0.73229   0.85433    0.006
 7023.00    0.81181   0.85586    0.006
 7024.00    0.70254   0.85846    0.006
 7025.00    0.56712   0.86075    0.006
 7026.00    0.61720   0.85922    0.006
 7027.00    0.68570   0.85650    0.006
 7028.00    0.76829   0.85397    0.006
 7029.00    0.85177   0.85460    0.006
 7030.00    0.64992   0.86164    0.006
 7031.00    0.44135   0.85706    0.006
 7032.00    0.59589   0.83383    0.006
 7033.00    0.74239   0.82602    0.006
 7034.00    0.66780   0.85175    0.006
 7035.00    0.59184   0.88209    0.006
 7036.00    0.49671   0.89676    0.006
 7037.00    0.42193   0.89718    0.006
 7038.00    0.53489   0.88591    0.006
 7039.00    0.63216   0.87190    0.006
 7040.00    0.62375   0.87125    0.006
 7041.00    0.62806   0.88284    0.006
 7042.00    0.69892   0.89484    0.006
 7043.00    0.74424   0.89997    0.006
 7044.00    0.68199   0.89677    0.006
 7045.00    0.65004   0.88577    0.006
 7046.00    0.72345   0.86285    0.006
 7047.00    0.75379   0.83522    0.006
 7048.00    0.65807   0.82050    0.006
 7049.00    0.63477   0.82127    0.006
 7050.00    0.79220   0.83259   -2.000
 7051.00    0.85743   0.84488   -2.000
 7052.00    0.72431   0.84725   -2.000
 7053.00    0.65052   0.83393   -2.000
 7054.00    0.68752   0.81657   -2.000
 7055.00    0.71172   0.81224   -2.000
 7056.00    0.71505   0.81985   -2.000
 7057.00    0.66251   0.82674   -2.000
 7058.00    0.53007   0.83380   -2.000
 7059.00    0.52376   0.83702   -2.000
 7060.00    0.67613   0.82754   -2.000
 7061.00    0.74216   0.81054   -2.000
 7062.00    0.71244   0.79379   -2.000
 7063.00    0.66130   0.79273   -2.000
 7064.00    0.58920   0.81345   -2.000
 7065.00    0.59758   0.83426   -2.000
 7066.00    0.67538   0.84023   -2.000
 7067.00    0.69436   0.84084   -2.000
 7068.00    0.66865   0.84268   -2.000
 7069.00    0.56861   0.84205   -2.000
 7070.00    0.41894   0.84006   -2.000
 7071.00    0.54319   0.84015   -2.000
 7072.00    0.82765   0.84364   -2.000
 7073.00    0.88111   0.84648   -2.000
 7074.00    0.81679   0.84892   -2.000
 7075.00    0.82176   0.85039   -2.000
 7076.00    0.85731   0.84299   -2.000
 7077.00    0.82300   0.82199   -2.000
 7078.00    0.76221   0.79317   -2.000
 7079.00    0.68990   0.77759   -2.000
 7080.00    0.61389   0.78404   -2.000
 7081.00    0.64303   0.79012   -2.000
 7082.00    0.70049   0.78674   -2.000
 7083.00    0.71031   0.78170   -2.000
 7084.00    0.70962   0.77470   -2.000
 7085.00    0.64096   0.77213   -2.000
 7086.00    0.56036   0.77587   -2.000
 7087.00    0.59205   0.77515   -2.000
 7088.00    0.63878   0.77497   -2.000
 7089.00    0.52501   0.77559   -2.000
 7090.00    0.39600   0.77489   -2.000
 7091.00    0.65607   0.77617   -2.000
 7092.00    0.93896   0.78302   -2.000
 7093.00    0.75070   0.80290   -2.000
 7094.00    0.55295   0.81024   -2.000
 7095.00    0.64326   0.80701   -2.000
 7096.00    0.72703   0.79889   -2.000
 7097.00    0.64834   0.79546   -2.000
 7098.00    0.57854   0.80279   -2.000
 7099.00    0.62684   0.81300   -2.000
 7100.00    0.66976   0.81130   -2.000
 7101.00    0.66493   0.80154   -2.000
 7102.00    0.65143   0.79892   -2.000
 7103.00    0.58133   0.80234   -2.000
 7104.00    0.52993   0.79658   -2.000
 7105.00    0.57378   0.78412   -2.000
 7106.00    0.59767   0.78148   -2.000
 7107.00    0.53938   0.79111   -2.000
 7108.00    0.53469   0.80120   -2.000
 7109.00    0.71272   0.80527   -2.000
 7110.00    0.80517   0.80839   -2.000
 7111.00    0.65172   0.80876   -2.000
 7112.00    0.51116   0.80631   -2.000
 7113.00    0.40223   0.80432   -2.000
 7114.00    0.35146   0.80233   -2.000
 7115.00    0.42374   0.79816   -2.000
 7116.00    0.49928   0.79030   -2.000
 7117.00    0.58079   0.79349   -2.000
 7118.00    0.61376   0.80312   -2.000
 7119.00    0.56874   0.79839   -2.000
 7120.00    0.66394   0.78571   -2.000
 7121.00    0.95680   0.78097   -2.000
 7122.00    1.08990   0.78449   -2.000
 7123.00    1.02482   0.78192   -2.000
 7124.00    0.93673   0.76599   -2.000
 7125.00    0.82347   0.75433   -2.000
 7126.00    0.81418   0.76231   -2.000
 7127.00    0.90514   0.77824   -2.000
 7128.00    0.97438   0.79205   -2.000
 7129.00    1.02515   0.79781   -2.000
 7130.00    0.89197   0.79923   -2.000
 7131.00    0.62104   0.80379   -2.000
 7132.00    0.60287   0.80101   -2.000
 7133.00    0.75100   0.78967   -2.000
 7134.00    0.79276   0.78788   -2.000
 7135.00    0.77325   0.79752   -2.000
 7136.00    0.82977   0.80092   -2.000
 7137.00    0.92444   0.79848   -2.000
 7138.00    0.67400   0.79820   -2.000
 7139.00    0.27370   0.79689   -2.000
 7140.00    0.20919   0.79531   -2.000
 7141.00    0.26977   0.78342   -2.000
 7142.00    0.31796   0.76251   -2.000
 7143.00    0.36223   0.76145   -2.000
 7144.00    0.46823   0.77684   -2.000
 7145.00    0.59052   0.78773   -2.000
 7146.00    0.67058   0.79880   -2.000
 7147.00    0.74155   0.81018   -2.000
 7148.00    0.64892   0.80877   -2.000
 7149.00    0.52834   0.79736   -2.000
 7150.00    0.53171   0.79779   -2.000
 7151.00    0.55113   0.81129   -2.000
 7152.00    0.50497   0.81317   -2.000
 7153.00    0.45286   0.80285   -2.000
 7154.00    0.49115   0.79445   -2.000
 7155.00    0.53438   0.79597   -2.000
 7156.00    0.80983   0.80305   -2.000
 7157.00    1.09103   0.79554   -2.000
 7158.00    1.45435   0.76837   -2.000
 7159.00    1.78051   0.74980   -2.000
 7160.00    1.26346   0.76277   -2.000
 7161.00    0.78348   0.78957   -2.000
 7162.00    0.77035   0.80686   -2.000
 7163.00    0.74105   0.80817   -2.000
 7164.00    0.57378   0.80380   -2.000
 7165.00    0.53252   0.80648   -2.000
 7166.00    1.28983   0.81517   -2.000
 7167.00    1.77442   0.82054   -2.000
 7168.00    0.90488   0.81741   -2.000
 7169.00    0.20394   0.80472   -2.000
 7170.00    0.18161   0.79132   -2.000
 7171.00    0.20988   0.79450   -2.000
 7172.00    0.40721   0.80818   -2.000
 7173.00    0.53502   0.80501   -2.000
 7174.00    0.46672   0.78093   -2.000
 7175.00    0.43929   0.76105   -2.000
 7176.00    0.51039   0.76784   -2.000
 7177.00    0.56442   0.79486   -2.000
 7178.00    0.58293   0.81062   -2.000
 7179.00    0.55052   0.80759   -2.000
 7180.00    0.42592   0.79279   -2.000
 7181.00    0.36653   0.76875   -2.000
 7182.00    0.41034   0.75499   -2.000
 7183.00    0.49742   0.75819   -2.000
 7184.00    0.64461   0.77075   -2.000
 7185.00    0.72948   0.78488   -2.000
 7186.00    0.73814   0.78532   -2.000
 7187.00    0.67308   0.77796   -2.000
 7188.00    0.52857   0.78080   -2.000
 7189.00    0.40665   0.79256   -2.000
 7190.00    0.30621   0.79305   -2.000
 7191.00    0.32816   0.78335   -2.000
 7192.00    0.45273   0.78509   -2.000
 7193.00    0.55361   0.79614   -2.000
 7194.00    0.63700   0.79975   -2.000
 7195.00    0.77160   0.79263   -2.000
 7196.00    0.93940   0.78484   -2.000
 7197.00    0.91946   0.79169   -2.000
 7198.00    0.79302   0.80668   -2.000
 7199.00    0.59796   0.80905   -2.000
 7200.00    0.36901   0.78674   -2.000
 7201.00    0.35703   0.75411   -2.000
 7202.00    0.43768   0.74658   -2.000
 7203.00    0.45793   0.76282   -2.000
 7204.00    0.45607   0.78554   -2.000
 7205.00    0.56456   0.80572   -2.000
 7206.00    0.70723   0.80744   -2.000
 7207.00    0.64984   0.79590   -2.000
 7208.00    0.54082   0.78693   -2.000
 7209.00    0.69899   0.78462   -2.000
 7210.00    0.91336   0.78714   -2.000
 7211.00    0.64095   0.79822   -2.000
 7212.00    0.28769   0.80952   -2.000
 7213.00    0.33601   0.80860   -2.000
 7214.00    0.43452   0.80143   -2.000
 7215.00    0.42535   0.79678   -2.000
 7216.00    0.40685   0.79428   -2.000
 7217.00    0.58548   0.79094   -2.000
 7218.00    0.77414   0.79546   -2.000
