###################################################################
## OUTPUT of StarlightChains_v04.for    [Cid@UFSC - 01/Apr/2007] ##
###################################################################

## Some input info
KUG0210-078._36_42.txt                   [arq_obs]
Base.CB07.vall.4m                        [arq_base]
Masks.EmLines.NEW.gm                     [arq_masks]
StCv04.C11.config                        [arq_config]
   66                                    [N_base]
    0                                    [N_YAV_components = # of components with extra extinction!]
    0                                    [i_FitPowerLaw (1/0 = Yes/No)]
-9.99                                    [alpha_PowerLaw]
CCM                                      [red_law_option]
 1.458241                                [q_norm = A(l_norm)/A(V)]

## (Re)Sampling Parameters
 3741.00                                 [l_ini (A)]
 7218.00                                 [l_fin (A)]
    1.00                                 [dl    (A)]     (OBS: dl_cushion =    50.00 A)

## Normalization info
 4020.00                                 [l_norm (A) - for base]
 4010.00                                 [llow_norm (A) - window for f_obs]
 4060.00                                 [lupp_norm (A) - window for f_obs]
1.290828E-17                             [fobs_norm (in input units)]

## S/N
 3691.00                                 [llow_SN (A) - window for S/N]
 7268.00                                 [lupp_SN (A) - window for S/N]
   5.169                                 [S/N in S/N window]
   4.511                                 [S/N in norm. window]
   0.016                                 [S/N_err in S/N window]
   0.014                                 [S/N_err in norm. window]
  1.0000                                 [fscale_chi2]

## etc...
    -2007606                             [idum_orig]
  2428                                   [NOl_eff]
  2422                                   [Nl_eff]
     6    NSIGMA                         [Ntot_cliped & clip_method]
  1751820                                [Nglobal_steps]
   7                                     [N_chains]
  34                                     [NEX0s_base = N_base in EX0s-fits]
 0   0   1        6   2.0   1.293E+03    [Clip-Bug, RC-Crash & Burn-In warning-flags, n_censored_weights, wei_nsig_threshold & wei_limit]
    41     40.547     39.830      0.717  [idt_all, wdt_TotTime, wdt_UsrTime & wdt_SysTime (sec)]

## Synthesis Results - Best model ##

 8.56129E-06                             [chi2/Nl_eff]
    11.83274                             [adev (%)]

   107.22879                             [sum-of-x (%)]
 1.64842E-17                             [Flux_tot (units of input spectrum!)]
 5.69609E-13                             [Mini_tot (???)]
 2.94512E-13                             [Mcor_tot (???)]

-212.92                                  [v0_min  (km/s)]
 465.52                                  [vd_min  (km/s)]
 0.1301                                  [AV_min  (mag)]
 0.0000                                  [YAV_min (mag)]

# j     x_j(%)      Mini_j(%)     Mcor_j(%)     age_j(yr)     Z_j      (L/M)_j    YAV?  Mstars   component_j        a/Fe...       SSP_chi2r SSP_adev(%)   SSP_AV   SSP_x(%)
  1      0.0000     0.0000E+00    0.0000E+00    1.000000E+06  0.00400  1.094E-02    0   1.0000   age020_m42            0.0000     1.3078E-05    16.0589   3.5898    88.2535
  2      0.0000     0.0000E+00    0.0000E+00    3.160000E+06  0.00400  4.007E-02    0   0.9999   age045_m42            0.0000     1.1377E-05    15.0577   2.8493    94.7166
  3      0.3076     3.2702E-04    6.0009E-04    5.010000E+06  0.00400  2.539E-02    0   0.9488   age055_m42            0.0000     1.2135E-05    15.5320   3.1763    92.2061
  4      0.0000     0.0000E+00    0.0000E+00    6.610000E+06  0.00400  2.620E-02    0   0.9220   age061_m42            0.0000     1.1404E-05    15.0936   2.7767    94.8840
  5      0.0000     0.0000E+00    0.0000E+00    1.000000E+07  0.00400  1.322E-02    0   0.8862   age070_m42            0.0000     1.2250E-05    16.3613   2.5204    95.9464
  6      0.0000     0.0000E+00    0.0000E+00    1.445000E+07  0.00400  7.883E-03    0   0.8571   age078_m42            0.0000     1.2638E-05    16.4976   2.8471    93.5548
  7      0.0000     0.0000E+00    0.0000E+00    2.512000E+07  0.00400  5.251E-03    0   0.8174   age090_m42            0.0000     1.2339E-05    16.5633   2.3939    96.3525
  8      0.0000     0.0000E+00    0.0000E+00    4.000000E+07  0.00400  3.649E-03    0   0.7851   age104_m42            0.0000     1.1919E-05    16.2173   2.1610    97.3566
  9      0.0000     0.0000E+00    0.0000E+00    5.500000E+07  0.00400  3.098E-03    0   0.7629   age110_m42            0.0000     1.1361E-05    15.4135   2.2994    97.9067
 10      0.0000     0.0000E+00    0.0000E+00    1.015200E+08  0.00400  2.228E-03    0   0.7207   age116_m42            0.0000     1.1023E-05    14.8681   2.3104    98.4279
 11      0.0000     0.0000E+00    0.0000E+00    2.861200E+08  0.00400  1.093E-03    0   0.6648   age125_m42            0.0000     1.0955E-05    15.1650   1.7412   101.1592
 12      7.0035     2.8652E-01    3.5271E-01    5.088000E+08  0.00400  6.597E-04    0   0.6365   age130_m42            0.0000     1.0389E-05    14.2096   1.7161   102.6061
 13      6.5321     8.2689E-01    9.2726E-01    1.434000E+09  0.00400  2.132E-04    0   0.5798   age139_m42            0.0000     9.3741E-06    13.3356   0.7396   104.8744
 14      0.0000     0.0000E+00    0.0000E+00    4.250000E+09  0.00400  5.895E-05    0   0.5377   age158_m42            0.0000     8.9816E-06    12.8367   0.2834   101.4537
 15      0.0000     0.0000E+00    0.0000E+00    7.500000E+09  0.00400  3.510E-05    0   0.5212   age171_m42            0.0000     8.9301E-06    12.5787   0.0872   101.0572
 16      0.0000     0.0000E+00    0.0000E+00    1.300000E+10  0.00400  2.005E-05    0   0.5034   age193_m42            0.0000     8.9768E-06    12.4551  -0.0862   100.7597
 17      3.1727     5.6148E+00    5.3939E+00    1.800000E+10  0.00400  1.525E-05    0   0.4967   age213_m42            0.0000     9.0504E-06    12.5763  -0.1073   100.2423
 18      0.0000     0.0000E+00    0.0000E+00    1.000000E+06  0.00800  1.238E-02    0   1.0000   age020_m52            0.0000     1.3083E-05    16.0603   3.5861    88.4306
 19      0.0000     0.0000E+00    0.0000E+00    3.160000E+06  0.00800  3.074E-02    0   0.9966   age045_m52            0.0000     1.2949E-05    15.9427   3.5071    89.2928
 20      0.0000     0.0000E+00    0.0000E+00    5.010000E+06  0.00800  2.668E-02    0   0.9443   age055_m52            0.0000     1.2402E-05    15.7037   3.2623    91.2914
 21      0.0000     0.0000E+00    0.0000E+00    6.610000E+06  0.00800  2.136E-02    0   0.9177   age061_m52            0.0000     1.1872E-05    16.1318   2.0221    97.0318
 22      0.0182     4.0502E-05    6.9145E-05    1.000000E+07  0.00800  1.215E-02    0   0.8827   age070_m52            0.0000     1.2863E-05    16.9764   2.7059    95.4639
 23      0.0000     0.0000E+00    0.0000E+00    1.445000E+07  0.00800  8.717E-03    0   0.8552   age078_m52            0.0000     1.2509E-05    16.4546   2.8123    94.8582
 24      0.0000     0.0000E+00    0.0000E+00    2.512000E+07  0.00800  5.592E-03    0   0.8162   age090_m52            0.0000     1.2355E-05    16.6324   2.4560    97.5172
 25      0.0000     0.0000E+00    0.0000E+00    4.000000E+07  0.00800  3.896E-03    0   0.7841   age104_m52            0.0000     1.1847E-05    16.1430   2.3606    98.5426
 26      0.0000     0.0000E+00    0.0000E+00    1.015200E+08  0.00800  2.148E-03    0   0.7226   age116_m52            0.0000     1.1114E-05    15.2394   2.2838    98.9680
 27      0.0000     0.0000E+00    0.0000E+00    2.861200E+08  0.00800  9.925E-04    0   0.6683   age125_m52            0.0000     1.0365E-05    14.1571   1.7813   103.5738
 28      0.0000     0.0000E+00    0.0000E+00    9.047900E+08  0.00800  3.141E-04    0   0.6138   age135_m52            0.0000     9.1714E-06    12.8452   0.9578   108.7716
 29     14.8847     2.3369E+00    2.6454E+00    1.434000E+09  0.00800  1.719E-04    0   0.5853   age139_m52            0.0000     8.9250E-06    12.9838   0.3785   106.4851
 30      0.0000     0.0000E+00    0.0000E+00    2.500000E+09  0.00800  7.872E-05    0   0.5600   age150_m52            0.0000     8.6686E-06    12.2234   0.0945   104.3482
 31      0.0000     0.0000E+00    0.0000E+00    4.250000E+09  0.00800  4.336E-05    0   0.5426   age158_m52            0.0000     8.7658E-06    12.2910   0.0785   103.3989
 32      0.0000     0.0000E+00    0.0000E+00    6.250000E+09  0.00800  3.159E-05    0   0.5319   age166_m52            0.0000     8.7421E-06    11.9868  -0.1393   103.9559
 33      0.6753     1.3390E+00    1.3138E+00    1.300000E+10  0.00800  1.361E-05    0   0.5073   age193_m52            0.0000     8.9604E-06    11.7914  -0.6264   103.9471
 34      1.1662     3.1837E+00    3.0726E+00    1.800000E+10  0.00800  9.886E-06    0   0.4990   age213_m52            0.0000     9.2120E-06    11.7757  -0.7515   104.0501
 35      0.0000     0.0000E+00    0.0000E+00    1.000000E+06  0.02000  1.544E-02    0   1.0000   age020_m62            0.0000     1.3141E-05    16.0904   3.5816    88.6489
 36      0.0000     0.0000E+00    0.0000E+00    3.160000E+06  0.02000  3.762E-02    0   0.9858   age045_m62            0.0000     1.3150E-05    16.0588   3.5204    89.4363
 37      0.0000     0.0000E+00    0.0000E+00    5.010000E+06  0.02000  3.296E-02    0   0.9342   age055_m62            0.0000     1.1771E-05    15.1930   3.1303    93.5718
 38      0.0000     0.0000E+00    0.0000E+00    8.710000E+06  0.02000  1.154E-02    0   0.8861   age067_m62            0.0000     1.6382E-05    20.7149   2.2011    96.2772
 39      0.0000     0.0000E+00    0.0000E+00    1.445000E+07  0.02000  7.663E-03    0   0.8472   age078_m62            0.0000     1.3556E-05    17.9842   2.3629    97.1154
 40      0.0000     0.0000E+00    0.0000E+00    2.512000E+07  0.02000  4.532E-03    0   0.8099   age090_m62            0.0000     1.3680E-05    18.1378   2.3547    96.8217
 41      0.2285     2.2568E-03    3.3151E-03    5.500000E+07  0.02000  2.733E-03    0   0.7595   age110_m62            0.0000     1.1909E-05    16.1820   2.3451    97.7958
 42      0.0000     0.0000E+00    0.0000E+00    1.609000E+08  0.02000  1.369E-03    0   0.6985   age120_m62            0.0000     1.0896E-05    14.7742   2.1582   101.4323
 43      0.0000     0.0000E+00    0.0000E+00    2.861200E+08  0.02000  9.013E-04    0   0.6714   age125_m62            0.0000     1.0429E-05    13.8991   1.8928   104.9184
 44      0.0000     0.0000E+00    0.0000E+00    5.088000E+08  0.02000  5.028E-04    0   0.6449   age130_m62            0.0000     9.5952E-06    12.6699   1.4917   108.5843
 45      0.0000     0.0000E+00    0.0000E+00    9.047900E+08  0.02000  2.428E-04    0   0.6179   age135_m62            0.0000     8.7651E-06    12.2496   0.8929   108.4174
 46      0.1984     4.2395E-02    4.8443E-02    1.434000E+09  0.02000  1.263E-04    0   0.5908   age139_m62            0.0000     8.6387E-06    12.1872   0.4457   106.9708
 47      0.0000     0.0000E+00    0.0000E+00    2.500000E+09  0.02000  5.985E-05    0   0.5673   age150_m62            0.0000     8.6783E-06    11.9153   0.0615   106.1877
 48      0.0000     0.0000E+00    0.0000E+00    4.250000E+09  0.02000  3.271E-05    0   0.5468   age158_m62            0.0000     8.8935E-06    11.7412  -0.2655   106.0926
 49      0.0000     0.0000E+00    0.0000E+00    1.000000E+10  0.02000  1.360E-05    0   0.5167   age181_m62            0.0000     9.5082E-06    11.7988  -0.6443   106.7422
 50      0.0000     0.0000E+00    0.0000E+00    1.800000E+10  0.02000  7.124E-06    0   0.5013   age213_m62            0.0000     1.0182E-05    12.0284  -0.8788   106.7629
 51      0.0000     0.0000E+00    0.0000E+00    1.000000E+06  0.05000  2.592E-02    0   0.9998   age020_m72            0.0000     1.3354E-05    16.2354   3.5743    88.6321
 52      0.0000     0.0000E+00    0.0000E+00    3.160000E+06  0.05000  4.845E-02    0   0.9577   age045_m72            0.0000     1.2571E-05    15.6471   3.3961    90.8607
 53      0.0000     0.0000E+00    0.0000E+00    5.010000E+06  0.05000  3.072E-02    0   0.9147   age055_m72            0.0000     1.3428E-05    17.3320   2.9320    93.9701
 54      0.0000     0.0000E+00    0.0000E+00    6.610000E+06  0.05000  1.455E-02    0   0.8877   age061_m72            0.0000     1.9272E-05    23.3592   2.2373    96.6758
 55      0.0000     0.0000E+00    0.0000E+00    1.000000E+07  0.05000  9.074E-03    0   0.8524   age070_m72            0.0000     1.3967E-05    17.8297   3.0989    93.8653
 56      0.0000     0.0000E+00    0.0000E+00    2.512000E+07  0.05000  4.250E-03    0   0.7902   age090_m72            0.0000     1.2994E-05    17.1885   2.8041    95.7131
 57      0.0000     0.0000E+00    0.0000E+00    4.000000E+07  0.05000  3.087E-03    0   0.7618   age104_m72            0.0000     1.2907E-05    17.2781   2.5766    97.2774
 58      0.0000     0.0000E+00    0.0000E+00    1.015200E+08  0.05000  1.700E-03    0   0.7096   age116_m72            0.0000     1.1352E-05    15.4155   2.3067   100.7209
 59      0.0000     0.0000E+00    0.0000E+00    2.861200E+08  0.05000  7.384E-04    0   0.6633   age125_m72            0.0000     1.0000E-05    13.2470   1.7480   106.8633
 60     14.3342     1.0130E+00    1.2484E+00    5.088000E+08  0.05000  3.819E-04    0   0.6372   age130_m72            0.0000     9.0759E-06    12.2814   1.2359   109.4127
 61     22.5208     3.6265E+00    4.2855E+00    9.047900E+08  0.05000  1.676E-04    0   0.6110   age135_m72            0.0000     8.5910E-06    11.8187   0.5174   108.4033
 62      8.2967     2.5339E+00    2.8786E+00    1.434000E+09  0.05000  8.837E-05    0   0.5874   age139_m72            0.0000     8.7222E-06    11.8803   0.0525   108.0657
 63      7.7835     4.9625E+00    5.3729E+00    2.500000E+09  0.05000  4.233E-05    0   0.5598   age150_m72            0.0000     8.9882E-06    11.7614  -0.2775   107.4522
 64      6.9484     1.3068E+01    1.3267E+01    6.250000E+09  0.05000  1.435E-05    0   0.5249   age166_m72            0.0000     9.6345E-06    11.9312  -0.7512   106.6746
 65      9.5058     3.9390E+01    3.8366E+01    1.300000E+10  0.05000  6.513E-06    0   0.5036   age193_m72            0.0000     1.0706E-05    11.8856  -1.0000   106.8794
 66      3.6521     2.1773E+01    2.0824E+01    1.800000E+10  0.05000  4.527E-06    0   0.4945   age213_m72            0.0000     1.2164E-05    11.8442  -1.0000   101.8053


## Synthesis Results - Average & Chains ##

# j      x_j: min, <> & last-chain-values for 1 ...  7 chains
  1      0.0000      1.5636      0.1957      2.7642      0.0000      0.6825      0.0000      0.2926      0.3465
  2      0.0000      1.6807      0.0000      1.1592      0.0000      0.1478      0.0000      0.0775      0.1118
  3      0.3076      1.5228      0.4900      0.3820      0.6784      0.0000      1.1695      1.0728      2.4495
  4      0.0000      1.3897      3.4596      0.2137      0.7337      0.6160      0.0036      0.4163      0.0000
  5      0.0000      1.1249      0.5463      0.0000      0.4792      0.4603      0.2838      0.0000      0.0000
  6      0.0000      1.6962      0.0000      0.0000      0.9881      0.3196      0.8424      0.3071      0.2163
  7      0.0000      1.5504      0.0000      1.8161      0.0000      0.1385      0.3728      0.0000      0.0585
  8      0.0000      1.3909      0.2588      1.2238      1.7057      1.0694      0.7683      1.6868      1.2670
  9      0.0000      1.3942      0.0000      0.0000      0.0580      0.1995      0.0000      0.3442      0.0000
 10      0.0000      1.7971      0.2895      0.2920      0.0474      0.0853      0.1162      0.1903      0.0000
 11      0.0000      1.5000      4.2468      0.8288      0.6831      0.3140      1.0220      1.0413      1.1440
 12      7.0035      1.1341      0.6458      0.2901      0.3364      0.0000      0.0000      0.1705      0.0000
 13      6.5321      1.0744      0.4673      0.5872      0.9173      0.5080      0.2400      0.0479      0.0000
 14      0.0000      1.4355      0.0000      1.0754      0.0101      0.0000      0.1109      0.2705      0.0000
 15      0.0000      1.1923      1.8021      1.1584      2.5038      0.4095      0.6983      2.1236      0.6105
 16      0.0000      2.0227      0.0000      1.8443      0.0000      0.0000      0.2242      0.3516      0.0000
 17      3.1727      1.3022      0.3955      0.1964      0.0087      0.0881      0.0000      0.4879      3.0459
 18      0.0000      1.4739      0.7416      0.6149      1.1988      0.4283      0.0000      0.5738      0.4283
 19      0.0000      1.8023      0.1948      0.6505      0.4868      0.7592      0.8914      0.8895      0.6164
 20      0.0000      1.2597      0.0000      0.0000      0.0000      0.1913      0.9606      0.4595      0.5964
 21      0.0000      1.3283      0.0000      0.2557      0.4167      0.0000      0.5274      0.5749      0.2174
 22      0.0182      1.3327      2.9255      0.1237      0.6377      1.3796      0.1600      0.8070      0.9682
 23      0.0000      0.8056      0.2308      0.6258      0.4918      0.8117      0.0000      0.5681      0.2987
 24      0.0000      1.3937      1.0357      1.8331      0.0123      0.0000      0.0000      0.0000      0.1718
 25      0.0000      1.5351      0.0757      0.0000      0.6161      0.1514      0.9296      0.2083      0.9926
 26      0.0000      1.6170      0.0672      1.6098      2.4841      1.9938      2.5071      5.9111      2.3764
 27      0.0000      1.1577      0.1874      0.9479      0.0000      0.1529      1.1792      1.0031      0.8933
 28      0.0000      1.6693      0.0000      0.2530      0.0000      0.0414      0.0000      0.0800      0.2990
 29     14.8847      1.3573      2.2998      0.0000      0.3644      0.2844      0.0000      0.0855      0.0323
 30      0.0000      1.7185      0.0000      2.4171      0.4900      0.2141      0.0596      1.0988      0.0080
 31      0.0000      1.1591      0.1521      0.0000      1.2157      0.2230      1.2391      0.0000      0.0000
 32      0.0000      1.9078      0.0468      2.6426      0.0000      1.1406      0.0000      0.0000      0.0000
 33      0.6753      1.2119      5.5440      3.0195      2.5618      2.1133      0.0000      0.2189      0.8998
 34      1.1662      1.6574      2.6649      7.1063      0.1286      0.2975      0.4240      0.0000      0.0376
 35      0.0000      1.3039      1.3082      1.2620      0.8252      0.6367      0.4914      0.0000      2.0509
 36      0.0000      1.2081      0.6045      0.4061      0.0000      0.0000      0.3681      0.0000      0.3771
 37      0.0000      1.9103      1.6611      2.2688      4.2699      5.0846      3.8047      3.5670      4.2497
 38      0.0000      1.4302      4.0470      0.4212      1.5016      1.0464      0.3649      0.7261      1.6297
 39      0.0000      1.2500      2.1140      0.0000      0.9463      0.4813      0.5887      0.4745      0.5400
 40      0.0000      1.4768      0.6630      0.9198      1.8022      1.7489      2.2292      1.1510      1.7159
 41      0.2285      1.4864      0.4126      0.8574      1.0932      1.0882      0.4713      1.0201      0.7918
 42      0.0000      1.5385      0.0000      1.1529      0.0278      0.4724      0.3340      0.4138      0.0000
 43      0.0000      1.4731      0.0000      2.6715      2.2666      1.2060      0.4252      1.4623      0.8842
 44      0.0000      1.4000      0.0000      1.2360      0.3953      0.3864      0.0000      0.1816      0.7911
 45      0.0000      1.4002      0.2302      0.7484      0.4754      1.1742      4.2462      0.0000      0.0000
 46      0.1984      1.0635      2.1981      1.0620      0.0000      0.1410      1.1063      0.3651      0.2036
 47      0.0000      1.4146      0.0000      0.0000      0.3363      0.1406      0.0000      5.8456      0.0000
 48      0.0000      1.8690      0.8896      0.5142      0.9129      0.0000      1.2402      0.2266      0.2643
 49      0.0000      2.2406      5.4409      6.6280      8.5211      9.1601     10.1669      8.3697      8.4641
 50      0.0000      1.4177      0.0000      0.0000      0.7982      0.5380      2.7109      0.0000      0.1078
 51      0.0000      1.1010      1.8509      0.0000      0.0000      0.0000      0.9163      0.0000      0.0000
 52      0.0000      1.3812      0.7661      0.5682      0.3622      0.3378      0.0000      0.0869      1.3516
 53      0.0000      1.5240      0.6990      1.6144      0.3983      1.6176      0.1605      0.7820      0.8502
 54      0.0000      1.4607      0.0000      0.0000      0.0000      0.0000      0.1347      0.2487      0.5928
 55      0.0000      1.4371      0.0000      0.0000      0.0000      0.0271      0.8018      0.1133      0.0892
 56      0.0000      1.4060      0.0000      0.5664      0.2199      0.0592      0.4207      0.0000      0.0558
 57      0.0000      1.8473      0.1244      0.2377      0.1323      0.9028      2.2628      0.7700      0.6386
 58      0.0000      1.2002      0.0000      0.0000      1.3521      1.7833      1.9139      1.4012      0.0000
 59      0.0000      1.1970      0.0000      2.3070      0.6578      0.3348      0.2235      0.1481      0.0000
 60     14.3342      1.4039      0.8902      0.8574      2.0063      2.6993      1.3424      2.4419      2.7307
 61     22.5208      1.3672      0.3800      1.0498      2.4473      1.1623      1.4911      0.0000      1.2660
 62      8.2967      1.8686      7.0377      5.0802      7.0914      9.8504      6.6028      7.3500      8.5908
 63      7.7835      3.1589     21.6924     14.7443     17.3542     18.3437     17.3970     17.3284     18.7056
 64      6.9484      2.3873     14.5066      9.0931     13.6795     14.1039     12.4283     14.7386     13.7508
 65      9.5058      1.4345      1.6057      2.0383      1.5484      1.1062      1.8328      1.0574      1.4529
 66      3.6521      1.9480      5.4908      5.3512      6.3831      7.4298      7.3327      6.7856      8.4445

# j      m_j: min, <> & last-chain-values for 1 ...  7 chains
  1  0.0000E+00  1.3653E-02  8.0515E-04  1.1479E-02  0.0000E+00  2.7665E-03  0.0000E+00  1.2699E-03  1.3555E-03
  2  0.0000E+00  4.0064E-03  0.0000E+00  1.3141E-03  0.0000E+00  1.6351E-04  0.0000E+00  9.1839E-05  1.1941E-04
  3  6.0009E-04  5.4358E-03  8.2432E-04  6.4856E-04  1.1657E-03  0.0000E+00  1.8569E-03  1.9037E-03  3.9180E-03
  4  0.0000E+00  4.6716E-03  5.4807E-03  3.4163E-04  1.1873E-03  9.6131E-04  5.4192E-06  6.9559E-04  0.0000E+00
  5  0.0000E+00  7.2037E-03  1.6486E-03  0.0000E+00  1.4770E-03  1.3684E-03  8.0827E-04  0.0000E+00  0.0000E+00
  6  0.0000E+00  1.7617E-02  0.0000E+00  0.0000E+00  4.9398E-03  1.5411E-03  3.8917E-03  1.5855E-03  1.0065E-03
  7  0.0000E+00  2.3055E-02  0.0000E+00  1.2843E-02  0.0000E+00  9.5595E-04  2.4656E-03  0.0000E+00  3.8996E-04
  8  0.0000E+00  2.8588E-02  2.5068E-03  1.1962E-02  1.6875E-02  1.0204E-02  7.0236E-03  1.7233E-02  1.1668E-02
  9  0.0000E+00  3.2796E-02  0.0000E+00  0.0000E+00  6.5664E-04  2.1788E-03  0.0000E+00  4.0250E-03  0.0000E+00
 10  0.0000E+00  5.5532E-02  4.2156E-03  4.2911E-03  7.0552E-04  1.2238E-03  1.5970E-03  2.9236E-03  0.0000E+00
 11  0.0000E+00  8.7151E-02  1.1628E-01  2.2902E-02  1.9105E-02  8.4706E-03  2.6412E-02  3.0075E-02  2.9785E-02
 12  3.5271E-01  1.0452E-01  2.8049E-02  1.2715E-02  1.4923E-02  0.0000E+00  0.0000E+00  7.8104E-03  0.0000E+00
 13  9.2726E-01  2.7911E-01  5.7205E-02  7.2543E-02  1.1471E-01  6.1265E-02  2.7733E-02  6.1862E-03  0.0000E+00
 14  0.0000E+00  1.2508E+00  0.0000E+00  4.4563E-01  4.2520E-03  0.0000E+00  4.2974E-02  1.1715E-01  0.0000E+00
 15  0.0000E+00  1.6912E+00  1.2047E+00  7.8148E-01  1.7096E+00  2.6965E-01  4.4054E-01  1.4974E+00  3.8804E-01
 16  0.0000E+00  4.8513E+00  0.0000E+00  2.1037E+00  0.0000E+00  0.0000E+00  2.3914E-01  4.1925E-01  0.0000E+00
 17  5.3939E+00  4.0516E+00  5.7996E-01  2.9055E-01  1.3059E-02  1.2723E-01  0.0000E+00  7.5455E-01  4.2465E+00
 18  0.0000E+00  1.1373E-02  2.6965E-03  2.2563E-03  4.4526E-03  1.5341E-03  0.0000E+00  2.2007E-03  1.4807E-03
 19  0.0000E+00  5.5816E-03  2.8424E-04  9.5807E-04  7.2566E-04  1.0915E-03  1.2278E-03  1.3693E-03  8.5540E-04
 20  0.0000E+00  4.2592E-03  0.0000E+00  0.0000E+00  0.0000E+00  3.0019E-04  1.4446E-03  7.7228E-04  9.0352E-04
 21  0.0000E+00  5.4515E-03  0.0000E+00  4.9915E-04  8.2325E-04  0.0000E+00  9.6272E-04  1.1728E-03  3.9973E-04
 22  6.9145E-05  9.2491E-03  9.5678E-03  4.0839E-04  2.1303E-03  4.4449E-03  4.9386E-04  2.7841E-03  3.0108E-03
 23  0.0000E+00  7.5497E-03  1.0195E-03  2.7892E-03  2.2185E-03  3.5315E-03  0.0000E+00  2.6468E-03  1.2542E-03
 24  0.0000E+00  1.9433E-02  6.8052E-03  1.2155E-02  8.2780E-05  0.0000E+00  0.0000E+00  0.0000E+00  1.0731E-03
 25  0.0000E+00  2.9512E-02  6.8606E-04  0.0000E+00  5.7013E-03  1.3509E-03  7.9486E-03  1.9909E-03  8.5505E-03
 26  0.0000E+00  5.1962E-02  1.0171E-03  2.4602E-02  3.8425E-02  2.9744E-02  3.5834E-02  9.4426E-02  3.4219E-02
 27  0.0000E+00  7.4465E-02  5.6797E-03  2.8998E-02  0.0000E+00  4.5646E-03  3.3734E-02  3.2075E-02  2.5746E-02
 28  0.0000E+00  3.1161E-01  0.0000E+00  2.2463E-02  0.0000E+00  3.5856E-03  0.0000E+00  7.4245E-03  2.5011E-02
 29  2.6454E+00  4.4148E-01  3.5252E-01  0.0000E+00  5.7051E-02  4.2943E-02  0.0000E+00  1.3820E-02  4.7065E-03
 30  0.0000E+00  1.1678E+00  0.0000E+00  7.8116E-01  1.6028E-01  6.7553E-02  1.8013E-02  3.7118E-01  2.4289E-03
 31  0.0000E+00  1.3856E+00  8.5703E-02  0.0000E+00  6.9951E-01  1.2376E-01  6.5882E-01  0.0000E+00  0.0000E+00
 32  0.0000E+00  3.0685E+00  3.5498E-02  2.0215E+00  0.0000E+00  8.5168E-01  0.0000E+00  0.0000E+00  0.0000E+00
 33  1.3138E+00  4.3151E+00  9.3027E+00  5.1132E+00  4.3907E+00  3.4931E+00  0.0000E+00  3.8742E-01  1.4357E+00
 34  3.0726E+00  7.9916E+00  6.0554E+00  1.6296E+01  2.9845E-01  6.6598E-01  9.0920E-01  0.0000E+00  8.1338E-02
 35  0.0000E+00  8.0672E-03  3.8143E-03  3.7132E-03  2.4576E-03  1.8288E-03  1.3521E-03  0.0000E+00  5.6856E-03
 36  0.0000E+00  3.0240E-03  7.1308E-04  4.8342E-04  0.0000E+00  0.0000E+00  4.0981E-04  0.0000E+00  4.2301E-04
 37  0.0000E+00  5.1723E-03  2.1194E-03  2.9214E-03  5.5648E-03  6.3909E-03  4.5818E-03  4.8009E-03  5.1557E-03
 38  0.0000E+00  1.0490E-02  1.3989E-02  1.4694E-03  5.3017E-03  3.5630E-03  1.1903E-03  2.6473E-03  5.3564E-03
 39  0.0000E+00  1.3201E-02  1.0521E-02  0.0000E+00  4.8108E-03  2.3595E-03  2.7652E-03  2.4913E-03  2.5553E-03
 40  0.0000E+00  2.5210E-02  5.3338E-03  7.4675E-03  1.4809E-02  1.3860E-02  1.6926E-02  9.7675E-03  1.3125E-02
 41  3.3151E-03  3.9459E-02  5.1618E-03  1.0825E-02  1.3969E-02  1.3411E-02  5.5647E-03  1.3461E-02  9.4183E-03
 42  0.0000E+00  7.4988E-02  0.0000E+00  2.6724E-02  6.5217E-04  1.0689E-02  7.2396E-03  1.0025E-02  0.0000E+00
 43  0.0000E+00  1.0483E-01  0.0000E+00  9.0410E-02  7.7639E-02  3.9838E-02  1.3457E-02  5.1725E-02  2.8193E-02
 44  0.0000E+00  1.7153E-01  0.0000E+00  7.2019E-02  2.3315E-02  2.1978E-02  0.0000E+00  1.1061E-02  4.3432E-02
 45  0.0000E+00  3.4039E-01  2.6370E-02  8.6532E-02  5.5631E-02  1.3251E-01  4.5912E-01  0.0000E+00  0.0000E+00
 46  4.8443E-02  4.7521E-01  4.6287E-01  2.2568E-01  0.0000E+00  2.9243E-02  2.1986E-01  8.1103E-02  4.0771E-02
 47  0.0000E+00  1.2809E+00  0.0000E+00  0.0000E+00  1.4658E-01  5.9121E-02  0.0000E+00  2.6311E+00  0.0000E+00
 48  0.0000E+00  2.9845E+00  6.6942E-01  3.9051E-01  7.0172E-01  0.0000E+00  8.8085E-01  1.7986E-01  1.8914E-01
 49  0.0000E+00  8.1319E+00  9.3057E+00  1.1440E+01  1.4886E+01  1.5433E+01  1.6412E+01  1.5100E+01  1.3764E+01
 50  0.0000E+00  9.5297E+00  0.0000E+00  0.0000E+00  2.5827E+00  1.6789E+00  8.1049E+00  0.0000E+00  3.2472E-01
 51  0.0000E+00  4.0569E-03  3.2140E-03  0.0000E+00  0.0000E+00  0.0000E+00  1.5017E-03  0.0000E+00  0.0000E+00
 52  0.0000E+00  2.6080E-03  6.8167E-04  5.1023E-04  3.2924E-04  2.9609E-04  0.0000E+00  8.1560E-05  1.1436E-03
 53  0.0000E+00  4.3348E-03  9.3699E-04  2.1839E-03  5.4533E-04  2.1359E-03  2.0306E-04  1.1056E-03  1.0836E-03
 54  0.0000E+00  8.5128E-03  0.0000E+00  0.0000E+00  0.0000E+00  0.0000E+00  3.4905E-04  7.2053E-04  1.5481E-03
 55  0.0000E+00  1.2896E-02  0.0000E+00  0.0000E+00  0.0000E+00  1.1276E-04  3.2003E-03  5.0526E-04  3.5864E-04
 56  0.0000E+00  2.4972E-02  0.0000E+00  4.7840E-03  1.8796E-03  4.8810E-04  3.3232E-03  0.0000E+00  4.4445E-04
 57  0.0000E+00  4.3547E-02  1.3816E-03  2.6644E-03  1.5008E-03  9.8800E-03  2.3725E-02  9.0226E-03  6.7455E-03
 58  0.0000E+00  4.7854E-02  0.0000E+00  0.0000E+00  2.5951E-02  3.3009E-02  3.3942E-02  2.7773E-02  0.0000E+00
 59  0.0000E+00  1.0272E-01  0.0000E+00  9.4149E-02  2.7171E-02  1.3337E-02  8.5309E-03  6.3186E-03  0.0000E+00
 60  1.2484E+00  2.2376E-01  6.6865E-02  6.4992E-02  1.5392E-01  1.9972E-01  9.5162E-02  1.9347E-01  1.9502E-01
 61  4.2855E+00  4.7611E-01  6.2363E-02  1.7387E-01  4.1024E-01  1.8791E-01  2.3095E-01  0.0000E+00  1.9755E-01
 62  2.8786E+00  1.1865E+00  2.1059E+00  1.5341E+00  2.1674E+00  2.9036E+00  1.8647E+00  2.3200E+00  2.4443E+00
 63  5.3729E+00  3.9907E+00  1.2914E+01  8.8584E+00  1.0553E+01  1.0758E+01  9.7751E+00  1.0882E+01  1.0589E+01
 64  1.3267E+01  8.3417E+00  2.3887E+01  1.5111E+01  2.3008E+01  2.2878E+01  1.9315E+01  2.5600E+01  2.1529E+01
 65  3.8366E+01  1.0595E+01  5.5893E+00  7.1601E+00  5.5051E+00  3.7932E+00  6.0212E+00  3.8826E+00  4.8087E+00
 66  2.0824E+01  2.0327E+01  2.7000E+01  2.6556E+01  3.2060E+01  3.5991E+01  3.4031E+01  3.5197E+01  3.9483E+01

# AV, chi2 & Mass for <> & i_chain = 1 ...  7 solutions
AV       0.1301      0.1887      0.1151      0.2553      0.2495      0.2241      0.2261      0.2591      0.2419
chi2 8.5613E-06  3.2874E-05  9.0496E-06  9.3969E-06  9.6424E-06  9.6296E-06  9.5792E-06  9.5640E-06  9.6161E-06
Mass 2.9451E-13  1.7410E-13  3.3468E-13  4.0032E-13  3.9248E-13  3.9332E-13  4.1162E-13  3.8499E-13  4.1733E-13
-212.92                                  [v0_min (km/s) before EX0s...]
 465.52                                  [vd_min (km/s) before EX0s...]


## Synthetic spectrum (Best Model) ##l_obs f_obs f_syn wei
 3478    [Nl_obs]
 3741.00    0.50157   0.46710    0.000
 3742.00    0.51939   0.46815    0.000
 3743.00    0.32138   0.46722    0.000
 3744.00    0.27961   0.46667    0.000
 3745.00    0.32887   0.46756    0.030
 3746.00    0.60879   0.47108    0.030
 3747.00    1.00584   0.47685    0.030
 3748.00    1.06190   0.48198    0.031
 3749.00    0.96802   0.49042    0.033
 3750.00    0.85427   0.49824    0.032
 3751.00    0.73300   0.50547    0.030
 3752.00    0.61326   0.51219    0.029
 3753.00    0.49399   0.51886    0.029
 3754.00    0.46493   0.52621    0.028
 3755.00    0.46004   0.53197    0.028
 3756.00    0.47778   0.53692    0.027
 3757.00    0.50049   0.54070    0.027
 3758.00    0.49773   0.54196    0.027
 3759.00    0.49053   0.54165    0.027
 3760.00    0.44659   0.54258    0.034
 3761.00    0.39777   0.54310    0.050
 3762.00    0.31938   0.54401    0.036
 3763.00    0.23821   0.54584    0.027
 3764.00    0.32081   0.54839    0.026
 3765.00    0.41286   0.55072    0.026
 3766.00    0.44897   0.55439    0.026
 3767.00    0.48512   0.56210    0.026
 3768.00    0.68663   0.57008    0.026
 3769.00    0.87840   0.57839    0.027
 3770.00    0.83387   0.58872    0.027
 3771.00    0.77548   0.60009    0.028
 3772.00    0.53533   0.61198    0.027
 3773.00    0.33606   0.62335    0.026
 3774.00    0.49569   0.63565    0.026
 3775.00    0.63478   0.64698    0.027
 3776.00    0.64066   0.65457    0.026
 3777.00    0.66865   0.66095    0.026
 3778.00    0.80848   0.66489    0.027
 3779.00    0.87585   0.66790    0.027
 3780.00    0.64659   0.66694    0.027
 3781.00    0.42639   0.66142    0.027
 3782.00    0.23692   0.65561    0.027
 3783.00    0.12360   0.64611    0.027
 3784.00    0.22806   0.63533    0.027
 3785.00    0.33383   0.62321    0.028
 3786.00    0.44279   0.61140    0.028
 3787.00    0.45769   0.59858    0.028
 3788.00    0.27437   0.58365    0.027
 3789.00    0.12252   0.57121    0.026
 3790.00    0.02834   0.56058    0.026
 3791.00   -0.02148   0.55257    0.000
 3792.00   -0.00031   0.54561    0.000
 3793.00    0.07023   0.54193    0.026
 3794.00    0.21011   0.54117    0.025
 3795.00    0.40577   0.54315    0.025
 3796.00    0.67038   0.54820    0.026
 3797.00    0.76411   0.55543    0.026
 3798.00    0.67167   0.56650    0.027
 3799.00    0.52068   0.57748    0.027
 3800.00    0.31342   0.58924    0.026
 3801.00    0.26192   0.60123    0.026
 3802.00    0.34241   0.61295    0.026
 3803.00    0.43799   0.62441    0.027
 3804.00    0.54484   0.63410    0.027
 3805.00    0.47235   0.64302    0.027
 3806.00    0.28230   0.64909    0.027
 3807.00    0.17534   0.65226    0.026
 3808.00    0.11606   0.65208    0.026
 3809.00    0.15233   0.65030    0.026
 3810.00    0.23635   0.64772    0.026
 3811.00    0.33075   0.64405    0.027
 3812.00    0.42963   0.64009    0.027
 3813.00    0.51175   0.63363    0.027
 3814.00    0.58764   0.62471    0.027
 3815.00    0.61152   0.61389    0.027
 3816.00    0.61903   0.60393    0.027
 3817.00    0.80507   0.59525    0.028
 3818.00    1.03793   0.58532    0.029
 3819.00    1.06339   0.57428    0.028
 3820.00    1.04442   0.56238    0.027
 3821.00    1.01141   0.54923    0.027
 3822.00    0.97603   0.53542    0.027
 3823.00    0.77829   0.52303    0.026
 3824.00    0.55971   0.51150    0.026
 3825.00    0.29691   0.49994    0.025
 3826.00    0.03015   0.48764    0.025
 3827.00   -0.00137   0.47562    0.000
 3828.00   -0.02024   0.46635    0.000
 3829.00    0.09609   0.45876    0.025
 3830.00    0.21495   0.45356    0.025
 3831.00    0.31932   0.45149    0.026
 3832.00    0.43057   0.45223    0.026
 3833.00    0.69486   0.45528    0.026
 3834.00    0.92398   0.46071    0.026
 3835.00    0.71568   0.46894    0.026
 3836.00    0.52562   0.48049    0.026
 3837.00    0.48972   0.49526    0.027
 3838.00    0.47343   0.51100    0.027
 3839.00    0.58044   0.52770    0.026
 3840.00    0.65209   0.54372    0.026
 3841.00    0.54926   0.56046    0.026
 3842.00    0.45318   0.57762    0.026
 3843.00    0.38410   0.59303    0.026
 3844.00    0.33116   0.60753    0.027
 3845.00    0.33184   0.61947    0.027
 3846.00    0.34425   0.63004    0.027
 3847.00    0.38960   0.63974    0.000
 3848.00    0.46464   0.64706    0.000
 3849.00    0.61098   0.65324    0.000
 3850.00    0.73517   0.65801    0.000
 3851.00    0.81341   0.66123    0.000
 3852.00    0.79205   0.66500    0.000
 3853.00    0.59103   0.66805    0.000
 3854.00    0.56234   0.67061    0.000
 3855.00    0.80543   0.67240    0.000
 3856.00    0.89486   0.67422    0.000
 3857.00    0.77155   0.67737    0.000
 3858.00    0.72647   0.67991    0.000
 3859.00    0.77669   0.68301    0.000
 3860.00    0.79983   0.68452    0.000
 3861.00    0.79386   0.68472    0.000
 3862.00    0.82193   0.68507    0.000
 3863.00    0.88223   0.68561    0.000
 3864.00    0.82689   0.68657    0.000
 3865.00    0.67495   0.68524    0.000
 3866.00    0.64685   0.68231    0.000
 3867.00    0.70982   0.67753    0.000
 3868.00    0.81123   0.67196    0.000
 3869.00    0.93746   0.66817    0.000
 3870.00    0.94516   0.66389    0.000
 3871.00    0.88586   0.65795    0.000
 3872.00    0.86622   0.65006    0.000
 3873.00    0.86608   0.64079    0.000
 3874.00    0.77721   0.63306    0.000
 3875.00    0.65061   0.62456    0.000
 3876.00    0.53186   0.61563    0.000
 3877.00    0.41596   0.60729    0.000
 3878.00    0.46538   0.59697    0.000
 3879.00    0.56576   0.58742    0.000
 3880.00    0.73071   0.57827    0.000
 3881.00    0.91223   0.57142    0.025
 3882.00    0.82301   0.56737    0.025
 3883.00    0.67718   0.56196    0.025
 3884.00    0.41782   0.55888    0.025
 3885.00    0.13974   0.55873    0.025
 3886.00    0.16207   0.56216    0.025
 3887.00    0.22160   0.56841    0.025
 3888.00    0.27051   0.57404    0.026
 3889.00    0.31851   0.58280    0.026
 3890.00    0.29056   0.59237    0.026
 3891.00    0.25883   0.60420    0.026
 3892.00    0.50954   0.61748    0.026
 3893.00    0.76053   0.62948    0.026
 3894.00    0.73111   0.64346    0.027
 3895.00    0.70809   0.65420    0.027
 3896.00    0.81597   0.66602    0.027
 3897.00    0.91341   0.67818    0.026
 3898.00    0.88730   0.68929    0.026
 3899.00    0.87537   0.70219    0.025
 3900.00    0.97904   0.71061    0.026
 3901.00    1.05960   0.72004    0.026
 3902.00    0.99899   0.72996    0.024
 3903.00    0.96264   0.73868    0.023
 3904.00    1.04303   0.74866    0.023
 3905.00    1.05340   0.75529    0.023
 3906.00    0.78956   0.76150    0.022
 3907.00    0.59267   0.76732    0.022
 3908.00    0.61399   0.77014    0.023
 3909.00    0.63980   0.77343    0.023
 3910.00    0.67797   0.77412    0.024
 3911.00    0.73050   0.77188    0.024
 3912.00    0.81691   0.76928    0.024
 3913.00    0.85602   0.76302    0.025
 3914.00    0.79860   0.75657    0.025
 3915.00    0.75102   0.74744    0.026
 3916.00    0.72095   0.73546    0.026
 3917.00    0.74176   0.72339    0.026
 3918.00    0.84162   0.70772    0.026
 3919.00    0.81575   0.69230    0.026
 3920.00    0.61830   0.67433    0.026
 3921.00    0.45419   0.65491    0.026
 3922.00    0.33011   0.63493    0.025
 3923.00    0.38179   0.61279    0.025
 3924.00    0.61959   0.59274    0.025
 3925.00    0.77252   0.57229    0.026
 3926.00    0.84615   0.55395    0.026
 3927.00    0.81012   0.53757    0.026
 3928.00    0.68377   0.52292    0.026
 3929.00    0.53355   0.51316    0.026
 3930.00    0.36602   0.50695    0.026
 3931.00    0.34621   0.50594    0.026
 3932.00    0.42041   0.50941    0.026
 3933.00    0.46059   0.51631    0.026
 3934.00    0.48185   0.52719    0.026
 3935.00    0.50379   0.54155    0.027
 3936.00    0.52606   0.55897    0.027
 3937.00    0.65229   0.57838    0.027
 3938.00    0.82199   0.59838    0.028
 3939.00    0.74692   0.61815    0.028
 3940.00    0.58430   0.63798    0.027
 3941.00    0.61540   0.65729    0.027
 3942.00    0.70507   0.67522    0.028
 3943.00    0.71720   0.69143    0.027
 3944.00    0.70986   0.70495    0.027
 3945.00    0.52587   0.71578    0.027
 3946.00    0.30585   0.72496    0.027
 3947.00    0.23439   0.73150    0.027
 3948.00    0.18672   0.73507    0.027
 3949.00    0.33426   0.73553    0.028
 3950.00    0.50512   0.73198    0.029
 3951.00    0.56516   0.72631    0.029
 3952.00    0.61617   0.71741    0.028
 3953.00    0.56095   0.70391    0.028
 3954.00    0.50084   0.68821    0.028
 3955.00    0.69351   0.67000    0.028
 3956.00    0.88754   0.64971    0.028
 3957.00    0.98438   0.62710    0.028
 3958.00    1.07303   0.60093    0.028
 3959.00    1.00674   0.57583    0.028
 3960.00    0.93222   0.55317    0.000
 3961.00    0.76498   0.53143    0.000
 3962.00    0.62515   0.51165    0.000
 3963.00    0.70067   0.49343    0.000
 3964.00    0.76899   0.48054    0.000
 3965.00    0.79458   0.47467    0.000
 3966.00    0.81541   0.47335    0.000
 3967.00    0.81383   0.47774    0.000
 3968.00    0.75473   0.48650    0.000
 3969.00    0.47521   0.50050    0.000
 3970.00    0.29501   0.52075    0.000
 3971.00    0.43225   0.54369    0.000
 3972.00    0.53025   0.57042    0.000
 3973.00    0.52200   0.59840    0.000
 3974.00    0.53192   0.62652    0.000
 3975.00    0.58404   0.65707    0.000
 3976.00    0.70595   0.68544    0.000
 3977.00    0.96806   0.71354    0.000
 3978.00    1.13416   0.73992    0.000
 3979.00    1.13231   0.76242    0.000
 3980.00    1.06770   0.78606    0.000
 3981.00    0.90699   0.80583    0.028
 3982.00    0.84687   0.82351    0.028
 3983.00    0.92202   0.84031    0.028
 3984.00    1.01374   0.85273    0.028
 3985.00    1.12507   0.86655    0.028
 3986.00    1.10061   0.87754    0.028
 3987.00    0.93433   0.88601    0.028
 3988.00    0.85283   0.89519    0.027
 3989.00    0.84939   0.90154    0.027
 3990.00    0.91675   0.90869    0.027
 3991.00    1.04158   0.91464    0.027
 3992.00    1.01845   0.91832    0.027
 3993.00    0.88960   0.92287    0.027
 3994.00    1.03401   0.92693    0.027
 3995.00    1.34975   0.93109    0.028
 3996.00    1.27472   0.93504    0.028
 3997.00    0.98554   0.93731    0.028
 3998.00    0.86741   0.94029    0.028
 3999.00    0.83076   0.94444    0.028
 4000.00    0.85685   0.94847    0.028
 4001.00    0.90873   0.95235    0.028
 4002.00    1.08245   0.95501    0.028
 4003.00    1.29895   0.95918    0.028
 4004.00    1.36099   0.96464    0.028
 4005.00    1.37725   0.97016    0.028
 4006.00    1.12323   0.97534    0.028
 4007.00    0.80282   0.97929    0.028
 4008.00    1.05117   0.98509    0.028
 4009.00    1.41260   0.99047    0.028
 4010.00    1.22404   0.99595    0.028
 4011.00    0.95001   1.00123    0.028
 4012.00    1.05456   1.00418    0.028
 4013.00    1.20264   1.00836    0.028
 4014.00    1.08480   1.01070    0.028
 4015.00    0.94639   1.01276    0.028
 4016.00    0.91727   1.01497    0.028
 4017.00    0.89275   1.01380    0.028
 4018.00    0.75286   1.01375    0.027
 4019.00    0.61536   1.01227    0.027
 4020.00    0.62889   1.00961    0.027
 4021.00    0.65643   1.00750    0.028
 4022.00    0.93091   1.00194    0.028
 4023.00    1.17854   0.99839    0.027
 4024.00    1.13721   0.99571    0.027
 4025.00    1.07873   0.99072    0.027
 4026.00    0.89003   0.98750    0.027
 4027.00    0.75065   0.98235    0.027
 4028.00    0.89573   0.97947    0.027
 4029.00    1.03555   0.98068    0.027
 4030.00    1.15124   0.97884    0.027
 4031.00    1.20039   0.97815    0.026
 4032.00    1.00000   0.97721    0.026
 4033.00    0.83668   0.97689    0.026
 4034.00    0.78961   0.98155    0.026
 4035.00    0.75987   0.98248    0.026
 4036.00    0.77629   0.98100    0.026
 4037.00    0.87020   0.97998    0.026
 4038.00    1.14105   0.97868    0.026
 4039.00    1.29252   0.98184    0.026
 4040.00    1.20794   0.98189    0.027
 4041.00    1.01125   0.97759    0.027
 4042.00    0.62139   0.97562    0.027
 4043.00    0.37947   0.97461    0.027
 4044.00    0.36070   0.97612    0.027
 4045.00    0.49477   0.97615    0.027
 4046.00    0.83144   0.97275    0.027
 4047.00    1.05929   0.97216    0.027
 4048.00    1.16010   0.97303    0.028
 4049.00    1.18179   0.97207    0.028
 4050.00    1.12205   0.96973    0.027
 4051.00    1.12676   0.96737    0.027
 4052.00    1.19002   0.96670    0.028
 4053.00    1.33925   0.96588    0.028
 4054.00    1.55729   0.96145    0.029
 4055.00    1.49544   0.95590    0.029
 4056.00    1.23651   0.95415    0.029
 4057.00    1.00521   0.95446    0.028
 4058.00    0.79096   0.95114    0.028
 4059.00    0.77721   0.94576    0.028
 4060.00    0.87165   0.94268    0.028
 4061.00    0.78648   0.94304    0.028
 4062.00    0.61712   0.94486    0.028
 4063.00    0.61982   0.94095    0.028
 4064.00    0.69204   0.93609    0.028
 4065.00    0.92218   0.93781    0.028
 4066.00    1.20678   0.93980    0.028
 4067.00    1.01166   0.94022    0.028
 4068.00    0.67724   0.93715    0.027
 4069.00    0.73793   0.93320    0.028
 4070.00    0.89353   0.93655    0.028
 4071.00    1.01271   0.93942    0.028
 4072.00    1.12485   0.93927    0.027
 4073.00    1.18445   0.94014    0.027
 4074.00    1.23614   0.94004    0.027
 4075.00    1.07428   0.94390    0.027
 4076.00    0.88881   0.94900    0.027
 4077.00    0.92094   0.95115    0.026
 4078.00    0.96901   0.95552    0.026
 4079.00    1.01599   0.95908    0.026
 4080.00    1.06293   0.96260    0.026
 4081.00    1.06454   0.96674    0.026
 4082.00    1.06707   0.96694    0.027
 4083.00    1.11406   0.96737    0.027
 4084.00    1.15430   0.96625    0.027
 4085.00    1.08353   0.96324    0.027
 4086.00    1.02547   0.95982    0.027
 4087.00    1.09827   0.95038    0.026
 4088.00    1.13516   0.93964    0.026
 4089.00    0.90853   0.92882    0.026
 4090.00    0.71772   0.91629    0.026
 4091.00    0.72782   0.90431    0.026
 4092.00    0.78529   0.88802    0.000
 4093.00    1.05474   0.87048    0.000
 4094.00    1.24213   0.85734    0.000
 4095.00    1.12812   0.84611    0.000
 4096.00    1.02144   0.83619    0.000
 4097.00    0.93732   0.82728    0.000
 4098.00    0.88260   0.81977    0.000
 4099.00    0.90470   0.81728    0.000
 4100.00    0.94593   0.81964    0.000
 4101.00    1.03011   0.82258    0.000
 4102.00    1.09158   0.82773    0.000
 4103.00    1.10886   0.83630    0.000
 4104.00    1.11108   0.84611    0.000
 4105.00    1.08772   0.85829    0.000
 4106.00    1.12153   0.87006    0.000
 4107.00    1.24033   0.88125    0.000
 4108.00    1.23010   0.89468    0.000
 4109.00    1.05129   0.90680    0.000
 4110.00    0.98457   0.91655    0.000
 4111.00    1.04687   0.92577    0.000
 4112.00    1.08721   0.93482    0.000
 4113.00    1.10524   0.94323    0.026
 4114.00    1.11033   0.94949    0.026
 4115.00    1.10383   0.95238    0.026
 4116.00    1.12803   0.95546    0.026
 4117.00    1.17644   0.96053    0.026
 4118.00    1.16675   0.96257    0.027
 4119.00    1.11676   0.96221    0.027
 4120.00    0.98548   0.96152    0.027
 4121.00    0.80473   0.96136    0.026
 4122.00    0.83159   0.96345    0.026
 4123.00    0.96875   0.96263    0.026
 4124.00    1.10133   0.95938    0.027
 4125.00    1.23181   0.95954    0.027
 4126.00    1.35325   0.95953    0.027
 4127.00    1.47111   0.96099    0.028
 4128.00    1.26748   0.96291    0.027
 4129.00    0.95504   0.96061    0.027
 4130.00    0.80698   0.96294    0.027
 4131.00    0.70568   0.96576    0.026
 4132.00    0.82297   0.96731    0.026
 4133.00    0.99158   0.97186    0.027
 4134.00    1.09866   0.97104    0.027
 4135.00    1.19413   0.97099    0.027
 4136.00    1.23755   0.97394    0.027
 4137.00    1.27337   0.97488    0.027
 4138.00    1.06924   0.97647    0.027
 4139.00    0.83961   0.97508    0.027
 4140.00    0.88827   0.97200    0.027
 4141.00    0.95618   0.97157    0.027
 4142.00    1.03132   0.97254    0.027
 4143.00    1.10670   0.97207    0.027
 4144.00    1.04862   0.97047    0.027
 4145.00    0.99374   0.97003    0.027
 4146.00    1.05313   0.96884    0.027
 4147.00    1.10706   0.96967    0.027
 4148.00    1.07641   0.97089    0.026
 4149.00    1.05303   0.97107    0.026
 4150.00    1.10123   0.97408    0.026
 4151.00    1.14287   0.97561    0.026
 4152.00    1.13791   0.97818    0.026
 4153.00    1.13861   0.98108    0.026
 4154.00    1.17015   0.98330    0.026
 4155.00    1.20693   0.98822    0.026
 4156.00    1.26660   0.99064    0.025
 4157.00    1.24400   0.99324    0.025
 4158.00    0.92548   0.99508    0.025
 4159.00    0.67754   0.99542    0.025
 4160.00    0.64259   0.99751    0.025
 4161.00    0.66307   0.99582    0.025
 4162.00    0.82588   0.99402    0.025
 4163.00    1.01924   0.99249    0.025
 4164.00    1.28008   0.98639    0.025
 4165.00    1.43109   0.98220    0.025
 4166.00    1.37168   0.97873    0.025
 4167.00    1.29239   0.97384    0.025
 4168.00    1.17987   0.96960    0.025
 4169.00    1.01985   0.96278    0.025
 4170.00    0.79025   0.95739    0.024
 4171.00    0.65192   0.95577    0.024
 4172.00    0.63116   0.95462    0.024
 4173.00    0.70914   0.95340    0.024
 4174.00    0.89917   0.95206    0.025
 4175.00    0.97447   0.95166    0.025
 4176.00    0.93494   0.95334    0.025
 4177.00    0.96391   0.95820    0.025
 4178.00    1.05337   0.96095    0.025
 4179.00    1.08798   0.96123    0.025
 4180.00    1.07995   0.96539    0.025
 4181.00    0.98720   0.96974    0.024
 4182.00    0.83651   0.97472    0.025
 4183.00    0.89839   0.97764    0.025
 4184.00    1.08768   0.97605    0.024
 4185.00    1.23470   0.97945    0.025
 4186.00    1.35962   0.98404    0.025
 4187.00    1.28302   0.98363    0.025
 4188.00    1.11502   0.98150    0.025
 4189.00    0.97626   0.98091    0.025
 4190.00    0.84892   0.98199    0.024
 4191.00    0.79747   0.98112    0.024
 4192.00    0.77123   0.97791    0.024
 4193.00    0.81232   0.97456    0.024
 4194.00    0.87217   0.97449    0.024
 4195.00    0.86184   0.97441    0.025
 4196.00    0.83541   0.97228    0.024
 4197.00    0.86678   0.97493    0.025
 4198.00    0.90878   0.97653    0.025
 4199.00    0.92465   0.97595    0.025
 4200.00    0.93684   0.98145    0.025
 4201.00    0.93014   0.98538    0.025
 4202.00    0.92151   0.98850    0.024
 4203.00    1.01686   0.99498    0.025
 4204.00    1.11898   0.99802    0.025
 4205.00    0.93047   1.00368    0.025
 4206.00    0.73363   1.00966    0.025
 4207.00    0.91781   1.00948    0.025
 4208.00    1.09539   1.01336    0.025
 4209.00    1.07911   1.01795    0.025
 4210.00    1.06117   1.01853    0.025
 4211.00    1.01910   1.01935    0.025
 4212.00    0.98321   1.01579    0.025
 4213.00    1.00585   1.01295    0.025
 4214.00    1.01683   1.01400    0.025
 4215.00    0.94775   1.00973    0.025
 4216.00    0.90614   1.00288    0.025
 4217.00    1.01047   0.99895    0.025
 4218.00    1.10003   0.99461    0.025
 4219.00    1.12651   0.98804    0.025
 4220.00    1.11371   0.98282    0.025
 4221.00    0.96248   0.97771    0.024
 4222.00    0.80926   0.97333    0.024
 4223.00    0.65016   0.97069    0.025
 4224.00    0.59503   0.96602    0.025
 4225.00    0.80228   0.96728    0.025
 4226.00    1.00910   0.97253    0.025
 4227.00    1.21500   0.97245    0.024
 4228.00    1.35585   0.97612    0.024
 4229.00    1.37401   0.98097    0.024
 4230.00    1.40225   0.98310    0.024
 4231.00    1.44710   0.99051    0.024
 4232.00    1.37582   0.99634    0.024
 4233.00    1.13692   1.00094    0.023
 4234.00    1.02868   1.00931    0.023
 4235.00    1.08631   1.01397    0.023
 4236.00    1.16904   1.01707    0.023
 4237.00    1.27984   1.02203    0.023
 4238.00    1.31629   1.02686    0.023
 4239.00    1.27938   1.02820    0.023
 4240.00    1.25388   1.02856    0.023
 4241.00    1.23829   1.03215    0.023
 4242.00    1.13211   1.03259    0.023
 4243.00    0.95647   1.03014    0.023
 4244.00    0.72196   1.02693    0.023
 4245.00    0.44776   1.02563    0.024
 4246.00    0.56896   1.02773    0.024
 4247.00    0.92361   1.02252    0.024
 4248.00    1.12366   1.01814    0.024
 4249.00    1.24413   1.02078    0.025
 4250.00    1.21176   1.01966    0.025
 4251.00    1.11121   1.01824    0.024
 4252.00    1.09744   1.01718    0.024
 4253.00    1.11696   1.01857    0.024
 4254.00    0.98029   1.02424    0.024
 4255.00    0.79273   1.02392    0.023
 4256.00    0.83869   1.02330    0.023
 4257.00    0.94840   1.02578    0.023
 4258.00    0.89454   1.02663    0.023
 4259.00    0.80403   1.02963    0.023
 4260.00    0.82310   1.02911    0.023
 4261.00    0.86177   1.02651    0.023
 4262.00    1.02971   1.02839    0.023
 4263.00    1.21533   1.02568    0.024
 4264.00    1.30524   1.02054    0.024
 4265.00    1.38580   1.01788    0.024
 4266.00    1.21835   1.01395    0.024
 4267.00    1.03574   1.01304    0.023
 4268.00    0.96817   1.00828    0.023
 4269.00    0.90354   1.00164    0.022
 4270.00    0.80724   1.00493    0.023
 4271.00    0.71670   1.00319    0.023
 4272.00    0.77827   0.99910    0.023
 4273.00    0.84634   1.00275    0.023
 4274.00    1.00389   1.00190    0.023
 4275.00    1.15550   1.00291    0.023
 4276.00    1.25318   1.00422    0.023
 4277.00    1.32524   0.99969    0.023
 4278.00    1.22666   1.00128    0.023
 4279.00    1.14724   0.99973    0.023
 4280.00    1.16704   0.99422    0.024
 4281.00    1.19896   0.99486    0.024
 4282.00    1.28154   0.99013   -2.000
 4283.00    1.29201   0.98184   -2.000
 4284.00    1.05358   0.97823   -2.000
 4285.00    0.81986   0.97175   -2.000
 4286.00    0.59986   0.96293   -2.000
 4287.00    0.54680   0.95581   -2.000
 4288.00    0.90781   0.94626   -2.000
 4289.00    1.19384   0.93996   -2.000
 4290.00    1.31957   0.93505   -2.000
 4291.00    1.28728   0.92134   -2.000
 4292.00    0.96158   0.91281   -2.000
 4293.00    0.76111   0.90746   -2.000
 4294.00    0.76374   0.89530   -2.000
 4295.00    0.76130   0.88893   -2.000
 4296.00    0.75167   0.87994   -2.000
 4297.00    0.77627   0.87038   -2.000
 4298.00    0.84371   0.87100    0.024
 4299.00    0.87647   0.86489    0.024
 4300.00    0.87096   0.86042    0.024
 4301.00    0.86774   0.86485    0.024
 4302.00    0.86674   0.86518    0.024
 4303.00    0.83741   0.86965    0.024
 4304.00    0.78379   0.87723    0.023
 4305.00    0.72270   0.88437    0.023
 4306.00    0.65596   0.89757    0.023
 4307.00    0.74742   0.91089    0.023
 4308.00    0.94391   0.92413    0.023
 4309.00    0.97718   0.93951    0.023
 4310.00    0.91554   0.95483    0.023
 4311.00    0.95891   0.96847    0.023
 4312.00    1.05550   0.98021    0.023
 4313.00    1.14258   0.99508    0.023
 4314.00    1.22549   1.00595    0.023
 4315.00    1.27894   1.01153    0.023
 4316.00    1.32130   1.02054    0.023
 4317.00    1.22624   1.02510    0.023
 4318.00    1.08725   1.02616    0.023
 4319.00    1.11863   1.02797    0.023
 4320.00    1.19555   1.02546    0.024
 4321.00    1.13538   1.02574    0.023
 4322.00    1.04522   1.02376    0.023
 4323.00    1.03138   1.01633    0.023
 4324.00    1.03081   1.01515    0.023
 4325.00    1.06158   1.01299    0.023
 4326.00    1.09650   1.00515    0.023
 4327.00    1.21762   0.99855    0.024
 4328.00    1.34680   0.99186    0.024
 4329.00    1.20045   0.98492    0.024
 4330.00    1.03834   0.97671    0.000
 4331.00    1.00277   0.96657    0.000
 4332.00    0.97063   0.95992    0.000
 4333.00    0.99368   0.95459    0.000
 4334.00    1.00901   0.94420    0.000
 4335.00    0.83899   0.93656    0.000
 4336.00    0.70057   0.93559    0.000
 4337.00    0.97345   0.93104    0.000
 4338.00    1.22227   0.92872    0.000
 4339.00    1.26094   0.93555    0.000
 4340.00    1.27341   0.93976    0.000
 4341.00    1.11673   0.94314    0.000
 4342.00    0.99777   0.95276    0.000
 4343.00    1.06908   0.96293    0.000
 4344.00    1.08819   0.97306    0.000
 4345.00    0.89417   0.98265    0.000
 4346.00    0.76165   0.99393    0.000
 4347.00    0.83721   1.01033    0.000
 4348.00    0.90568   1.02058    0.000
 4349.00    0.95394   1.02730    0.000
 4350.00    1.05801   1.04329    0.000
 4351.00    1.29817   1.05770    0.024
 4352.00    1.37220   1.06479    0.024
 4353.00    1.09681   1.07451    0.024
 4354.00    0.99709   1.08714    0.024
 4355.00    1.21850   1.09748    0.024
 4356.00    1.23030   1.10280    0.024
 4357.00    0.90717   1.10832    0.023
 4358.00    0.78792   1.11864    0.023
 4359.00    0.95452   1.12557    0.023
 4360.00    1.04408   1.12637    0.024
 4361.00    1.03861   1.12825    0.024
 4362.00    1.03309   1.13172    0.024
 4363.00    1.02752   1.13226    0.024
 4364.00    0.95226   1.12799    0.024
 4365.00    0.81015   1.12434    0.023
 4366.00    0.89713   1.12354    0.023
 4367.00    1.17792   1.11939    0.024
 4368.00    1.29822   1.11190    0.024
 4369.00    1.29900   1.10532    0.023
 4370.00    1.30517   1.09992    0.023
 4371.00    1.31485   1.09337    0.023
 4372.00    1.18665   1.08498    0.023
 4373.00    0.97948   1.07753    0.023
 4374.00    1.03214   1.07180    0.023
 4375.00    1.21441   1.06611    0.023
 4376.00    1.18233   1.05873    0.023
 4377.00    1.05774   1.05047    0.023
 4378.00    1.03674   1.04598    0.023
 4379.00    1.05408   1.04283    0.024
 4380.00    0.98582   1.03756    0.023
 4381.00    0.89072   1.03398    0.023
 4382.00    0.88873   1.03531    0.023
 4383.00    0.91111   1.03876    0.023
 4384.00    0.90627   1.03927    0.022
 4385.00    0.89562   1.04079    0.022
 4386.00    0.89503   1.04634    0.022
 4387.00    0.89614   1.05104    0.022
 4388.00    0.97080   1.05511    0.022
 4389.00    1.05485   1.05921    0.023
 4390.00    1.12827   1.06519    0.023
 4391.00    1.20075   1.07191    0.022
 4392.00    0.92257   1.07402    0.022
 4393.00    0.62572   1.07790    0.022
 4394.00    0.75792   1.08190    0.022
 4395.00    0.89816   1.08144    0.022
 4396.00    1.00964   1.08513    0.022
 4397.00    1.11827   1.08653    0.023
 4398.00    1.16414   1.08311    0.023
 4399.00    1.19874   1.08610    0.023
 4400.00    1.09425   1.08883    0.023
 4401.00    0.99896   1.08668    0.023
 4402.00    0.98102   1.08732    0.023
 4403.00    0.95903   1.09118    0.023
 4404.00    0.91168   1.09520    0.022
 4405.00    0.88419   1.09578    0.022
 4406.00    0.95438   1.09746    0.023
 4407.00    1.02123   1.10588    0.023
 4408.00    1.07477   1.10907    0.023
 4409.00    1.14789   1.10806    0.022
 4410.00    1.28599   1.11533    0.022
 4411.00    1.35680   1.12061    0.022
 4412.00    1.23913   1.12111    0.022
 4413.00    1.09857   1.12570    0.022
 4414.00    0.90315   1.13019    0.022
 4415.00    0.84770   1.13349    0.022
 4416.00    1.08196   1.13497    0.022
 4417.00    1.18377   1.13632    0.022
 4418.00    1.04717   1.14057    0.022
 4419.00    0.98583   1.14057    0.022
 4420.00    1.04295   1.13962    0.022
 4421.00    1.10491   1.14144    0.022
 4422.00    1.17356   1.14272    0.022
 4423.00    1.17752   1.14366    0.022
 4424.00    1.10281   1.14090    0.022
 4425.00    1.02505   1.14163    0.021
 4426.00    0.94402   1.14482    0.021
 4427.00    0.95631   1.14082    0.022
 4428.00    1.05685   1.14100    0.022
 4429.00    1.06992   1.14319    0.022
 4430.00    1.01005   1.14174    0.022
 4431.00    1.04552   1.14475    0.022
 4432.00    1.15097   1.14510    0.022
 4433.00    1.17497   1.14581    0.022
 4434.00    1.14643   1.15104    0.022
 4435.00    1.15748   1.15031    0.022
 4436.00    1.19086   1.15177    0.022
 4437.00    1.17937   1.15607    0.022
 4438.00    1.14586   1.15462    0.022
 4439.00    1.00662   1.15797    0.022
 4440.00    0.82250   1.16114    0.022
 4441.00    0.82617   1.15703    0.022
 4442.00    0.89810   1.16009    0.022
 4443.00    1.04136   1.16237    0.022
 4444.00    1.20656   1.15532    0.021
 4445.00    1.21988   1.15450    0.022
 4446.00    1.19433   1.15397    0.022
 4447.00    1.05757   1.14702    0.022
 4448.00    0.89764   1.14306    0.021
 4449.00    1.02740   1.13723    0.021
 4450.00    1.20474   1.13182    0.021
 4451.00    1.26025   1.13015    0.021
 4452.00    1.30075   1.12191    0.021
 4453.00    1.14015   1.11649    0.021
 4454.00    0.96245   1.11896    0.021
 4455.00    0.90466   1.11343    0.021
 4456.00    0.85278   1.10882    0.021
 4457.00    0.99573   1.11497    0.021
 4458.00    1.14082   1.11576    0.021
 4459.00    1.22578   1.11497    0.021
 4460.00    1.30220   1.12168    0.021
 4461.00    1.20563   1.12708    0.000
 4462.00    1.11629   1.13248    0.000
 4463.00    1.11199   1.13879    0.000
 4464.00    1.12512   1.14519    0.000
 4465.00    1.27966   1.15518    0.000
 4466.00    1.39434   1.16218    0.000
 4467.00    1.26648   1.16804    0.000
 4468.00    1.14681   1.17856    0.000
 4469.00    1.06644   1.18473    0.000
 4470.00    1.03337   1.18857    0.000
 4471.00    1.18503   1.19673    0.000
 4472.00    1.31257   1.20176    0.000
 4473.00    1.36166   1.20352    0.000
 4474.00    1.35579   1.20696    0.000
 4475.00    1.19867   1.20894    0.000
 4476.00    1.09660   1.20937    0.000
 4477.00    1.12425   1.21145    0.000
 4478.00    1.15229   1.21243    0.000
 4479.00    1.18114   1.21171    0.000
 4480.00    1.24459   1.21247    0.000
 4481.00    1.36936   1.21248    0.000
 4482.00    1.42414   1.21091    0.021
 4483.00    1.37036   1.21080    0.021
 4484.00    1.31882   1.21055    0.021
 4485.00    1.27034   1.20988    0.021
 4486.00    1.29691   1.21199    0.021
 4487.00    1.41347   1.21323    0.021
 4488.00    1.42336   1.21261    0.021
 4489.00    1.32049   1.21566    0.020
 4490.00    1.24563   1.21939    0.020
 4491.00    1.19689   1.22244    0.020
 4492.00    1.20464   1.22740    0.020
 4493.00    1.25882   1.23292    0.021
 4494.00    1.24844   1.23934    0.021
 4495.00    1.19135   1.24371    0.021
 4496.00    1.10765   1.24921    0.021
 4497.00    1.00705   1.25903    0.021
 4498.00    1.05924   1.26449    0.021
 4499.00    1.19628   1.26884    0.021
 4500.00    1.28134   1.27623    0.021
 4501.00    1.34128   1.28038    0.021
 4502.00    1.30093   1.28305    0.021
 4503.00    1.21875   1.28579    0.021
 4504.00    1.21531   1.28830    0.021
 4505.00    1.23998   1.28938    0.021
 4506.00    1.23766   1.28679    0.021
 4507.00    1.22720   1.28614    0.020
 4508.00    1.26797   1.28401    0.020
 4509.00    1.32158   1.27802    0.020
 4510.00    1.36752   1.27556    0.020
 4511.00    1.41192   1.27038    0.021
 4512.00    1.25723   1.26343    0.020
 4513.00    1.07078   1.25849    0.020
 4514.00    1.07989   1.24989    0.020
 4515.00    1.11224   1.24448    0.020
 4516.00    1.18551   1.23688    0.020
 4517.00    1.26208   1.22526    0.020
 4518.00    1.23424   1.22121    0.020
 4519.00    1.20164   1.21253    0.020
 4520.00    1.20162   1.20132    0.020
 4521.00    1.20102   1.19733    0.020
 4522.00    1.15019   1.18838    0.020
 4523.00    1.09486   1.18114    0.020
 4524.00    0.95504   1.17881    0.020
 4525.00    0.83014   1.17222    0.020
 4526.00    0.87247   1.17021    0.020
 4527.00    0.93546   1.16975    0.020
 4528.00    1.16010   1.16753    0.020
 4529.00    1.33051   1.16922    0.020
 4530.00    1.18025   1.17092    0.020
 4531.00    1.05728   1.17487    0.020
 4532.00    1.06199   1.17862    0.020
 4533.00    1.06797   1.18112    0.020
 4534.00    1.07875   1.18734    0.020
 4535.00    1.10299   1.19001    0.020
 4536.00    1.17016   1.19294    0.020
 4537.00    1.24171   1.19938    0.020
 4538.00    1.32510   1.20043    0.020
 4539.00    1.33980   1.20260    0.020
 4540.00    1.19535   1.20529    0.020
 4541.00    1.13346   1.20515    0.020
 4542.00    1.23707   1.20866    0.020
 4543.00    1.31555   1.20691    0.020
 4544.00    1.35016   1.20573    0.020
 4545.00    1.34192   1.21151    0.020
 4546.00    1.26821   1.20890    0.020
 4547.00    1.22234   1.20865    0.020
 4548.00    1.21382   1.21472    0.020
 4549.00    1.18048   1.21303    0.020
 4550.00    1.11781   1.21584    0.000
 4551.00    1.13645   1.22221    0.000
 4552.00    1.23985   1.22278    0.000
 4553.00    1.32246   1.22810    0.000
 4554.00    1.38594   1.23251    0.000
 4555.00    1.39513   1.23477    0.000
 4556.00    1.36031   1.24150    0.000
 4557.00    1.35457   1.24369    0.000
 4558.00    1.36958   1.24727    0.000
 4559.00    1.32634   1.25269    0.000
 4560.00    1.24664   1.25296    0.000
 4561.00    1.20879   1.25848    0.000
 4562.00    1.19382   1.26057    0.000
 4563.00    1.27625   1.25819    0.000
 4564.00    1.40499   1.26506    0.000
 4565.00    1.46232   1.26429    0.000
 4566.00    1.49036   1.25990    0.000
 4567.00    1.33194   1.26602    0.000
 4568.00    1.10817   1.26332    0.000
 4569.00    1.15184   1.25867    0.000
 4570.00    1.27455   1.26195    0.000
 4571.00    1.31319   1.25688    0.000
 4572.00    1.33123   1.25313    0.000
 4573.00    1.18283   1.25445    0.000
 4574.00    1.00145   1.24789    0.000
 4575.00    1.06290   1.24522    0.000
 4576.00    1.16193   1.24580    0.000
 4577.00    1.18676   1.23920    0.000
 4578.00    1.20311   1.23799    0.000
 4579.00    1.26126   1.23869    0.000
 4580.00    1.32262   1.23323    0.000
 4581.00    1.22821   1.23372    0.000
 4582.00    1.12731   1.23456    0.000
 4583.00    1.14597   1.23024    0.000
 4584.00    1.16469   1.23233    0.000
 4585.00    1.14182   1.23334    0.000
 4586.00    1.12087   1.22994    0.000
 4587.00    1.13351   1.23320    0.000
 4588.00    1.15369   1.23369    0.000
 4589.00    1.25449   1.23130    0.000
 4590.00    1.32794   1.23593    0.000
 4591.00    1.19476   1.23565    0.000
 4592.00    1.06357   1.23434    0.000
 4593.00    0.94385   1.24009    0.000
 4594.00    0.86267   1.24038    0.000
 4595.00    0.95754   1.24110    0.000
 4596.00    1.02154   1.24699    0.000
 4597.00    0.97003   1.24874    0.000
 4598.00    0.96666   1.25175    0.000
 4599.00    1.11386   1.25801    0.000
 4600.00    1.23679   1.26223    0.000
 4601.00    1.29527   1.26598    0.000
 4602.00    1.31885   1.27143    0.000
 4603.00    1.26289   1.27759    0.000
 4604.00    1.21807   1.28044    0.000
 4605.00    1.19521   1.28543    0.000
 4606.00    1.21089   1.29312    0.000
 4607.00    1.29284   1.29329    0.000
 4608.00    1.33883   1.29731    0.000
 4609.00    1.33070   1.30535    0.000
 4610.00    1.25645   1.30253    0.000
 4611.00    1.09473   1.30528    0.000
 4612.00    1.00609   1.31285    0.000
 4613.00    1.00263   1.30838    0.000
 4614.00    1.07379   1.30973    0.000
 4615.00    1.22166   1.31561    0.000
 4616.00    1.28440   1.31089    0.000
 4617.00    1.26998   1.31069    0.000
 4618.00    1.23680   1.31409    0.000
 4619.00    1.18863   1.31051    0.000
 4620.00    1.22495   1.30897    0.000
 4621.00    1.32066   1.30911    0.000
 4622.00    1.30992   1.30633    0.000
 4623.00    1.23356   1.30414    0.000
 4624.00    1.17010   1.30166    0.000
 4625.00    1.11358   1.29801    0.000
 4626.00    1.12304   1.29525    0.000
 4627.00    1.16338   1.29190    0.000
 4628.00    1.20337   1.28649    0.000
 4629.00    1.24322   1.28312    0.000
 4630.00    1.31686   1.28003    0.000
 4631.00    1.40212   1.27276    0.000
 4632.00    1.33807   1.26919    0.000
 4633.00    1.23078   1.26700    0.000
 4634.00    1.23078   1.25859    0.000
 4635.00    1.25648   1.25525    0.000
 4636.00    1.22747   1.25377    0.000
 4637.00    1.18790   1.24580    0.000
 4638.00    1.16911   1.24394    0.000
 4639.00    1.15344   1.24281    0.000
 4640.00    1.21096   1.23668    0.000
 4641.00    1.27653   1.23739    0.000
 4642.00    1.31375   1.23635    0.000
 4643.00    1.34890   1.23272    0.000
 4644.00    1.20058   1.23612    0.000
 4645.00    1.04532   1.23534    0.000
 4646.00    1.08251   1.23460    0.000
 4647.00    1.11911   1.24011    0.000
 4648.00    1.09759   1.23943    0.000
 4649.00    1.08121   1.24034    0.000
 4650.00    1.14870   1.24609    0.000
 4651.00    1.21229   1.24469    0.000
 4652.00    1.23594   1.24559    0.000
 4653.00    1.24414   1.25020    0.000
 4654.00    1.13946   1.24745    0.000
 4655.00    1.05808   1.24629    0.000
 4656.00    1.10687   1.24851    0.000
 4657.00    1.15933   1.24472    0.000
 4658.00    1.22820   1.24175    0.000
 4659.00    1.27539   1.24206    0.000
 4660.00    1.24322   1.23764    0.000
 4661.00    1.20309   1.23392    0.000
 4662.00    1.13856   1.23383    0.000
 4663.00    1.07246   1.23010    0.000
 4664.00    1.00228   1.22762    0.000
 4665.00    0.98803   1.22886    0.000
 4666.00    1.09912   1.22648    0.000
 4667.00    1.12718   1.22601    0.000
 4668.00    0.99398   1.22927    0.000
 4669.00    0.94282   1.22840    0.000
 4670.00    1.03057   1.22953    0.000
 4671.00    1.09565   1.23422    0.000
 4672.00    1.12709   1.23416    0.000
 4673.00    1.17405   1.23566    0.000
 4674.00    1.24126   1.24071    0.000
 4675.00    1.22155   1.24078    0.000
 4676.00    1.10196   1.24161    0.000
 4677.00    1.06391   1.24620    0.000
 4678.00    1.10850   1.24623    0.000
 4679.00    1.14500   1.24617    0.000
 4680.00    1.17425   1.24992    0.000
 4681.00    1.18897   1.24993    0.000
 4682.00    1.19223   1.24917    0.000
 4683.00    1.24962   1.25174    0.000
 4684.00    1.34448   1.25145    0.000
 4685.00    1.31595   1.25023    0.000
 4686.00    1.21249   1.25151    0.000
 4687.00    1.14650   1.25066    0.000
 4688.00    1.10040   1.24875    0.000
 4689.00    1.08553   1.24852    0.000
 4690.00    1.08505   1.24704    0.000
 4691.00    1.12209   1.24437    0.000
 4692.00    1.17399   1.24276    0.000
 4693.00    1.17000   1.24092    0.000
 4694.00    1.14713   1.23770    0.000
 4695.00    1.12490   1.23554    0.000
 4696.00    1.10285   1.23407    0.000
 4697.00    1.13168   1.23094    0.000
 4698.00    1.17243   1.22952    0.000
 4699.00    1.19114   1.22939    0.000
 4700.00    1.20571   1.22724    0.000
 4701.00    1.16265   1.22776    0.000
 4702.00    1.11122   1.22965    0.000
 4703.00    1.13096   1.22926    0.000
 4704.00    1.15824   1.23239    0.000
 4705.00    1.22162   1.23629    0.000
 4706.00    1.28749   1.23782    0.000
 4707.00    1.26798   1.24335    0.000
 4708.00    1.24557   1.24862    0.000
 4709.00    1.09280   1.25146    0.000
 4710.00    0.94783   1.25815    0.000
 4711.00    1.06303   1.26368    0.000
 4712.00    1.17018   1.26664    0.000
 4713.00    1.15382   1.27261    0.000
 4714.00    1.14137   1.27721    0.000
 4715.00    1.16722   1.27884    0.000
 4716.00    1.19096   1.28234    0.000
 4717.00    1.19980   1.28523    0.000
 4718.00    1.20618   1.28454    0.000
 4719.00    1.19920   1.28476    0.000
 4720.00    1.19331   1.28615    0.000
 4721.00    1.19212   1.28321    0.000
 4722.00    1.19452   1.28075    0.000
 4723.00    1.20978   1.28183    0.000
 4724.00    1.23747   1.27775    0.000
 4725.00    1.30257   1.27430    0.000
 4726.00    1.33384   1.27655    0.000
 4727.00    1.27840   1.27288    0.000
 4728.00    1.29169   1.27030    0.000
 4729.00    1.45649   1.27463    0.000
 4730.00    1.53149   1.27239    0.000
 4731.00    1.43480   1.27176    0.000
 4732.00    1.33653   1.27792    0.000
 4733.00    1.23563   1.27715    0.000
 4734.00    1.19840   1.27850    0.000
 4735.00    1.25429   1.28530    0.000
 4736.00    1.22776   1.28525    0.000
 4737.00    1.09528   1.28773    0.000
 4738.00    1.00641   1.29373    0.000
 4739.00    0.96694   1.29341    0.000
 4740.00    0.96367   1.29580    0.000
 4741.00    0.99657   1.29986    0.000
 4742.00    1.06071   1.29855    0.000
 4743.00    1.15238   1.29977    0.000
 4744.00    1.26389   1.30131    0.000
 4745.00    1.39079   1.29880    0.000
 4746.00    1.37905   1.29825    0.000
 4747.00    1.27268   1.29721    0.000
 4748.00    1.23489   1.29379    0.000
 4749.00    1.23811   1.29155    0.000
 4750.00    1.22710   1.28834    0.000
 4751.00    1.20865   1.28467    0.000
 4752.00    1.13501   1.28141    0.000
 4753.00    1.03637   1.27689    0.000
 4754.00    1.09219   1.27376    0.000
 4755.00    1.20815   1.27061    0.000
 4756.00    1.25402   1.26594    0.000
 4757.00    1.27667   1.26417    0.000
 4758.00    1.25366   1.26233    0.000
 4759.00    1.21796   1.25882    0.000
 4760.00    1.16207   1.25899    0.000
 4761.00    1.10157   1.25921    0.018
 4762.00    1.11271   1.25785    0.018
 4763.00    1.13697   1.26007    0.018
 4764.00    1.25419   1.26227    0.019
 4765.00    1.38449   1.26311    0.019
 4766.00    1.30622   1.26687    0.019
 4767.00    1.20679   1.27002    0.019
 4768.00    1.17089   1.27209    0.018
 4769.00    1.13910   1.27642    0.018
 4770.00    1.30829   1.27910    0.018
 4771.00    1.48320   1.28075    0.018
 4772.00    1.47906   1.28482    0.018
 4773.00    1.46969   1.28613    0.018
 4774.00    1.30875   1.28595    0.018
 4775.00    1.16291   1.28946    0.018
 4776.00    1.23528   1.28962    0.018
 4777.00    1.30545   1.28722    0.018
 4778.00    1.35476   1.29054    0.018
 4779.00    1.37706   1.29070    0.018
 4780.00    1.21443   1.28685    0.018
 4781.00    1.08556   1.29053    0.017
 4782.00    1.13553   1.29196    0.017
 4783.00    1.18916   1.28797    0.017
 4784.00    1.25835   1.29221    0.017
 4785.00    1.29974   1.29537    0.017
 4786.00    1.24348   1.29221    0.017
 4787.00    1.22344   1.29651    0.017
 4788.00    1.31039   1.30082    0.017
 4789.00    1.37407   1.29863    0.017
 4790.00    1.37911   1.30209    0.018
 4791.00    1.34189   1.30639    0.018
 4792.00    1.21304   1.30467    0.018
 4793.00    1.17243   1.30653    0.018
 4794.00    1.29790   1.30997    0.018
 4795.00    1.36087   1.30819    0.018
 4796.00    1.32113   1.30833    0.018
 4797.00    1.24746   1.31079    0.018
 4798.00    1.12491   1.30893    0.018
 4799.00    1.10344   1.30787    0.018
 4800.00    1.21008   1.30989    0.018
 4801.00    1.26709   1.30839    0.018
 4802.00    1.26865   1.30690    0.018
 4803.00    1.26280   1.30909    0.018
 4804.00    1.24964   1.30849    0.018
 4805.00    1.24402   1.30709    0.018
 4806.00    1.24495   1.30966    0.018
 4807.00    1.31497   1.31006    0.018
 4808.00    1.43787   1.30871    0.018
 4809.00    1.42106   1.31130    0.018
 4810.00    1.31027   1.31226    0.018
 4811.00    1.29962   1.31039    0.018
 4812.00    1.34798   1.31236    0.018
 4813.00    1.40575   1.31314    0.018
 4814.00    1.46835   1.31010    0.018
 4815.00    1.50515   1.31097    0.018
 4816.00    1.53046   1.31100    0.018
 4817.00    1.43969   1.30660    0.018
 4818.00    1.30451   1.30638    0.018
 4819.00    1.19042   1.30560    0.018
 4820.00    1.08318   1.30024    0.018
 4821.00    1.12126   1.29935    0.018
 4822.00    1.19891   1.29808    0.018
 4823.00    1.16298   1.29252    0.018
 4824.00    1.10167   1.29140    0.018
 4825.00    1.10857   1.29004    0.018
 4826.00    1.12762   1.28491    0.018
 4827.00    1.29287   1.28359    0.018
 4828.00    1.47804   1.28235    0.018
 4829.00    1.33577   1.27798    0.018
 4830.00    1.16168   1.27608    0.018
 4831.00    1.21944   1.27475    0.018
 4832.00    1.29125   1.27121    0.017
 4833.00    1.25175   1.26814    0.017
 4834.00    1.20949   1.26622    0.017
 4835.00    1.20362   1.26331    0.017
 4836.00    1.19797   1.25850    0.017
 4837.00    1.19828   1.25519    0.017
 4838.00    1.19971   1.25241    0.017
 4839.00    1.21629   1.24532    0.017
 4840.00    1.23514   1.23969    0.017
 4841.00    1.27446   1.23630    0.017
 4842.00    1.30961   1.22641    0.017
 4843.00    1.31707   1.21756    0.017
 4844.00    1.30322   1.21293    0.017
 4845.00    1.17940   1.20016    0.017
 4846.00    1.09347   1.18762    0.017
 4847.00    1.16527   1.18175    0.017
 4848.00    1.23248   1.16712    0.000
 4849.00    1.28385   1.15150    0.000
 4850.00    1.29109   1.14535    0.000
 4851.00    1.17037   1.13130    0.000
 4852.00    1.11206   1.11459    0.000
 4853.00    1.20820   1.10988    0.000
 4854.00    1.30940   1.09974    0.000
 4855.00    1.42138   1.08493    0.000
 4856.00    1.51962   1.08327    0.000
 4857.00    1.59237   1.07989    0.000
 4858.00    1.63510   1.06983    0.000
 4859.00    1.62925   1.07175    0.000
 4860.00    1.56536   1.07605    0.000
 4861.00    1.41906   1.07250    0.000
 4862.00    1.30121   1.07708    0.000
 4863.00    1.21893   1.08750    0.000
 4864.00    1.16485   1.09060    0.000
 4865.00    1.14183   1.09620    0.000
 4866.00    1.13257   1.10934    0.000
 4867.00    1.13668   1.11791    0.000
 4868.00    1.12285   1.12322    0.000
 4869.00    1.09365   1.13531    0.000
 4870.00    1.07020   1.14718    0.000
 4871.00    1.05108   1.15184    0.000
 4872.00    1.06069   1.16012    0.000
 4873.00    1.08934   1.17275    0.000
 4874.00    1.16615   1.17721    0.000
 4875.00    1.27090   1.18072    0.017
 4876.00    1.28736   1.19191    0.017
 4877.00    1.25915   1.19700    0.017
 4878.00    1.20450   1.19672    0.017
 4879.00    1.13828   1.20545    0.017
 4880.00    1.13491   1.21203    0.017
 4881.00    1.15516   1.21020    0.017
 4882.00    1.21151   1.21677    0.017
 4883.00    1.27937   1.22551    0.017
 4884.00    1.28208   1.22442    0.017
 4885.00    1.26743   1.22972    0.017
 4886.00    1.31191   1.24065    0.018
 4887.00    1.36929   1.24148    0.018
 4888.00    1.31684   1.24602    0.018
 4889.00    1.24536   1.25819    0.018
 4890.00    1.30144   1.26071    0.018
 4891.00    1.37431   1.26400    0.018
 4892.00    1.36431   1.27568    0.018
 4893.00    1.34660   1.27873    0.018
 4894.00    1.31542   1.27977    0.018
 4895.00    1.28348   1.28906    0.017
 4896.00    1.36338   1.29152    0.018
 4897.00    1.44353   1.28980    0.018
 4898.00    1.27178   1.29527    0.018
 4899.00    1.11357   1.29657    0.017
 4900.00    1.27677   1.29252    0.018
 4901.00    1.43082   1.29368    0.018
 4902.00    1.46652   1.29357    0.018
 4903.00    1.48695   1.28837    0.018
 4904.00    1.37447   1.28579    0.018
 4905.00    1.28005   1.28398    0.017
 4906.00    1.30182   1.27888    0.017
 4907.00    1.31555   1.27410    0.017
 4908.00    1.28879   1.27049    0.018
 4909.00    1.26473   1.26629    0.018
 4910.00    1.25159   1.26157    0.018
 4911.00    1.20272   1.25674    0.018
 4912.00    1.03325   1.25371    0.018
 4913.00    0.95659   1.25147    0.017
 4914.00    1.14420   1.24684    0.018
 4915.00    1.24525   1.24494    0.018
 4916.00    1.13572   1.24683    0.018
 4917.00    1.10251   1.24415    0.018
 4918.00    1.22948   1.24294    0.017
 4919.00    1.29888   1.24900    0.017
 4920.00    1.26324   1.24928    0.017
 4921.00    1.24423   1.24801    0.017
 4922.00    1.25175   1.25656    0.017
 4923.00    1.24249   1.25958    0.017
 4924.00    1.20972   1.25748    0.017
 4925.00    1.23110   1.26616    0.017
 4926.00    1.31917   1.27079    0.017
 4927.00    1.37142   1.26763    0.017
 4928.00    1.38479   1.27483    0.017
 4929.00    1.38170   1.28007    0.017
 4930.00    1.36285   1.27641    0.017
 4931.00    1.32302   1.28208    0.017
 4932.00    1.26545   1.28759    0.017
 4933.00    1.26101   1.28437    0.017
 4934.00    1.29608   1.28942    0.017
 4935.00    1.32351   1.29525    0.017
 4936.00    1.34595   1.29294    0.017
 4937.00    1.34654   1.29795    0.017
 4938.00    1.33464   1.30400    0.017
 4939.00    1.35637   1.30228    0.017
 4940.00    1.39484   1.30674    0.000
 4941.00    1.29425   1.31201    0.000
 4942.00    1.13379   1.30996    0.000
 4943.00    1.25272   1.31294    0.000
 4944.00    1.47480   1.31612    0.000
 4945.00    1.46323   1.31284    0.000
 4946.00    1.37856   1.31385    0.000
 4947.00    1.39565   1.31447    0.000
 4948.00    1.43928   1.30956    0.000
 4949.00    1.39924   1.30889    0.000
 4950.00    1.34138   1.30793    0.000
 4951.00    1.32345   1.30191    0.000
 4952.00    1.31225   1.30020    0.000
 4953.00    1.33313   1.29942    0.000
 4954.00    1.35809   1.29355    0.000
 4955.00    1.37205   1.29139    0.000
 4956.00    1.38504   1.29188    0.000
 4957.00    1.29549   1.28750    0.000
 4958.00    1.20053   1.28536    0.000
 4959.00    1.25974   1.28686    0.000
 4960.00    1.32185   1.28432    0.000
 4961.00    1.37974   1.28261    0.000
 4962.00    1.43274   1.28401    0.000
 4963.00    1.37941   1.28232    0.000
 4964.00    1.32915   1.28103    0.000
 4965.00    1.31665   1.28139    0.000
 4966.00    1.30829   1.27901    0.000
 4967.00    1.33460   1.27752    0.000
 4968.00    1.35165   1.27671    0.000
 4969.00    1.31090   1.27242    0.000
 4970.00    1.27906   1.26980    0.000
 4971.00    1.29085   1.26841    0.000
 4972.00    1.31194   1.26224    0.000
 4973.00    1.37010   1.25805    0.000
 4974.00    1.39438   1.25700    0.000
 4975.00    1.30658   1.25028    0.000
 4976.00    1.25574   1.24523    0.000
 4977.00    1.30819   1.24532    0.000
 4978.00    1.33821   1.23980    0.000
 4979.00    1.31458   1.23531    0.000
 4980.00    1.27744   1.23671    0.000
 4981.00    1.21240   1.23341    0.000
 4982.00    1.18284   1.23067    0.000
 4983.00    1.21704   1.23280    0.000
 4984.00    1.23688   1.23119    0.000
 4985.00    1.23417   1.23025    0.000
 4986.00    1.22302   1.23225    0.000
 4987.00    1.20024   1.23079    0.000
 4988.00    1.16547   1.23054    0.000
 4989.00    1.11616   1.23165    0.000
 4990.00    1.17257   1.22847    0.000
 4991.00    1.34215   1.22731    0.000
 4992.00    1.38693   1.22773    0.000
 4993.00    1.31389   1.22243    0.000
 4994.00    1.31142   1.21925    0.000
 4995.00    1.36769   1.21905    0.000
 4996.00    1.35937   1.21202    0.000
 4997.00    1.30370   1.20700    0.000
 4998.00    1.21756   1.20667    0.000
 4999.00    1.11183   1.19923    0.000
 5000.00    1.16265   1.19346    0.000
 5001.00    1.30162   1.19338    0.000
 5002.00    1.35650   1.18659    0.000
 5003.00    1.37017   1.18108    0.000
 5004.00    1.28884   1.18169    0.000
 5005.00    1.16727   1.17651    0.000
 5006.00    1.24223   1.17190    0.000
 5007.00    1.38845   1.17351    0.000
 5008.00    1.36538   1.17059    0.000
 5009.00    1.29038   1.16728    0.000
 5010.00    1.25797   1.17039    0.000
 5011.00    1.23644   1.16973    0.000
 5012.00    1.16974   1.16773    0.000
 5013.00    1.09367   1.17302    0.000
 5014.00    1.10468   1.17462    0.000
 5015.00    1.12996   1.17347    0.000
 5016.00    1.09967   1.18065    0.000
 5017.00    1.06256   1.18464    0.000
 5018.00    1.11165   1.18419    0.000
 5019.00    1.16803   1.19136    0.000
 5020.00    1.24638   1.19698    0.000
 5021.00    1.32581   1.19758    0.000
 5022.00    1.26676   1.20261    0.000
 5023.00    1.20746   1.20781    0.000
 5024.00    1.26328   1.20933    0.000
 5025.00    1.31048   1.21122    0.000
 5026.00    1.18467   1.21493    0.000
 5027.00    1.07693   1.21694    0.000
 5028.00    1.18021   1.21497    0.000
 5029.00    1.27260   1.21650    0.017
 5030.00    1.27707   1.21973    0.017
 5031.00    1.28285   1.21595    0.017
 5032.00    1.29659   1.21480    0.017
 5033.00    1.29899   1.21872    0.016
 5034.00    1.24711   1.21606    0.016
 5035.00    1.20071   1.21288    0.016
 5036.00    1.17557   1.21656    0.016
 5037.00    1.14616   1.21751    0.016
 5038.00    1.10286   1.21455    0.016
 5039.00    1.09774   1.21775    0.016
 5040.00    1.19741   1.22265    0.016
 5041.00    1.30087   1.22136    0.016
 5042.00    1.41320   1.22410    0.016
 5043.00    1.46491   1.23143    0.016
 5044.00    1.39340   1.23228    0.016
 5045.00    1.30310   1.23451    0.016
 5046.00    1.17955   1.24207    0.016
 5047.00    1.13530   1.24515    0.016
 5048.00    1.21381   1.24708    0.016
 5049.00    1.25563   1.25258    0.016
 5050.00    1.24757   1.25694    0.016
 5051.00    1.23819   1.25829    0.016
 5052.00    1.22723   1.25997    0.016
 5053.00    1.26576   1.26447    0.016
 5054.00    1.35653   1.26582    0.016
 5055.00    1.40833   1.26314    0.016
 5056.00    1.42386   1.26520    0.016
 5057.00    1.43153   1.26713    0.016
 5058.00    1.43274   1.26188    0.016
 5059.00    1.34648   1.25921    0.016
 5060.00    1.19703   1.26115    0.016
 5061.00    1.20344   1.25644    0.016
 5062.00    1.30867   1.24925    0.016
 5063.00    1.33468   1.24928    0.016
 5064.00    1.31677   1.24705    0.016
 5065.00    1.26717   1.23829    0.016
 5066.00    1.20229   1.23485    0.016
 5067.00    1.16461   1.23435    0.016
 5068.00    1.13825   1.22776    0.016
 5069.00    1.17918   1.22199    0.016
 5070.00    1.24408   1.22139    0.016
 5071.00    1.30708   1.21858    0.016
 5072.00    1.36950   1.21352    0.016
 5073.00    1.34229   1.21230    0.016
 5074.00    1.29269   1.21246    0.016
 5075.00    1.18514   1.20994    0.016
 5076.00    1.06584   1.20907    0.016
 5077.00    1.12423   1.21125    0.016
 5078.00    1.21087   1.21153    0.016
 5079.00    1.18698   1.21158    0.016
 5080.00    1.15002   1.21466    0.016
 5081.00    1.14809   1.21726    0.016
 5082.00    1.14898   1.21819    0.016
 5083.00    1.15821   1.22078    0.016
 5084.00    1.16782   1.22444    0.016
 5085.00    1.15148   1.22570    0.016
 5086.00    1.13716   1.22635    0.016
 5087.00    1.23914   1.22918    0.016
 5088.00    1.32916   1.23039    0.016
 5089.00    1.19660   1.22907    0.016
 5090.00    1.08588   1.22990    0.016
 5091.00    1.21835   1.23091    0.016
 5092.00    1.33264   1.22946    0.016
 5093.00    1.30524   1.22822    0.016
 5094.00    1.27438   1.22696    0.016
 5095.00    1.22314   1.22605    0.016
 5096.00    1.18342   1.22514    0.016
 5097.00    1.19745   1.22193    0.016
 5098.00    1.20162   1.22175    0.016
 5099.00    1.16822   1.22272    0.016
 5100.00    1.16046   1.21884    0.016
 5101.00    1.23426   1.21937    0.016
 5102.00    1.27238   1.22260    0.016
 5103.00    1.21427   1.21944    0.016
 5104.00    1.19415   1.21990    0.016
 5105.00    1.26187   1.22423    0.016
 5106.00    1.28753   1.22252    0.016
 5107.00    1.22904   1.22209    0.016
 5108.00    1.18751   1.22652    0.016
 5109.00    1.17552   1.22653    0.016
 5110.00    1.16323   1.22348    0.016
 5111.00    1.15048   1.22589    0.016
 5112.00    1.17269   1.22764    0.016
 5113.00    1.24176   1.22201    0.016
 5114.00    1.31349   1.22078    0.016
 5115.00    1.38836   1.22345    0.016
 5116.00    1.40543   1.21762    0.016
 5117.00    1.36236   1.21333    0.016
 5118.00    1.34519   1.21525    0.016
 5119.00    1.35181   1.21049    0.016
 5120.00    1.34213   1.20428    0.016
 5121.00    1.31928   1.20538    0.016
 5122.00    1.28557   1.20368    0.016
 5123.00    1.24415   1.19653    0.016
 5124.00    1.19614   1.19611    0.016
 5125.00    1.14402   1.19851    0.015
 5126.00    1.08445   1.19148    0.015
 5127.00    1.02081   1.18929    0.016
 5128.00    1.02428   1.19479    0.016
 5129.00    1.05957   1.18769    0.015
 5130.00    1.14727   1.18438    0.015
 5131.00    1.25643   1.19272    0.015
 5132.00    1.31397   1.18604    0.015
 5133.00    1.35347   1.18032    0.015
 5134.00    1.28835   1.18952    0.015
 5135.00    1.19240   1.18559    0.015
 5136.00    1.11187   1.17767    0.015
 5137.00    1.03512   1.18452    0.015
 5138.00    1.12006   1.18443    0.015
 5139.00    1.23694   1.17671    0.015
 5140.00    1.25663   1.18011    0.016
 5141.00    1.26133   1.18291    0.016
 5142.00    1.18282   1.17679    0.016
 5143.00    1.09484   1.17731    0.015
 5144.00    1.11710   1.18145    0.015
 5145.00    1.14778   1.17718    0.015
 5146.00    1.21246   1.17586    0.016
 5147.00    1.27854   1.18051    0.016
 5148.00    1.27839   1.17775    0.016
 5149.00    1.27725   1.17334    0.016
 5150.00    1.25700   1.17601    0.016
 5151.00    1.23619   1.17444    0.016
 5152.00    1.20570   1.16677    0.016
 5153.00    1.18215   1.16474    0.016
 5154.00    1.23252   1.16274    0.016
 5155.00    1.27492   1.15298    0.016
 5156.00    1.25727   1.14537    0.016
 5157.00    1.25049   1.14121    0.016
 5158.00    1.30589   1.13075    0.016
 5159.00    1.33896   1.11898    0.016
 5160.00    1.27027   1.11406    0.016
 5161.00    1.20865   1.10600    0.016
 5162.00    1.17337   1.09163    0.016
 5163.00    1.14823   1.08631    0.016
 5164.00    1.15473   1.08453    0.016
 5165.00    1.14597   1.07243    0.016
 5166.00    1.09681   1.06517    0.016
 5167.00    1.05101   1.06850    0.016
 5168.00    1.01283   1.06485    0.016
 5169.00    0.99136   1.05824    0.016
 5170.00    1.00276   1.06166    0.016
 5171.00    1.01674   1.06552    0.016
 5172.00    1.03515   1.06253    0.016
 5173.00    1.06627   1.06327    0.016
 5174.00    1.11650   1.07068    0.016
 5175.00    1.16140   1.07347    0.016
 5176.00    1.19927   1.07382    0.016
 5177.00    1.23914   1.08183    0.016
 5178.00    1.28134   1.08699    0.016
 5179.00    1.23965   1.08778    0.016
 5180.00    1.11192   1.09761    0.015
 5181.00    1.11008   1.10355    0.015
 5182.00    1.22216   1.10240    0.015
 5183.00    1.27986   1.11258    0.015
 5184.00    1.29419   1.12012    0.015
 5185.00    1.26837   1.11655    0.015
 5186.00    1.21438   1.12479    0.015
 5187.00    1.17108   1.13596    0.015
 5188.00    1.13436   1.13214    0.015
 5189.00    1.12102   1.13538    0.015
 5190.00    1.12023   1.14826    0.000
 5191.00    1.17908   1.14613    0.000
 5192.00    1.26575   1.14456    0.000
 5193.00    1.26011   1.15795    0.000
 5194.00    1.21733   1.15756    0.000
 5195.00    1.26355   1.14838    0.000
 5196.00    1.34032   1.15924    0.000
 5197.00    1.28114   1.16477    0.000
 5198.00    1.18269   1.15165    0.000
 5199.00    1.12840   1.15601    0.000
 5200.00    1.08467   1.16778    0.000
 5201.00    1.07440   1.15886    0.000
 5202.00    1.07057   1.15732    0.000
 5203.00    1.03799   1.16955    0.000
 5204.00    1.00111   1.16811    0.000
 5205.00    1.03609   1.16487    0.000
 5206.00    1.07893   1.17423    0.000
 5207.00    1.06233   1.17840    0.000
 5208.00    1.04144   1.17554    0.000
 5209.00    1.06045   1.18123    0.000
 5210.00    1.08096   1.18773    0.000
 5211.00    1.15184   1.18790    0.015
 5212.00    1.22359   1.19152    0.015
 5213.00    1.31828   1.19606    0.015
 5214.00    1.40129   1.19768    0.015
 5215.00    1.29483   1.20096    0.015
 5216.00    1.19450   1.20160    0.015
 5217.00    1.15664   1.20150    0.015
 5218.00    1.13316   1.20675    0.015
 5219.00    1.21440   1.20567    0.016
 5220.00    1.27613   1.20111    0.016
 5221.00    1.22917   1.20897    0.016
 5222.00    1.18419   1.21184    0.016
 5223.00    1.14803   1.20497    0.016
 5224.00    1.12440   1.21236    0.016
 5225.00    1.14655   1.21933    0.016
 5226.00    1.14547   1.21275    0.016
 5227.00    1.07329   1.21659    0.016
 5228.00    1.03988   1.22751    0.016
 5229.00    1.10737   1.22619    0.016
 5230.00    1.16771   1.22590    0.016
 5231.00    1.21207   1.23768    0.016
 5232.00    1.24638   1.24091    0.016
 5233.00    1.26119   1.23646    0.016
 5234.00    1.27008   1.24644    0.016
 5235.00    1.26894   1.25398    0.016
 5236.00    1.27752   1.24784    0.016
 5237.00    1.30049   1.25127    0.016
 5238.00    1.29777   1.26040    0.016
 5239.00    1.26158   1.25604    0.016
 5240.00    1.25130   1.25052    0.016
 5241.00    1.27072   1.25727    0.015
 5242.00    1.26591   1.25868    0.015
 5243.00    1.23660   1.24948    0.015
 5244.00    1.18388   1.24980    0.015
 5245.00    1.11029   1.25243    0.015
 5246.00    1.12166   1.24486    0.015
 5247.00    1.19982   1.24090    0.015
 5248.00    1.26206   1.24033    0.015
 5249.00    1.31332   1.23381    0.015
 5250.00    1.31843   1.22838    0.015
 5251.00    1.29558   1.22716    0.015
 5252.00    1.28650   1.21987    0.015
 5253.00    1.28472   1.21041    0.015
 5254.00    1.27618   1.20834    0.015
 5255.00    1.26453   1.20064    0.015
 5256.00    1.21599   1.18841    0.015
 5257.00    1.15287   1.18750    0.015
 5258.00    1.16228   1.18196    0.015
 5259.00    1.19613   1.16669    0.015
 5260.00    1.18121   1.16752    0.015
 5261.00    1.15250   1.17134    0.015
 5262.00    1.16934   1.15545    0.015
 5263.00    1.19681   1.14975    0.015
 5264.00    1.21216   1.16328    0.015
 5265.00    1.22524   1.15946    0.015
 5266.00    1.19597   1.15045    0.016
 5267.00    1.16057   1.16463    0.016
 5268.00    1.12696   1.17143    0.016
 5269.00    1.09354   1.16461    0.016
 5270.00    1.09191   1.17764    0.016
 5271.00    1.09245   1.19400    0.016
 5272.00    1.10305   1.19285    0.016
 5273.00    1.11400   1.19918    0.016
 5274.00    1.15866   1.21707    0.016
 5275.00    1.20386   1.22423    0.016
 5276.00    1.26554   1.22673    0.016
 5277.00    1.32050   1.23882    0.016
 5278.00    1.27320   1.25097    0.016
 5279.00    1.23216   1.25651    0.015
 5280.00    1.25215   1.26277    0.016
 5281.00    1.26246   1.27025    0.016
 5282.00    1.20463   1.27663    0.016
 5283.00    1.18011   1.28119    0.015
 5284.00    1.33614   1.28439    0.016
 5285.00    1.44709   1.28932    0.016
 5286.00    1.36213   1.29186    0.016
 5287.00    1.29130   1.29108    0.016
 5288.00    1.27099   1.29441    0.016
 5289.00    1.26757   1.29808    0.016
 5290.00    1.31487   1.29475    0.016
 5291.00    1.33249   1.29301    0.016
 5292.00    1.27420   1.29878    0.016
 5293.00    1.25259   1.29993    0.016
 5294.00    1.31169   1.29562    0.016
 5295.00    1.32216   1.29853    0.016
 5296.00    1.23987   1.30258    0.016
 5297.00    1.17633   1.30103    0.016
 5298.00    1.14401   1.30303    0.016
 5299.00    1.15133   1.30734    0.015
 5300.00    1.21650   1.30650    0.015
 5301.00    1.25336   1.30731    0.015
 5302.00    1.25389   1.31267    0.015
 5303.00    1.30012   1.31331    0.015
 5304.00    1.39805   1.31197    0.015
 5305.00    1.39456   1.31545    0.015
 5306.00    1.28995   1.31568    0.015
 5307.00    1.25444   1.31244    0.015
 5308.00    1.27972   1.31359    0.015
 5309.00    1.30646   1.31223    0.015
 5310.00    1.33434   1.30577    0.015
 5311.00    1.35354   1.30313    0.015
 5312.00    1.36683   1.30189    0.015
 5313.00    1.36144   1.29492    0.015
 5314.00    1.34490   1.28788    0.015
 5315.00    1.30986   1.28626    0.015
 5316.00    1.26518   1.28117    0.015
 5317.00    1.26526   1.27067    0.015
 5318.00    1.28557   1.26691    0.015
 5319.00    1.31334   1.26642    0.015
 5320.00    1.34401   1.25769    0.014
 5321.00    1.33461   1.24930    0.014
 5322.00    1.31196   1.25072    0.014
 5323.00    1.24055   1.24966    0.014
 5324.00    1.15561   1.24304    0.014
 5325.00    1.20424   1.24352    0.014
 5326.00    1.28334   1.24609    0.014
 5327.00    1.24091   1.24421    0.015
 5328.00    1.17630   1.24509    0.015
 5329.00    1.15769   1.24845    0.015
 5330.00    1.14553   1.24958    0.014
 5331.00    1.23564   1.25134    0.015
 5332.00    1.33607   1.25498    0.015
 5333.00    1.29517   1.25704    0.015
 5334.00    1.24520   1.26100    0.015
 5335.00    1.27444   1.26619    0.015
 5336.00    1.30604   1.26741    0.014
 5337.00    1.33739   1.27283    0.015
 5338.00    1.36743   1.27950    0.015
 5339.00    1.36011   1.27967    0.015
 5340.00    1.35105   1.28447    0.015
 5341.00    1.31706   1.29217    0.015
 5342.00    1.28753   1.29306    0.015
 5343.00    1.29980   1.29585    0.015
 5344.00    1.31415   1.30442    0.015
 5345.00    1.34269   1.30814    0.015
 5346.00    1.35726   1.30868    0.015
 5347.00    1.29811   1.31605    0.015
 5348.00    1.24743   1.32125    0.015
 5349.00    1.23276   1.32020    0.015
 5350.00    1.22996   1.32435    0.015
 5351.00    1.26877   1.32867    0.015
 5352.00    1.29048   1.32705    0.015
 5353.00    1.26178   1.32703    0.015
 5354.00    1.26447   1.32863    0.015
 5355.00    1.34601   1.32703    0.015
 5356.00    1.40297   1.32444    0.015
 5357.00    1.40677   1.32230    0.015
 5358.00    1.38789   1.31986    0.015
 5359.00    1.32641   1.31776    0.015
 5360.00    1.26996   1.31365    0.014
 5361.00    1.22173   1.31010    0.014
 5362.00    1.22701   1.30909    0.014
 5363.00    1.30924   1.30467    0.014
 5364.00    1.34257   1.29989    0.014
 5365.00    1.31402   1.30040    0.014
 5366.00    1.28430   1.29968    0.014
 5367.00    1.25327   1.29545    0.014
 5368.00    1.25650   1.29674   -2.000
 5369.00    1.29341   1.29925   -2.000
 5370.00    1.28551   1.29626   -2.000
 5371.00    1.23874   1.29817   -2.000
 5372.00    1.21006   1.30177   -2.000
 5373.00    1.19518   1.29830   -2.000
 5374.00    1.17788   1.29870   -2.000
 5375.00    1.15894   1.30331   -2.000
 5376.00    1.22082   1.30051   -2.000
 5377.00    1.33023   1.29869   -2.000
 5378.00    1.29502   1.30347   -2.000
 5379.00    1.18564   1.30018   -2.000
 5380.00    1.18808   1.29395   -2.000
 5381.00    1.24019   1.29791   -2.000
 5382.00    1.32141   1.29583   -2.000
 5383.00    1.41375   1.28459    0.014
 5384.00    1.39608   1.28472    0.014
 5385.00    1.34274   1.28661    0.014
 5386.00    1.35780   1.27463    0.014
 5387.00    1.39145   1.26850    0.014
 5388.00    1.38417   1.27342    0.014
 5389.00    1.36777   1.26533    0.014
 5390.00    1.37502   1.25232    0.014
 5391.00    1.38647   1.25566    0.014
 5392.00    1.34347   1.25504    0.014
 5393.00    1.29308   1.24129    0.014
 5394.00    1.23430   1.24023    0.014
 5395.00    1.17471   1.24586    0.014
 5396.00    1.17034   1.23692    0.014
 5397.00    1.16929   1.23052    0.014
 5398.00    1.20842   1.23750    0.014
 5399.00    1.24850   1.23640    0.014
 5400.00    1.27441   1.22887    0.014
 5401.00    1.29822   1.23357    0.014
 5402.00    1.26797   1.23895    0.014
 5403.00    1.24079   1.23567    0.014
 5404.00    1.25517   1.23908    0.014
 5405.00    1.26644   1.24709    0.014
 5406.00    1.24963   1.24683    0.014
 5407.00    1.23368   1.24786    0.014
 5408.00    1.22338   1.25629    0.014
 5409.00    1.21587   1.26042    0.014
 5410.00    1.22273   1.26057    0.014
 5411.00    1.23871   1.26652    0.014
 5412.00    1.29258   1.27254    0.014
 5413.00    1.32480   1.27329    0.014
 5414.00    1.28268   1.27623    0.014
 5415.00    1.25051   1.28010    0.014
 5416.00    1.24711   1.28022    0.014
 5417.00    1.25350   1.28125    0.014
 5418.00    1.28404   1.28356    0.014
 5419.00    1.32559   1.28349    0.014
 5420.00    1.39058   1.28334    0.014
 5421.00    1.42357   1.28431    0.014
 5422.00    1.39737   1.28194    0.014
 5423.00    1.36052   1.28138    0.014
 5424.00    1.30647   1.28517    0.014
 5425.00    1.27303   1.28200    0.014
 5426.00    1.26881   1.27826    0.014
 5427.00    1.26431   1.28302    0.013
 5428.00    1.25945   1.28422    0.013
 5429.00    1.25635   1.28014    0.013
 5430.00    1.25518   1.28268    0.014
 5431.00    1.26121   1.28769    0.014
 5432.00    1.27424   1.28308    0.014
 5433.00    1.28656   1.28120    0.014
 5434.00    1.29829   1.28970    0.014
 5435.00    1.29922   1.29048    0.014
 5436.00    1.29202   1.28635    0.014
 5437.00    1.29277   1.28946    0.014
 5438.00    1.29879   1.29207    0.014
 5439.00    1.32419   1.28891    0.014
 5440.00    1.36081   1.28806    0.014
 5441.00    1.37828   1.29029    0.014
 5442.00    1.38609   1.28708    0.014
 5443.00    1.36413   1.28479    0.014
 5444.00    1.32916   1.28752    0.014
 5445.00    1.33310   1.28622    0.014
 5446.00    1.35162   1.28355    0.014
 5447.00    1.32886   1.28412    0.014
 5448.00    1.29297   1.28145    0.014
 5449.00    1.31581   1.27664    0.014
 5450.00    1.35427   1.27857    0.014
 5451.00    1.32322   1.27948    0.014
 5452.00    1.27705   1.27358    0.014
 5453.00    1.28429   1.27489    0.014
 5454.00    1.30076   1.28060    0.014
 5455.00    1.35509   1.27510    0.014
 5456.00    1.41438   1.26909    0.014
 5457.00    1.37478   1.27605    0.014
 5458.00    1.32605   1.27639    0.014
 5459.00    1.33811   1.26456    0.014
 5460.00    1.35359   1.26777    0.014
 5461.00    1.40448   1.27778    0.013
 5462.00    1.45555   1.26782    0.013
 5463.00    1.44299   1.25923    0.013
 5464.00    1.42927   1.27039    0.013
 5465.00    1.38861   1.27044    0.013
 5466.00    1.35005   1.25438    0.013
 5467.00    1.33832   1.25774    0.013
 5468.00    1.32463   1.26893    0.013
 5469.00    1.29392   1.25619    0.013
 5470.00    1.26943   1.24839    0.013
 5471.00    1.28480   1.26289    0.013
 5472.00    1.29244   1.26120    0.013
 5473.00    1.26137   1.24586    0.013
 5474.00    1.25096   1.25363    0.013
 5475.00    1.32437   1.26554    0.013
 5476.00    1.38809   1.25380    0.013
 5477.00    1.41923   1.24985    0.013
 5478.00    1.44933   1.26540   -2.000
 5479.00    1.47650   1.26342   -2.000
 5480.00    1.49227   1.25338   -2.000
 5481.00    1.48038   1.26514   -2.000
 5482.00    1.49280   1.27358   -2.000
 5483.00    1.55616   1.26252   -2.000
 5484.00    1.56226   1.26357   -2.000
 5485.00    1.46410   1.27674   -2.000
 5486.00    1.32014   1.27183   -2.000
 5487.00    1.10327   1.26602   -2.000
 5488.00    0.97448   1.27723   -2.000
 5489.00    0.96876   1.27871   -2.000
 5490.00    0.99435   1.26822   -2.000
 5491.00    1.05844   1.27194   -2.000
 5492.00    1.08292   1.27910   -2.000
 5493.00    1.06449   1.27127   -2.000
 5494.00    1.15266   1.26796   -2.000
 5495.00    1.34273   1.27472   -2.000
 5496.00    1.43080   1.27257   -2.000
 5497.00    1.43289   1.26632   -2.000
 5498.00    1.43120   1.26790   -2.000
 5499.00    1.42668   1.26889   -2.000
 5500.00    1.38899   1.26536   -2.000
 5501.00    1.32966   1.26490   -2.000
 5502.00    1.34340   1.26500    0.013
 5503.00    1.39884   1.26392    0.013
 5504.00    1.39040   1.26535    0.013
 5505.00    1.35023   1.26505    0.013
 5506.00    1.35953   1.26359    0.013
 5507.00    1.39009   1.26609    0.013
 5508.00    1.39178   1.26793    0.013
 5509.00    1.38283   1.26578    0.013
 5510.00    1.35064   1.26666    0.013
 5511.00    1.31121   1.27190    0.013
 5512.00    1.31424   1.27292    0.013
 5513.00    1.32832   1.27121    0.013
 5514.00    1.32021   1.27388    0.013
 5515.00    1.30737   1.27735    0.013
 5516.00    1.24535   1.27668    0.013
 5517.00    1.17507   1.27509    0.013
 5518.00    1.26171   1.27837    0.013
 5519.00    1.36821   1.28217    0.013
 5520.00    1.39881   1.27997    0.013
 5521.00    1.42271   1.27833    0.013
 5522.00    1.36878   1.28301    0.013
 5523.00    1.31078   1.28425    0.013
 5524.00    1.31561   1.27854    0.013
 5525.00    1.32158   1.28037    0.013
 5526.00    1.32416   1.28780    0.013
 5527.00    1.32479   1.28609    0.013
 5528.00    1.28363   1.28218    0.013
 5529.00    1.25036   1.28787    0.013
 5530.00    1.31336   1.29195    0.013
 5531.00    1.37529   1.28669    0.013
 5532.00    1.42826   1.28799    0.013
 5533.00    1.45933   1.29657    0.013
 5534.00    1.35421   1.29721    0.013
 5535.00    1.27504   1.29402    0.013
 5536.00    1.32268   1.29852    0.013
 5537.00    1.36365   1.30450    0.013
 5538.00    1.37817   1.30245    0.013
 5539.00    1.37586   1.30118    0.015
 5540.00    1.31801   1.30676    0.035
 5541.00    1.27901   1.30957   -1.000
 5542.00    1.29255   1.30663   -1.000
 5543.00    1.30966   1.30720   -1.000
 5544.00    1.33530   1.31185   -1.000
 5545.00    1.36733   1.31148   -1.000
 5546.00    1.41253   1.30818   -1.000
 5547.00    1.43222   1.30902    0.073
 5548.00    1.40617   1.31030    0.019
 5549.00    1.38682   1.30763    0.013
 5550.00    1.37798   1.30545    0.013
 5551.00    1.37532   1.30495    0.013
 5552.00    1.38115   1.30371    0.013
 5553.00    1.37936   1.30249    0.013
 5554.00    1.36835   1.29948    0.013
 5555.00    1.31911   1.29569    0.013
 5556.00    1.22902   1.29562    0.013
 5557.00    1.19793   1.29523    0.012
 5558.00    1.22244   1.28859    0.013
 5559.00    1.23390   1.28591    0.013
 5560.00    1.23452   1.29079    0.013
 5561.00    1.22049   1.28620    0.012
 5562.00    1.19576   1.27772    0.012
 5563.00    1.21180   1.28244    0.012
 5564.00    1.25404   1.28554    0.013
 5565.00    1.25830   1.27518    0.013
 5566.00    1.24122   1.27344    0.012
 5567.00    1.24815   1.28259    0.012
 5568.00    1.26682   1.27667    0.012
 5569.00    1.28189   1.26734    0.012
 5570.00    1.29543   1.27449    0.013
 5571.00    1.31515   1.27666    0.013
 5572.00    1.33711   1.26614    0.013
 5573.00    1.35019   1.26589    0.013
 5574.00    1.36055   1.27186    0.013
 5575.00    1.36284   1.26454    0.013
 5576.00    1.36307   1.25718    0.013
 5577.00    1.35979   1.26104    0.013
 5578.00    1.35579   1.25995    0.013
 5579.00    1.29746   1.25254    0.013
 5580.00    1.23027   1.25139    0.013
 5581.00    1.23245   1.25291    0.013
 5582.00    1.24311   1.24825    0.013
 5583.00    1.26417   1.24229    0.013
 5584.00    1.28611   1.24253    0.013
 5585.00    1.21655   1.24437    0.013
 5586.00    1.14256   1.24238    0.013
 5587.00    1.17142   1.23953    0.013
 5588.00    1.20178   1.24195    0.013
 5589.00    1.22945   1.24461    0.013
 5590.00    1.25481   1.24024    0.013
 5591.00    1.23409   1.23979    0.013
 5592.00    1.21701   1.24778    0.013
 5593.00    1.24205   1.25100    0.013
 5594.00    1.26428   1.24782    0.013
 5595.00    1.26392   1.25243    0.013
 5596.00    1.25680   1.25985    0.013
 5597.00    1.20884   1.25716    0.013
 5598.00    1.17215   1.25693    0.013
 5599.00    1.18914   1.26583    0.013
 5600.00    1.20017   1.26987    0.013
 5601.00    1.18801   1.26741    0.013
 5602.00    1.18160   1.27202    0.013
 5603.00    1.19378   1.27733    0.013
 5604.00    1.21780   1.27271    0.013
 5605.00    1.27423   1.27196    0.013
 5606.00    1.30828   1.27826    0.013
 5607.00    1.28981   1.27849    0.013
 5608.00    1.28045   1.27499    0.012
 5609.00    1.28957   1.27802    0.012
 5610.00    1.28460   1.27946    0.012
 5611.00    1.25475   1.27293    0.012
 5612.00    1.21318   1.27152    0.012
 5613.00    1.15350   1.27501    0.012
 5614.00    1.13043   1.27339    0.012
 5615.00    1.15706   1.27115    0.012
 5616.00    1.19553   1.27239    0.012
 5617.00    1.24815   1.27222    0.012
 5618.00    1.28723   1.27014    0.012
 5619.00    1.31205   1.27029    0.012
 5620.00    1.33176   1.27022    0.012
 5621.00    1.34672   1.27005    0.013
 5622.00    1.30105   1.27220    0.013
 5623.00    1.20571   1.27201    0.013
 5624.00    1.17506   1.27110    0.013
 5625.00    1.19104   1.27359    0.013
 5626.00    1.22225   1.27427    0.013
 5627.00    1.26309   1.27189    0.013
 5628.00    1.32403   1.27337    0.013
 5629.00    1.39611   1.27618    0.013
 5630.00    1.39722   1.27368    0.013
 5631.00    1.36419   1.27313    0.013
 5632.00    1.32981   1.27631    0.013
 5633.00    1.29486   1.27465    0.013
 5634.00    1.26568   1.27234    0.013
 5635.00    1.23854   1.27546    0.012
 5636.00    1.26084   1.27595    0.012
 5637.00    1.29796   1.27152    0.013
 5638.00    1.29565   1.27282    0.012
 5639.00    1.28352   1.27532    0.012
 5640.00    1.28173   1.27080    0.012
 5641.00    1.28202   1.26995    0.012
 5642.00    1.25675   1.27490    0.012
 5643.00    1.22742   1.27208    0.012
 5644.00    1.26042   1.26578    0.012
 5645.00    1.30075   1.27007    0.012
 5646.00    1.32583   1.27229    0.012
 5647.00    1.34968   1.26327    0.012
 5648.00    1.32168   1.26268    0.012
 5649.00    1.29136   1.27113    0.012
 5650.00    1.30037   1.26630    0.012
 5651.00    1.30979   1.25671    0.012
 5652.00    1.31811   1.26330    0.012
 5653.00    1.32488   1.26848    0.012
 5654.00    1.30332   1.25814    0.012
 5655.00    1.27967   1.25662    0.012
 5656.00    1.23304   1.26760    0.012
 5657.00    1.19236   1.26607    0.012
 5658.00    1.19785   1.25808    0.012
 5659.00    1.20470   1.26421    0.012
 5660.00    1.21951   1.27120    0.012
 5661.00    1.22979   1.26688    0.012
 5662.00    1.21896   1.26781    0.012
 5663.00    1.20547   1.27557    0.012
 5664.00    1.18187   1.27563    0.012
 5665.00    1.17140   1.27427    0.012
 5666.00    1.20259   1.28001    0.012
 5667.00    1.23394   1.28275    0.013
 5668.00    1.26575   1.28143    0.012
 5669.00    1.28231   1.28584    0.012
 5670.00    1.26370   1.28962    0.012
 5671.00    1.26183   1.28568    0.012
 5672.00    1.29339   1.28572    0.012
 5673.00    1.31085   1.29174    0.012
 5674.00    1.30382   1.29137    0.012
 5675.00    1.30536   1.28725    0.013
 5676.00    1.31998   1.28957    0.013
 5677.00    1.34118   1.29268    0.013
 5678.00    1.37119   1.28828    0.013
 5679.00    1.37004   1.28534    0.013
 5680.00    1.33217   1.28844    0.013
 5681.00    1.30837   1.29030    0.012
 5682.00    1.29918   1.28702    0.012
 5683.00    1.28451   1.28374    0.012
 5684.00    1.26481   1.28504    0.012
 5685.00    1.28202   1.28593    0.012
 5686.00    1.32903   1.28297    0.012
 5687.00    1.35286   1.27968    0.012
 5688.00    1.36024   1.28243    0.012
 5689.00    1.35309   1.28354    0.012
 5690.00    1.33690   1.27641    0.012
 5691.00    1.35432   1.27282    0.012
 5692.00    1.39005   1.27707    0.012
 5693.00    1.43511   1.27608    0.012
 5694.00    1.48459   1.26751    0.012
 5695.00    1.44783   1.26768    0.013
 5696.00    1.37585   1.27155    0.013
 5697.00    1.31986   1.26454    0.013
 5698.00    1.26944   1.25821    0.013
 5699.00    1.26640   1.26321    0.013
 5700.00    1.27728   1.26481    0.013
 5701.00    1.29843   1.25724    0.013
 5702.00    1.32209   1.25745    0.013
 5703.00    1.29803   1.26332    0.013
 5704.00    1.26459   1.26073    0.012
 5705.00    1.25977   1.25752    0.013
 5706.00    1.25935   1.26415    0.013
 5707.00    1.28199   1.26894    0.012
 5708.00    1.30724   1.26683    0.012
 5709.00    1.33634   1.26991    0.012
 5710.00    1.36574   1.27737    0.012
 5711.00    1.37668   1.28003    0.012
 5712.00    1.38686   1.28075    0.012
 5713.00    1.30725   1.28646    0.012
 5714.00    1.22963   1.29270    0.012
 5715.00    1.26275   1.29492    0.012
 5716.00    1.29498   1.29657    0.012
 5717.00    1.31175   1.30170    0.012
 5718.00    1.32354   1.30745    0.012
 5719.00    1.28264   1.30866    0.012
 5720.00    1.24685   1.30864    0.012
 5721.00    1.24949   1.31315    0.012
 5722.00    1.25310   1.31730    0.012
 5723.00    1.26221   1.31510    0.012
 5724.00    1.27680   1.31528    0.012
 5725.00    1.31632   1.32103    0.012
 5726.00    1.35121   1.32210    0.012
 5727.00    1.36885   1.31795    0.012
 5728.00    1.38125   1.31897    0.012
 5729.00    1.37732   1.32306    0.012
 5730.00    1.35852   1.32126    0.012
 5731.00    1.30046   1.31910    0.012
 5732.00    1.25565   1.32107    0.012
 5733.00    1.24090   1.32158    0.012
 5734.00    1.24800   1.31917    0.012
 5735.00    1.29803   1.31865    0.012
 5736.00    1.34693   1.31959    0.012
 5737.00    1.39392   1.31842    0.012
 5738.00    1.41590   1.31726    0.012
 5739.00    1.40039   1.31631    0.013
 5740.00    1.36275   1.31493    0.000
 5741.00    1.29593   1.31464    0.000
 5742.00    1.26384   1.31503    0.000
 5743.00    1.27207   1.31301    0.000
 5744.00    1.28220   1.31013    0.000
 5745.00    1.29428   1.31053    0.000
 5746.00    1.32264   1.31088    0.000
 5747.00    1.36570   1.30901    0.000
 5748.00    1.38420   1.30791    0.000
 5749.00    1.38314   1.30878    0.000
 5750.00    1.38017   1.30742    0.000
 5751.00    1.37586   1.30492    0.000
 5752.00    1.37035   1.30601    0.000
 5753.00    1.36411   1.30847    0.000
 5754.00    1.35915   1.30789    0.000
 5755.00    1.35489   1.30591    0.000
 5756.00    1.32839   1.30693    0.000
 5757.00    1.29153   1.30793    0.000
 5758.00    1.28395   1.30642    0.000
 5759.00    1.28811   1.30579    0.000
 5760.00    1.29023   1.30869    0.000
 5761.00    1.29166   1.30983    0.000
 5762.00    1.31519   1.30711    0.000
 5763.00    1.34510   1.30604    0.000
 5764.00    1.38540   1.30751    0.000
 5765.00    1.42817   1.30636    0.000
 5766.00    1.44111   1.30234    0.000
 5767.00    1.44832   1.30223    0.000
 5768.00    1.42814   1.30367    0.000
 5769.00    1.40387   1.30043    0.000
 5770.00    1.37536   1.29500    0.000
 5771.00    1.34638   1.29464    0.000
 5772.00    1.33372   1.29546    0.000
 5773.00    1.32224   1.29060    0.000
 5774.00    1.34787   1.28676    0.000
 5775.00    1.37486   1.28809    0.000
 5776.00    1.39474   1.28679    0.000
 5777.00    1.41410   1.28090    0.000
 5778.00    1.41623   1.28029    0.000
 5779.00    1.41463   1.28398    0.000
 5780.00    1.35306   1.28288    0.000
 5781.00    1.29743   1.28007    0.000
 5782.00    1.30191   1.28169    0.000
 5783.00    1.30487   1.28400    0.000
 5784.00    1.29681   1.28443    0.000
 5785.00    1.29197   1.28664    0.000
 5786.00    1.30497   1.28927    0.000
 5787.00    1.29827   1.29119    0.000
 5788.00    1.20418   1.29438    0.000
 5789.00    1.11119   1.29642    0.000
 5790.00    1.02222   1.29775    0.000
 5791.00    0.96280   1.30290   -2.000
 5792.00    0.99364   1.30832   -2.000
 5793.00    1.04983   1.30716   -2.000
 5794.00    1.17183   1.30684   -2.000
 5795.00    1.26758   1.31386   -2.000
 5796.00    1.30475   1.31739   -2.000
 5797.00    1.33996   1.31473   -2.000
 5798.00    1.37139   1.31759   -2.000
 5799.00    1.37595   1.32394   -2.000
 5800.00    1.33516   1.32198   -2.000
 5801.00    1.30208   1.31829   -2.000
 5802.00    1.28039   1.32346   -2.000
 5803.00    1.27407   1.32865   -2.000
 5804.00    1.28770   1.32538   -2.000
 5805.00    1.32811   1.32391   -2.000
 5806.00    1.39917   1.32916   -2.000
 5807.00    1.41821   1.33044   -2.000
 5808.00    1.38470   1.32640   -2.000
 5809.00    1.36206   1.32785   -2.000
 5810.00    1.34909   1.33370   -2.000
 5811.00    1.35142   1.33302    0.000
 5812.00    1.36574   1.32924    0.000
 5813.00    1.36154   1.33232    0.000
 5814.00    1.34458   1.33752    0.000
 5815.00    1.33636   1.33580    0.000
 5816.00    1.33345   1.33380    0.000
 5817.00    1.33771   1.33833    0.000
 5818.00    1.34578   1.34105    0.000
 5819.00    1.37181   1.33733    0.000
 5820.00    1.40609   1.33681    0.000
 5821.00    1.42767   1.34272    0.000
 5822.00    1.44424   1.34382    0.000
 5823.00    1.45946   1.33923    0.000
 5824.00    1.47423   1.34007    0.000
 5825.00    1.45823   1.34493    0.000
 5826.00    1.43354   1.34318    0.000
 5827.00    1.41336   1.33878    0.000
 5828.00    1.39423   1.34165    0.000
 5829.00    1.40913   1.34469    0.000
 5830.00    1.43040   1.33986    0.000
 5831.00    1.40749   1.33618    0.000
 5832.00    1.37820   1.33982    0.000
 5833.00    1.35277   1.34032    0.000
 5834.00    1.32774   1.33401    0.000
 5835.00    1.33590   1.33209    0.000
 5836.00    1.34631   1.33482    0.000
 5837.00    1.37690   1.33170    0.000
 5838.00    1.40816   1.32476    0.000
 5839.00    1.39002   1.32413    0.000
 5840.00    1.37208   1.32543    0.000
 5841.00    1.36170   1.32000    0.000
 5842.00    1.35126   1.31360    0.000
 5843.00    1.33978   1.31305    0.000
 5844.00    1.32940   1.31232    0.000
 5845.00    1.32956   1.30612    0.000
 5846.00    1.33010   1.30204    0.000
 5847.00    1.33327   1.30225    0.000
 5848.00    1.33893   1.29969    0.000
 5849.00    1.35809   1.29345    0.000
 5850.00    1.37260   1.29114    0.000
 5851.00    1.36698   1.29231    0.000
 5852.00    1.35982   1.29024    0.000
 5853.00    1.34713   1.28676    0.000
 5854.00    1.33510   1.28570    0.000
 5855.00    1.32503   1.28628    0.000
 5856.00    1.31947   1.28567    0.000
 5857.00    1.32544   1.28534    0.000
 5858.00    1.32434   1.28489    0.000
 5859.00    1.30775   1.28490    0.000
 5860.00    1.29236   1.28574    0.000
 5861.00    1.27924   1.28541    0.000
 5862.00    1.27904   1.28452    0.000
 5863.00    1.30029   1.28519    0.000
 5864.00    1.32542   1.28604    0.000
 5865.00    1.35621   1.28294    0.000
 5866.00    1.37432   1.28059    0.000
 5867.00    1.37618   1.28143    0.000
 5868.00    1.38831   1.27959    0.000
 5869.00    1.41205   1.27321    0.000
 5870.00    1.41913   1.26842    0.000
 5871.00    1.40965   1.26612    0.000
 5872.00    1.40695   1.26070    0.000
 5873.00    1.41022   1.25292    0.000
 5874.00    1.40337   1.24586    0.000
 5875.00    1.38869   1.23906    0.000
 5876.00    1.38256   1.22994    0.000
 5877.00    1.38224   1.21981    0.000
 5878.00    1.37370   1.21249    0.000
 5879.00    1.36027   1.20671    0.000
 5880.00    1.29868   1.19609    0.000
 5881.00    1.21205   1.18162    0.000
 5882.00    1.17629   1.17414    0.000
 5883.00    1.16345   1.17250    0.000
 5884.00    1.14225   1.16442    0.000
 5885.00    1.11781   1.15370    0.000
 5886.00    1.10077   1.15189    0.000
 5887.00    1.08617   1.15038    0.000
 5888.00    1.08905   1.14201    0.000
 5889.00    1.09677   1.14253    0.000
 5890.00    1.09912   1.15196    0.000
 5891.00    1.10025   1.15035    0.000
 5892.00    1.11836   1.14375    0.000
 5893.00    1.13955   1.15262    0.000
 5894.00    1.15621   1.16541    0.000
 5895.00    1.17224   1.16610    0.000
 5896.00    1.20595   1.16995    0.000
 5897.00    1.24143   1.18385    0.000
 5898.00    1.23301   1.19039    0.000
 5899.00    1.22180   1.19078    0.000
 5900.00    1.18547   1.20264    0.000
 5901.00    1.14856   1.21660    0.011
 5902.00    1.16512   1.21857    0.011
 5903.00    1.18179   1.22109    0.011
 5904.00    1.20150   1.23300    0.011
 5905.00    1.22258   1.24085    0.011
 5906.00    1.26331   1.24089    0.012
 5907.00    1.30099   1.24603    0.012
 5908.00    1.31028   1.25447    0.012
 5909.00    1.31717   1.25686    0.011
 5910.00    1.30762   1.25643    0.012
 5911.00    1.29784   1.26095    0.012
 5912.00    1.28686   1.26623    0.012
 5913.00    1.27788   1.26701    0.012
 5914.00    1.27740   1.26672    0.012
 5915.00    1.27198   1.26915    0.012
 5916.00    1.24927   1.27246    0.012
 5917.00    1.23340   1.27289    0.012
 5918.00    1.23762   1.27203    0.012
 5919.00    1.24883   1.27328    0.012
 5920.00    1.27755   1.27675    0.012
 5921.00    1.30827   1.27684    0.012
 5922.00    1.34333   1.27377    0.012
 5923.00    1.36652   1.27540    0.012
 5924.00    1.36749   1.28046    0.012
 5925.00    1.35364   1.27949    0.011
 5926.00    1.31553   1.27466    0.011
 5927.00    1.29928   1.27727    0.011
 5928.00    1.31443   1.28292    0.011
 5929.00    1.32344   1.27999    0.011
 5930.00    1.32470   1.27536    0.011
 5931.00    1.30948   1.28031    0.011
 5932.00    1.27592   1.28456    0.011
 5933.00    1.24861   1.27838    0.011
 5934.00    1.22744   1.27564    0.011
 5935.00    1.22061   1.28315    0.011
 5936.00    1.22621   1.28481    0.011
 5937.00    1.24381   1.27690    0.011
 5938.00    1.27056   1.27701    0.011
 5939.00    1.27615   1.28498    0.011
 5940.00    1.26755   1.28301    0.012
 5941.00    1.28111   1.27530    0.012
 5942.00    1.30768   1.27919    0.012
 5943.00    1.31462   1.28641    0.012
 5944.00    1.31153   1.28114    0.011
 5945.00    1.30012   1.27495    0.011
 5946.00    1.28503   1.28149    0.012
 5947.00    1.27600   1.28691    0.011
 5948.00    1.26927   1.28100    0.011
 5949.00    1.27857   1.27798    0.011
 5950.00    1.29306   1.28467    0.011
 5951.00    1.30033   1.28742    0.012
 5952.00    1.30565   1.28302    0.012
 5953.00    1.30350   1.28346    0.012
 5954.00    1.29969   1.28906    0.012
 5955.00    1.31770   1.28982    0.012
 5956.00    1.33957   1.28713    0.011
 5957.00    1.35326   1.28866    0.011
 5958.00    1.36585   1.29232    0.011
 5959.00    1.33539   1.29311    0.011
 5960.00    1.30080   1.29168    0.011
 5961.00    1.26548   1.29217    0.011
 5962.00    1.23013   1.29441    0.011
 5963.00    1.23871   1.29554    0.011
 5964.00    1.24837   1.29377    0.011
 5965.00    1.25354   1.29262    0.011
 5966.00    1.25764   1.29441    0.011
 5967.00    1.23437   1.29506    0.011
 5968.00    1.21325   1.29170    0.011
 5969.00    1.22115   1.28978    0.011
 5970.00    1.22941   1.29203    0.011
 5971.00    1.24098   1.29151    0.011
 5972.00    1.25398   1.28706    0.011
 5973.00    1.27636   1.28610    0.011
 5974.00    1.29204   1.28914    0.011
 5975.00    1.27343   1.28666    0.011
 5976.00    1.25869   1.28095    0.011
 5977.00    1.26004   1.28226    0.011
 5978.00    1.26494   1.28626    0.011
 5979.00    1.28206   1.28206    0.011
 5980.00    1.29094   1.27704    0.011
 5981.00    1.27603   1.28081    0.011
 5982.00    1.26126   1.28415    0.011
 5983.00    1.24685   1.27870    0.011
 5984.00    1.23525   1.27538    0.011
 5985.00    1.22962   1.28053    0.011
 5986.00    1.23893   1.28208    0.011
 5987.00    1.27586   1.27683    0.011
 5988.00    1.30706   1.27599    0.011
 5989.00    1.32904   1.28005    0.011
 5990.00    1.33770   1.27860    0.011
 5991.00    1.32752   1.27432    0.011
 5992.00    1.31926   1.27579    0.011
 5993.00    1.31341   1.27847    0.011
 5994.00    1.30888   1.27510    0.011
 5995.00    1.30581   1.27172    0.011
 5996.00    1.30003   1.27333    0.011
 5997.00    1.29163   1.27382    0.011
 5998.00    1.27353   1.27152    0.011
 5999.00    1.24715   1.27024    0.011
 6000.00    1.23040   1.26856    0.011
 6001.00    1.22088   1.26648    0.011
 6002.00    1.23254   1.26811    0.011
 6003.00    1.25819   1.26962    0.011
 6004.00    1.27551   1.26525    0.011
 6005.00    1.28802   1.26135    0.011
 6006.00    1.28676   1.26542    0.011
 6007.00    1.27857   1.26815    0.011
 6008.00    1.28138   1.26252    0.011
 6009.00    1.28900   1.26066    0.011
 6010.00    1.28380   1.26715    0.011
 6011.00    1.27382   1.26778    0.011
 6012.00    1.26361   1.26156    0.011
 6013.00    1.25334   1.26440    0.011
 6014.00    1.26538   1.27231    0.011
 6015.00    1.28333   1.27012    0.012
 6016.00    1.26990   1.26524    0.011
 6017.00    1.24965   1.27243    0.011
 6018.00    1.25624   1.27986    0.011
 6019.00    1.26745   1.27573    0.011
 6020.00    1.25173   1.27426    0.011
 6021.00    1.23249   1.28333    0.011
 6022.00    1.22875   1.28804    0.011
 6023.00    1.22643   1.28400    0.011
 6024.00    1.25571   1.28635    0.011
 6025.00    1.28675   1.29483    0.011
 6026.00    1.28033   1.29632    0.011
 6027.00    1.27317   1.29386    0.011
 6028.00    1.27520   1.29850    0.011
 6029.00    1.27694   1.30431    0.011
 6030.00    1.27204   1.30352    0.011
 6031.00    1.26681   1.30338    0.011
 6032.00    1.25741   1.30834    0.011
 6033.00    1.24967   1.31073    0.011
 6034.00    1.25614   1.30870    0.011
 6035.00    1.26310   1.31062    0.011
 6036.00    1.27326   1.31455    0.011
 6037.00    1.28231   1.31376    0.011
 6038.00    1.28577   1.31216    0.011
 6039.00    1.28532   1.31493    0.011
 6040.00    1.26899   1.31652    0.011
 6041.00    1.25910   1.31373    0.011
 6042.00    1.27084   1.31326    0.011
 6043.00    1.28549   1.31599    0.012
 6044.00    1.30836   1.31533    0.011
 6045.00    1.33182   1.31176    0.011
 6046.00    1.35670   1.31208    0.011
 6047.00    1.37524   1.31436    0.011
 6048.00    1.38056   1.31243    0.011
 6049.00    1.36657   1.30890    0.011
 6050.00    1.31752   1.30958    0.011
 6051.00    1.28768   1.31172    0.011
 6052.00    1.28837   1.30983    0.011
 6053.00    1.29072   1.30647    0.011
 6054.00    1.29538   1.30702    0.011
 6055.00    1.29980   1.30948    0.011
 6056.00    1.30392   1.30828    0.011
 6057.00    1.30142   1.30495    0.011
 6058.00    1.29176   1.30540    0.011
 6059.00    1.26949   1.30849    0.011
 6060.00    1.23519   1.30815    0.011
 6061.00    1.22185   1.30551    0.011
 6062.00    1.22615   1.30557    0.011
 6063.00    1.25193   1.30782    0.011
 6064.00    1.29363   1.30800    0.011
 6065.00    1.31324   1.30608    0.011
 6066.00    1.31846   1.30501    0.011
 6067.00    1.31753   1.30621    0.011
 6068.00    1.31309   1.30720    0.011
 6069.00    1.30479   1.30508    0.011
 6070.00    1.29459   1.30174    0.011
 6071.00    1.27712   1.30221    0.011
 6072.00    1.25653   1.30442    0.011
 6073.00    1.24290   1.30123    0.011
 6074.00    1.23184   1.29593    0.011
 6075.00    1.24006   1.29697    0.011
 6076.00    1.25428   1.30039    0.011
 6077.00    1.25492   1.29567    0.011
 6078.00    1.25203   1.28900    0.011
 6079.00    1.25445   1.29132    0.011
 6080.00    1.25800   1.29513    0.011
 6081.00    1.25763   1.28930    0.011
 6082.00    1.25661   1.28312    0.011
 6083.00    1.24390   1.28695    0.011
 6084.00    1.22971   1.29025    0.011
 6085.00    1.22273   1.28407    0.011
 6086.00    1.21639   1.27912    0.011
 6087.00    1.23648   1.28339    0.011
 6088.00    1.25794   1.28652    0.011
 6089.00    1.27105   1.28194    0.011
 6090.00    1.28382   1.27741    0.011
 6091.00    1.28269   1.27942    0.011
 6092.00    1.28179   1.28320    0.011
 6093.00    1.28574   1.28190    0.011
 6094.00    1.28951   1.27775    0.011
 6095.00    1.29108   1.27721    0.011
 6096.00    1.29233   1.28072    0.011
 6097.00    1.29086   1.28179    0.011
 6098.00    1.28411   1.27904    0.011
 6099.00    1.24456   1.27736    0.011
 6100.00    1.20183   1.27967    0.011
 6101.00    1.14362   1.28155    0.011
 6102.00    1.10178   1.27988    0.011
 6103.00    1.12478   1.27831    0.011
 6104.00    1.14804   1.28001    0.011
 6105.00    1.17216   1.28110    0.011
 6106.00    1.19388   1.27876    0.011
 6107.00    1.20888   1.27794    0.011
 6108.00    1.22147   1.28047    0.011
 6109.00    1.22834   1.28003    0.011
 6110.00    1.23456   1.27511    0.011
 6111.00    1.23944   1.27470    0.011
 6112.00    1.24955   1.27885    0.011
 6113.00    1.26901   1.27757    0.011
 6114.00    1.28094   1.27144    0.011
 6115.00    1.28109   1.27097    0.011
 6116.00    1.26604   1.27442    0.011
 6117.00    1.23009   1.27164    0.011
 6118.00    1.21229   1.26660    0.011
 6119.00    1.21644   1.26789    0.011
 6120.00    1.22831   1.26936    0.011
 6121.00    1.24840   1.26391    0.011
 6122.00    1.26533   1.26113    0.011
 6123.00    1.27930   1.26562    0.011
 6124.00    1.28474   1.26478    0.011
 6125.00    1.28313   1.25550    0.011
 6126.00    1.28474   1.25481    0.011
 6127.00    1.28872   1.26370    0.011
 6128.00    1.27867   1.26231    0.011
 6129.00    1.25963   1.25066    0.011
 6130.00    1.25139   1.25073    0.011
 6131.00    1.24920   1.26133    0.011
 6132.00    1.23540   1.25994    0.011
 6133.00    1.21593   1.24951    0.011
 6134.00    1.19521   1.25062    0.011
 6135.00    1.17396   1.25959    0.011
 6136.00    1.18885   1.25745    0.011
 6137.00    1.21678   1.24946    0.011
 6138.00    1.25288   1.25105    0.011
 6139.00    1.29147   1.25757    0.011
 6140.00    1.32362   1.25522    0.011
 6141.00    1.35413   1.24881    0.011
 6142.00    1.34667   1.24906    0.011
 6143.00    1.33138   1.25311    0.011
 6144.00    1.30151   1.25104    0.011
 6145.00    1.26927   1.24391    0.011
 6146.00    1.24923   1.24121    0.011
 6147.00    1.23068   1.24488    0.011
 6148.00    1.22768   1.24445    0.011
 6149.00    1.22597   1.23441    0.011
 6150.00    1.25709   1.22733    0.011
 6151.00    1.28978   1.23205    0.011
 6152.00    1.28331   1.23428    0.011
 6153.00    1.27625   1.22198    0.011
 6154.00    1.26859   1.21258    0.011
 6155.00    1.26070   1.21997    0.011
 6156.00    1.24843   1.22365    0.011
 6157.00    1.23326   1.20908    0.011
 6158.00    1.18446   1.20093    0.011
 6159.00    1.14144   1.21227    0.011
 6160.00    1.14456   1.21583    0.011
 6161.00    1.14881   1.20106    0.011
 6162.00    1.15977   1.19762    0.011
 6163.00    1.16715   1.21141    0.011
 6164.00    1.15746   1.21252    0.011
 6165.00    1.15073   1.19998    0.011
 6166.00    1.15543   1.20257    0.011
 6167.00    1.16211   1.21585    0.011
 6168.00    1.17514   1.21375    0.011
 6169.00    1.19100   1.20542    0.011
 6170.00    1.21460   1.21224    0.011
 6171.00    1.23030   1.22152    0.011
 6172.00    1.22748   1.21718    0.011
 6173.00    1.22227   1.21435    0.011
 6174.00    1.21220   1.22233    0.011
 6175.00    1.20765   1.22501    0.011
 6176.00    1.21281   1.21965    0.011
 6177.00    1.21372   1.22257    0.011
 6178.00    1.20809   1.22947    0.011
 6179.00    1.20420   1.22546    0.011
 6180.00    1.20268   1.22071    0.011
 6181.00    1.21162   1.22815    0.011
 6182.00    1.23304   1.23245    0.011
 6183.00    1.24260   1.22400    0.011
 6184.00    1.23968   1.22143    0.011
 6185.00    1.24675   1.23132    0.011
 6186.00    1.26308   1.23294    0.011
 6187.00    1.27047   1.22299    0.011
 6188.00    1.27053   1.22300    0.011
 6189.00    1.26447   1.23314    0.011
 6190.00    1.25400   1.23258    0.011
 6191.00    1.24661   1.22355    0.011
 6192.00    1.24119   1.22569    0.011
 6193.00    1.20640   1.23435    0.011
 6194.00    1.15539   1.23201    0.011
 6195.00    1.04824   1.22453    0.011
 6196.00    0.91413   1.22756   -2.000
 6197.00    0.83990   1.23381   -2.000
 6198.00    0.79048   1.23017   -2.000
 6199.00    0.87138   1.22368   -2.000
 6200.00    0.99846   1.22593   -2.000
 6201.00    1.16563   1.23000   -2.000
 6202.00    1.34481   1.22612   -2.000
 6203.00    1.39871   1.21982   -2.000
 6204.00    1.42149   1.22007   -2.000
 6205.00    1.39150   1.22220   -2.000
 6206.00    1.35088   1.21882   -2.000
 6207.00    1.31932   1.21294   -2.000
 6208.00    1.28919   1.21141    0.011
 6209.00    1.29056   1.21231    0.011
 6210.00    1.29563   1.20935    0.011
 6211.00    1.30419   1.20394    0.011
 6212.00    1.31303   1.20220    0.011
 6213.00    1.27286   1.20279    0.011
 6214.00    1.23053   1.20000    0.011
 6215.00    1.22160   1.19542    0.011
 6216.00    1.21345   1.19450    0.011
 6217.00    1.22449   1.19512    0.011
 6218.00    1.23359   1.19249    0.011
 6219.00    1.20726   1.18896    0.011
 6220.00    1.18450   1.18908    0.011
 6221.00    1.20102   1.18989    0.011
 6222.00    1.22001   1.18728    0.011
 6223.00    1.25808   1.18437    0.011
 6224.00    1.28850   1.18518    0.011
 6225.00    1.27416   1.18629    0.011
 6226.00    1.25970   1.18370    0.010
 6227.00    1.24473   1.18101    0.011
 6228.00    1.23307   1.18218    0.011
 6229.00    1.23393   1.18339    0.011
 6230.00    1.23003   1.18072    0.011
 6231.00    1.21110   1.17823    0.011
 6232.00    1.19171   1.17925    0.011
 6233.00    1.17108   1.18008    0.011
 6234.00    1.16004   1.17743    0.011
 6235.00    1.17105   1.17542    0.011
 6236.00    1.17304   1.17636    0.011
 6237.00    1.15708   1.17641    0.011
 6238.00    1.14190   1.17354    0.011
 6239.00    1.12808   1.17251    0.011
 6240.00    1.12628   1.17387    0.011
 6241.00    1.14275   1.17277    0.011
 6242.00    1.16207   1.16996    0.011
 6243.00    1.18522   1.17072    0.011
 6244.00    1.19299   1.17245    0.011
 6245.00    1.18268   1.17004    0.011
 6246.00    1.16943   1.16808    0.011
 6247.00    1.15315   1.17126    0.010
 6248.00    1.14791   1.17322    0.010
 6249.00    1.15274   1.16966    0.011
 6250.00    1.15275   1.16928    0.011
 6251.00    1.14885   1.17507    0.010
 6252.00    1.14371   1.17696    0.010
 6253.00    1.13770   1.17279    0.011
 6254.00    1.15530   1.17449    0.011
 6255.00    1.18759   1.18237    0.011
 6256.00    1.18566   1.18368    0.011
 6257.00    1.16513   1.17947    0.011
 6258.00    1.12052   1.18322    0.011
 6259.00    1.06454   1.19200    0.011
 6260.00    1.05301   1.19237    0.012
 6261.00    1.05959   1.18862    0.013
 6262.00    1.08238   1.19365    0.013
 6263.00    1.11082   1.20193    0.014
 6264.00    1.15830   1.20138    0.013
 6265.00    1.21137   1.19837    0.013
 6266.00    1.21551   1.20364    0.013
 6267.00    1.20777   1.21050    0.012
 6268.00    1.19865   1.20930    0.011
 6269.00    1.18926   1.20694    0.011
 6270.00    1.18883   1.21169    0.011
 6271.00    1.18976   1.21700    0.011
 6272.00    1.18153   1.21552    0.011
 6273.00    1.17227   1.21349    0.011
 6274.00    1.18481   1.21731    0.011
 6275.00    1.19899   1.22138    0.010
 6276.00    1.21205   1.21984    0.010
 6277.00    1.22506   1.21773    0.010
 6278.00    1.21994   1.22054    0.011
 6279.00    1.21424   1.22388    0.011
 6280.00    1.19045   1.22225    0.000
 6281.00    1.16781   1.21950    0.000
 6282.00    1.16458   1.22136    0.000
 6283.00    1.16331   1.22452    0.000
 6284.00    1.18262   1.22272    0.000
 6285.00    1.19811   1.21898    0.000
 6286.00    1.18519   1.22004    0.000
 6287.00    1.17302   1.22339    0.000
 6288.00    1.16514   1.22152    0.000
 6289.00    1.16422   1.21686    0.000
 6290.00    1.19488   1.21728    0.000
 6291.00    1.22416   1.22097    0.000
 6292.00    1.24832   1.21949    0.000
 6293.00    1.25613   1.21442    0.000
 6294.00    1.21319   1.21415    0.000
 6295.00    1.17228   1.21806    0.000
 6296.00    1.13678   1.21770    0.000
 6297.00    1.12116   1.21290    0.000
 6298.00    1.15054   1.21155    0.000
 6299.00    1.17300   1.21533    0.000
 6300.00    1.18189   1.21681    0.000
 6301.00    1.18813   1.21279    0.000
 6302.00    1.18984   1.20983    0.000
 6303.00    1.18774   1.21308    0.000
 6304.00    1.17995   1.21686    0.000
 6305.00    1.16752   1.21388    0.000
 6306.00    1.14900   1.20902    0.000
 6307.00    1.13793   1.21159    0.000
 6308.00    1.13548   1.21774    0.000
 6309.00    1.13145   1.21589    0.000
 6310.00    1.12578   1.20936    0.000
 6311.00    1.11375   1.21133    0.000
 6312.00    1.09597   1.21941    0.000
 6313.00    1.09270   1.21874    0.000
 6314.00    1.10095   1.21129    0.000
 6315.00    1.11661   1.21256    0.000
 6316.00    1.13744   1.22167    0.000
 6317.00    1.14865   1.22230    0.000
 6318.00    1.15395   1.21467    0.000
 6319.00    1.15615   1.21478    0.000
 6320.00    1.15669   1.22382    0.000
 6321.00    1.16396   1.22588    0.011
 6322.00    1.17436   1.21851    0.010
 6323.00    1.20934   1.21678    0.010
 6324.00    1.25416   1.22492    0.010
 6325.00    1.28542   1.22846    0.010
 6326.00    1.31204   1.22146    0.010
 6327.00    1.32068   1.21756    0.010
 6328.00    1.32415   1.22458    0.010
 6329.00    1.28957   1.22940    0.010
 6330.00    1.24597   1.22264    0.010
 6331.00    1.21315   1.21697    0.010
 6332.00    1.18240   1.22318    0.010
 6333.00    1.17092   1.22877    0.010
 6334.00    1.16229   1.22200    0.010
 6335.00    1.13494   1.21551    0.010
 6336.00    1.10556   1.22147    0.010
 6337.00    1.10367   1.22694    0.010
 6338.00    1.10373   1.21979    0.010
 6339.00    1.11071   1.21357    0.010
 6340.00    1.11795   1.21972    0.010
 6341.00    1.11494   1.22405    0.010
 6342.00    1.11229   1.21614    0.010
 6343.00    1.12368   1.21106    0.011
 6344.00    1.13592   1.21768    0.011
 6345.00    1.16174   1.22014    0.011
 6346.00    1.18526   1.21137    0.011
 6347.00    1.18563   1.20805    0.011
 6348.00    1.18650   1.21530    0.011
 6349.00    1.19101   1.21583    0.010
 6350.00    1.19590   1.20663    0.010
 6351.00    1.20294   1.20546    0.010
 6352.00    1.20374   1.21348    0.010
 6353.00    1.17699   1.21275    0.010
 6354.00    1.15583   1.20398    0.010
 6355.00    1.15500   1.20507    0.010
 6356.00    1.15578   1.21384    0.010
 6357.00    1.16151   1.21278    0.010
 6358.00    1.16174   1.20532    0.010
 6359.00    1.14775   1.20830    0.010
 6360.00    1.13652   1.21740    0.010
 6361.00    1.13141   1.21670    0.010
 6362.00    1.13872   1.21102    0.010
 6363.00    1.16998   1.21504    0.011
 6364.00    1.19334   1.22359    0.011
 6365.00    1.20340   1.22340    0.011
 6366.00    1.21524   1.21955    0.011
 6367.00    1.22972   1.22353    0.011
 6368.00    1.23354   1.23035    0.011
 6369.00    1.22354   1.23041    0.011
 6370.00    1.20591   1.22828    0.011
 6371.00    1.17956   1.23134    0.011
 6372.00    1.17777   1.23541    0.010
 6373.00    1.20075   1.23542    0.010
 6374.00    1.20794   1.23498    0.010
 6375.00    1.20110   1.23667    0.010
 6376.00    1.19902   1.23751    0.010
 6377.00    1.20068   1.23744    0.010
 6378.00    1.20558   1.23869    0.010
 6379.00    1.21270   1.23890    0.010
 6380.00    1.20868   1.23677    0.010
 6381.00    1.19792   1.23700    0.010
 6382.00    1.19741   1.23976    0.010
 6383.00    1.20230   1.23841    0.010
 6384.00    1.21933   1.23420    0.010
 6385.00    1.24190   1.23546    0.010
 6386.00    1.22573   1.23928    0.010
 6387.00    1.19431   1.23617    0.010
 6388.00    1.16778   1.23108    0.010
 6389.00    1.14288   1.23422    0.010
 6390.00    1.15595   1.23840    0.010
 6391.00    1.17970   1.23325    0.010
 6392.00    1.16344   1.22845    0.010
 6393.00    1.13789   1.23399    0.010
 6394.00    1.11144   1.23782    0.010
 6395.00    1.08481   1.23065    0.011
 6396.00    1.09200   1.22686    0.011
 6397.00    1.10406   1.23461    0.011
 6398.00    1.12606   1.23764    0.011
 6399.00    1.14910   1.22899    0.010
 6400.00    1.16721   1.22640    0.010
 6401.00    1.18498   1.23538    0.010
 6402.00    1.18180   1.23760    0.010
 6403.00    1.17793   1.22865    0.010
 6404.00    1.15345   1.22694    0.010
 6405.00    1.12898   1.23574    0.010
 6406.00    1.10535   1.23750    0.010
 6407.00    1.08412   1.22966    0.010
 6408.00    1.09888   1.22841    0.010
 6409.00    1.11236   1.23569    0.010
 6410.00    1.11346   1.23735    0.010
 6411.00    1.11626   1.23183    0.010
 6412.00    1.13089   1.23089    0.010
 6413.00    1.14999   1.23575    0.010
 6414.00    1.19314   1.23724    0.010
 6415.00    1.22364   1.23456    0.011
 6416.00    1.19940   1.23429    0.011
 6417.00    1.17064   1.23655    0.011
 6418.00    1.12579   1.23720    0.011
 6419.00    1.08991   1.23708    0.010
 6420.00    1.08085   1.23815    0.010
 6421.00    1.07916   1.23829    0.010
 6422.00    1.09629   1.23726    0.010
 6423.00    1.11174   1.23881    0.010
 6424.00    1.12354   1.24176    0.010
 6425.00    1.13666   1.24059    0.010
 6426.00    1.15228   1.23748    0.010
 6427.00    1.16519   1.23973    0.010
 6428.00    1.17363   1.24444    0.011
 6429.00    1.17773   1.24268    0.011
 6430.00    1.17556   1.23789    0.011
 6431.00    1.17875   1.24021    0.011
 6432.00    1.18880   1.24583    0.011
 6433.00    1.20590   1.24373    0.011
 6434.00    1.23093   1.23819    0.010
 6435.00    1.25038   1.24047    0.010
 6436.00    1.26430   1.24592    0.011
 6437.00    1.27567   1.24331    0.010
 6438.00    1.28483   1.23792    0.010
 6439.00    1.27616   1.24041    0.010
 6440.00    1.25373   1.24508    0.011
 6441.00    1.23828   1.24176    0.011
 6442.00    1.22759   1.23687    0.010
 6443.00    1.21894   1.23988    0.010
 6444.00    1.21152   1.24397    0.011
 6445.00    1.19729   1.24008    0.011
 6446.00    1.17954   1.23550    0.010
 6447.00    1.17959   1.23907    0.010
 6448.00    1.18764   1.24341    0.010
 6449.00    1.19218   1.23945    0.011
 6450.00    1.19535   1.23464    0.011
 6451.00    1.18020   1.23851    0.011
 6452.00    1.15903   1.24385    0.011
 6453.00    1.14975   1.24039    0.010
 6454.00    1.14375   1.23490    0.010
 6455.00    1.13957   1.23855    0.010
 6456.00    1.13581   1.24513    0.010
 6457.00    1.14571   1.24248    0.010
 6458.00    1.15810   1.23610    0.011
 6459.00    1.16946   1.23903    0.011
 6460.00    1.18067   1.24643    0.010
 6461.00    1.19132   1.24445    0.010
 6462.00    1.20192   1.23727    0.010
 6463.00    1.20193   1.23920    0.010
 6464.00    1.20129   1.24659    0.010
 6465.00    1.18169   1.24474    0.010
 6466.00    1.16154   1.23697    0.010
 6467.00    1.13949   1.23795    0.010
 6468.00    1.11875   1.24450    0.010
 6469.00    1.13443   1.24195    0.010
 6470.00    1.15189   1.23367    0.010
 6471.00    1.19449   1.23404    0.010
 6472.00    1.23601   1.23936    0.010
 6473.00    1.26753   1.23535    0.010
 6474.00    1.29357   1.22644    0.011
 6475.00    1.28245   1.22659    0.011
 6476.00    1.26967   1.23081    0.010
 6477.00    1.24812   1.22522    0.010
 6478.00    1.22705   1.21557    0.010
 6479.00    1.20797   1.21574    0.010
 6480.00    1.19415   1.21952    0.010
 6481.00    1.19869   1.21311    0.010
 6482.00    1.20413   1.20304    0.010
 6483.00    1.21220   1.20328    0.010
 6484.00    1.23027   1.20745    0.010
 6485.00    1.27336   1.20183    0.010
 6486.00    1.29564   1.19226    0.010
 6487.00    1.27307   1.19255    0.010
 6488.00    1.24407   1.19773    0.010
 6489.00    1.20303   1.19461    0.010
 6490.00    1.16334   1.18683    0.010
 6491.00    1.12584   1.18717    0.010
 6492.00    1.10087   1.19332    0.010
 6493.00    1.09385   1.19360    0.010
 6494.00    1.10064   1.18857    0.010
 6495.00    1.12486   1.18895    0.010
 6496.00    1.13883   1.19544    0.010
 6497.00    1.14144   1.19865    0.010
 6498.00    1.16099   1.19640    0.010
 6499.00    1.19715   1.19677    0.010
 6500.00    1.22287   1.20273    0.010
 6501.00    1.23957   1.20740    0.010
 6502.00    1.23355   1.20694    0.010
 6503.00    1.21024   1.20721    0.010
 6504.00    1.18524   1.21218    0.010
 6505.00    1.15911   1.21671    0.010
 6506.00    1.16518   1.21664    0.010
 6507.00    1.19012   1.21675    0.010
 6508.00    1.20462   1.22080    0.010
 6509.00    1.21379   1.22429    0.010
 6510.00    1.21880   1.22360    0.010
 6511.00    1.22198   1.22346    0.011
 6512.00    1.22304   1.22693    0.010
 6513.00    1.22331   1.22931    0.010
 6514.00    1.21716   1.22780    0.010
 6515.00    1.20894   1.22737    0.010
 6516.00    1.21718   1.23030    0.010
 6517.00    1.22988   1.23182    0.010
 6518.00    1.24400   1.22996    0.010
 6519.00    1.25844   1.22937    0.010
 6520.00    1.25646   1.23139    0.010
 6521.00    1.25158   1.23195    0.010
 6522.00    1.22948   1.23035    0.010
 6523.00    1.20506   1.22999    0.010
 6524.00    1.20031   1.23064    0.010
 6525.00    1.19744   1.22960    0.010
 6526.00    1.20985   1.22830    0.010
 6527.00    1.22316   1.22866    0.010
 6528.00    1.21451   1.22788    0.000
 6529.00    1.20545   1.22432    0.000
 6530.00    1.21618   1.22253    0.000
 6531.00    1.22627   1.22387    0.000
 6532.00    1.22031   1.22223    0.000
 6533.00    1.21525   1.21548    0.000
 6534.00    1.22213   1.21175    0.000
 6535.00    1.23141   1.21393    0.000
 6536.00    1.26197   1.21241    0.000
 6537.00    1.28899   1.20228    0.000
 6538.00    1.29274   1.19509    0.000
 6539.00    1.29503   1.19773    0.000
 6540.00    1.28989   1.19744    0.000
 6541.00    1.29091   1.18437    0.000
 6542.00    1.31735   1.17283    0.000
 6543.00    1.34998   1.17561    0.000
 6544.00    1.40379   1.17757    0.000
 6545.00    1.43357   1.16281    0.000
 6546.00    1.39417   1.14737    0.000
 6547.00    1.35036   1.15018    0.000
 6548.00    1.29570   1.15500    0.000
 6549.00    1.25475   1.14044    0.000
 6550.00    1.24290   1.12263    0.000
 6551.00    1.23125   1.12574    0.000
 6552.00    1.22000   1.13406    0.000
 6553.00    1.22424   1.12208    0.000
 6554.00    1.25342   1.10425    0.000
 6555.00    1.34563   1.10789    0.000
 6556.00    1.52685   1.11968    0.000
 6557.00    1.75076   1.11252    0.000
 6558.00    2.02772   1.09736    0.000
 6559.00    2.22047   1.10137    0.000
 6560.00    2.32097   1.11527    0.000
 6561.00    2.28912   1.11391    0.000
 6562.00    2.12941   1.10355    0.000
 6563.00    1.90315   1.10771    0.000
 6564.00    1.62019   1.12152    0.000
 6565.00    1.40063   1.12491    0.000
 6566.00    1.22863   1.12012    0.000
 6567.00    1.13860   1.12415    0.000
 6568.00    1.10258   1.13557    0.000
 6569.00    1.10712   1.14143    0.000
 6570.00    1.13506   1.14150    0.000
 6571.00    1.15142   1.14517    0.000
 6572.00    1.16194   1.15254    0.000
 6573.00    1.17211   1.15845    0.000
 6574.00    1.18212   1.16206    0.000
 6575.00    1.21799   1.16518    0.000
 6576.00    1.26351   1.16789    0.000
 6577.00    1.37005   1.17212    0.000
 6578.00    1.49592   1.17785    0.000
 6579.00    1.62055   1.18072    0.000
 6580.00    1.74485   1.17958    0.000
 6581.00    1.74297   1.18135    0.000
 6582.00    1.71381   1.18778    0.000
 6583.00    1.59689   1.19074    0.000
 6584.00    1.46492   1.18721    0.000
 6585.00    1.37734   1.18676    0.000
 6586.00    1.29553   1.19320    0.000
 6587.00    1.26229   1.19646    0.000
 6588.00    1.23349   1.19177    0.000
 6589.00    1.21090   1.18985    0.000
 6590.00    1.18865   1.19611    0.000
 6591.00    1.18599   1.19976    0.000
 6592.00    1.18385   1.19474    0.000
 6593.00    1.18985   1.19215    0.000
 6594.00    1.19575   1.19846    0.000
 6595.00    1.19955   1.20247    0.000
 6596.00    1.20368   1.19742    0.000
 6597.00    1.21197   1.19458    0.000
 6598.00    1.21746   1.20105    0.000
 6599.00    1.19886   1.20530    0.000
 6600.00    1.18261   1.20031    0.000
 6601.00    1.18127   1.19737    0.000
 6602.00    1.18175   1.20385    0.000
 6603.00    1.19133   1.20820    0.000
 6604.00    1.19683   1.20334    0.000
 6605.00    1.18584   1.20033    0.000
 6606.00    1.17364   1.20631    0.000
 6607.00    1.15738   1.21040    0.000
 6608.00    1.14632   1.20580    0.000
 6609.00    1.14995   1.20275    0.010
 6610.00    1.15434   1.20768    0.010
 6611.00    1.16054   1.21116    0.010
 6612.00    1.16313   1.20690    0.010
 6613.00    1.15822   1.20373    0.010
 6614.00    1.15726   1.20733    0.010
 6615.00    1.16348   1.21009    0.010
 6616.00    1.16470   1.20621    0.010
 6617.00    1.15800   1.20275    0.010
 6618.00    1.14909   1.20496    0.010
 6619.00    1.13709   1.20718    0.010
 6620.00    1.16055   1.20400    0.010
 6621.00    1.22748   1.20031    0.010
 6622.00    1.26820   1.20098    0.010
 6623.00    1.28064   1.20285    0.010
 6624.00    1.26370   1.20133    0.010
 6625.00    1.21877   1.19802    0.010
 6626.00    1.18296   1.19661    0.010
 6627.00    1.15482   1.19781    0.010
 6628.00    1.14247   1.19886    0.010
 6629.00    1.14181   1.19683    0.010
 6630.00    1.14461   1.19322    0.010
 6631.00    1.14965   1.19324    0.010
 6632.00    1.15008   1.19679    0.010
 6633.00    1.14789   1.19677    0.010
 6634.00    1.17212   1.19183    0.010
 6635.00    1.20943   1.19017    0.010
 6636.00    1.24427   1.19493    0.010
 6637.00    1.27805   1.19705    0.010
 6638.00    1.26536   1.19203    0.010
 6639.00    1.23562   1.18859    0.010
 6640.00    1.19016   1.19293    0.010
 6641.00    1.13982   1.19663    0.010
 6642.00    1.12250   1.19259    0.010
 6643.00    1.11373   1.18788    0.010
 6644.00    1.14227   1.19075    0.010
 6645.00    1.17868   1.19511    0.010
 6646.00    1.19253   1.19213    0.010
 6647.00    1.20262   1.18693    0.010
 6648.00    1.17385   1.18853    0.010
 6649.00    1.14021   1.19262    0.010
 6650.00    1.13665   1.19008    0.010
 6651.00    1.13571   1.18511    0.010
 6652.00    1.15789   1.18605    0.010
 6653.00    1.18125   1.18950    0.010
 6654.00    1.19312   1.18757    0.010
 6655.00    1.20448   1.18319    0.010
 6656.00    1.19421   1.18331    0.010
 6657.00    1.18452   1.18609    0.010
 6658.00    1.18709   1.18538    0.010
 6659.00    1.18873   1.18210    0.010
 6660.00    1.17908   1.18095    0.010
 6661.00    1.17049   1.18249    0.010
 6662.00    1.17059   1.18360    0.010
 6663.00    1.16753   1.18242    0.010
 6664.00    1.14499   1.17976    0.010
 6665.00    1.12468   1.17905    0.010
 6666.00    1.11515   1.18177    0.010
 6667.00    1.11315   1.18340    0.010
 6668.00    1.14084   1.18014    0.010
 6669.00    1.16302   1.17730    0.010
 6670.00    1.16711   1.18021    0.010
 6671.00    1.17251   1.18390    0.010
 6672.00    1.18154   1.18153    0.010
 6673.00    1.18461   1.17760    0.010
 6674.00    1.17347   1.17920    0.010
 6675.00    1.15674   1.18339    0.010
 6676.00    1.12852   1.18296    0.010
 6677.00    1.11622   1.17927    0.010
 6678.00    1.13236   1.17891    0.010
 6679.00    1.14364   1.18216    0.010
 6680.00    1.14734   1.18355    0.010
 6681.00    1.15132   1.18117    0.010
 6682.00    1.15572   1.17923    0.010
 6683.00    1.16023   1.18058    0.010
 6684.00    1.16490   1.18275    0.010
 6685.00    1.17366   1.18197    0.010
 6686.00    1.18679   1.17946    0.010
 6687.00    1.18421   1.17894    0.010
 6688.00    1.16687   1.18071    0.010
 6689.00    1.14475   1.18111    0.010
 6690.00    1.11865   1.17889    0.010
 6691.00    1.11623   1.17701    0.010
 6692.00    1.13106   1.17763    0.010
 6693.00    1.14736   1.17865    0.010
 6694.00    1.16459   1.17727    0.010
 6695.00    1.15386   1.17452    0.010
 6696.00    1.12748   1.17361    0.000
 6697.00    1.12256   1.17465    0.000
 6698.00    1.12810   1.17463    0.000
 6699.00    1.15351   1.17192    0.000
 6700.00    1.18728   1.16924    0.000
 6701.00    1.18035   1.16956    0.000
 6702.00    1.15877   1.17115    0.000
 6703.00    1.15291   1.16929    0.000
 6704.00    1.15184   1.16486    0.000
 6705.00    1.15992   1.16411    0.000
 6706.00    1.17032   1.16754    0.000
 6707.00    1.15214   1.16727    0.000
 6708.00    1.12807   1.16162    0.000
 6709.00    1.16572   1.15934    0.000
 6710.00    1.21337   1.16422    0.000
 6711.00    1.29707   1.16636    0.000
 6712.00    1.38515   1.16079    0.000
 6713.00    1.43146   1.15684    0.000
 6714.00    1.47432   1.16168    0.000
 6715.00    1.44758   1.16612    0.000
 6716.00    1.41755   1.16188    0.000
 6717.00    1.35253   1.15674    0.000
 6718.00    1.28726   1.16041    0.000
 6719.00    1.23551   1.16627    0.000
 6720.00    1.18458   1.16394    0.000
 6721.00    1.14935   1.15837    0.000
 6722.00    1.11794   1.16016    0.000
 6723.00    1.13033   1.16638    0.000
 6724.00    1.15007   1.16595    0.000
 6725.00    1.22835   1.16019    0.000
 6726.00    1.30595   1.15975    0.000
 6727.00    1.37955   1.16569    0.000
 6728.00    1.43688   1.16709    0.000
 6729.00    1.41710   1.16148    0.000
 6730.00    1.38752   1.15885    0.000
 6731.00    1.32010   1.16365    0.000
 6732.00    1.25975   1.16658    0.000
 6733.00    1.22216   1.16205    0.000
 6734.00    1.18798   1.15813    0.000
 6735.00    1.16309   1.16122    0.000
 6736.00    1.13662   1.16455    0.000
 6737.00    1.10641   1.16170    0.000
 6738.00    1.08993   1.15824    0.000
 6739.00    1.10118   1.15968    0.000
 6740.00    1.10943   1.16216    0.000
 6741.00    1.11240   1.16101    0.000
 6742.00    1.11280   1.15921    0.000
 6743.00    1.10925   1.15988    0.000
 6744.00    1.09698   1.16115    0.000
 6745.00    1.07293   1.16129    0.000
 6746.00    1.05162   1.16083    0.000
 6747.00    1.03355   1.16147    0.000
 6748.00    1.03642   1.16258    0.000
 6749.00    1.06127   1.16277    0.000
 6750.00    1.07927   1.16273    0.000
 6751.00    1.09095   1.16415    0.000
 6752.00    1.10903   1.16568    0.000
 6753.00    1.13233   1.16507    0.011
 6754.00    1.13847   1.16445    0.012
 6755.00    1.13229   1.16653    0.012
 6756.00    1.09812   1.16916    0.012
 6757.00    1.04630   1.16820    0.012
 6758.00    1.00666   1.16598    0.012
 6759.00    0.97372   1.16766    0.012
 6760.00    1.05147   1.17142    0.012
 6761.00    1.18227   1.17113    0.012
 6762.00    1.30145   1.16797    0.012
 6763.00    1.41583   1.16832    0.012
 6764.00    1.43192   1.17182    0.012
 6765.00    1.41323   1.17269    0.012
 6766.00    1.36911   1.17011    0.012
 6767.00    1.31738   1.16901    0.012
 6768.00    1.27284   1.17089    0.012
 6769.00    1.23008   1.17244    0.012
 6770.00    1.24206   1.17108    0.012
 6771.00    1.26503   1.16922    0.012
 6772.00    1.24910   1.16949    0.011
 6773.00    1.22706   1.17082    0.011
 6774.00    1.18896   1.17039    0.011
 6775.00    1.14899   1.16860    0.011
 6776.00    1.11152   1.16766    0.011
 6777.00    1.07425   1.16814    0.011
 6778.00    1.10844   1.16872    0.011
 6779.00    1.14573   1.16817    0.011
 6780.00    1.14934   1.16641    0.011
 6781.00    1.15230   1.16547    0.011
 6782.00    1.14153   1.16665    0.011
 6783.00    1.13196   1.16750    0.011
 6784.00    1.14410   1.16574    0.011
 6785.00    1.15706   1.16384    0.011
 6786.00    1.17900   1.16483    0.011
 6787.00    1.19803   1.16651    0.011
 6788.00    1.19476   1.16581    0.011
 6789.00    1.20064   1.16378    0.011
 6790.00    1.25985   1.16386    0.011
 6791.00    1.31115   1.16584    0.012
 6792.00    1.32580   1.16646    0.012
 6793.00    1.33411   1.16471    0.012
 6794.00    1.31845   1.16378    0.011
 6795.00    1.30025   1.16574    0.011
 6796.00    1.27400   1.16755    0.011
 6797.00    1.25458   1.16583    0.011
 6798.00    1.25345   1.16399    0.011
 6799.00    1.25281   1.16636    0.011
 6800.00    1.25327   1.16904    0.011
 6801.00    1.23533   1.16705    0.011
 6802.00    1.18077   1.16447    0.011
 6803.00    1.13811   1.16682    0.011
 6804.00    1.11609   1.17029    0.011
 6805.00    1.10894   1.16893    0.011
 6806.00    1.12437   1.16536    0.011
 6807.00    1.11789   1.16650    0.011
 6808.00    1.08222   1.17090    0.011
 6809.00    1.08331   1.17144    0.011
 6810.00    1.12754   1.16734    0.011
 6811.00    1.16555   1.16600    0.011
 6812.00    1.19713   1.17027    0.011
 6813.00    1.21034   1.17324    0.011
 6814.00    1.20678   1.16990    0.012
 6815.00    1.18801   1.16605    0.012
 6816.00    1.15699   1.16873    0.011
 6817.00    1.14609   1.17342    0.011
 6818.00    1.14943   1.17190    0.011
 6819.00    1.15501   1.16642    0.011
 6820.00    1.16199   1.16639    0.011
 6821.00    1.17540   1.17139    0.011
 6822.00    1.19231   1.17247    0.011
 6823.00    1.19958   1.16708    0.010
 6824.00    1.20232   1.16393    0.010
 6825.00    1.20654   1.16744    0.010
 6826.00    1.21137   1.17073    0.010
 6827.00    1.20694   1.16726    0.011
 6828.00    1.19930   1.16204    0.011
 6829.00    1.20201   1.16271    0.011
 6830.00    1.20774   1.16660    0.011
 6831.00    1.19715   1.16603    0.011
 6832.00    1.18260   1.16070    0.011
 6833.00    1.18961   1.15839    0.011
 6834.00    1.20083   1.16140    0.011
 6835.00    1.19668   1.16338    0.011
 6836.00    1.19020   1.15975    0.011
 6837.00    1.17611   1.15580    0.012
 6838.00    1.16116   1.15695    0.012
 6839.00    1.12731   1.15994    0.012
 6840.00    1.09203   1.15873    0.012
 6841.00    1.06806   1.15470    0.011
 6842.00    1.04453   1.15374    0.011
 6843.00    1.06032   1.15642    0.011
 6844.00    1.07867   1.15741    0.010
 6845.00    1.18862   1.15413    0.010
 6846.00    1.28942   1.15137    0.011
 6847.00    1.23584   1.15311    0.011
 6848.00    1.18722   1.15546    0.010
 6849.00    1.19042   1.15334    0.011
 6850.00    1.19042   1.15023    0.011
 6851.00    1.16659   1.15109    0.011
 6852.00    1.14442   1.15317    0.011
 6853.00    1.13162   1.15209    0.011
 6854.00    1.11961   1.15001    0.011
 6855.00    1.11111   1.15027    0.011
 6856.00    1.10889   1.15176    0.011
 6857.00    1.12991   1.15177    0.011
 6858.00    1.14788   1.15019    0.011
 6859.00    1.15638   1.14933    0.011
 6860.00    1.16321   1.15094    0.011
 6861.00    1.16565   1.15276    0.011
 6862.00    1.16252   1.15155    0.011
 6863.00    1.14680   1.14938    0.011
 6864.00    1.14559   1.15076    0.011
 6865.00    1.17277   1.15397    0.011
 6866.00    1.19855   1.15392    0.011
 6867.00    1.22194   1.15190    0.011
 6868.00    1.22239   1.15253    0.011
 6869.00    1.18857   1.15539    0.011
 6870.00    1.15004   1.15657    0.011
 6871.00    1.10532   1.15605    0.011
 6872.00    1.08936   1.15608    0.011
 6873.00    1.10669   1.15752    0.011
 6874.00    1.11957   1.15944    0.011
 6875.00    1.12792   1.16090    0.011
 6876.00    1.15347   1.16096    0.011
 6877.00    1.19450   1.16077    0.011
 6878.00    1.20527   1.16239    0.011
 6879.00    1.19203   1.16522    0.011
 6880.00    1.17203   1.16650    0.011
 6881.00    1.14731   1.16606    0.011
 6882.00    1.12138   1.16644    0.010
 6883.00    1.09469   1.16851    0.010
 6884.00    1.09732   1.17095    0.010
 6885.00    1.11560   1.17209    0.010
 6886.00    1.14382   1.17132    0.010
 6887.00    1.17665   1.17118    0.010
 6888.00    1.19069   1.17402    0.010
 6889.00    1.19723   1.17704    0.011
 6890.00    1.18172   1.17597    0.011
 6891.00    1.15870   1.17370    0.011
 6892.00    1.14553   1.17559    0.011
 6893.00    1.13517   1.17974    0.011
 6894.00    1.15899   1.18000    0.011
 6895.00    1.19091   1.17675    0.011
 6896.00    1.16850   1.17635    0.011
 6897.00    1.13573   1.17989    0.011
 6898.00    1.16013   1.18205    0.011
 6899.00    1.19297   1.17947    0.011
 6900.00    1.18225   1.17709    0.011
 6901.00    1.16683   1.17884    0.011
 6902.00    1.14415   1.18171    0.011
 6903.00    1.12097   1.18048    0.011
 6904.00    1.10477   1.17751    0.011
 6905.00    1.08881   1.17764    0.010
 6906.00    1.14018   1.17993    0.010
 6907.00    1.18998   1.17990    0.010
 6908.00    1.17822   1.17723    0.011
 6909.00    1.16522   1.17644    0.011
 6910.00    1.13244   1.17801    0.011
 6911.00    1.10136   1.17821    0.011
 6912.00    1.08717   1.17632    0.011
 6913.00    1.07122   1.17611    0.011
 6914.00    1.04271   1.17701    0.011
 6915.00    1.02666   1.17619    0.011
 6916.00    1.07933   1.17479    0.011
 6917.00    1.12246   1.17554    0.011
 6918.00    1.12353   1.17688    0.011
 6919.00    1.12463   1.17544    0.011
 6920.00    1.12581   1.17332    0.011
 6921.00    1.12357   1.17417    0.011
 6922.00    1.11093   1.17655    0.011
 6923.00    1.10539   1.17599    0.011
 6924.00    1.11820   1.17316    0.011
 6925.00    1.13318   1.17342    0.011
 6926.00    1.15300   1.17655    0.011
 6927.00    1.16178   1.17671    0.011
 6928.00    1.14929   1.17341    0.011
 6929.00    1.14382   1.17294    0.011
 6930.00    1.15017   1.17621    0.011
 6931.00    1.15644   1.17753    0.011
 6932.00    1.16262   1.17487    0.011
 6933.00    1.14872   1.17306    0.011
 6934.00    1.10884   1.17533    0.011
 6935.00    1.10298   1.17751    0.011
 6936.00    1.13592   1.17599    0.011
 6937.00    1.15523   1.17410    0.012
 6938.00    1.16083   1.17573    0.011
 6939.00    1.16240   1.17770    0.011
 6940.00    1.16039   1.17642    0.011
 6941.00    1.15057   1.17501    0.011
 6942.00    1.13466   1.17636    0.011
 6943.00    1.15061   1.17831    0.011
 6944.00    1.18849   1.17800    0.011
 6945.00    1.18980   1.17706    0.011
 6946.00    1.16909   1.17763    0.011
 6947.00    1.16484   1.17923    0.011
 6948.00    1.16924   1.17919    0.011
 6949.00    1.14596   1.17830    0.011
 6950.00    1.11003   1.17958    0.011
 6951.00    1.08106   1.18167    0.011
 6952.00    1.05483   1.18110    0.011
 6953.00    1.09380   1.17924    0.011
 6954.00    1.15457   1.18087    0.011
 6955.00    1.16990   1.18380    0.011
 6956.00    1.17245   1.18289    0.011
 6957.00    1.14328   1.18005    0.011
 6958.00    1.10677   1.18126    0.011
 6959.00    1.12132   1.18490    0.011
 6960.00    1.14534   1.18394    0.011
 6961.00    1.15088   1.17949    0.011
 6962.00    1.15377   1.17944    0.011
 6963.00    1.18570   1.18408    0.011
 6964.00    1.22065   1.18508    0.011
 6965.00    1.21943   1.18048    0.011
 6966.00    1.21581   1.17762    0.011
 6967.00    1.21207   1.18122    0.011
 6968.00    1.20832   1.18454    0.011
 6969.00    1.18074   1.18093    0.011
 6970.00    1.15155   1.17658    0.011
 6971.00    1.07299   1.17895    0.011
 6972.00    0.99935   1.18307    0.011
 6973.00    0.99907   1.18072    0.011
 6974.00    1.00664   1.17662    0.011
 6975.00    1.08957   1.17825    0.011
 6976.00    1.16269   1.18196    0.012
 6977.00    1.16746   1.18159    0.012
 6978.00    1.16625   1.17950    0.012
 6979.00    1.13295   1.17987    0.012
 6980.00    1.10260   1.18181    0.011
 6981.00    1.08500   1.18184    0.011
 6982.00    1.08715   1.18050    0.011
 6983.00    1.15939   1.18142    0.011
 6984.00    1.21050   1.18328    0.011
 6985.00    1.19857   1.18238    0.011
 6986.00    1.18599   1.18025    0.011
 6987.00    1.17174   1.18175    0.011
 6988.00    1.15255   1.18463    0.011
 6989.00    1.12255   1.18320    0.011
 6990.00    1.10209   1.17973    0.011
 6991.00    1.09972   1.18078    0.011
 6992.00    1.11391   1.18432    0.011
 6993.00    1.15552   1.18347    0.011
 6994.00    1.16730   1.17878    0.011
 6995.00    1.13579   1.17774    0.011
 6996.00    1.12118   1.18180    0.012
 6997.00    1.12812   1.18275    0.012
 6998.00    1.12666   1.17769    0.012
 6999.00    1.11577   1.17491    0.011
 7000.00    1.11822   1.17891    0.011
 7001.00    1.13389   1.18124    0.011
 7002.00    1.12019   1.17662    0.011
 7003.00    1.08079   1.17305    0.011
 7004.00    1.06495   1.17679    0.011
 7005.00    1.06729   1.18038    0.011
 7006.00    1.07965   1.17637    0.011
 7007.00    1.09882   1.17136    0.011
 7008.00    1.11218   1.17432    0.011
 7009.00    1.12210   1.18034    0.011
 7010.00    1.13195   1.17841    0.011
 7011.00    1.14176   1.17134    0.011
 7012.00    1.13341   1.17213    0.011
 7013.00    1.11691   1.18023    0.012
 7014.00    1.09905   1.18167    0.012
 7015.00    1.08066   1.17527    0.012
 7016.00    1.12418   1.17382    0.012
 7017.00    1.18802   1.18079    0.012
 7018.00    1.14152   1.18495    0.012
 7019.00    1.06467   1.18051    0.012
 7020.00    1.08954   1.17622    0.012
 7021.00    1.13741   1.18102    0.012
 7022.00    1.14553   1.18855    0.012
 7023.00    1.14647   1.18807    0.012
 7024.00    1.14050   1.18266    0.012
 7025.00    1.13357   1.18352    0.012
 7026.00    1.15365   1.19069    0.011
 7027.00    1.17641   1.19364    0.011
 7028.00    1.17437   1.19025    0.012
 7029.00    1.17078   1.18797    0.012
 7030.00    1.13322   1.19189    0.012
 7031.00    1.09493   1.19720    0.012
 7032.00    1.11812   1.19674    0.012
 7033.00    1.13931   1.19200    0.012
 7034.00    1.10537   1.19207    0.012
 7035.00    1.07264   1.19703    0.012
 7036.00    1.05694   1.19854    0.012
 7037.00    1.04706   1.19541    0.012
 7038.00    1.09081   1.19340    0.012
 7039.00    1.12883   1.19433    0.012
 7040.00    1.12827   1.19462    0.012
 7041.00    1.12932   1.19244    0.012
 7042.00    1.13872   1.18969    0.012
 7043.00    1.15733   1.18908    0.012
 7044.00    1.21472   1.18894    0.012
 7045.00    1.24777   1.18617    0.012
 7046.00    1.19618   1.18265    0.012
 7047.00    1.16470   1.18113    0.012
 7048.00    1.19204   1.17971    0.012
 7049.00    1.20771   1.17608    0.012
 7050.00    1.19425   1.17203   -2.000
 7051.00    1.17180   1.17085   -2.000
 7052.00    1.13003   1.17077   -2.000
 7053.00    1.12935   1.16791   -2.000
 7054.00    1.20540   1.16242   -2.000
 7055.00    1.24976   1.15952   -2.000
 7056.00    1.24241   1.16067   -2.000
 7057.00    1.23173   1.15988   -2.000
 7058.00    1.21629   1.15490   -2.000
 7059.00    1.18110   1.15165   -2.000
 7060.00    1.12104   1.15276   -2.000
 7061.00    1.10521   1.15301   -2.000
 7062.00    1.13841   1.14966   -2.000
 7063.00    1.20916   1.14548   -2.000
 7064.00    1.31663   1.14513   -2.000
 7065.00    1.33911   1.14704   -2.000
 7066.00    1.28826   1.14571   -2.000
 7067.00    1.24051   1.14181   -2.000
 7068.00    1.19511   1.14075   -2.000
 7069.00    1.15814   1.14180   -2.000
 7070.00    1.12680   1.13965   -2.000
 7071.00    1.18566   1.13597   -2.000
 7072.00    1.29728   1.13534   -2.000
 7073.00    1.36122   1.13615   -2.000
 7074.00    1.40087   1.13378   -2.000
 7075.00    1.30233   1.12945   -2.000
 7076.00    1.14279   1.12803   -2.000
 7077.00    1.18217   1.12924   -2.000
 7078.00    1.29699   1.12788   -2.000
 7079.00    1.34927   1.12172   -2.000
 7080.00    1.38140   1.11815   -2.000
 7081.00    1.39874   1.12065   -2.000
 7082.00    1.41209   1.12161   -2.000
 7083.00    1.32525   1.11612   -2.000
 7084.00    1.21629   1.11056   -2.000
 7085.00    1.17620   1.11124   -2.000
 7086.00    1.14822   1.11433   -2.000
 7087.00    1.17507   1.11279   -2.000
 7088.00    1.20927   1.10610   -2.000
 7089.00    1.14569   1.10371   -2.000
 7090.00    1.07282   1.10775   -2.000
 7091.00    1.13980   1.11013   -2.000
 7092.00    1.21498   1.10532   -2.000
 7093.00    1.22070   1.10012   -2.000
 7094.00    1.22462   1.10227   -2.000
 7095.00    1.21466   1.10724   -2.000
 7096.00    1.20234   1.10672   -2.000
 7097.00    1.13156   1.10077   -2.000
 7098.00    1.06847   1.09873   -2.000
 7099.00    1.10747   1.10325   -2.000
 7100.00    1.14054   1.10703   -2.000
 7101.00    1.12106   1.10366   -2.000
 7102.00    1.10105   1.09872   -2.000
 7103.00    1.07763   1.09976   -2.000
 7104.00    1.05727   1.10433   -2.000
 7105.00    1.05253   1.10498   -2.000
 7106.00    1.05830   1.10059   -2.000
 7107.00    1.10731   1.09772   -2.000
 7108.00    1.13145   1.09938   -2.000
 7109.00    1.07081   1.10269   -2.000
 7110.00    1.03782   1.10236   -2.000
 7111.00    1.08423   1.09844   -2.000
 7112.00    1.10783   1.09553   -2.000
 7113.00    1.07548   1.09700   -2.000
 7114.00    1.07009   1.10045   -2.000
 7115.00    1.12175   1.09954   -2.000
 7116.00    1.14394   1.09416   -2.000
 7117.00    1.11192   1.09091   -2.000
 7118.00    1.11387   1.09486   -2.000
 7119.00    1.17040   1.09911   -2.000
 7120.00    1.16689   1.09559   -2.000
 7121.00    1.07876   1.08859   -2.000
 7122.00    1.06289   1.08863   -2.000
 7123.00    1.13664   1.09595   -2.000
 7124.00    1.18397   1.09736   -2.000
 7125.00    1.20239   1.08935   -2.000
 7126.00    1.20094   1.08466   -2.000
 7127.00    1.18033   1.09117   -2.000
 7128.00    1.10287   1.09712   -2.000
 7129.00    0.97708   1.09300   -2.000
 7130.00    1.02397   1.08629   -2.000
 7131.00    1.20019   1.08806   -2.000
 7132.00    1.27096   1.09595   -2.000
 7133.00    1.27237   1.09643   -2.000
 7134.00    1.21268   1.08918   -2.000
 7135.00    1.11781   1.08769   -2.000
 7136.00    1.05885   1.09483   -2.000
 7137.00    1.01792   1.09774   -2.000
 7138.00    1.05263   1.09356   -2.000
 7139.00    1.12018   1.09184   -2.000
 7140.00    1.17664   1.09572   -2.000
 7141.00    1.22897   1.09869   -2.000
 7142.00    1.22360   1.09646   -2.000
 7143.00    1.20000   1.09469   -2.000
 7144.00    1.14680   1.09793   -2.000
 7145.00    1.08580   1.10130   -2.000
 7146.00    1.11650   1.09872   -2.000
 7147.00    1.16696   1.09662   -2.000
 7148.00    1.19500   1.10140   -2.000
 7149.00    1.21921   1.10549   -2.000
 7150.00    1.16964   1.10187   -2.000
 7151.00    1.11051   1.09762   -2.000
 7152.00    1.17025   1.10171   -2.000
 7153.00    1.24078   1.10788   -2.000
 7154.00    1.18700   1.10723   -2.000
 7155.00    1.12642   1.10168   -2.000
 7156.00    1.09155   1.10145   -2.000
 7157.00    1.05705   1.10805   -2.000
 7158.00    1.00729   1.11102   -2.000
 7159.00    0.96838   1.10627   -2.000
 7160.00    1.17586   1.10284   -2.000
 7161.00    1.36628   1.10686   -2.000
 7162.00    1.34203   1.11091   -2.000
 7163.00    1.31576   1.10994   -2.000
 7164.00    1.27228   1.10717   -2.000
 7165.00    1.20737   1.10709   -2.000
 7166.00    1.00666   1.10896   -2.000
 7167.00    0.87132   1.10957   -2.000
 7168.00    1.06058   1.10896   -2.000
 7169.00    1.20288   1.10870   -2.000
 7170.00    1.15617   1.10836   -2.000
 7171.00    1.11860   1.10743   -2.000
 7172.00    1.11159   1.10823   -2.000
 7173.00    1.08565   1.10960   -2.000
 7174.00    1.00632   1.10807   -2.000
 7175.00    0.96293   1.10484   -2.000
 7176.00    1.00621   1.10463   -2.000
 7177.00    1.06920   1.10800   -2.000
 7178.00    1.17324   1.10856   -2.000
 7179.00    1.21572   1.10411   -2.000
 7180.00    1.14675   1.10173   -2.000
 7181.00    1.11830   1.10574   -2.000
 7182.00    1.15400   1.10834   -2.000
 7183.00    1.13616   1.10373   -2.000
 7184.00    1.04393   1.09902   -2.000
 7185.00    0.96810   1.10190   -2.000
 7186.00    0.91231   1.10770   -2.000
 7187.00    0.92262   1.10599   -2.000
 7188.00    1.00416   1.09907   -2.000
 7189.00    1.06903   1.09882   -2.000
 7190.00    1.11805   1.10643   -2.000
 7191.00    1.12085   1.10905   -2.000
 7192.00    1.08492   1.10205   -2.000
 7193.00    1.06128   1.09716   -2.000
 7194.00    1.04673   1.10278   -2.000
 7195.00    1.06983   1.11008   -2.000
 7196.00    1.11733   1.10757   -2.000
 7197.00    1.04089   1.10053   -2.000
 7198.00    0.89412   1.10124   -2.000
 7199.00    0.94797   1.10930   -2.000
 7200.00    1.10091   1.11233   -2.000
 7201.00    1.17215   1.10678   -2.000
 7202.00    1.20852   1.10276   -2.000
 7203.00    1.16853   1.10781   -2.000
 7204.00    1.10061   1.11453   -2.000
 7205.00    1.00873   1.11346   -2.000
 7206.00    0.90944   1.10919   -2.000
 7207.00    0.91979   1.11041   -2.000
 7208.00    0.95844   1.11637   -2.000
 7209.00    0.97518   1.11882   -2.000
 7210.00    0.98731   1.11631   -2.000
 7211.00    1.00439   1.11538   -2.000
 7212.00    1.02229   1.11961   -2.000
 7213.00    1.10029   1.12408   -2.000
 7214.00    1.18581   1.12365   -2.000
 7215.00    1.17550   1.12239   -2.000
 7216.00    1.15688   1.12506   -2.000
 7217.00    1.10092   1.12923   -2.000
 7218.00    1.04306   1.13021   -2.000
