###################################################################
## OUTPUT of StarlightChains_v04.for    [Cid@UFSC - 01/Apr/2007] ##
###################################################################

## Some input info
KUG0210-078._30_25.txt                   [arq_obs]
Base.CB07.vall.4m                        [arq_base]
Masks.EmLines.NEW.gm                     [arq_masks]
StCv04.C11.config                        [arq_config]
   66                                    [N_base]
    0                                    [N_YAV_components = # of components with extra extinction!]
    0                                    [i_FitPowerLaw (1/0 = Yes/No)]
-9.99                                    [alpha_PowerLaw]
CCM                                      [red_law_option]
 1.458241                                [q_norm = A(l_norm)/A(V)]

## (Re)Sampling Parameters
 3741.00                                 [l_ini (A)]
 7218.00                                 [l_fin (A)]
    1.00                                 [dl    (A)]     (OBS: dl_cushion =    50.00 A)

## Normalization info
 4020.00                                 [l_norm (A) - for base]
 4010.00                                 [llow_norm (A) - window for f_obs]
 4060.00                                 [lupp_norm (A) - window for f_obs]
1.899746E-17                             [fobs_norm (in input units)]

## S/N
 3691.00                                 [llow_SN (A) - window for S/N]
 7268.00                                 [lupp_SN (A) - window for S/N]
   4.915                                 [S/N in S/N window]
   6.538                                 [S/N in norm. window]
   0.017                                 [S/N_err in S/N window]
   0.023                                 [S/N_err in norm. window]
  1.0000                                 [fscale_chi2]

## etc...
    -2007426                             [idum_orig]
  2421                                   [NOl_eff]
  2330                                   [Nl_eff]
    91    NSIGMA                         [Ntot_cliped & clip_method]
  6369440                                [Nglobal_steps]
   7                                     [N_chains]
  37                                     [NEX0s_base = N_base in EX0s-fits]
 0   0   1       91   2.0   7.817E+03    [Clip-Bug, RC-Crash & Burn-In warning-flags, n_censored_weights, wei_nsig_threshold & wei_limit]
    50     49.427     48.906      0.521  [idt_all, wdt_TotTime, wdt_UsrTime & wdt_SysTime (sec)]

## Synthesis Results - Best model ##

 1.86981E-05                             [chi2/Nl_eff]
    11.27817                             [adev (%)]

    94.57195                             [sum-of-x (%)]
 9.02271E-18                             [Flux_tot (units of input spectrum!)]
 2.66505E-13                             [Mini_tot (???)]
 1.36018E-13                             [Mcor_tot (???)]

 -45.45                                  [v0_min  (km/s)]
  40.65                                  [vd_min  (km/s)]
-0.5128                                  [AV_min  (mag)]
 0.0000                                  [YAV_min (mag)]

# j     x_j(%)      Mini_j(%)     Mcor_j(%)     age_j(yr)     Z_j      (L/M)_j    YAV?  Mstars   component_j        a/Fe...       SSP_chi2r SSP_adev(%)   SSP_AV   SSP_x(%)
  1      0.0000     0.0000E+00    0.0000E+00    1.000000E+06  0.00400  1.094E-02    0   1.0000   age020_m42            0.0000     2.5522E-05    14.3550   2.5077    84.2036
  2      5.3386     4.7696E-03    9.3443E-03    3.160000E+06  0.00400  4.007E-02    0   0.9999   age045_m42            0.0000     2.4010E-05    13.6693   1.8189    88.4901
  3      0.0000     0.0000E+00    0.0000E+00    5.010000E+06  0.00400  2.539E-02    0   0.9488   age055_m42            0.0000     2.4589E-05    13.8268   2.1308    86.7361
  4      0.9233     1.2616E-03    2.2791E-03    6.610000E+06  0.00400  2.620E-02    0   0.9220   age061_m42            0.0000     2.3977E-05    13.3657   1.7599    88.2795
  5      0.0000     0.0000E+00    0.0000E+00    1.000000E+07  0.00400  1.322E-02    0   0.8862   age070_m42            0.0000     2.3308E-05    11.9556   1.5298    88.9867
  6      0.0001     5.1838E-07    8.7054E-07    1.445000E+07  0.00400  7.883E-03    0   0.8571   age078_m42            0.0000     2.3881E-05    12.3371   1.8389    87.2901
  7      0.0000     0.0000E+00    0.0000E+00    2.512000E+07  0.00400  5.251E-03    0   0.8174   age090_m42            0.0000     2.3110E-05    11.6784   1.4123    89.1640
  8      0.0000     0.0000E+00    0.0000E+00    4.000000E+07  0.00400  3.649E-03    0   0.7851   age104_m42            0.0000     2.2729E-05    11.6416   1.1825    89.9172
  9      0.0000     0.0000E+00    0.0000E+00    5.500000E+07  0.00400  3.098E-03    0   0.7629   age110_m42            0.0000     2.3326E-05    12.1577   1.3232    90.0458
 10      0.0000     0.0000E+00    0.0000E+00    1.015200E+08  0.00400  2.228E-03    0   0.7207   age116_m42            0.0000     2.3713E-05    12.4538   1.3384    90.2040
 11      0.2641     8.6512E-03    1.1269E-02    2.861200E+08  0.00400  1.093E-03    0   0.6648   age125_m42            0.0000     2.2538E-05    11.7016   0.7837    92.4045
 12      0.4659     2.5280E-02    3.1527E-02    5.088000E+08  0.00400  6.597E-04    0   0.6365   age130_m42            0.0000     2.2613E-05    12.1340   0.7537    93.5969
 13      0.0000     0.0000E+00    0.0000E+00    1.434000E+09  0.00400  2.132E-04    0   0.5798   age139_m42            0.0000     2.0383E-05    11.8971  -0.2542    96.6531
 14     21.7431     1.3204E+01    1.3911E+01    4.250000E+09  0.00400  5.895E-05    0   0.5377   age158_m42            0.0000     1.9669E-05    13.1586  -0.7864    95.7613
 15      0.0000     0.0000E+00    0.0000E+00    7.500000E+09  0.00400  3.510E-05    0   0.5212   age171_m42            0.0000     1.9990E-05    13.6469  -1.0000    95.8206
 16      0.0000     0.0000E+00    0.0000E+00    1.300000E+10  0.00400  2.005E-05    0   0.5034   age193_m42            0.0000     2.1039E-05    12.8002  -1.0000    92.3966
 17     11.6804     2.7419E+01    2.6685E+01    1.800000E+10  0.00400  1.525E-05    0   0.4967   age213_m42            0.0000     2.1110E-05    12.6383  -1.0000    91.5825
 18      0.0071     2.0608E-05    4.0379E-05    1.000000E+06  0.00800  1.238E-02    0   1.0000   age020_m52            0.0000     2.5545E-05    14.3585   2.5040    84.3727
 19      0.9194     1.0707E-03    2.0907E-03    3.160000E+06  0.00800  3.074E-02    0   0.9966   age045_m52            0.0000     2.5393E-05    14.3220   2.4301    85.0123
 20      4.0257     5.4016E-03    9.9940E-03    5.010000E+06  0.00800  2.668E-02    0   0.9443   age055_m52            0.0000     2.4700E-05    13.8098   2.2107    86.1155
 21      0.0000     0.0000E+00    0.0000E+00    6.610000E+06  0.00800  2.136E-02    0   0.9177   age061_m52            0.0000     2.1230E-05    11.9206   0.9939    91.2652
 22      6.0628     1.7864E-02    3.0895E-02    1.000000E+07  0.00800  1.215E-02    0   0.8827   age070_m52            0.0000     2.3266E-05    11.6862   1.7119    88.8297
 23      0.0000     0.0000E+00    0.0000E+00    1.445000E+07  0.00800  8.717E-03    0   0.8552   age078_m52            0.0000     2.3520E-05    12.1320   1.8101    88.3461
 24      1.2721     8.1434E-03    1.3023E-02    2.512000E+07  0.00800  5.592E-03    0   0.8162   age090_m52            0.0000     2.2938E-05    11.4692   1.4776    90.1467
 25      0.1410     1.2952E-03    1.9899E-03    4.000000E+07  0.00800  3.896E-03    0   0.7841   age104_m52            0.0000     2.2747E-05    11.5587   1.3867    90.8130
 26      1.6901     2.8167E-02    3.9880E-02    1.015200E+08  0.00800  2.148E-03    0   0.7226   age116_m52            0.0000     2.2679E-05    12.0136   1.3076    90.9757
 27      0.0000     0.0000E+00    0.0000E+00    2.861200E+08  0.00800  9.925E-04    0   0.6683   age125_m52            0.0000     2.2645E-05    11.9687   0.8254    94.2627
 28      0.0000     0.0000E+00    0.0000E+00    9.047900E+08  0.00800  3.141E-04    0   0.6138   age135_m52            0.0000     2.0825E-05    12.3746  -0.0476   100.3482
 29      0.1371     2.8543E-02    3.2733E-02    1.434000E+09  0.00800  1.719E-04    0   0.5853   age139_m52            0.0000     1.9867E-05    12.5307  -0.6537    99.2136
 30      0.0000     0.0000E+00    0.0000E+00    2.500000E+09  0.00800  7.872E-05    0   0.5600   age150_m52            0.0000     2.0434E-05    13.8097  -0.9837    98.4140
 31      3.6735     3.0329E+00    3.2244E+00    4.250000E+09  0.00800  4.336E-05    0   0.5426   age158_m52            0.0000     2.0454E-05    13.8735  -1.0000    97.7059
 32      0.0000     0.0000E+00    0.0000E+00    6.250000E+09  0.00800  3.159E-05    0   0.5319   age166_m52            0.0000     2.2256E-05    12.9886  -1.0000    93.9623
 33     20.6090     5.4208E+01    5.3882E+01    1.300000E+10  0.00800  1.361E-05    0   0.5073   age193_m52            0.0000     3.2162E-05    16.1686  -1.0000    83.2354
 34      0.0000     0.0000E+00    0.0000E+00    1.800000E+10  0.00800  9.886E-06    0   0.4990   age213_m52            0.0000     3.7133E-05    17.9447  -1.0000    80.2706
 35      0.0000     0.0000E+00    0.0000E+00    1.000000E+06  0.02000  1.544E-02    0   1.0000   age020_m62            0.0000     2.5574E-05    14.3824   2.4981    84.6256
 36      0.1619     1.5405E-04    2.9755E-04    3.160000E+06  0.02000  3.762E-02    0   0.9858   age045_m62            0.0000     2.5488E-05    14.3675   2.4383    85.3204
 37      0.0000     0.0000E+00    0.0000E+00    5.010000E+06  0.02000  3.296E-02    0   0.9342   age055_m62            0.0000     2.4540E-05    13.8150   2.0952    87.5798
 38      0.0007     2.1264E-06    3.6919E-06    8.710000E+06  0.02000  1.154E-02    0   0.8861   age067_m62            0.0000     2.3217E-05    10.3927   1.2269    90.1156
 39      0.0000     0.0000E+00    0.0000E+00    1.445000E+07  0.02000  7.663E-03    0   0.8472   age078_m62            0.0000     2.2407E-05    10.9856   1.3739    90.5531
 40      0.0000     0.0000E+00    0.0000E+00    2.512000E+07  0.02000  4.532E-03    0   0.8099   age090_m62            0.0000     2.2751E-05    10.8957   1.3813    89.8072
 41      0.0000     0.0000E+00    0.0000E+00    5.500000E+07  0.02000  2.733E-03    0   0.7595   age110_m62            0.0000     2.2794E-05    11.5557   1.3666    90.2710
 42      0.0000     0.0000E+00    0.0000E+00    1.609000E+08  0.02000  1.369E-03    0   0.6985   age120_m62            0.0000     2.3356E-05    11.9436   1.2040    92.3984
 43      0.0000     0.0000E+00    0.0000E+00    2.861200E+08  0.02000  9.013E-04    0   0.6714   age125_m62            0.0000     2.3500E-05    12.0049   0.9510    94.9409
 44      0.0000     0.0000E+00    0.0000E+00    5.088000E+08  0.02000  5.028E-04    0   0.6449   age130_m62            0.0000     2.2773E-05    12.6908   0.5188    98.9530
 45      0.0000     0.0000E+00    0.0000E+00    9.047900E+08  0.02000  2.428E-04    0   0.6179   age135_m62            0.0000     2.0923E-05    13.1296  -0.1397   100.7496
 46      0.0000     0.0000E+00    0.0000E+00    1.434000E+09  0.02000  1.263E-04    0   0.5908   age139_m62            0.0000     2.0637E-05    13.5876  -0.6245   100.5889
 47      0.0000     0.0000E+00    0.0000E+00    2.500000E+09  0.02000  5.985E-05    0   0.5673   age150_m62            0.0000     2.1528E-05    14.3222  -1.0000    99.8746
 48      0.0000     0.0000E+00    0.0000E+00    4.250000E+09  0.02000  3.271E-05    0   0.5468   age158_m62            0.0000     2.5495E-05    13.7470  -1.0000    93.0146
 49      0.0000     0.0000E+00    0.0000E+00    1.000000E+10  0.02000  1.360E-05    0   0.5167   age181_m62            0.0000     3.5698E-05    16.3842  -1.0000    84.7332
 50      0.0000     0.0000E+00    0.0000E+00    1.800000E+10  0.02000  7.124E-06    0   0.5013   age213_m62            0.0000     4.4949E-05    19.4627  -1.0000    78.9456
 51      0.0000     0.0000E+00    0.0000E+00    1.000000E+06  0.05000  2.592E-02    0   0.9998   age020_m72            0.0000     2.5698E-05    14.3951   2.4871    84.7718
 52      0.0688     5.0846E-05    9.5411E-05    3.160000E+06  0.05000  4.845E-02    0   0.9577   age045_m72            0.0000     2.5170E-05    14.2739   2.3318    86.0115
 53      0.0114     1.3259E-05    2.3764E-05    5.010000E+06  0.05000  3.072E-02    0   0.9147   age055_m72            0.0000     2.3551E-05    12.2009   1.9129    88.2580
 54     13.2806     3.2676E-02    5.6833E-02    6.610000E+06  0.05000  1.455E-02    0   0.8877   age061_m72            0.0000     2.4501E-05    11.9316   1.2794    90.3684
 55      0.0000     0.0000E+00    0.0000E+00    1.000000E+07  0.05000  9.074E-03    0   0.8524   age070_m72            0.0000     2.4268E-05    13.1246   2.0865    87.8877
 56      0.0013     1.0965E-05    1.6977E-05    2.512000E+07  0.05000  4.250E-03    0   0.7902   age090_m72            0.0000     2.3666E-05    12.1318   1.8220    88.5937
 57      0.0000     0.0000E+00    0.0000E+00    4.000000E+07  0.05000  3.087E-03    0   0.7618   age104_m72            0.0000     2.3537E-05    11.8082   1.6111    89.5308
 58      0.0000     0.0000E+00    0.0000E+00    1.015200E+08  0.05000  1.700E-03    0   0.7096   age116_m72            0.0000     2.3474E-05    11.6671   1.3598    91.6695
 59      0.0000     0.0000E+00    0.0000E+00    2.861200E+08  0.05000  7.384E-04    0   0.6633   age125_m72            0.0000     2.3601E-05    12.2858   0.7943    96.8770
 60      1.3547     1.2699E-01    1.5854E-01    5.088000E+08  0.05000  3.819E-04    0   0.6372   age130_m72            0.0000     2.2212E-05    13.0750   0.2269   100.8010
 61      0.0000     0.0000E+00    0.0000E+00    9.047900E+08  0.05000  1.676E-04    0   0.6110   age135_m72            0.0000     2.2004E-05    14.6410  -0.5743   102.2833
 62      0.0000     0.0000E+00    0.0000E+00    1.434000E+09  0.05000  8.837E-05    0   0.5874   age139_m72            0.0000     2.2272E-05    14.3864  -1.0000   101.4108
 63      0.0000     0.0000E+00    0.0000E+00    2.500000E+09  0.05000  4.233E-05    0   0.5598   age150_m72            0.0000     2.6426E-05    14.0077  -1.0000    93.8718
 64      0.7395     1.8449E+00    1.8974E+00    6.250000E+09  0.05000  1.435E-05    0   0.5249   age166_m72            0.0000     3.9365E-05    17.7252  -1.0000    82.0839
 65      0.0000     0.0000E+00    0.0000E+00    1.300000E+10  0.05000  6.513E-06    0   0.5036   age193_m72            0.0000     5.2624E-05    22.0166  -1.0000    75.7591
 66      0.0000     0.0000E+00    0.0000E+00    1.800000E+10  0.05000  4.527E-06    0   0.4945   age213_m72            0.0000     6.1824E-05    24.3366  -1.0000    71.4373


## Synthesis Results - Average & Chains ##

# j      x_j: min, <> & last-chain-values for 1 ...  7 chains
  1      0.0000      0.2149      0.1698      0.6746      0.0000      0.3763      0.0000      0.0000      0.0649
  2      5.3386     11.9388     12.5069      9.3508     10.1726     12.1434     11.4555     10.2093     13.0456
  3      0.0000      0.1965      0.0000      1.2707      0.3786      0.1944      0.0000      0.2590      0.0000
  4      0.9233      0.3076      0.2523      0.6887      0.1699      0.0000      0.0000      0.7361      0.4417
  5      0.0000      0.2134      0.1984      0.5221      0.2562      0.0000      0.0000      0.0000      0.0000
  6      0.0001      0.3030      0.9658      1.0819      0.3278      1.6841      0.0736      2.8503      0.0000
  7      0.0000      0.3662      0.6432      2.8304      0.1430      0.0000      2.2186      0.1884      0.3125
  8      0.0000      0.2283      0.0720      1.1419      0.4648      0.2020      0.0917      0.0000      0.7178
  9      0.0000      0.2353      0.9244      0.1770      0.2025      0.0000      1.5732      0.0000      0.0000
 10      0.0000      0.1965      0.0804      0.4685      0.0000      0.0000      0.0000      0.0000      0.1378
 11      0.2641     13.9856     13.0377     15.2051     15.2996     13.4910     13.9293     12.9402     14.4688
 12      0.4659     66.4063     57.9663     38.1111     71.3961     58.1297     48.6904     46.2885     68.8759
 13      0.0000      0.2118      0.0000      2.1477      0.1665      1.3362      0.1075      0.0000      0.2330
 14     21.7431      0.2714      0.1832      3.6001      0.0450      0.0758      0.7847      0.4108      0.1001
 15      0.0000      0.1777      0.1792      0.4009      0.2948      0.0836      0.0000      0.0000      0.0000
 16      0.0000      0.1674      0.4487      0.6663      0.1248      0.6122      0.0000      0.1903      0.0249
 17     11.6804      0.2552      0.0000      1.2689      0.1681      0.0000      0.0000      1.1758      0.0501
 18      0.0071      0.2357      0.3043      0.4875      0.1894      0.0024      0.0985      1.5451      0.0000
 19      0.9194      0.3119      0.2344      1.6636      0.1285      0.0708      0.6131      1.5881      0.0000
 20      4.0257      0.2388      0.3037      0.0000      0.1150      0.3616      0.0000      0.3540      0.0000
 21      0.0000      0.1980      0.0000      0.4199      0.2018      0.0000      0.0000      0.6589      0.0643
 22      6.0628      0.2085      0.0000      0.4898      0.1651      0.0000      0.2872      0.3661      0.6976
 23      0.0000      0.2947      0.2800      0.2774      0.1529      0.0000      2.7721      0.0000      0.6594
 24      1.2721      0.3237      1.5702      0.0000      0.2812      0.6495      0.0436      0.4731      0.1013
 25      0.1410      0.2960      0.1569      0.0000      0.2058      1.4195      0.2641      0.9459      0.1361
 26      1.6901      0.2176      0.4749      0.1198      0.0052      0.0000      0.9183      1.0872      0.2318
 27      0.0000      0.2987      0.6690      0.7080      0.1572      0.9469      2.5804      0.3614      0.0000
 28      0.0000      0.2547      0.6174      0.0000      0.1685      1.3870      0.7809      0.0000      0.3788
 29      0.1371      0.3021      0.6468      1.1252      0.1649      0.5888      0.0133      0.3542      0.1962
 30      0.0000      0.3169      0.4417      0.7851      0.4178      1.2475      2.5306      0.0000      0.2671
 31      3.6735      0.1871      0.4086      0.7581      0.0964      0.0259      0.5224      0.5235      0.2426
 32      0.0000      0.2020      0.5020      1.0869      0.0617      0.2639      0.0616      0.0000      0.0000
 33     20.6090      0.2996      0.2363      0.2174      0.0872      0.6540      0.9464      3.4737      0.1495
 34      0.0000      0.2563      0.2975      0.2328      0.3662      0.1856      0.0000      1.9621      0.0000
 35      0.0000      0.2231      0.1523      2.0060      0.2299      0.0000      1.2309      0.0000      0.0117
 36      0.1619      0.2243      0.0811      0.4749      0.0000      0.4804      2.0809      0.8887      0.1183
 37      0.0000      0.2631      0.0703      0.5594      0.0420      0.0000      0.0000      0.4117      0.1641
 38      0.0007      0.1721      0.0000      0.8097      0.0546      0.6036      0.2011      0.6765      0.2195
 39      0.0000      0.1947      0.0664      0.0000      0.0000      0.5184      0.6460      0.0356      0.0000
 40      0.0000      0.3047      1.0743      0.3766      0.1794      0.0000      0.0000      0.6433      0.0000
 41      0.0000      0.2277      0.1849      0.3942      0.0917      0.6645      0.8995      0.2573      0.0149
 42      0.0000      0.2512      1.0814      1.2397      0.0911      0.0639      0.9730      0.2734      0.2016
 43      0.0000      0.2490      0.3187      0.4278      0.0000      0.3843      0.2546      3.9131      0.0000
 44      0.0000      0.3340      0.7167      0.0452      0.1483      0.1010      1.4121      0.0560      0.6825
 45      0.0000      0.2350      0.4305      0.0000      0.2447      0.3097      0.4294      0.0852      0.0214
 46      0.0000      0.2071      0.0000      0.7282      0.3903      0.8425      0.9234      1.7412      0.1243
 47      0.0000      0.3253      0.5664      0.7646      0.0000      0.0805      0.0000      2.2011      0.0165
 48      0.0000      0.2091      0.2800      0.0670      0.1161      0.0000      0.5212      0.0000      0.0231
 49      0.0000      0.1952      0.0275      0.3375      0.2064      0.0000      0.0000      0.4485      0.1520
 50      0.0000      0.3152      1.4426      0.6139      0.0000      0.5313      0.1096      0.0000      0.4831
 51      0.0000      0.3264      0.3983      2.4235      0.5176      0.0000      0.7905      0.2927      0.0595
 52      0.0688      0.2123      0.0000      0.0000      0.0844      0.4268      0.0000      0.5880      0.1845
 53      0.0114      0.2224      0.6404      0.0195      0.0000      0.4901      0.9954      1.5806      0.1125
 54     13.2806      0.3175      0.2939      0.0000      0.4233      0.5498      0.2557      1.3202      0.6882
 55      0.0000      0.2658      0.4715      0.0000      0.0000      0.3558      0.0000      0.0000      0.1166
 56      0.0013      0.2296      0.7651      0.9639      0.0000      1.2086      0.2521      0.3622      0.0000
 57      0.0000      0.2714      1.5331      1.3268      0.0000      1.4107      0.0000      0.0000      0.0000
 58      0.0000      0.7103      0.1268      2.2673      0.4578      0.5287      0.3536      0.0000      0.8741
 59      0.0000      0.2015      0.9856      0.0000      0.6792      0.0000      0.0000      0.2382      0.2652
 60      1.3547      0.2394      0.0000      0.6710      0.2907      0.8147      1.1613      0.8323      0.3177
 61      0.0000      0.2236      0.0000      1.8133      0.4193      0.0000      2.4960      0.5138      0.2540
 62      0.0000      0.2489      0.4056      0.2024      0.3441      0.7145      0.0592      0.0000      0.0364
 63      0.0000      0.2107      0.1966      0.0000      0.3399      0.0867      0.6608      1.2203      0.4339
 64      0.7395      0.2093      0.0000      0.0000      0.0000      0.0228      0.0000      0.3956      0.6594
 65      0.0000      0.3309      0.3248      0.8429      0.2921      0.0777      0.0000      0.0834      0.4867
 66      0.0000      0.2936      0.5641      0.8941      0.2303      1.1638      0.0000      0.6245      0.1605

# j      m_j: min, <> & last-chain-values for 1 ...  7 chains
  1  0.0000E+00  8.3323E-03  4.6417E-03  1.3686E-02  0.0000E+00  1.0594E-02  0.0000E+00  0.0000E+00  2.6840E-03
  2  9.3443E-03  1.2636E-01  9.3324E-02  5.1792E-02  1.3321E-01  9.3332E-02  1.6424E-01  5.1364E-02  1.4720E-01
  3  0.0000E+00  3.1149E-03  0.0000E+00  1.0540E-02  7.4240E-03  2.2376E-03  0.0000E+00  1.9514E-03  0.0000E+00
  4  2.2791E-03  4.5912E-03  2.6551E-03  5.3793E-03  3.1380E-03  0.0000E+00  0.0000E+00  5.2224E-03  7.0289E-03
  5  0.0000E+00  6.0666E-03  3.9775E-03  7.7687E-03  9.0122E-03  0.0000E+00  0.0000E+00  0.0000E+00  0.0000E+00
  6  8.7054E-07  1.3974E-02  3.1399E-02  2.6110E-02  1.8703E-02  5.6399E-02  4.5964E-03  6.2482E-02  0.0000E+00
  7  0.0000E+00  2.4174E-02  2.9939E-02  9.7796E-02  1.1685E-02  0.0000E+00  1.9843E-01  5.9136E-03  2.2000E-02
  8  0.0000E+00  2.0837E-02  4.6344E-03  5.4534E-02  5.2476E-02  1.3385E-02  1.1337E-02  0.0000E+00  6.9834E-02
  9  0.0000E+00  2.4571E-02  6.8068E-02  9.6753E-03  2.6172E-02  0.0000E+00  2.2259E-01  0.0000E+00  0.0000E+00
 10  0.0000E+00  2.6964E-02  7.7752E-03  3.3636E-02  0.0000E+00  0.0000E+00  0.0000E+00  0.0000E+00  2.0149E-02
 11  1.1269E-02  3.6079E+00  2.3713E+00  2.0528E+00  4.8833E+00  2.5274E+00  4.8679E+00  1.5868E+00  3.9794E+00
 12  3.1527E-02  2.7174E+01  1.6724E+01  8.1617E+00  3.6148E+01  1.7275E+01  2.6992E+01  9.0042E+00  3.0049E+01
 13  0.0000E+00  2.4425E-01  0.0000E+00  1.2964E+00  2.3755E-01  1.1193E+00  1.6804E-01  0.0000E+00  2.8658E-01
 14  1.3911E+01  1.0501E+00  4.9970E-01  7.2887E+00  2.1541E-01  2.1304E-01  4.1124E+00  7.5548E-01  4.1278E-01
 15  0.0000E+00  1.1191E+00  7.9590E-01  1.3215E+00  2.2974E+00  3.8225E-01  0.0000E+00  0.0000E+00  0.0000E+00
 16  0.0000E+00  1.7825E+00  3.3686E+00  3.7133E+00  1.6449E+00  4.7342E+00  0.0000E+00  9.6312E-01  2.8275E-01
 17  2.6685E+01  3.5258E+00  0.0000E+00  9.1736E+00  2.8739E+00  0.0000E+00  0.0000E+00  7.7211E+00  7.3757E-01
 18  4.0379E-05  8.0736E-03  7.3503E-03  8.7397E-03  8.0299E-03  5.8779E-05  4.5704E-03  2.5162E-02  0.0000E+00
 19  2.0907E-03  4.2885E-03  2.2725E-03  1.1971E-02  2.1861E-03  7.0708E-04  1.1420E-02  1.0380E-02  0.0000E+00
 20  9.9940E-03  3.5846E-03  3.2142E-03  0.0000E+00  2.1355E-03  3.9424E-03  0.0000E+00  2.5259E-03  0.0000E+00
 21  0.0000E+00  3.6071E-03  0.0000E+00  4.0041E-03  4.5501E-03  0.0000E+00  0.0000E+00  5.7077E-03  1.2483E-03
 22  3.0895E-02  6.4257E-03  0.0000E+00  7.8984E-03  6.2926E-03  0.0000E+00  1.1989E-02  5.3621E-03  2.2918E-02
 23  0.0000E+00  1.2261E-02  8.2142E-03  6.0400E-03  7.8724E-03  0.0000E+00  1.5626E-01  0.0000E+00  2.9254E-02
 24  1.3023E-02  2.0039E-02  6.8531E-02  0.0000E+00  2.1538E-02  2.9198E-02  3.6600E-03  1.3921E-02  6.6831E-03
 25  1.9899E-03  2.5264E-02  9.4430E-03  0.0000E+00  2.1733E-02  8.7990E-02  3.0537E-02  3.8382E-02  1.2382E-02
 26  3.9880E-02  3.1050E-02  4.7771E-02  8.9469E-03  9.1721E-04  0.0000E+00  1.7750E-01  7.3741E-02  3.5260E-02
 27  0.0000E+00  8.5300E-02  1.3469E-01  1.0582E-01  5.5531E-02  1.9639E-01  9.9831E-01  4.9060E-02  0.0000E+00
 28  0.0000E+00  2.1111E-01  3.6075E-01  0.0000E+00  1.7282E-01  8.3483E-01  8.7678E-01  0.0000E+00  3.3474E-01
 29  3.2733E-02  4.3622E-01  6.5856E-01  8.5040E-01  2.9471E-01  6.1748E-01  2.6013E-02  2.4315E-01  3.0213E-01
 30  0.0000E+00  9.5600E-01  9.3963E-01  1.2396E+00  1.5598E+00  2.7335E+00  1.0344E+01  0.0000E+00  8.5924E-01
 31  3.2244E+00  9.9315E-01  1.5291E+00  2.1056E+00  6.3301E-01  9.9762E-02  3.7562E+00  1.3209E+00  1.3725E+00
 32  0.0000E+00  1.4429E+00  2.5275E+00  4.0622E+00  5.4531E-01  1.3685E+00  5.9568E-01  0.0000E+00  0.0000E+00
 33  5.3882E+01  4.7364E+00  2.6338E+00  1.7985E+00  1.7058E+00  7.5077E+00  2.0269E+01  2.6105E+01  2.5197E+00
 34  0.0000E+00  5.4861E+00  4.4904E+00  2.6087E+00  9.6996E+00  2.8854E+00  0.0000E+00  1.9967E+01  0.0000E+00
 35  0.0000E+00  6.1292E-03  2.9497E-03  2.8837E-02  7.8139E-03  0.0000E+00  4.5806E-02  0.0000E+00  3.4311E-04
 36  2.9755E-04  2.4928E-03  6.3563E-04  2.7622E-03  0.0000E+00  3.8770E-03  3.1330E-02  4.6951E-03  1.4019E-03
 37  0.0000E+00  3.1629E-03  5.9600E-04  3.5194E-03  6.2523E-04  0.0000E+00  0.0000E+00  2.3524E-03  2.1036E-03
 38  3.6919E-06  5.6051E-03  0.0000E+00  1.3800E-02  2.1991E-03  1.4275E-02  8.8721E-03  1.0472E-02  7.6209E-03
 39  0.0000E+00  9.1275E-03  2.1962E-03  0.0000E+00  0.0000E+00  1.7654E-02  4.1037E-02  7.9395E-04  0.0000E+00
 40  0.0000E+00  2.3097E-02  5.7408E-02  1.4938E-02  1.6825E-02  0.0000E+00  0.0000E+00  2.3180E-02  0.0000E+00
 41  0.0000E+00  2.6839E-02  1.5363E-02  2.4315E-02  1.3377E-02  5.6880E-02  1.4363E-01  1.4414E-02  1.8702E-03
 42  0.0000E+00  5.4355E-02  1.6499E-01  1.4040E-01  2.4393E-02  1.0039E-02  2.8525E-01  2.8122E-02  4.6509E-02
 43  0.0000E+00  7.8659E-02  7.0997E-02  7.0737E-02  0.0000E+00  8.8174E-02  1.0897E-01  5.8770E-01  0.0000E+00
 44  0.0000E+00  1.8170E-01  2.7490E-01  1.2860E-02  9.9820E-02  3.9918E-02  1.0406E+00  1.4485E-02  3.9583E-01
 45  0.0000E+00  2.5365E-01  3.2762E-01  0.0000E+00  3.2683E-01  2.4274E-01  6.2788E-01  4.3731E-02  2.4608E-02
 46  0.0000E+00  4.1094E-01  0.0000E+00  7.5604E-01  9.5809E-01  1.2138E+00  2.4817E+00  1.6422E+00  2.6297E-01
 47  0.0000E+00  1.3080E+00  1.6053E+00  1.6086E+00  0.0000E+00  2.3498E-01  0.0000E+00  4.2064E+00  7.0512E-02
 48  0.0000E+00  1.4824E+00  1.3998E+00  2.4876E-01  1.0188E+00  0.0000E+00  5.0058E+00  0.0000E+00  1.7488E-01
 49  0.0000E+00  3.1461E+00  3.1289E-01  2.8459E+00  4.1152E+00  0.0000E+00  0.0000E+00  3.4352E+00  2.6115E+00
 50  0.0000E+00  9.4077E+00  3.0354E+01  9.5879E+00  0.0000E+00  1.1515E+01  4.4321E+00  0.0000E+00  1.5372E+01
 51  0.0000E+00  5.3396E-03  4.5937E-03  2.0749E-02  1.0477E-02  0.0000E+00  1.7519E-02  2.2765E-03  1.0378E-03
 52  9.5411E-05  1.7803E-03  0.0000E+00  0.0000E+00  8.7500E-04  2.5983E-03  0.0000E+00  2.3432E-03  1.6488E-03
 53  2.3764E-05  2.8086E-03  5.7021E-03  1.2917E-04  0.0000E+00  4.4951E-03  1.7029E-02  9.4883E-03  1.5143E-03
 54  5.6833E-02  8.2146E-03  5.3618E-03  0.0000E+00  1.3552E-02  1.0332E-02  8.9636E-03  1.6239E-02  1.8987E-02
 55  0.0000E+00  1.0588E-02  1.3246E-02  0.0000E+00  0.0000E+00  1.0296E-02  0.0000E+00  0.0000E+00  4.9516E-03
 56  1.6977E-05  1.8109E-02  4.2537E-02  3.9779E-02  0.0000E+00  6.9212E-02  2.6935E-02  1.3577E-02  0.0000E+00
 57  0.0000E+00  2.8411E-02  1.1313E-01  7.2678E-02  0.0000E+00  1.0722E-01  0.0000E+00  0.0000E+00  0.0000E+00
 58  0.0000E+00  1.2575E-01  1.5828E-02  2.1006E-01  1.0028E-01  6.7975E-02  8.4804E-02  0.0000E+00  1.6498E-01
 59  0.0000E+00  7.6776E-02  2.6474E-01  0.0000E+00  3.2016E-01  0.0000E+00  0.0000E+00  4.3147E-02  1.0771E-01
 60  1.5854E-01  1.6941E-01  0.0000E+00  2.4850E-01  2.5455E-01  4.1868E-01  1.1133E+00  2.7999E-01  2.3972E-01
 61  0.0000E+00  3.4570E-01  0.0000E+00  1.4673E+00  8.0220E-01  0.0000E+00  5.2283E+00  3.7761E-01  4.1877E-01
 62  0.0000E+00  7.0159E-01  8.0618E-01  2.9862E-01  1.2004E+00  1.4628E+00  2.2600E-01  0.0000E+00  1.0930E-01
 63  0.0000E+00  1.1818E+00  7.7735E-01  0.0000E+00  2.3587E+00  3.5309E-01  5.0214E+00  3.2537E+00  2.5947E+00
 64  1.8974E+00  3.2476E+00  0.0000E+00  0.0000E+00  0.0000E+00  2.5721E-01  0.0000E+00  2.9176E+00  1.0907E+01
 65  0.0000E+00  1.0851E+01  7.5105E+00  1.4467E+01  1.1851E+01  1.8494E+00  0.0000E+00  1.2999E+00  1.7017E+01
 66  0.0000E+00  1.3600E+01  1.8424E+01  2.1679E+01  1.3200E+01  3.9157E+01  0.0000E+00  1.3753E+01  7.9278E+00

# AV, chi2 & Mass for <> & i_chain = 1 ...  7 solutions
AV      -0.5128      0.4440      0.3269      0.1874      0.3639      0.2991      0.3636      0.1290      0.3688
chi2 1.8698E-05  2.8558E-05  2.7425E-05  2.6889E-05  2.8282E-05  2.7722E-05  2.7474E-05  2.6686E-05  2.8313E-05
Mass 1.3602E-13  8.1314E-14  9.8548E-14  1.1008E-13  5.9017E-14  9.2169E-14  5.3883E-14  1.1206E-13  6.8948E-14
 -45.45                                  [v0_min (km/s) before EX0s...]
  40.65                                  [vd_min (km/s) before EX0s...]


## Synthetic spectrum (Best Model) ##l_obs f_obs f_syn wei
 3478    [Nl_obs]
 3741.00    0.57417   0.75492    0.000
 3742.00    0.83904   0.72508    0.000
 3743.00    1.04116   0.69081    0.000
 3744.00    0.93886   0.65795    0.000
 3745.00    0.65921   0.62598   -1.000
 3746.00    0.67844   0.59680   -1.000
 3747.00    0.84943   0.55271   -1.000
 3748.00    0.52119   0.49513   -1.000
 3749.00   -0.02660   0.47393    0.000
 3750.00   -0.07112   0.51976    0.000
 3751.00    0.07435   0.59986   -1.000
 3752.00    0.44778   0.66970   -1.000
 3753.00    0.89426   0.72584   -1.000
 3754.00    0.83759   0.77218   -1.000
 3755.00    0.64610   0.78761   -1.000
 3756.00    0.57265   0.75527   -1.000
 3757.00    0.52512   0.70101   -1.000
 3758.00    0.44440   0.67674   -1.000
 3759.00    0.35788   0.69428   -1.000
 3760.00    0.33304   0.72342   -1.000
 3761.00    0.31639   0.74153   -1.000
 3762.00    0.07534   0.74139   -1.000
 3763.00   -0.18679   0.73314    0.000
 3764.00    0.25026   0.73010   -1.000
 3765.00    0.72765   0.71446   -1.000
 3766.00    0.68631   0.67756   -1.000
 3767.00    0.63040   0.64794   -1.000
 3768.00    0.30091   0.62868   -1.000
 3769.00   -0.00979   0.59968    0.000
 3770.00    0.13607   0.58571   -1.000
 3771.00    0.28549   0.62095   -1.000
 3772.00    0.48170   0.68079   -1.000
 3773.00    0.66057   0.72308   -1.000
 3774.00    0.68717   0.74293   -1.000
 3775.00    0.69409   0.75911   -1.000
 3776.00    0.57339   0.78000   -1.000
 3777.00    0.41293   0.79917   -1.000
 3778.00    0.05122   0.81944   -1.000
 3779.00   -0.23437   0.84525    0.000
 3780.00   -0.20838   0.86352    0.000
 3781.00   -0.00470   0.86709    0.000
 3782.00    0.80169   0.86859   -1.000
 3783.00    1.34825   0.87305   -1.000
 3784.00    1.15168   0.86060   -1.000
 3785.00    0.89132   0.82053   -1.000
 3786.00    0.47511   0.77951   -1.000
 3787.00    0.29629   0.75846   -1.000
 3788.00    0.61781   0.74768   -1.000
 3789.00    0.83688   0.74150   -1.000
 3790.00    0.86829   0.74443   -1.000
 3791.00    0.83472   0.74469   -1.000
 3792.00    0.69712   0.72290   -1.000
 3793.00    0.60055   0.68090   -1.000
 3794.00    0.56162   0.63669   -1.000
 3795.00    0.58041   0.59539   -1.000
 3796.00    0.67053   0.54660   -1.000
 3797.00    0.68082   0.50431   -1.000
 3798.00    0.60412   0.50992   -1.000
 3799.00    0.64428   0.57298   -1.000
 3800.00    0.79675   0.65252   -1.000
 3801.00    0.72759   0.71482   -1.000
 3802.00    0.47061   0.76326   -1.000
 3803.00    0.26124   0.79801   -1.000
 3804.00    0.08740   0.80638   -1.000
 3805.00    0.19938   0.79053   -1.000
 3806.00    0.49873   0.77489   -1.000
 3807.00    0.54947   0.78650   -1.000
 3808.00    0.45756   0.82156   -1.000
 3809.00    0.29229   0.85169   -1.000
 3810.00    0.09037   0.85924   -1.000
 3811.00    0.10675   0.84219   -1.000
 3812.00    0.21754   0.80711   -1.000
 3813.00    0.34783   0.77138   -1.000
 3814.00    0.48535   0.74698   -1.000
 3815.00    0.66349   0.73980   -1.000
 3816.00    0.85439   0.75456   -1.000
 3817.00    0.73082   0.76490   -1.000
 3818.00    0.52475   0.73232   -1.000
 3819.00    0.76176   0.67875   -1.000
 3820.00    1.09370   0.66832   -1.000
 3821.00    1.43872   0.70905   -1.000
 3822.00    1.78596   0.74268   -1.000
 3823.00    1.60812   0.72810   -1.000
 3824.00    1.36289   0.68805   -1.000
 3825.00    1.34763   0.66267   -1.000
 3826.00    1.35300   0.65602   -1.000
 3827.00    1.33332   0.65164   -1.000
 3828.00    1.31230   0.64595   -1.000
 3829.00    0.77298   0.64143   -1.000
 3830.00    0.22839   0.62262   -1.000
 3831.00    0.11577   0.57583   -1.000
 3832.00    0.01162   0.51952   -1.000
 3833.00    0.09565   0.47637   -1.000
 3834.00    0.16912   0.45569   -1.000
 3835.00    0.11118   0.46535   -1.000
 3836.00    0.03874   0.49245   -1.000
 3837.00   -0.15625   0.51594    0.000
 3838.00   -0.32875   0.54037    0.000
 3839.00   -0.35978   0.57380    0.000
 3840.00   -0.24836   0.61606    0.000
 3841.00    0.56597   0.66956   -1.000
 3842.00    1.25615   0.72177   -1.000
 3843.00    1.44930   0.75552   -1.000
 3844.00    1.55428   0.77006   -1.000
 3845.00    1.36611   0.77643   -1.000
 3846.00    1.24776   0.78754   -1.000
 3847.00    1.32546   0.79737    0.000
 3848.00    1.17073   0.78851    0.000
 3849.00    0.45772   0.76996    0.000
 3850.00    0.21371   0.77159    0.000
 3851.00    0.94238   0.79361    0.000
 3852.00    1.44548   0.80764    0.000
 3853.00    1.54173   0.80213    0.000
 3854.00    1.52089   0.78441    0.000
 3855.00    1.31536   0.76493    0.000
 3856.00    1.32153   0.75595    0.000
 3857.00    1.62077   0.74857    0.000
 3858.00    1.54392   0.72584    0.000
 3859.00    1.00884   0.70808    0.000
 3860.00    1.00122   0.72661    0.000
 3861.00    1.56018   0.77152    0.000
 3862.00    1.63469   0.80631    0.000
 3863.00    1.25018   0.81301    0.000
 3864.00    0.99167   0.80210    0.000
 3865.00    0.83840   0.79196    0.000
 3866.00    0.83141   0.78877    0.000
 3867.00    0.93200   0.79058    0.000
 3868.00    0.87792   0.79247    0.000
 3869.00    0.72392   0.78054    0.000
 3870.00    0.56271   0.74918    0.000
 3871.00    0.39743   0.71550    0.000
 3872.00    0.30107   0.70934    0.000
 3873.00    0.23861   0.73871    0.000
 3874.00    0.16693   0.77405    0.000
 3875.00    0.09133   0.78163    0.000
 3876.00    0.33591   0.75484    0.000
 3877.00    0.69712   0.71636    0.000
 3878.00    0.84812   0.70356    0.000
 3879.00    0.93432   0.72015    0.000
 3880.00    0.71503   0.72429    0.000
 3881.00    0.41730   0.70290    0.058
 3882.00    0.44363   0.68991    0.057
 3883.00    0.53770   0.69289    0.056
 3884.00    0.71707   0.67171    0.058
 3885.00    0.91049   0.61369    0.061
 3886.00    0.70983   0.55484    0.059
 3887.00    0.46036   0.51330    0.057
 3888.00    0.33449   0.49192    0.057
 3889.00    0.21920   0.51450    0.057
 3890.00    0.45648   0.58117    0.056
 3891.00    0.71134   0.65232    0.056
 3892.00    0.81571   0.69723    0.057
 3893.00    0.91252   0.71444    0.059
 3894.00    0.68016   0.71856    0.058
 3895.00    0.48562   0.73094    0.057
 3896.00    1.06458   0.75627    0.060
 3897.00    1.58646   0.76951    0.063
 3898.00    1.43333   0.76262    0.059
 3899.00    1.27758   0.76194    0.057
 3900.00    1.10054   0.78061    0.056
 3901.00    0.88863   0.79549    0.055
 3902.00    0.46381   0.79316    0.052
 3903.00    0.17025   0.78714    0.050
 3904.00    0.50836   0.77513    0.049
 3905.00    0.73011   0.76090    0.048
 3906.00    0.49619   0.77243    0.048
 3907.00    0.33561   0.80862    0.048
 3908.00    0.41408   0.83994    0.049
 3909.00    0.43778   0.85323    0.050
 3910.00    0.31046   0.85900    0.050
 3911.00    0.28830   0.86448    0.049
 3912.00    0.51448   0.86172    0.050
 3913.00    0.68321   0.85191    0.050
 3914.00    0.73470   0.84545    0.051
 3915.00    0.69357   0.83881    0.052
 3916.00    0.48796   0.82890    0.052
 3917.00    0.42977   0.81579    0.052
 3918.00    0.60067   0.79350    0.052
 3919.00    0.72913   0.76530    0.052
 3920.00    0.79970   0.74765    0.051
 3921.00    0.75443   0.75068    0.051
 3922.00    0.57001   0.76353    0.051
 3923.00    0.41640   0.77161    0.051
 3924.00    0.29543   0.76565    0.050
 3925.00    0.24509   0.74158    0.050
 3926.00    0.26072   0.70664    0.051
 3927.00    0.36008   0.66907    0.051
 3928.00    0.52840   0.63166    0.050
 3929.00    0.58937   0.59474    0.050
 3930.00    0.57253   0.55484    0.050
 3931.00    0.41252   0.50935    0.050
 3932.00    0.16140   0.46610    0.050
 3933.00    0.23431   0.44631    0.051
 3934.00    0.48756   0.46467    0.052
 3935.00    0.43621   0.51229    0.052
 3936.00    0.23740   0.56912    0.051
 3937.00    0.28254   0.62254    0.051
 3938.00    0.42968   0.66972    0.052
 3939.00    0.66457   0.70687    0.053
 3940.00    0.93084   0.72729    0.054
 3941.00    0.93355   0.73319    0.054
 3942.00    0.85660   0.72871    0.053
 3943.00    0.87015   0.72230    0.052
 3944.00    0.90643   0.73737    0.052
 3945.00    0.71332   0.77528    0.052
 3946.00    0.47344   0.80020    0.052
 3947.00    0.59784   0.79791    0.053
 3948.00    0.78058   0.79653    0.053
 3949.00    0.76636   0.81320    0.053
 3950.00    0.72863   0.82852    0.053
 3951.00    0.72612   0.82165    0.053
 3952.00    0.72648   0.80996    0.054
 3953.00    0.94543   0.81856    0.054
 3954.00    1.17443   0.82759    0.053
 3955.00    1.08899   0.81099    0.053
 3956.00    0.99686   0.78848    0.052
 3957.00    0.76427   0.78693    0.051
 3958.00    0.55396   0.79505    0.050
 3959.00    0.76592   0.77886    0.051
 3960.00    0.95137   0.72575    0.000
 3961.00    0.83825   0.66610    0.000
 3962.00    0.74483   0.62920    0.000
 3963.00    0.80630   0.60199    0.000
 3964.00    0.88957   0.56155    0.000
 3965.00    1.10219   0.50390    0.000
 3966.00    1.22652   0.43467    0.000
 3967.00    0.93632   0.36760    0.000
 3968.00    0.65776   0.32379    0.000
 3969.00    0.42381   0.32148    0.000
 3970.00    0.27532   0.36457    0.000
 3971.00    0.40001   0.43399    0.000
 3972.00    0.58117   0.50410    0.000
 3973.00    0.91529   0.56838    0.000
 3974.00    1.11646   0.62948    0.000
 3975.00    1.00894   0.67992    0.000
 3976.00    0.86681   0.71792    0.000
 3977.00    0.65518   0.75383    0.000
 3978.00    0.63950   0.79029    0.000
 3979.00    0.96655   0.81936    0.000
 3980.00    1.10849   0.82989    0.000
 3981.00    0.96701   0.82139    0.051
 3982.00    0.93436   0.81373    0.052
 3983.00    1.04807   0.82310    0.051
 3984.00    1.16292   0.84188    0.051
 3985.00    1.27913   0.85397    0.052
 3986.00    1.20935   0.86183    0.052
 3987.00    0.94537   0.87670    0.050
 3988.00    0.90913   0.88628    0.050
 3989.00    1.08266   0.88243    0.051
 3990.00    1.09053   0.88456    0.051
 3991.00    0.96390   0.89956    0.050
 3992.00    0.98175   0.91096    0.050
 3993.00    1.10284   0.90474    0.050
 3994.00    1.06163   0.88785    0.049
 3995.00    0.91865   0.87224    0.049
 3996.00    0.98736   0.85821    0.049
 3997.00    1.17206   0.85310    0.049
 3998.00    1.07582   0.87181    0.048
 3999.00    0.84574   0.90212    0.047
 4000.00    0.76782   0.91877    0.047
 4001.00    0.75243   0.92568    0.048
 4002.00    0.98288   0.93035    0.048
 4003.00    1.29969   0.91210    0.048
 4004.00    1.26895   0.86561    0.049
 4005.00    1.13523   0.83368    0.048
 4006.00    0.96631   0.84696    0.048
 4007.00    0.78875   0.87764    0.047
 4008.00    0.75840   0.89305    0.047
 4009.00    0.75733   0.89921    0.046
 4010.00    0.88114   0.90955    0.047
 4011.00    1.02435   0.91791    0.047
 4012.00    1.23401   0.92029    0.047
 4013.00    1.45131   0.92299    0.048
 4014.00    1.20138   0.93033    0.047
 4015.00    0.91533   0.93563    0.047
 4016.00    0.93098   0.92809    0.047
 4017.00    0.95933   0.92083    0.047
 4018.00    1.10944   0.93068    0.047
 4019.00    1.25555   0.94143    0.047
 4020.00    1.17803   0.93703    0.046
 4021.00    1.11174   0.92702    0.046
 4022.00    1.24324   0.91692    0.046
 4023.00    1.34182   0.89746    0.047
 4024.00    1.08609   0.87536    0.046
 4025.00    0.86357   0.87348    0.046
 4026.00    0.89322   0.89786    0.046
 4027.00    0.92546   0.92889    0.046
 4028.00    0.97265   0.93654    0.046
 4029.00    1.01121   0.90664    0.046
 4030.00    1.01020   0.86409    0.046
 4031.00    1.00698   0.84124    0.046
 4032.00    0.99543   0.83824    0.045
 4033.00    0.98500   0.84573    0.045
 4034.00    0.97805   0.86604    0.045
 4035.00    0.95400   0.90209    0.045
 4036.00    0.88443   0.94439    0.045
 4037.00    0.86392   0.97252    0.045
 4038.00    0.95546   0.97371    0.045
 4039.00    1.00000   0.95342    0.045
 4040.00    0.95162   0.93414    0.045
 4041.00    0.92887   0.93348    0.045
 4042.00    0.95028   0.93089    0.046
 4043.00    0.90830   0.89202    0.046
 4044.00    0.77065   0.82580    0.046
 4045.00    0.81841   0.78982    0.046
 4046.00    1.11194   0.82222    0.047
 4047.00    1.30265   0.88468    0.048
 4048.00    1.37331   0.92436    0.048
 4049.00    1.37615   0.94124    0.047
 4050.00    1.30915   0.94851    0.047
 4051.00    1.28211   0.94245    0.047
 4052.00    1.29137   0.92575    0.047
 4053.00    1.24308   0.90761    0.047
 4054.00    1.14875   0.89495    0.046
 4055.00    1.09607   0.89083    0.046
 4056.00    1.07274   0.88466    0.046
 4057.00    0.97151   0.87478    0.046
 4058.00    0.82218   0.88097    0.046
 4059.00    0.73935   0.90625    0.046
 4060.00    0.69239   0.92231    0.045
 4061.00    0.78569   0.89976    0.045
 4062.00    0.94473   0.84571    0.045
 4063.00    0.97564   0.81261    0.045
 4064.00    0.95477   0.83303    0.044
 4065.00    0.88451   0.86687    0.044
 4066.00    0.79722   0.87824    0.044
 4067.00    1.01599   0.88927    0.044
 4068.00    1.32364   0.91253    0.045
 4069.00    1.24254   0.91513    0.045
 4070.00    1.06805   0.87884    0.044
 4071.00    1.00303   0.84623    0.044
 4072.00    0.95922   0.86101    0.043
 4073.00    0.94206   0.89432    0.043
 4074.00    0.92891   0.89321    0.042
 4075.00    1.03752   0.85411    0.043
 4076.00    1.15959   0.81084    0.043
 4077.00    1.05150   0.79814    0.043
 4078.00    0.92656   0.82596    0.043
 4079.00    0.89480   0.87488    0.043
 4080.00    0.86660   0.91679    0.042
 4081.00    0.82102   0.92972    0.042
 4082.00    0.77728   0.91218    0.042
 4083.00    0.80647   0.88598    0.042
 4084.00    0.84203   0.87350    0.042
 4085.00    0.98256   0.88258    0.043
 4086.00    1.10010   0.90873    0.043
 4087.00    0.98119   0.93581    0.043
 4088.00    0.89774   0.94616    0.042
 4089.00    1.07456   0.93921    0.043
 4090.00    1.21256   0.92410    0.043
 4091.00    1.13273   0.90599    0.043
 4092.00    1.08355   0.89531    0.000
 4093.00    1.17156   0.89072    0.000
 4094.00    1.13395   0.86716    0.000
 4095.00    0.63495   0.82367    0.000
 4096.00    0.38787   0.78827    0.000
 4097.00    0.91558   0.76765    0.000
 4098.00    1.24317   0.74036    0.000
 4099.00    1.04773   0.68444    0.000
 4100.00    0.93513   0.60837    0.000
 4101.00    1.00856   0.56628    0.000
 4102.00    1.02324   0.59658    0.000
 4103.00    0.92357   0.66782    0.000
 4104.00    0.91784   0.73600    0.000
 4105.00    1.07147   0.78871    0.000
 4106.00    1.10755   0.82216    0.000
 4107.00    0.96889   0.83655    0.000
 4108.00    0.98060   0.83843    0.000
 4109.00    1.18877   0.83575    0.000
 4110.00    1.23764   0.83812    0.000
 4111.00    1.10316   0.85040    0.000
 4112.00    1.04593   0.87075    0.000
 4113.00    1.06714   0.89077    0.042
 4114.00    1.06062   0.90279    0.042
 4115.00    1.02929   0.90947    0.042
 4116.00    1.00281   0.90876    0.042
 4117.00    0.98017   0.88997    0.042
 4118.00    0.91301   0.86396    0.041
 4119.00    0.81495   0.85565    0.041
 4120.00    0.92668   0.86344    0.041
 4121.00    1.16606   0.87148    0.042
 4122.00    1.15834   0.87984    0.042
 4123.00    1.01935   0.89569    0.041
 4124.00    0.96753   0.91350    0.041
 4125.00    0.95591   0.91659    0.041
 4126.00    0.93393   0.90132    0.041
 4127.00    0.90782   0.88247    0.041
 4128.00    0.82062   0.87377    0.040
 4129.00    0.71275   0.87117    0.040
 4130.00    0.75269   0.85951    0.040
 4131.00    0.83469   0.83584    0.040
 4132.00    0.86413   0.82041    0.040
 4133.00    0.88124   0.82837    0.039
 4134.00    0.90473   0.85701    0.039
 4135.00    0.92942   0.89133    0.039
 4136.00    0.90464   0.91063    0.040
 4137.00    0.87264   0.91858    0.040
 4138.00    0.83668   0.92734    0.040
 4139.00    0.80031   0.93068    0.040
 4140.00    0.78996   0.91613    0.039
 4141.00    0.78141   0.87015    0.039
 4142.00    0.61878   0.80401    0.039
 4143.00    0.45084   0.77121    0.039
 4144.00    0.71900   0.80229    0.040
 4145.00    0.97959   0.85797    0.040
 4146.00    0.96192   0.89189    0.040
 4147.00    0.93955   0.89855    0.040
 4148.00    0.84447   0.88837    0.040
 4149.00    0.76270   0.87584    0.040
 4150.00    0.81204   0.87439    0.040
 4151.00    0.85677   0.87698    0.040
 4152.00    0.86876   0.87079    0.040
 4153.00    0.86145   0.85930    0.040
 4154.00    0.74876   0.85420    0.040
 4155.00    0.66367   0.85653    0.039
 4156.00    0.69927   0.86379    0.039
 4157.00    0.79895   0.87950    0.039
 4158.00    1.12917   0.89873    0.040
 4159.00    1.33760   0.90955    0.040
 4160.00    1.17850   0.91075    0.040
 4161.00    1.04965   0.91427    0.040
 4162.00    0.99850   0.92054    0.040
 4163.00    0.88274   0.91735    0.039
 4164.00    0.62423   0.90775    0.039
 4165.00    0.50128   0.89811    0.039
 4166.00    0.63798   0.88418    0.039
 4167.00    0.84772   0.87419    0.039
 4168.00    1.17956   0.88088    0.040
 4169.00    1.26650   0.88993    0.040
 4170.00    0.99469   0.87498    0.039
 4171.00    0.82392   0.83532    0.039
 4172.00    0.78329   0.80289    0.039
 4173.00    0.77059   0.80365    0.040
 4174.00    0.78960   0.82659    0.040
 4175.00    0.83689   0.84543    0.040
 4176.00    0.91249   0.84753    0.040
 4177.00    0.96103   0.84352    0.040
 4178.00    0.98569   0.85350    0.040
 4179.00    0.89353   0.87311    0.039
 4180.00    0.71053   0.87726    0.038
 4181.00    0.72482   0.86481    0.038
 4182.00    0.87402   0.85958    0.039
 4183.00    0.88913   0.86972    0.039
 4184.00    0.82387   0.88281    0.038
 4185.00    0.72145   0.87899    0.038
 4186.00    0.59960   0.85349    0.038
 4187.00    0.65241   0.83785    0.038
 4188.00    0.78445   0.85166    0.038
 4189.00    0.94515   0.86966    0.038
 4190.00    1.11704   0.87235    0.038
 4191.00    1.19982   0.87801    0.038
 4192.00    1.25301   0.89961    0.039
 4193.00    1.14310   0.91086    0.038
 4194.00    0.98775   0.89069    0.037
 4195.00    1.04265   0.85912    0.037
 4196.00    1.14579   0.83643    0.038
 4197.00    1.00294   0.81790    0.038
 4198.00    0.81488   0.80772    0.037
 4199.00    0.78877   0.81396    0.037
 4200.00    0.78557   0.82022    0.036
 4201.00    0.86559   0.81867    0.036
 4202.00    0.95409   0.82624    0.036
 4203.00    0.88844   0.84280    0.036
 4204.00    0.81274   0.85532    0.036
 4205.00    0.93080   0.86816    0.036
 4206.00    1.05442   0.88579    0.036
 4207.00    0.92561   0.90027    0.036
 4208.00    0.80231   0.90154    0.036
 4209.00    0.84102   0.89198    0.036
 4210.00    0.88683   0.88914    0.036
 4211.00    1.03620   0.89798    0.036
 4212.00    1.16550   0.90154    0.036
 4213.00    1.10493   0.88459    0.036
 4214.00    1.03816   0.84919    0.036
 4215.00    0.92883   0.82489    0.036
 4216.00    0.84999   0.84089    0.036
 4217.00    0.93323   0.87818    0.036
 4218.00    1.01494   0.90353    0.036
 4219.00    1.09008   0.91588    0.036
 4220.00    1.13194   0.92015    0.035
 4221.00    1.05651   0.90658    0.035
 4222.00    0.97899   0.87394    0.035
 4223.00    0.89524   0.83079    0.036
 4224.00    0.82928   0.77530    0.036
 4225.00    0.80819   0.71061    0.036
 4226.00    0.80836   0.67820    0.035
 4227.00    0.85475   0.72009    0.035
 4228.00    0.90350   0.80331    0.035
 4229.00    0.95669   0.86448    0.035
 4230.00    0.99098   0.88933    0.035
 4231.00    0.99414   0.88536    0.035
 4232.00    0.98131   0.86325    0.035
 4233.00    0.94537   0.84917    0.035
 4234.00    0.88645   0.84461    0.034
 4235.00    0.79835   0.83172    0.034
 4236.00    0.74910   0.82372    0.034
 4237.00    0.74332   0.83222    0.033
 4238.00    0.73547   0.84274    0.033
 4239.00    0.72557   0.85256    0.033
 4240.00    0.80983   0.86874    0.033
 4241.00    0.97602   0.88010    0.034
 4242.00    0.94035   0.88376    0.034
 4243.00    0.74992   0.89724    0.034
 4244.00    0.74427   0.91158    0.034
 4245.00    0.86314   0.90026    0.035
 4246.00    0.89976   0.86838    0.036
 4247.00    0.88782   0.84199    0.036
 4248.00    0.81057   0.82707    0.036
 4249.00    0.69970   0.81434    0.036
 4250.00    0.61703   0.81571    0.036
 4251.00    0.54695   0.83943    0.036
 4252.00    0.66562   0.85218    0.036
 4253.00    0.85666   0.83408    0.036
 4254.00    0.99300   0.81885    0.036
 4255.00    1.11150   0.83817    0.036
 4256.00    1.15964   0.87264    0.036
 4257.00    1.18856   0.87773    0.036
 4258.00    1.10500   0.84529    0.036
 4259.00    0.99623   0.80572    0.036
 4260.00    0.92115   0.79283    0.036
 4261.00    0.85210   0.82111    0.036
 4262.00    0.87289   0.86777    0.036
 4263.00    0.90598   0.89934    0.036
 4264.00    0.88591   0.91144    0.036
 4265.00    0.86065   0.90944    0.036
 4266.00    0.79156   0.88946    0.036
 4267.00    0.71979   0.86462    0.035
 4268.00    0.81268   0.84874    0.034
 4269.00    0.90953   0.82367    0.034
 4270.00    0.91226   0.77775    0.034
 4271.00    0.91246   0.74484    0.034
 4272.00    0.84581   0.75025    0.034
 4273.00    0.77649   0.76519    0.034
 4274.00    0.67045   0.77435    0.034
 4275.00    0.57919   0.80177    0.034
 4276.00    0.62211   0.84685    0.034
 4277.00    0.68539   0.88025    0.035
 4278.00    0.88424   0.88093    0.035
 4279.00    1.03595   0.85423    0.035
 4280.00    0.94362   0.83183    0.035
 4281.00    0.88695   0.83060    0.034
 4282.00    0.97914   0.84016   -2.000
 4283.00    1.06341   0.84584   -2.000
 4284.00    1.12035   0.83518   -2.000
 4285.00    1.15268   0.81759   -2.000
 4286.00    1.11352   0.81192   -2.000
 4287.00    0.99168   0.80513   -2.000
 4288.00    0.66481   0.77533   -2.000
 4289.00    0.41230   0.74266   -2.000
 4290.00    0.31877   0.74620   -2.000
 4291.00    0.30727   0.78619   -2.000
 4292.00    0.44807   0.82371   -2.000
 4293.00    0.62778   0.82841   -2.000
 4294.00    0.87057   0.81531   -2.000
 4295.00    0.94948   0.80611   -2.000
 4296.00    0.79523   0.79183   -2.000
 4297.00    0.66317   0.76025   -2.000
 4298.00    0.55887   0.71424    0.034
 4299.00    0.58562   0.67866    0.033
 4300.00    0.75695   0.67578    0.033
 4301.00    0.80704   0.68740    0.033
 4302.00    0.73919   0.69410    0.033
 4303.00    0.64031   0.70389    0.033
 4304.00    0.51480   0.71470    0.033
 4305.00    0.54986   0.71280    0.033
 4306.00    0.70626   0.69263    0.033
 4307.00    0.72866   0.66394    0.033
 4308.00    0.66209   0.65342    0.034
 4309.00    0.61500   0.67246    0.033
 4310.00    0.57924   0.70402    0.033
 4311.00    0.65664   0.73201    0.033
 4312.00    0.79139   0.75390    0.032
 4313.00    0.84735   0.77483    0.032
 4314.00    0.86872   0.81131    0.032
 4315.00    0.86011   0.87134    0.032
 4316.00    0.84020   0.92474    0.032
 4317.00    0.84506   0.94237    0.032
 4318.00    0.85784   0.93421    0.033
 4319.00    0.86736   0.91833    0.033
 4320.00    0.87600   0.90001    0.033
 4321.00    0.98126   0.87965    0.033
 4322.00    1.10767   0.84344    0.033
 4323.00    1.04232   0.78503    0.033
 4324.00    0.94362   0.72827    0.033
 4325.00    0.79765   0.71224    0.033
 4326.00    0.64542   0.75782    0.033
 4327.00    0.66377   0.83229    0.033
 4328.00    0.69806   0.87956    0.033
 4329.00    0.71245   0.88284    0.033
 4330.00    0.72571   0.87024    0.000
 4331.00    0.76108   0.86765    0.000
 4332.00    0.79550   0.87061    0.000
 4333.00    0.66140   0.87107    0.000
 4334.00    0.53604   0.86821    0.000
 4335.00    0.62066   0.84351    0.000
 4336.00    0.71302   0.77840    0.000
 4337.00    0.90613   0.69515    0.000
 4338.00    1.04852   0.62247    0.000
 4339.00    0.74778   0.56758    0.000
 4340.00    0.52467   0.56093    0.000
 4341.00    0.80293   0.62139    0.000
 4342.00    1.01577   0.69867    0.000
 4343.00    0.89860   0.74904    0.000
 4344.00    0.82494   0.78530    0.000
 4345.00    0.92885   0.81496    0.000
 4346.00    1.01058   0.83127    0.000
 4347.00    1.01725   0.84804    0.000
 4348.00    1.00119   0.87093    0.000
 4349.00    0.92026   0.86820    0.000
 4350.00    0.85195   0.81978    0.000
 4351.00    0.81439   0.76977    0.034
 4352.00    0.80818   0.77253    0.034
 4353.00    0.86789   0.81261    0.034
 4354.00    0.86910   0.84551    0.034
 4355.00    0.76339   0.86752    0.034
 4356.00    0.70120   0.88564    0.034
 4357.00    0.70857   0.88473    0.034
 4358.00    0.76241   0.86569    0.034
 4359.00    0.88144   0.86082    0.034
 4360.00    0.89586   0.88259    0.034
 4361.00    0.78121   0.90540    0.034
 4362.00    0.78088   0.91263    0.034
 4363.00    0.90490   0.91837    0.034
 4364.00    0.98886   0.92949    0.033
 4365.00    1.03441   0.92432    0.033
 4366.00    1.03201   0.89468    0.033
 4367.00    0.98905   0.86858    0.033
 4368.00    0.94876   0.86579    0.033
 4369.00    0.91045   0.87210    0.033
 4370.00    0.89920   0.87493    0.033
 4371.00    0.90565   0.87461    0.033
 4372.00    0.92506   0.86181    0.033
 4373.00    0.95189   0.83069    0.033
 4374.00    0.96547   0.80429    0.033
 4375.00    0.97244   0.81289    0.033
 4376.00    0.91967   0.85263    0.033
 4377.00    0.84113   0.88906    0.032
 4378.00    0.82252   0.89936    0.033
 4379.00    0.82609   0.89184    0.033
 4380.00    0.76921   0.87636    0.033
 4381.00    0.69336   0.83394    0.032
 4382.00    0.72313   0.75568    0.032
 4383.00    0.78053   0.69326    0.032
 4384.00    0.71428   0.70245    0.032
 4385.00    0.62162   0.76355    0.032
 4386.00    0.60983   0.81248    0.032
 4387.00    0.61173   0.82571    0.032
 4388.00    0.70872   0.82468    0.032
 4389.00    0.81786   0.82419    0.031
 4390.00    0.77949   0.83054    0.031
 4391.00    0.72796   0.84931    0.031
 4392.00    0.76283   0.86472    0.031
 4393.00    0.80230   0.85608    0.031
 4394.00    0.75365   0.83911    0.031
 4395.00    0.70457   0.84984    0.031
 4396.00    0.76036   0.88568    0.031
 4397.00    0.81137   0.90579    0.031
 4398.00    0.75744   0.88955    0.031
 4399.00    0.70432   0.85560    0.031
 4400.00    0.66135   0.84147    0.031
 4401.00    0.63076   0.86020    0.031
 4402.00    0.70448   0.86810    0.031
 4403.00    0.78499   0.82919    0.031
 4404.00    0.90815   0.78701    0.031
 4405.00    0.96951   0.79273    0.032
 4406.00    0.72688   0.81907    0.032
 4407.00    0.51469   0.82644    0.032
 4408.00    0.42406   0.83453    0.033
 4409.00    0.39001   0.86613    0.034
 4410.00    0.54362   0.90203    0.034
 4411.00    0.63473   0.92297    0.035
 4412.00    0.55077   0.92310    0.035
 4413.00    0.45591   0.88955    0.035
 4414.00    0.33494   0.83706    0.034
 4415.00    0.30682   0.81294    0.034
 4416.00    0.47084   0.82953    0.034
 4417.00    0.62088   0.86347    0.033
 4418.00    0.74572   0.89926    0.032
 4419.00    0.83432   0.92101    0.031
 4420.00    0.86584   0.91394    0.031
 4421.00    0.89378   0.88797    0.031
 4422.00    0.91679   0.87184    0.031
 4423.00    0.91155   0.87693    0.031
 4424.00    0.87197   0.88445    0.031
 4425.00    0.84011   0.88021    0.031
 4426.00    0.81652   0.87399    0.031
 4427.00    0.81385   0.87871    0.031
 4428.00    0.83096   0.88491    0.031
 4429.00    0.86097   0.87701    0.031
 4430.00    0.90172   0.87122    0.031
 4431.00    0.88323   0.88109    0.031
 4432.00    0.82126   0.88133    0.031
 4433.00    0.78196   0.85423    0.031
 4434.00    0.75728   0.82198    0.031
 4435.00    0.82277   0.82020    0.031
 4436.00    0.93913   0.85623    0.031
 4437.00    0.83880   0.90280    0.032
 4438.00    0.63210   0.93175    0.032
 4439.00    0.64671   0.93029    0.031
 4440.00    0.75523   0.90035    0.031
 4441.00    0.83887   0.85996    0.031
 4442.00    0.91348   0.83442    0.032
 4443.00    0.86215   0.84227    0.032
 4444.00    0.77209   0.87858    0.031
 4445.00    0.76276   0.91053    0.031
 4446.00    0.77410   0.91627    0.031
 4447.00    0.82934   0.91241    0.031
 4448.00    0.89374   0.91137    0.031
 4449.00    0.76710   0.90394    0.031
 4450.00    0.60907   0.89680    0.031
 4451.00    0.63573   0.89825    0.031
 4452.00    0.68516   0.89067    0.031
 4453.00    0.69862   0.85983    0.031
 4454.00    0.70903   0.82399    0.030
 4455.00    0.78378   0.81436    0.031
 4456.00    0.86172   0.82912    0.031
 4457.00    0.81135   0.83999    0.030
 4458.00    0.75895   0.83785    0.030
 4459.00    0.70750   0.83222    0.030
 4460.00    0.65933   0.82432    0.030
 4461.00    0.67754   0.82173    0.000
 4462.00    0.69631   0.84215    0.000
 4463.00    0.72176   0.87173    0.000
 4464.00    0.74720   0.88358    0.000
 4465.00    0.77256   0.88088    0.000
 4466.00    0.78038   0.87563    0.000
 4467.00    0.68141   0.86579    0.000
 4468.00    0.60752   0.84994    0.000
 4469.00    0.65400   0.83963    0.000
 4470.00    0.69519   0.84380    0.000
 4471.00    0.71576   0.86392    0.000
 4472.00    0.74967   0.89673    0.000
 4473.00    0.82701   0.92511    0.000
 4474.00    0.90963   0.93388    0.000
 4475.00    1.00681   0.93508    0.000
 4476.00    1.03156   0.94562    0.000
 4477.00    0.88564   0.95340    0.000
 4478.00    0.78323   0.93518    0.000
 4479.00    0.76946   0.89185    0.000
 4480.00    0.81536   0.84999    0.000
 4481.00    0.96703   0.83775    0.000
 4482.00    1.04249   0.86300    0.031
 4483.00    0.99977   0.90505    0.031
 4484.00    0.92760   0.93733    0.031
 4485.00    0.81535   0.95136    0.031
 4486.00    0.74398   0.94604    0.031
 4487.00    0.72162   0.92030    0.031
 4488.00    0.71307   0.88682    0.031
 4489.00    0.71912   0.87074    0.031
 4490.00    0.76241   0.88429    0.031
 4491.00    0.84043   0.91030    0.031
 4492.00    0.83980   0.91876    0.031
 4493.00    0.77451   0.89960    0.031
 4494.00    0.72120   0.87483    0.030
 4495.00    0.67654   0.86809    0.030
 4496.00    0.65512   0.88285    0.030
 4497.00    0.64844   0.90940    0.031
 4498.00    0.65390   0.93020    0.031
 4499.00    0.66609   0.93060    0.030
 4500.00    0.76593   0.91571    0.030
 4501.00    0.90811   0.91414    0.031
 4502.00    0.89371   0.94125    0.031
 4503.00    0.81399   0.97237    0.031
 4504.00    0.79792   0.98218    0.031
 4505.00    0.80457   0.97283    0.031
 4506.00    0.83078   0.95735    0.031
 4507.00    0.86289   0.94727    0.030
 4508.00    0.96584   0.94830    0.030
 4509.00    1.08654   0.95648    0.030
 4510.00    1.07103   0.95910    0.030
 4511.00    1.02782   0.94774    0.029
 4512.00    1.01549   0.92988    0.030
 4513.00    1.00807   0.91637    0.030
 4514.00    0.90103   0.91214    0.030
 4515.00    0.78215   0.91584    0.030
 4516.00    0.82182   0.91552    0.030
 4517.00    0.87431   0.90802    0.030
 4518.00    0.90312   0.90962    0.030
 4519.00    0.93086   0.92479    0.030
 4520.00    0.94545   0.93631    0.030
 4521.00    0.95905   0.92649    0.029
 4522.00    0.93050   0.90420    0.030
 4523.00    0.90827   0.89253    0.030
 4524.00    1.00456   0.88662    0.030
 4525.00    1.07438   0.87034    0.030
 4526.00    0.84768   0.84615    0.030
 4527.00    0.66147   0.82490    0.029
 4528.00    0.79217   0.81630    0.030
 4529.00    0.89025   0.82413    0.030
 4530.00    0.79551   0.84205    0.030
 4531.00    0.71469   0.85913    0.030
 4532.00    0.69901   0.85746    0.030
 4533.00    0.70449   0.83368    0.030
 4534.00    0.79083   0.81520    0.030
 4535.00    0.85332   0.83223    0.030
 4536.00    0.83979   0.88235    0.030
 4537.00    0.81730   0.92534    0.030
 4538.00    0.77059   0.93220    0.030
 4539.00    0.75184   0.91402    0.030
 4540.00    0.79785   0.89724    0.030
 4541.00    0.86191   0.89897    0.030
 4542.00    0.96215   0.90971    0.030
 4543.00    0.98689   0.90615    0.030
 4544.00    0.87983   0.89150    0.030
 4545.00    0.81366   0.88751    0.029
 4546.00    0.80996   0.89230    0.029
 4547.00    0.80775   0.88547    0.029
 4548.00    0.80756   0.86448    0.030
 4549.00    0.79067   0.85599    0.030
 4550.00    0.75404   0.87154    0.000
 4551.00    0.74624   0.88257    0.000
 4552.00    0.76847   0.87301    0.000
 4553.00    0.81038   0.85676    0.000
 4554.00    0.87040   0.85032    0.000
 4555.00    0.83857   0.86480    0.000
 4556.00    0.73230   0.89660    0.000
 4557.00    0.74978   0.92448    0.000
 4558.00    0.85551   0.93574    0.000
 4559.00    0.87561   0.93694    0.000
 4560.00    0.84214   0.93746    0.000
 4561.00    0.85079   0.93412    0.000
 4562.00    0.88250   0.91619    0.000
 4563.00    0.87610   0.89015    0.000
 4564.00    0.85159   0.87719    0.000
 4565.00    0.86069   0.88775    0.000
 4566.00    0.88356   0.91379    0.000
 4567.00    0.92776   0.93557    0.000
 4568.00    0.97943   0.94109    0.000
 4569.00    0.95782   0.92826    0.000
 4570.00    0.91456   0.89996    0.000
 4571.00    0.87285   0.88376    0.000
 4572.00    0.83152   0.90181    0.000
 4573.00    0.82460   0.92707    0.000
 4574.00    0.82450   0.93269    0.000
 4575.00    0.93763   0.92967    0.000
 4576.00    1.06828   0.92826    0.000
 4577.00    0.95752   0.92061    0.000
 4578.00    0.81913   0.90040    0.000
 4579.00    0.88475   0.87616    0.000
 4580.00    0.96603   0.86467    0.000
 4581.00    0.93333   0.87075    0.000
 4582.00    0.89587   0.87979    0.000
 4583.00    0.89640   0.88078    0.000
 4584.00    0.89681   0.87802    0.000
 4585.00    0.87803   0.87856    0.000
 4586.00    0.86010   0.88989    0.000
 4587.00    0.85699   0.90977    0.000
 4588.00    0.85057   0.92351    0.000
 4589.00    0.80870   0.92093    0.000
 4590.00    0.77713   0.90480    0.000
 4591.00    0.82346   0.88756    0.000
 4592.00    0.85128   0.88077    0.000
 4593.00    0.77272   0.88204    0.000
 4594.00    0.70796   0.88304    0.000
 4595.00    0.70621   0.88495    0.000
 4596.00    0.72141   0.89032    0.000
 4597.00    0.80005   0.89708    0.000
 4598.00    0.86933   0.90063    0.000
 4599.00    0.90932   0.89318    0.000
 4600.00    0.91231   0.88192    0.000
 4601.00    0.81707   0.88191    0.000
 4602.00    0.76779   0.89014    0.000
 4603.00    0.82323   0.89629    0.000
 4604.00    0.86603   0.89668    0.000
 4605.00    0.88388   0.89667    0.000
 4606.00    0.91492   0.90513    0.000
 4607.00    0.96865   0.92461    0.000
 4608.00    0.95985   0.94443    0.000
 4609.00    0.85690   0.94913    0.000
 4610.00    0.81711   0.93849    0.000
 4611.00    0.86088   0.92494    0.000
 4612.00    0.93390   0.91610    0.000
 4613.00    1.04103   0.91681    0.000
 4614.00    1.05479   0.92421    0.000
 4615.00    0.97260   0.92638    0.000
 4616.00    0.92385   0.92543    0.000
 4617.00    0.90539   0.92284    0.000
 4618.00    0.89355   0.91393    0.000
 4619.00    0.88700   0.91176    0.000
 4620.00    0.88575   0.92420    0.000
 4621.00    0.88824   0.93478    0.000
 4622.00    0.85760   0.93595    0.000
 4623.00    0.80653   0.93387    0.000
 4624.00    0.79620   0.92831    0.000
 4625.00    0.80782   0.92212    0.000
 4626.00    0.84717   0.92127    0.000
 4627.00    0.89950   0.91908    0.000
 4628.00    0.90870   0.90944    0.000
 4629.00    0.90053   0.90625    0.000
 4630.00    0.90721   0.91816    0.000
 4631.00    0.91899   0.92537    0.000
 4632.00    0.90026   0.91477    0.000
 4633.00    0.87270   0.90219    0.000
 4634.00    0.88117   0.89961    0.000
 4635.00    0.89827   0.89919    0.000
 4636.00    0.85565   0.89172    0.000
 4637.00    0.80150   0.88001    0.000
 4638.00    0.75221   0.87243    0.000
 4639.00    0.70366   0.87417    0.000
 4640.00    0.76721   0.88781    0.000
 4641.00    0.84310   0.90429    0.000
 4642.00    0.91854   0.90965    0.000
 4643.00    0.99395   0.90348    0.000
 4644.00    0.87124   0.88798    0.000
 4645.00    0.74105   0.86235    0.000
 4646.00    0.83264   0.84045    0.000
 4647.00    0.92315   0.83846    0.000
 4648.00    0.93156   0.85364    0.000
 4649.00    0.94030   0.87276    0.000
 4650.00    0.95460   0.88646    0.000
 4651.00    0.96315   0.89504    0.000
 4652.00    0.91299   0.89805    0.000
 4653.00    0.86255   0.88743    0.000
 4654.00    0.81013   0.86943    0.000
 4655.00    0.76378   0.86204    0.000
 4656.00    0.75144   0.87386    0.000
 4657.00    0.75397   0.90298    0.000
 4658.00    0.82285   0.93442    0.000
 4659.00    0.88934   0.94901    0.000
 4660.00    0.94701   0.94039    0.000
 4661.00    0.97694   0.91818    0.000
 4662.00    0.92173   0.89844    0.000
 4663.00    0.86843   0.89042    0.000
 4664.00    0.82006   0.88550    0.000
 4665.00    0.79188   0.86299    0.000
 4666.00    0.80897   0.82404    0.000
 4667.00    0.82519   0.80134    0.000
 4668.00    0.83973   0.81424    0.000
 4669.00    0.86793   0.84712    0.000
 4670.00    0.91927   0.87740    0.000
 4671.00    0.88430   0.89161    0.000
 4672.00    0.72127   0.88946    0.000
 4673.00    0.72415   0.88393    0.000
 4674.00    0.94343   0.88750    0.000
 4675.00    0.99632   0.90049    0.000
 4676.00    0.85804   0.90876    0.000
 4677.00    0.78021   0.90044    0.000
 4678.00    0.76363   0.88210    0.000
 4679.00    0.81821   0.86631    0.000
 4680.00    0.93639   0.85766    0.000
 4681.00    0.95176   0.85897    0.000
 4682.00    0.88615   0.87204    0.000
 4683.00    0.86664   0.88694    0.000
 4684.00    0.87907   0.89221    0.000
 4685.00    0.89658   0.88968    0.000
 4686.00    0.91717   0.88556    0.000
 4687.00    0.92850   0.88432    0.000
 4688.00    0.93490   0.88668    0.000
 4689.00    0.93564   0.88563    0.000
 4690.00    0.93377   0.87985    0.000
 4691.00    0.92965   0.88047    0.000
 4692.00    0.92465   0.89035    0.000
 4693.00    0.94315   0.90209    0.000
 4694.00    0.96960   0.91331    0.000
 4695.00    0.88454   0.92034    0.000
 4696.00    0.76784   0.91239    0.000
 4697.00    0.71331   0.88756    0.000
 4698.00    0.67333   0.86531    0.000
 4699.00    0.70167   0.86193    0.000
 4700.00    0.74287   0.86450    0.000
 4701.00    0.79845   0.85594    0.000
 4702.00    0.85613   0.84437    0.000
 4703.00    0.93577   0.84890    0.000
 4704.00    1.01772   0.86580    0.000
 4705.00    0.87555   0.87258    0.000
 4706.00    0.71799   0.86182    0.000
 4707.00    0.69162   0.84677    0.000
 4708.00    0.66971   0.84114    0.000
 4709.00    0.77342   0.85173    0.000
 4710.00    0.87415   0.87482    0.000
 4711.00    0.87152   0.89020    0.000
 4712.00    0.86901   0.88419    0.000
 4713.00    0.86846   0.86711    0.000
 4714.00    0.87065   0.86039    0.000
 4715.00    0.89977   0.87382    0.000
 4716.00    0.92237   0.89470    0.000
 4717.00    0.89890   0.90796    0.000
 4718.00    0.87929   0.91501    0.000
 4719.00    0.88070   0.91990    0.000
 4720.00    0.87122   0.91874    0.000
 4721.00    0.81429   0.91084    0.000
 4722.00    0.80108   0.90661    0.000
 4723.00    0.94472   0.91387    0.000
 4724.00    1.04133   0.92290    0.000
 4725.00    0.99634   0.91564    0.000
 4726.00    0.95963   0.88691    0.000
 4727.00    0.94412   0.85604    0.000
 4728.00    0.90549   0.84443    0.000
 4729.00    0.81587   0.84843    0.000
 4730.00    0.77357   0.85538    0.000
 4731.00    0.82173   0.86428    0.000
 4732.00    0.84966   0.87497    0.000
 4733.00    0.84383   0.88412    0.000
 4734.00    0.84692   0.88880    0.000
 4735.00    0.86305   0.88242    0.000
 4736.00    0.91256   0.87331    0.000
 4737.00    1.00496   0.87977    0.000
 4738.00    0.97733   0.89265    0.000
 4739.00    0.81372   0.89218    0.000
 4740.00    0.76632   0.88360    0.000
 4741.00    0.83501   0.88324    0.000
 4742.00    0.87814   0.89252    0.000
 4743.00    0.89876   0.89891    0.000
 4744.00    0.91377   0.89796    0.000
 4745.00    0.92445   0.90014    0.000
 4746.00    0.92166   0.90717    0.000
 4747.00    0.90968   0.90962    0.000
 4748.00    0.90783   0.90802    0.000
 4749.00    0.91203   0.90851    0.000
 4750.00    0.85613   0.90791    0.000
 4751.00    0.76885   0.90051    0.000
 4752.00    0.77909   0.88963    0.000
 4753.00    0.83347   0.88094    0.000
 4754.00    0.80883   0.87660    0.000
 4755.00    0.75342   0.87490    0.000
 4756.00    0.76282   0.87468    0.000
 4757.00    0.79370   0.87728    0.000
 4758.00    0.81693   0.88330    0.000
 4759.00    0.83804   0.88801    0.000
 4760.00    0.87521   0.88015    0.000
 4761.00    0.91607   0.85837    0.028
 4762.00    0.85006   0.83902    0.028
 4763.00    0.76448   0.83134    0.028
 4764.00    0.80476   0.82836    0.028
 4765.00    0.86276   0.82792    0.028
 4766.00    0.84151   0.83607    0.028
 4767.00    0.81222   0.85211    0.028
 4768.00    0.83846   0.86958    0.028
 4769.00    0.86829   0.87964    0.028
 4770.00    0.83181   0.87438    0.028
 4771.00    0.79352   0.86295    0.028
 4772.00    0.85354   0.86405    0.028
 4773.00    0.91112   0.87966    0.028
 4774.00    0.89828   0.89294    0.028
 4775.00    0.88567   0.89471    0.028
 4776.00    0.87634   0.89350    0.028
 4777.00    0.87481   0.89190    0.028
 4778.00    0.94665   0.88466    0.027
 4779.00    0.99402   0.87666    0.027
 4780.00    0.87395   0.87393    0.026
 4781.00    0.77988   0.86981    0.026
 4782.00    0.82363   0.86066    0.026
 4783.00    0.86091   0.85758    0.026
 4784.00    0.87063   0.86075    0.026
 4785.00    0.89564   0.85559    0.026
 4786.00    0.97439   0.84791    0.026
 4787.00    1.00586   0.84834    0.026
 4788.00    0.89760   0.84956    0.026
 4789.00    0.81744   0.85168    0.026
 4790.00    0.80803   0.85941    0.026
 4791.00    0.82579   0.86950    0.026
 4792.00    0.90246   0.88317    0.027
 4793.00    0.93439   0.90065    0.027
 4794.00    0.88211   0.91233    0.026
 4795.00    0.85064   0.91057    0.026
 4796.00    0.85335   0.89772    0.027
 4797.00    0.85121   0.87939    0.027
 4798.00    0.84209   0.86317    0.026
 4799.00    0.83919   0.85927    0.026
 4800.00    0.84418   0.87080    0.027
 4801.00    0.86438   0.88811    0.027
 4802.00    0.90157   0.89638    0.026
 4803.00    0.90951   0.88863    0.026
 4804.00    0.88867   0.87266    0.027
 4805.00    0.89728   0.86282    0.027
 4806.00    0.93150   0.85993    0.027
 4807.00    0.90797   0.85873    0.026
 4808.00    0.84026   0.86183    0.026
 4809.00    0.80005   0.86825    0.026
 4810.00    0.77833   0.87191    0.026
 4811.00    0.80157   0.87256    0.026
 4812.00    0.85131   0.87374    0.026
 4813.00    0.87888   0.87672    0.026
 4814.00    0.89506   0.88098    0.026
 4815.00    0.92705   0.88641    0.026
 4816.00    0.96609   0.89251    0.027
 4817.00    0.96146   0.89692    0.027
 4818.00    0.94012   0.89844    0.026
 4819.00    0.89920   0.89678    0.026
 4820.00    0.85192   0.89203    0.026
 4821.00    0.80506   0.87973    0.026
 4822.00    0.75830   0.85654    0.026
 4823.00    0.82672   0.84039    0.026
 4824.00    0.92087   0.84909    0.026
 4825.00    0.94796   0.86833    0.026
 4826.00    0.96310   0.87523    0.026
 4827.00    0.87226   0.86824    0.026
 4828.00    0.76697   0.86062    0.026
 4829.00    0.76216   0.85936    0.026
 4830.00    0.76712   0.85578    0.026
 4831.00    0.80815   0.84759    0.026
 4832.00    0.85136   0.84895    0.026
 4833.00    0.81892   0.86156    0.026
 4834.00    0.78482   0.87035    0.026
 4835.00    0.81278   0.87038    0.026
 4836.00    0.83936   0.86877    0.026
 4837.00    0.82959   0.86385    0.026
 4838.00    0.82217   0.85088    0.026
 4839.00    0.84694   0.83887    0.026
 4840.00    0.87250   0.83846    0.026
 4841.00    0.90516   0.84277    0.026
 4842.00    0.92917   0.84161    0.026
 4843.00    0.89576   0.84359    0.026
 4844.00    0.87216   0.85606    0.026
 4845.00    0.89911   0.86603    0.026
 4846.00    0.92854   0.85984    0.026
 4847.00    0.96826   0.84159    0.026
 4848.00    0.97933   0.83028    0.000
 4849.00    0.89174   0.83525    0.000
 4850.00    0.83383   0.84211    0.000
 4851.00    0.86203   0.84030    0.000
 4852.00    0.85778   0.83247    0.000
 4853.00    0.77323   0.81299    0.000
 4854.00    0.71237   0.78241    0.000
 4855.00    0.70204   0.76406    0.000
 4856.00    0.69989   0.76620    0.000
 4857.00    0.71289   0.76008    0.000
 4858.00    0.70912   0.71816    0.000
 4859.00    0.67817   0.64319    0.000
 4860.00    0.66077   0.57438    0.000
 4861.00    0.66262   0.56781    0.000
 4862.00    0.68172   0.62560    0.000
 4863.00    0.72237   0.69085    0.000
 4864.00    0.73312   0.73391    0.000
 4865.00    0.71095   0.76355    0.000
 4866.00    0.70566   0.78425    0.000
 4867.00    0.71676   0.79646    0.000
 4868.00    0.74443   0.80207    0.000
 4869.00    0.78628   0.79217    0.000
 4870.00    0.78041   0.76654    0.000
 4871.00    0.73853   0.75406    0.000
 4872.00    0.74936   0.77258    0.000
 4873.00    0.79514   0.79940    0.000
 4874.00    0.81433   0.81211    0.000
 4875.00    0.81810   0.81720    0.026
 4876.00    0.84031   0.82397    0.026
 4877.00    0.87185   0.83278    0.026
 4878.00    0.87018   0.84687    0.026
 4879.00    0.85398   0.85600    0.026
 4880.00    0.80882   0.84593    0.026
 4881.00    0.75279   0.83212    0.026
 4882.00    0.72846   0.83208    0.026
 4883.00    0.71425   0.83314    0.027
 4884.00    0.70403   0.82254    0.026
 4885.00    0.69487   0.81101    0.026
 4886.00    0.71946   0.81123    0.026
 4887.00    0.75143   0.81719    0.026
 4888.00    0.83699   0.81421    0.026
 4889.00    0.93184   0.79610    0.026
 4890.00    0.83381   0.77775    0.026
 4891.00    0.71037   0.78939    0.026
 4892.00    0.76300   0.83083    0.026
 4893.00    0.83199   0.87135    0.027
 4894.00    0.88642   0.89566    0.026
 4895.00    0.94003   0.90579    0.026
 4896.00    0.88178   0.90629    0.027
 4897.00    0.82137   0.89919    0.027
 4898.00    0.80246   0.88232    0.027
 4899.00    0.78689   0.86412    0.026
 4900.00    0.85023   0.85907    0.027
 4901.00    0.90628   0.85949    0.027
 4902.00    0.86800   0.85238    0.027
 4903.00    0.83806   0.84922    0.027
 4904.00    0.88061   0.86330    0.027
 4905.00    0.92639   0.88240    0.027
 4906.00    0.99299   0.88640    0.027
 4907.00    1.02530   0.87242    0.027
 4908.00    0.88513   0.84936    0.027
 4909.00    0.78308   0.82830    0.027
 4910.00    0.83618   0.82322    0.027
 4911.00    0.87882   0.83599    0.027
 4912.00    0.88613   0.85209    0.027
 4913.00    0.87396   0.86464    0.027
 4914.00    0.80638   0.87713    0.027
 4915.00    0.76256   0.88290    0.027
 4916.00    0.77653   0.86766    0.027
 4917.00    0.76468   0.82832    0.026
 4918.00    0.69865   0.78032    0.026
 4919.00    0.66625   0.74690    0.026
 4920.00    0.69523   0.74456    0.027
 4921.00    0.72163   0.77083    0.027
 4922.00    0.74391   0.79886    0.027
 4923.00    0.75175   0.80930    0.026
 4924.00    0.73937   0.81640    0.026
 4925.00    0.71633   0.83733    0.026
 4926.00    0.68015   0.86129    0.026
 4927.00    0.68141   0.87633    0.026
 4928.00    0.72334   0.88668    0.026
 4929.00    0.77301   0.89265    0.026
 4930.00    0.83011   0.89062    0.026
 4931.00    0.84254   0.87561    0.026
 4932.00    0.81727   0.84522    0.026
 4933.00    0.76910   0.82177    0.026
 4934.00    0.70392   0.82784    0.026
 4935.00    0.72134   0.84301    0.026
 4936.00    0.79272   0.83543    0.026
 4937.00    0.84481   0.80866    0.026
 4938.00    0.88588   0.79312    0.026
 4939.00    0.81893   0.80917    0.026
 4940.00    0.69820   0.84212    0.000
 4941.00    0.70290   0.86449    0.000
 4942.00    0.76162   0.87482    0.000
 4943.00    0.79192   0.88067    0.000
 4944.00    0.81172   0.87741    0.000
 4945.00    0.82014   0.86941    0.000
 4946.00    0.82500   0.87137    0.000
 4947.00    0.83749   0.88202    0.000
 4948.00    0.85198   0.88979    0.000
 4949.00    0.82830   0.89311    0.000
 4950.00    0.79649   0.89461    0.000
 4951.00    0.75604   0.89022    0.000
 4952.00    0.71413   0.88005    0.000
 4953.00    0.77035   0.87022    0.000
 4954.00    0.83905   0.85711    0.000
 4955.00    0.87371   0.82515    0.000
 4956.00    0.90536   0.77639    0.000
 4957.00    0.84650   0.75468    0.000
 4958.00    0.78285   0.78646    0.000
 4959.00    0.77011   0.83391    0.000
 4960.00    0.75925   0.85666    0.000
 4961.00    0.82061   0.85822    0.000
 4962.00    0.87863   0.85629    0.000
 4963.00    0.86378   0.85032    0.000
 4964.00    0.84807   0.83462    0.000
 4965.00    0.82182   0.81942    0.000
 4966.00    0.79439   0.81483    0.000
 4967.00    0.75706   0.81669    0.000
 4968.00    0.72786   0.82036    0.000
 4969.00    0.74942   0.82553    0.000
 4970.00    0.77971   0.83370    0.000
 4971.00    0.85276   0.84453    0.000
 4972.00    0.90644   0.85415    0.000
 4973.00    0.88304   0.86122    0.000
 4974.00    0.86441   0.86357    0.000
 4975.00    0.86157   0.85911    0.000
 4976.00    0.85551   0.84914    0.000
 4977.00    0.84048   0.83510    0.000
 4978.00    0.80719   0.82265    0.000
 4979.00    0.73024   0.81334    0.000
 4980.00    0.69203   0.79574    0.000
 4981.00    0.73384   0.76717    0.000
 4982.00    0.75342   0.74728    0.000
 4983.00    0.73303   0.75090    0.000
 4984.00    0.70496   0.77000    0.000
 4985.00    0.66481   0.79413    0.000
 4986.00    0.67582   0.81863    0.000
 4987.00    0.75739   0.83298    0.000
 4988.00    0.80155   0.83058    0.000
 4989.00    0.80028   0.81913    0.000
 4990.00    0.77811   0.81188    0.000
 4991.00    0.73356   0.81594    0.000
 4992.00    0.71207   0.82135    0.000
 4993.00    0.71234   0.82143    0.000
 4994.00    0.73440   0.82621    0.000
 4995.00    0.77458   0.83461    0.000
 4996.00    0.78898   0.83612    0.000
 4997.00    0.78450   0.82750    0.000
 4998.00    0.81934   0.80840    0.000
 4999.00    0.87948   0.78779    0.000
 5000.00    0.87725   0.77888    0.000
 5001.00    0.83991   0.78223    0.000
 5002.00    0.78644   0.78981    0.000
 5003.00    0.72505   0.78995    0.000
 5004.00    0.70212   0.77457    0.000
 5005.00    0.69546   0.75570    0.000
 5006.00    0.70540   0.75826    0.000
 5007.00    0.72135   0.78454    0.000
 5008.00    0.72396   0.80877    0.000
 5009.00    0.72249   0.81291    0.000
 5010.00    0.74154   0.79909    0.000
 5011.00    0.76582   0.77425    0.000
 5012.00    0.74096   0.74875    0.000
 5013.00    0.70588   0.73452    0.000
 5014.00    0.69425   0.73885    0.000
 5015.00    0.68646   0.75480    0.000
 5016.00    0.65762   0.76407    0.000
 5017.00    0.62621   0.76413    0.000
 5018.00    0.68972   0.76979    0.000
 5019.00    0.76125   0.78284    0.000
 5020.00    0.76847   0.78813    0.000
 5021.00    0.77255   0.78223    0.000
 5022.00    0.66779   0.78232    0.000
 5023.00    0.56454   0.79485    0.000
 5024.00    0.65622   0.80542    0.000
 5025.00    0.74292   0.80411    0.000
 5026.00    0.72982   0.79380    0.000
 5027.00    0.72261   0.78948    0.000
 5028.00    0.78427   0.80050    0.000
 5029.00    0.83781   0.81472    0.026
 5030.00    0.82591   0.82411    0.026
 5031.00    0.81904   0.83488    0.026
 5032.00    0.84275   0.84504    0.026
 5033.00    0.85579   0.84018    0.026
 5034.00    0.81785   0.81431    0.026
 5035.00    0.78820   0.78746    0.026
 5036.00    0.79086   0.78143    0.026
 5037.00    0.79651   0.78271    0.026
 5038.00    0.81187   0.76624    0.026
 5039.00    0.81120   0.73236    0.026
 5040.00    0.76654   0.70638    0.026
 5041.00    0.72659   0.71830    0.026
 5042.00    0.69773   0.76251    0.026
 5043.00    0.70128   0.80459    0.026
 5044.00    0.77070   0.83142    0.026
 5045.00    0.78579   0.84565    0.026
 5046.00    0.70476   0.84079    0.026
 5047.00    0.70192   0.81591    0.026
 5048.00    0.82014   0.78859    0.026
 5049.00    0.85898   0.77548    0.026
 5050.00    0.78991   0.77524    0.025
 5051.00    0.74669   0.78281    0.025
 5052.00    0.73442   0.79881    0.025
 5053.00    0.71150   0.81739    0.025
 5054.00    0.67732   0.82904    0.025
 5055.00    0.71253   0.83254    0.025
 5056.00    0.81232   0.83394    0.025
 5057.00    0.85976   0.83678    0.025
 5058.00    0.86423   0.83829    0.025
 5059.00    0.83692   0.83978    0.025
 5060.00    0.78666   0.84487    0.025
 5061.00    0.77260   0.84700    0.025
 5062.00    0.78148   0.83385    0.025
 5063.00    0.76126   0.80379    0.024
 5064.00    0.72490   0.77821    0.024
 5065.00    0.70093   0.77752    0.024
 5066.00    0.68293   0.78810    0.024
 5067.00    0.71967   0.79102    0.024
 5068.00    0.77919   0.79360    0.024
 5069.00    0.75119   0.80269    0.025
 5070.00    0.69202   0.80430    0.025
 5071.00    0.69045   0.79415    0.025
 5072.00    0.70621   0.79073    0.025
 5073.00    0.73314   0.79784    0.025
 5074.00    0.76284   0.80071    0.025
 5075.00    0.71946   0.79925    0.025
 5076.00    0.66127   0.80006    0.024
 5077.00    0.67971   0.79046    0.024
 5078.00    0.71033   0.76006    0.024
 5079.00    0.74974   0.73316    0.024
 5080.00    0.79019   0.73471    0.024
 5081.00    0.77635   0.75156    0.024
 5082.00    0.75813   0.76274    0.023
 5083.00    0.73223   0.77237    0.024
 5084.00    0.70599   0.78799    0.024
 5085.00    0.69420   0.80090    0.024
 5086.00    0.68297   0.80393    0.024
 5087.00    0.69118   0.80373    0.023
 5088.00    0.70310   0.80650    0.023
 5089.00    0.78422   0.80915    0.023
 5090.00    0.85118   0.81117    0.024
 5091.00    0.76048   0.81791    0.024
 5092.00    0.68443   0.82786    0.024
 5093.00    0.72254   0.83086    0.024
 5094.00    0.75757   0.82125    0.025
 5095.00    0.77451   0.80426    0.025
 5096.00    0.77481   0.78534    0.024
 5097.00    0.69753   0.76483    0.024
 5098.00    0.63259   0.75046    0.024
 5099.00    0.61463   0.75709    0.024
 5100.00    0.62275   0.78022    0.024
 5101.00    0.71381   0.79806    0.024
 5102.00    0.76380   0.80064    0.024
 5103.00    0.70310   0.79449    0.024
 5104.00    0.67545   0.78730    0.024
 5105.00    0.72427   0.77844    0.024
 5106.00    0.75192   0.76659    0.025
 5107.00    0.73722   0.75973    0.025
 5108.00    0.73586   0.76048    0.025
 5109.00    0.75776   0.76246    0.025
 5110.00    0.75467   0.76984    0.025
 5111.00    0.71345   0.78415    0.025
 5112.00    0.71878   0.79508    0.026
 5113.00    0.78646   0.80087    0.025
 5114.00    0.79436   0.80586    0.025
 5115.00    0.73170   0.81216    0.026
 5116.00    0.71044   0.82064    0.026
 5117.00    0.73227   0.82595    0.026
 5118.00    0.73388   0.82204    0.026
 5119.00    0.71692   0.81052    0.026
 5120.00    0.75718   0.79601    0.026
 5121.00    0.84372   0.77898    0.026
 5122.00    0.80465   0.75821    0.025
 5123.00    0.67617   0.74242    0.025
 5124.00    0.60708   0.74176    0.025
 5125.00    0.57510   0.74924    0.025
 5126.00    0.62742   0.75264    0.025
 5127.00    0.72574   0.75094    0.025
 5128.00    0.70704   0.74903    0.025
 5129.00    0.63282   0.75247    0.025
 5130.00    0.63295   0.76330    0.025
 5131.00    0.66349   0.77436    0.025
 5132.00    0.68668   0.78012    0.024
 5133.00    0.70730   0.78643    0.024
 5134.00    0.69574   0.79600    0.024
 5135.00    0.67470   0.79611    0.025
 5136.00    0.65640   0.78125    0.025
 5137.00    0.63877   0.76200    0.024
 5138.00    0.69805   0.74913    0.024
 5139.00    0.77252   0.75202    0.024
 5140.00    0.75234   0.76055    0.024
 5141.00    0.71757   0.75390    0.024
 5142.00    0.69666   0.74508    0.024
 5143.00    0.67734   0.75240    0.024
 5144.00    0.69192   0.76022    0.024
 5145.00    0.70908   0.75568    0.024
 5146.00    0.66150   0.74953    0.024
 5147.00    0.61126   0.75245    0.023
 5148.00    0.62115   0.76120    0.023
 5149.00    0.63074   0.76212    0.023
 5150.00    0.60728   0.75109    0.023
 5151.00    0.58824   0.73998    0.023
 5152.00    0.64578   0.73663    0.023
 5153.00    0.69734   0.74069    0.023
 5154.00    0.68523   0.75352    0.023
 5155.00    0.67206   0.77381    0.023
 5156.00    0.65081   0.79410    0.023
 5157.00    0.64049   0.80603    0.024
 5158.00    0.69275   0.80818    0.024
 5159.00    0.72518   0.80763    0.024
 5160.00    0.66728   0.80487    0.024
 5161.00    0.63306   0.79536    0.024
 5162.00    0.68718   0.78441    0.024
 5163.00    0.72628   0.77099    0.024
 5164.00    0.71852   0.73831    0.024
 5165.00    0.68482   0.68130    0.024
 5166.00    0.58240   0.62317    0.024
 5167.00    0.50091   0.59990    0.024
 5168.00    0.46703   0.62302    0.024
 5169.00    0.47654   0.65752    0.024
 5170.00    0.57151   0.65319    0.024
 5171.00    0.61581   0.61065    0.024
 5172.00    0.57318   0.59138    0.024
 5173.00    0.52857   0.63332    0.024
 5174.00    0.48100   0.69967    0.024
 5175.00    0.48497   0.74240    0.024
 5176.00    0.55701   0.75880    0.025
 5177.00    0.60295   0.76481    0.025
 5178.00    0.61852   0.76393    0.024
 5179.00    0.61931   0.75348    0.024
 5180.00    0.60493   0.72794    0.024
 5181.00    0.60240   0.67752    0.024
 5182.00    0.61060   0.61409    0.024
 5183.00    0.58095   0.58878    0.024
 5184.00    0.52112   0.63158    0.024
 5185.00    0.53921   0.70203    0.024
 5186.00    0.61196   0.74718    0.024
 5187.00    0.59166   0.76000    0.024
 5188.00    0.51411   0.76444    0.024
 5189.00    0.55501   0.76765    0.024
 5190.00    0.65957   0.75107    0.000
 5191.00    0.67098   0.72106    0.000
 5192.00    0.63892   0.71116    0.000
 5193.00    0.69686   0.72399    0.000
 5194.00    0.79099   0.73594    0.000
 5195.00    0.74411   0.74441    0.000
 5196.00    0.64884   0.75692    0.000
 5197.00    0.66047   0.76992    0.000
 5198.00    0.70298   0.78051    0.000
 5199.00    0.69763   0.78697    0.000
 5200.00    0.68086   0.78544    0.000
 5201.00    0.75352   0.77693    0.000
 5202.00    0.84340   0.76336    0.000
 5203.00    0.81044   0.73997    0.000
 5204.00    0.75911   0.71089    0.000
 5205.00    0.69875   0.69411    0.000
 5206.00    0.63741   0.69150    0.000
 5207.00    0.59725   0.68849    0.000
 5208.00    0.55862   0.68934    0.000
 5209.00    0.60230   0.70663    0.000
 5210.00    0.64905   0.73677    0.000
 5211.00    0.63288   0.76941    0.024
 5212.00    0.61715   0.79324    0.024
 5213.00    0.62840   0.79729    0.024
 5214.00    0.64196   0.78154    0.024
 5215.00    0.69313   0.76349    0.024
 5216.00    0.73923   0.76179    0.023
 5217.00    0.73367   0.77666    0.023
 5218.00    0.72677   0.79469    0.024
 5219.00    0.71019   0.80707    0.024
 5220.00    0.69587   0.81365    0.024
 5221.00    0.69415   0.81222    0.024
 5222.00    0.69769   0.79801    0.024
 5223.00    0.72464   0.77098    0.024
 5224.00    0.73761   0.73551    0.024
 5225.00    0.69950   0.70080    0.024
 5226.00    0.65994   0.68774    0.024
 5227.00    0.61597   0.71286    0.023
 5228.00    0.58554   0.75631    0.023
 5229.00    0.59037   0.78672    0.023
 5230.00    0.59872   0.79648    0.024
 5231.00    0.61495   0.78622    0.024
 5232.00    0.63411   0.76476    0.024
 5233.00    0.65892   0.75366    0.024
 5234.00    0.70942   0.76231    0.024
 5235.00    0.80333   0.78319    0.024
 5236.00    0.83043   0.80330    0.024
 5237.00    0.75858   0.81281    0.024
 5238.00    0.72164   0.81240    0.024
 5239.00    0.73016   0.81001    0.024
 5240.00    0.71963   0.80990    0.024
 5241.00    0.68727   0.80925    0.024
 5242.00    0.70574   0.80917    0.023
 5243.00    0.77563   0.81448    0.023
 5244.00    0.81819   0.81589    0.024
 5245.00    0.83637   0.79795    0.024
 5246.00    0.78361   0.77103    0.025
 5247.00    0.67508   0.76004    0.025
 5248.00    0.65553   0.76137    0.025
 5249.00    0.69750   0.75708    0.025
 5250.00    0.69711   0.75412    0.025
 5251.00    0.67103   0.76353    0.025
 5252.00    0.66806   0.77463    0.025
 5253.00    0.67733   0.77453    0.025
 5254.00    0.66072   0.76998    0.024
 5255.00    0.63224   0.77981    0.024
 5256.00    0.60670   0.80421    0.024
 5257.00    0.58232   0.82399    0.024
 5258.00    0.69049   0.82729    0.024
 5259.00    0.84331   0.81422    0.025
 5260.00    0.76816   0.78768    0.025
 5261.00    0.62849   0.75335    0.025
 5262.00    0.60645   0.72083    0.025
 5263.00    0.61187   0.69636    0.025
 5264.00    0.59445   0.68163    0.025
 5265.00    0.57274   0.68275    0.025
 5266.00    0.54783   0.70069    0.025
 5267.00    0.52247   0.70650    0.025
 5268.00    0.51029   0.67824    0.025
 5269.00    0.49950   0.65490    0.025
 5270.00    0.54696   0.67928    0.025
 5271.00    0.59838   0.72626    0.025
 5272.00    0.62010   0.75273    0.025
 5273.00    0.64082   0.75596    0.025
 5274.00    0.68617   0.75220    0.025
 5275.00    0.73013   0.75851    0.025
 5276.00    0.72889   0.78383    0.025
 5277.00    0.72729   0.81151    0.024
 5278.00    0.72008   0.81970    0.024
 5279.00    0.71406   0.80756    0.024
 5280.00    0.71979   0.78733    0.024
 5281.00    0.72446   0.76842    0.023
 5282.00    0.72168   0.75565    0.024
 5283.00    0.72070   0.75820    0.024
 5284.00    0.72951   0.78304    0.023
 5285.00    0.73909   0.81520    0.023
 5286.00    0.75203   0.83191    0.023
 5287.00    0.76495   0.83113    0.024
 5288.00    0.77781   0.82750    0.024
 5289.00    0.79073   0.82963    0.024
 5290.00    0.80382   0.83230    0.024
 5291.00    0.80008   0.82892    0.024
 5292.00    0.75331   0.82238    0.024
 5293.00    0.72876   0.81775    0.024
 5294.00    0.75310   0.80881    0.024
 5295.00    0.76822   0.78509    0.024
 5296.00    0.76571   0.75233    0.024
 5297.00    0.76082   0.73441    0.024
 5298.00    0.75193   0.74524    0.024
 5299.00    0.73356   0.76672    0.024
 5300.00    0.70134   0.77625    0.024
 5301.00    0.69354   0.77974    0.024
 5302.00    0.71709   0.79311    0.024
 5303.00    0.73243   0.81425    0.024
 5304.00    0.73850   0.82794    0.024
 5305.00    0.75084   0.82600    0.024
 5306.00    0.76943   0.81632    0.024
 5307.00    0.78044   0.81343    0.024
 5308.00    0.78477   0.82073    0.024
 5309.00    0.79088   0.82828    0.024
 5310.00    0.79835   0.82883    0.025
 5311.00    0.79136   0.82423    0.025
 5312.00    0.77450   0.81894    0.025
 5313.00    0.77481   0.81496    0.025
 5314.00    0.78535   0.80900    0.024
 5315.00    0.80551   0.79883    0.024
 5316.00    0.83067   0.79265    0.024
 5317.00    0.81569   0.79651    0.024
 5318.00    0.78258   0.80268    0.024
 5319.00    0.75259   0.80410    0.024
 5320.00    0.72382   0.80205    0.024
 5321.00    0.74261   0.79616    0.024
 5322.00    0.77712   0.78314    0.024
 5323.00    0.77310   0.76860    0.024
 5324.00    0.75840   0.76398    0.024
 5325.00    0.75945   0.75862    0.024
 5326.00    0.76408   0.72739    0.024
 5327.00    0.66987   0.68371    0.024
 5328.00    0.55763   0.67730    0.023
 5329.00    0.57319   0.71876    0.023
 5330.00    0.60668   0.76526    0.023
 5331.00    0.67036   0.78452    0.023
 5332.00    0.73709   0.78696    0.023
 5333.00    0.74624   0.79385    0.023
 5334.00    0.75169   0.80323    0.023
 5335.00    0.75217   0.80370    0.023
 5336.00    0.75231   0.79799    0.023
 5337.00    0.67107   0.79204    0.023
 5338.00    0.59503   0.77890    0.023
 5339.00    0.66784   0.75732    0.023
 5340.00    0.73535   0.74783    0.023
 5341.00    0.72704   0.76247    0.023
 5342.00    0.72453   0.78412    0.023
 5343.00    0.77631   0.79387    0.023
 5344.00    0.82009   0.79021    0.023
 5345.00    0.80923   0.78395    0.023
 5346.00    0.79420   0.78177    0.023
 5347.00    0.75716   0.77705    0.023
 5348.00    0.72221   0.77035    0.023
 5349.00    0.69615   0.77533    0.023
 5350.00    0.68247   0.79304    0.022
 5351.00    0.71219   0.80809    0.023
 5352.00    0.74525   0.81422    0.023
 5353.00    0.78815   0.82051    0.023
 5354.00    0.82049   0.83037    0.024
 5355.00    0.82629   0.83703    0.024
 5356.00    0.82407   0.83885    0.023
 5357.00    0.80451   0.83943    0.023
 5358.00    0.80092   0.83856    0.023
 5359.00    0.82732   0.83206    0.024
 5360.00    0.81721   0.81826    0.024
 5361.00    0.74722   0.80332    0.024
 5362.00    0.75130   0.79427    0.024
 5363.00    0.86189   0.78900    0.024
 5364.00    0.90430   0.78411    0.024
 5365.00    0.86044   0.78263    0.024
 5366.00    0.79306   0.78420    0.024
 5367.00    0.69946   0.78157    0.024
 5368.00    0.65555   0.76661   -2.000
 5369.00    0.66052   0.73990   -2.000
 5370.00    0.67704   0.72008   -2.000
 5371.00    0.70357   0.72944   -2.000
 5372.00    0.67940   0.76438   -2.000
 5373.00    0.61650   0.79878   -2.000
 5374.00    0.58537   0.81664   -2.000
 5375.00    0.57560   0.81929   -2.000
 5376.00    0.69938   0.81582   -2.000
 5377.00    0.90172   0.81432   -2.000
 5378.00    0.95163   0.81290   -2.000
 5379.00    0.92338   0.80670   -2.000
 5380.00    0.83812   0.79834   -2.000
 5381.00    0.72753   0.79179   -2.000
 5382.00    0.72379   0.78809   -2.000
 5383.00    0.76083   0.79076    0.024
 5384.00    0.78199   0.79954    0.023
 5385.00    0.79800   0.80648    0.023
 5386.00    0.78462   0.80696    0.023
 5387.00    0.76327   0.80148    0.023
 5388.00    0.72586   0.79123    0.023
 5389.00    0.68487   0.78046    0.023
 5390.00    0.73291   0.77370    0.023
 5391.00    0.79676   0.77022    0.023
 5392.00    0.79652   0.76771    0.023
 5393.00    0.78758   0.76565    0.023
 5394.00    0.74185   0.75996    0.023
 5395.00    0.69257   0.74439    0.024
 5396.00    0.74654   0.72965    0.023
 5397.00    0.80671   0.73691    0.023
 5398.00    0.77364   0.76018    0.022
 5399.00    0.73839   0.77591    0.022
 5400.00    0.74343   0.78101    0.022
 5401.00    0.74658   0.78147    0.023
 5402.00    0.70091   0.76959    0.023
 5403.00    0.65908   0.74154    0.023
 5404.00    0.66931   0.71395    0.023
 5405.00    0.68503   0.70813    0.023
 5406.00    0.75015   0.72532    0.023
 5407.00    0.80119   0.74246    0.023
 5408.00    0.75921   0.74167    0.023
 5409.00    0.72627   0.73551    0.023
 5410.00    0.73985   0.74545    0.023
 5411.00    0.75720   0.76819    0.024
 5412.00    0.79020   0.78446    0.024
 5413.00    0.81217   0.78719    0.024
 5414.00    0.79628   0.78655    0.023
 5415.00    0.77001   0.79302    0.023
 5416.00    0.71370   0.80225    0.023
 5417.00    0.70395   0.80396    0.023
 5418.00    0.80924   0.79739    0.024
 5419.00    0.87040   0.78997    0.024
 5420.00    0.83764   0.78878    0.024
 5421.00    0.81165   0.79125    0.024
 5422.00    0.79820   0.78602    0.024
 5423.00    0.76918   0.77478    0.024
 5424.00    0.71502   0.77511    0.024
 5425.00    0.70350   0.79089    0.024
 5426.00    0.75242   0.80309    0.024
 5427.00    0.77064   0.79070    0.024
 5428.00    0.75058   0.75871    0.023
 5429.00    0.72645   0.74008    0.023
 5430.00    0.69783   0.74843    0.023
 5431.00    0.69055   0.75839    0.023
 5432.00    0.70395   0.75220    0.023
 5433.00    0.69680   0.73981    0.023
 5434.00    0.67208   0.73621    0.023
 5435.00    0.67191   0.74676    0.023
 5436.00    0.69025   0.76735    0.023
 5437.00    0.71156   0.79020    0.023
 5438.00    0.73485   0.80796    0.023
 5439.00    0.75850   0.81734    0.022
 5440.00    0.78236   0.82034    0.022
 5441.00    0.79415   0.82054    0.022
 5442.00    0.79986   0.81729    0.022
 5443.00    0.80375   0.80370    0.022
 5444.00    0.80686   0.77492    0.022
 5445.00    0.79411   0.74014    0.022
 5446.00    0.77541   0.72330    0.022
 5447.00    0.74715   0.73739    0.022
 5448.00    0.71585   0.76463    0.022
 5449.00    0.70763   0.78209    0.022
 5450.00    0.70553   0.78613    0.022
 5451.00    0.69681   0.78248    0.022
 5452.00    0.68664   0.77159    0.022
 5453.00    0.68074   0.75007    0.023
 5454.00    0.67557   0.72601    0.023
 5455.00    0.63577   0.72196    0.023
 5456.00    0.59143   0.74484    0.023
 5457.00    0.64632   0.77291    0.023
 5458.00    0.71039   0.78565    0.023
 5459.00    0.76083   0.78238    0.023
 5460.00    0.81050   0.77125    0.023
 5461.00    0.75974   0.75754    0.023
 5462.00    0.70686   0.74801    0.023
 5463.00    0.66588   0.75152    0.023
 5464.00    0.63188   0.76352    0.023
 5465.00    0.76203   0.77156    0.023
 5466.00    0.88003   0.77543    0.023
 5467.00    0.84213   0.77909    0.023
 5468.00    0.80037   0.77851    0.024
 5469.00    0.72528   0.77239    0.024
 5470.00    0.66529   0.76708    0.023
 5471.00    0.70205   0.76339    0.023
 5472.00    0.72564   0.75713    0.023
 5473.00    0.68319   0.75006    0.023
 5474.00    0.64044   0.73989    0.023
 5475.00    0.59643   0.72220    0.023
 5476.00    0.56698   0.71315    0.023
 5477.00    0.58655   0.72895    0.023
 5478.00    0.60413   0.75253   -2.000
 5479.00    0.61609   0.75776   -2.000
 5480.00    0.63211   0.74689   -2.000
 5481.00    0.65798   0.74159   -2.000
 5482.00    0.64795   0.75120   -2.000
 5483.00    0.56270   0.76813   -2.000
 5484.00    0.44505   0.78048   -2.000
 5485.00    0.26841   0.77924   -2.000
 5486.00    0.14063   0.76751   -2.000
 5487.00    0.09065   0.76016   -2.000
 5488.00    0.16197   0.76371   -2.000
 5489.00    0.40276   0.76967   -2.000
 5490.00    0.71083   0.77327   -2.000
 5491.00    1.10161   0.77507   -2.000
 5492.00    1.21537   0.77342   -2.000
 5493.00    1.02892   0.77174   -2.000
 5494.00    1.01892   0.77257   -2.000
 5495.00    1.17757   0.76871   -2.000
 5496.00    1.19928   0.75967   -2.000
 5497.00    1.10558   0.75942   -2.000
 5498.00    0.94122   0.76943   -2.000
 5499.00    0.72441   0.77158   -2.000
 5500.00    0.65223   0.76025   -2.000
 5501.00    0.67434   0.75101   -2.000
 5502.00    0.68390   0.75328    0.022
 5503.00    0.68629   0.75862    0.022
 5504.00    0.69488   0.75506    0.022
 5505.00    0.70654   0.74409    0.022
 5506.00    0.71912   0.74142    0.023
 5507.00    0.73209   0.75236    0.023
 5508.00    0.72131   0.76273    0.023
 5509.00    0.70179   0.76231    0.023
 5510.00    0.70249   0.75221    0.022
 5511.00    0.70951   0.73809    0.022
 5512.00    0.74288   0.72945    0.022
 5513.00    0.78312   0.73175    0.022
 5514.00    0.76788   0.74192    0.022
 5515.00    0.74086   0.75431    0.022
 5516.00    0.75984   0.76669    0.023
 5517.00    0.78655   0.77896    0.023
 5518.00    0.73859   0.78733    0.023
 5519.00    0.68117   0.78841    0.022
 5520.00    0.73587   0.78529    0.023
 5521.00    0.80047   0.78288    0.023
 5522.00    0.85253   0.78206    0.023
 5523.00    0.90394   0.77957    0.023
 5524.00    0.84019   0.77160    0.023
 5525.00    0.77487   0.75716    0.023
 5526.00    0.75431   0.73907    0.023
 5527.00    0.73459   0.72741    0.022
 5528.00    0.73297   0.73421    0.022
 5529.00    0.73182   0.75473    0.022
 5530.00    0.73640   0.77047    0.022
 5531.00    0.73707   0.77318    0.022
 5532.00    0.70502   0.76815    0.022
 5533.00    0.68079   0.76098    0.022
 5534.00    0.70518   0.75635    0.022
 5535.00    0.73068   0.75899    0.021
 5536.00    0.76155   0.76543    0.022
 5537.00    0.77125   0.77005    0.022
 5538.00    0.69692   0.77538    0.022
 5539.00    0.65570   0.78313    0.021
 5540.00    0.72374   0.78745    0.021
 5541.00    0.78333   0.78303    0.021
 5542.00    0.81938   0.77345    0.022
 5543.00    0.83696   0.76729    0.022
 5544.00    0.81044   0.76663    0.022
 5545.00    0.78290   0.76858    0.022
 5546.00    0.75325   0.77399    0.022
 5547.00    0.72858   0.78289    0.022
 5548.00    0.71284   0.79000    0.022
 5549.00    0.73399   0.79232    0.022
 5550.00    0.81298   0.79087    0.022
 5551.00    0.84918   0.78553    0.022
 5552.00    0.82648   0.77643    0.022
 5553.00    0.81271   0.76824    0.022
 5554.00    0.80979   0.76663    0.022
 5555.00    0.78838   0.76988    0.022
 5556.00    0.74723   0.77192    0.022
 5557.00    0.73195   0.77224    0.022
 5558.00    0.74106   0.77323    0.022
 5559.00    0.72222   0.77368    0.022
 5560.00    0.68014   0.77097    0.022
 5561.00    0.68559   0.76449    0.022
 5562.00    0.72582   0.75780    0.022
 5563.00    0.75907   0.75476    0.023
 5564.00    0.78782   0.75311    0.023
 5565.00    0.78538   0.75100    0.022
 5566.00    0.76540   0.75062    0.022
 5567.00    0.76165   0.75053    0.022
 5568.00    0.76583   0.74882    0.021
 5569.00    0.72207   0.75009    0.021
 5570.00    0.65805   0.75340    0.021
 5571.00    0.66307   0.75026    0.021
 5572.00    0.69307   0.74619    0.021
 5573.00    0.73576   0.75161    0.021
 5574.00    0.78234   0.75922    0.021
 5575.00    0.78098   0.76154    0.021
 5576.00    0.76743   0.76365    0.021
 5577.00    0.79282   0.76695    0.021
 5578.00    0.82628   0.76931    0.022
 5579.00    0.80766   0.77018    0.021
 5580.00    0.78055   0.76724    0.021
 5581.00    0.74848   0.76267    0.021
 5582.00    0.71581   0.76158    0.022
 5583.00    0.69407   0.76033    0.022
 5584.00    0.67325   0.75068    0.022
 5585.00    0.66649   0.73121    0.021
 5586.00    0.66041   0.70998    0.021
 5587.00    0.66231   0.69781    0.021
 5588.00    0.66428   0.69947    0.021
 5589.00    0.66355   0.71224    0.021
 5590.00    0.66354   0.72742    0.022
 5591.00    0.67770   0.73548    0.022
 5592.00    0.69094   0.73485    0.022
 5593.00    0.69344   0.73355    0.022
 5594.00    0.69660   0.74154    0.022
 5595.00    0.70508   0.75423    0.023
 5596.00    0.70320   0.75416    0.023
 5597.00    0.63880   0.73969    0.023
 5598.00    0.59667   0.72765    0.023
 5599.00    0.66078   0.72360    0.023
 5600.00    0.70503   0.71907    0.023
 5601.00    0.67214   0.71372    0.023
 5602.00    0.65702   0.71780    0.023
 5603.00    0.69935   0.73588    0.023
 5604.00    0.72568   0.75819    0.023
 5605.00    0.70818   0.77335    0.022
 5606.00    0.71643   0.77944    0.022
 5607.00    0.78508   0.77992    0.022
 5608.00    0.81247   0.77823    0.023
 5609.00    0.75614   0.77718    0.022
 5610.00    0.73918   0.77850    0.022
 5611.00    0.79175   0.77968    0.021
 5612.00    0.81020   0.77234    0.021
 5613.00    0.77593   0.74890    0.021
 5614.00    0.74347   0.71960    0.021
 5615.00    0.71347   0.70988    0.021
 5616.00    0.70544   0.72448    0.021
 5617.00    0.72366   0.74120    0.021
 5618.00    0.73470   0.74705    0.021
 5619.00    0.73819   0.74932    0.021
 5620.00    0.73230   0.75485    0.020
 5621.00    0.71771   0.75819    0.020
 5622.00    0.72388   0.74998    0.020
 5623.00    0.74706   0.73333    0.020
 5624.00    0.76232   0.72494    0.020
 5625.00    0.77187   0.73250    0.020
 5626.00    0.74569   0.74527    0.020
 5627.00    0.69689   0.75446    0.020
 5628.00    0.67891   0.76147    0.020
 5629.00    0.67798   0.76698    0.021
 5630.00    0.68703   0.76945    0.021
 5631.00    0.70089   0.76871    0.021
 5632.00    0.73092   0.76557    0.021
 5633.00    0.76765   0.76104    0.021
 5634.00    0.75609   0.75536    0.021
 5635.00    0.72737   0.74817    0.021
 5636.00    0.72096   0.74168    0.021
 5637.00    0.72124   0.73976    0.021
 5638.00    0.72519   0.74137    0.021
 5639.00    0.73006   0.74037    0.021
 5640.00    0.73492   0.73668    0.021
 5641.00    0.73978   0.73724    0.021
 5642.00    0.73602   0.74236    0.021
 5643.00    0.73089   0.74666    0.021
 5644.00    0.73989   0.74927    0.021
 5645.00    0.75055   0.75191    0.021
 5646.00    0.77950   0.75466    0.021
 5647.00    0.80991   0.75579    0.021
 5648.00    0.79290   0.75463    0.021
 5649.00    0.77379   0.75444    0.021
 5650.00    0.74751   0.75835    0.021
 5651.00    0.72199   0.76359    0.021
 5652.00    0.73741   0.76376    0.020
 5653.00    0.75243   0.75716    0.020
 5654.00    0.76033   0.74995    0.020
 5655.00    0.76503   0.74383    0.020
 5656.00    0.73439   0.72915    0.020
 5657.00    0.70487   0.70840    0.020
 5658.00    0.68410   0.70373    0.020
 5659.00    0.67191   0.71887    0.019
 5660.00    0.71011   0.73007    0.020
 5661.00    0.74029   0.72753    0.020
 5662.00    0.73314   0.72665    0.020
 5663.00    0.73507   0.73632    0.020
 5664.00    0.77147   0.74693    0.020
 5665.00    0.79951   0.74831    0.020
 5666.00    0.80103   0.74198    0.020
 5667.00    0.79027   0.73637    0.020
 5668.00    0.74647   0.73649    0.020
 5669.00    0.70876   0.74085    0.020
 5670.00    0.68509   0.74733    0.020
 5671.00    0.68051   0.75605    0.020
 5672.00    0.71408   0.76426    0.020
 5673.00    0.72970   0.76678    0.020
 5674.00    0.71412   0.76468    0.020
 5675.00    0.70549   0.76448    0.021
 5676.00    0.70745   0.76648    0.021
 5677.00    0.73116   0.76526    0.021
 5678.00    0.78398   0.76125    0.021
 5679.00    0.77909   0.75793    0.021
 5680.00    0.70621   0.75268    0.021
 5681.00    0.67101   0.74309    0.021
 5682.00    0.67495   0.73601    0.021
 5683.00    0.68895   0.73754    0.021
 5684.00    0.71216   0.74218    0.021
 5685.00    0.72086   0.74094    0.021
 5686.00    0.71783   0.73386    0.021
 5687.00    0.70868   0.72951    0.021
 5688.00    0.69518   0.73412    0.020
 5689.00    0.69292   0.74503    0.020
 5690.00    0.69767   0.75606    0.020
 5691.00    0.73020   0.76388    0.020
 5692.00    0.77786   0.76664    0.020
 5693.00    0.80850   0.76453    0.020
 5694.00    0.83108   0.76166    0.020
 5695.00    0.80564   0.76009    0.020
 5696.00    0.76057   0.75608    0.020
 5697.00    0.72247   0.74836    0.020
 5698.00    0.68680   0.74167    0.020
 5699.00    0.70495   0.73633    0.020
 5700.00    0.73893   0.72986    0.020
 5701.00    0.73696   0.72716    0.020
 5702.00    0.72624   0.73239    0.020
 5703.00    0.71869   0.73943    0.020
 5704.00    0.71177   0.73912    0.019
 5705.00    0.72093   0.73067    0.020
 5706.00    0.73256   0.71947    0.020
 5707.00    0.73967   0.70819    0.020
 5708.00    0.74627   0.69995    0.020
 5709.00    0.72375   0.69908    0.020
 5710.00    0.69902   0.70356    0.019
 5711.00    0.71534   0.71266    0.020
 5712.00    0.73333   0.72842    0.020
 5713.00    0.73346   0.74390    0.020
 5714.00    0.73343   0.75217    0.020
 5715.00    0.73279   0.75505    0.020
 5716.00    0.73235   0.75533    0.020
 5717.00    0.73555   0.75557    0.020
 5718.00    0.74198   0.75858    0.020
 5719.00    0.78256   0.76324    0.020
 5720.00    0.81607   0.76763    0.020
 5721.00    0.79661   0.77150    0.020
 5722.00    0.77943   0.77350    0.020
 5723.00    0.77528   0.77213    0.020
 5724.00    0.77767   0.76675    0.020
 5725.00    0.80971   0.75707    0.020
 5726.00    0.82972   0.74800    0.020
 5727.00    0.80497   0.74779    0.020
 5728.00    0.78296   0.75426    0.020
 5729.00    0.76950   0.75621    0.020
 5730.00    0.75081   0.75160    0.019
 5731.00    0.71830   0.75021    0.020
 5732.00    0.69835   0.75658    0.020
 5733.00    0.70691   0.76430    0.020
 5734.00    0.72219   0.76734    0.020
 5735.00    0.75070   0.76553    0.019
 5736.00    0.77699   0.76224    0.019
 5737.00    0.79948   0.76006    0.019
 5738.00    0.80313   0.75894    0.019
 5739.00    0.77853   0.75829    0.019
 5740.00    0.75984   0.75776    0.000
 5741.00    0.74895   0.75676    0.000
 5742.00    0.73297   0.75665    0.000
 5743.00    0.71107   0.76022    0.000
 5744.00    0.70902   0.76604    0.000
 5745.00    0.72730   0.76739    0.000
 5746.00    0.75367   0.76045    0.000
 5747.00    0.78734   0.75232    0.000
 5748.00    0.79583   0.75335    0.000
 5749.00    0.78429   0.76081    0.000
 5750.00    0.77704   0.76205    0.000
 5751.00    0.77279   0.75147    0.000
 5752.00    0.75597   0.73657    0.000
 5753.00    0.73143   0.73015    0.000
 5754.00    0.72206   0.73823    0.000
 5755.00    0.72082   0.75376    0.000
 5756.00    0.70146   0.76575    0.000
 5757.00    0.67365   0.76944    0.000
 5758.00    0.68937   0.76483    0.000
 5759.00    0.72257   0.75417    0.000
 5760.00    0.74084   0.74113    0.000
 5761.00    0.75400   0.73070    0.000
 5762.00    0.71416   0.73010    0.000
 5763.00    0.65903   0.74157    0.000
 5764.00    0.68343   0.75571    0.000
 5765.00    0.72676   0.76342    0.000
 5766.00    0.75365   0.76507    0.000
 5767.00    0.77737   0.76410    0.000
 5768.00    0.75539   0.76224    0.000
 5769.00    0.72659   0.76014    0.000
 5770.00    0.75829   0.75750    0.000
 5771.00    0.79658   0.75451    0.000
 5772.00    0.82613   0.75224    0.000
 5773.00    0.85505   0.75051    0.000
 5774.00    0.84737   0.75001    0.000
 5775.00    0.83834   0.75214    0.000
 5776.00    0.83941   0.75463    0.000
 5777.00    0.84113   0.75319    0.000
 5778.00    0.86505   0.74467    0.000
 5779.00    0.88497   0.72887    0.000
 5780.00    0.84038   0.71300    0.000
 5781.00    0.79753   0.70709    0.000
 5782.00    0.77236   0.71008    0.000
 5783.00    0.74807   0.71241    0.000
 5784.00    0.73017   0.71290    0.000
 5785.00    0.71357   0.71917    0.000
 5786.00    0.70423   0.73143    0.000
 5787.00    0.69497   0.74171    0.000
 5788.00    0.68607   0.74533    0.000
 5789.00    0.68284   0.74219    0.000
 5790.00    0.70028   0.73780    0.000
 5791.00    0.72942   0.73973   -2.000
 5792.00    0.79424   0.74745   -2.000
 5793.00    0.82484   0.75553   -2.000
 5794.00    0.76657   0.75970   -2.000
 5795.00    0.72582   0.75641   -2.000
 5796.00    0.72415   0.74742   -2.000
 5797.00    0.72591   0.74305   -2.000
 5798.00    0.73431   0.75031   -2.000
 5799.00    0.72981   0.76290   -2.000
 5800.00    0.70353   0.77170   -2.000
 5801.00    0.69005   0.77373   -2.000
 5802.00    0.69549   0.76847   -2.000
 5803.00    0.71496   0.75851   -2.000
 5804.00    0.75263   0.75089   -2.000
 5805.00    0.78478   0.74972   -2.000
 5806.00    0.81060   0.75272   -2.000
 5807.00    0.81882   0.75592   -2.000
 5808.00    0.80925   0.75813   -2.000
 5809.00    0.80075   0.76011   -2.000
 5810.00    0.79320   0.76144   -2.000
 5811.00    0.76670   0.76119    0.000
 5812.00    0.72533   0.75889    0.000
 5813.00    0.70201   0.75362    0.000
 5814.00    0.69115   0.74591    0.000
 5815.00    0.69267   0.74086    0.000
 5816.00    0.70167   0.74384    0.000
 5817.00    0.69448   0.75287    0.000
 5818.00    0.67872   0.76074    0.000
 5819.00    0.69454   0.76420    0.000
 5820.00    0.72482   0.76446    0.000
 5821.00    0.75153   0.76269    0.000
 5822.00    0.77682   0.76045    0.000
 5823.00    0.78490   0.75999    0.000
 5824.00    0.78719   0.76149    0.000
 5825.00    0.78972   0.76277    0.000
 5826.00    0.79233   0.76304    0.000
 5827.00    0.79396   0.76354    0.000
 5828.00    0.79536   0.76482    0.000
 5829.00    0.79336   0.76565    0.000
 5830.00    0.79072   0.76510    0.000
 5831.00    0.78451   0.76389    0.000
 5832.00    0.77779   0.76199    0.000
 5833.00    0.75476   0.75906    0.000
 5834.00    0.73003   0.75750    0.000
 5835.00    0.73756   0.75877    0.000
 5836.00    0.74728   0.75926    0.000
 5837.00    0.72451   0.75699    0.000
 5838.00    0.70066   0.75617    0.000
 5839.00    0.72241   0.75981    0.000
 5840.00    0.74292   0.76498    0.000
 5841.00    0.72327   0.76781    0.000
 5842.00    0.70634   0.76750    0.000
 5843.00    0.73050   0.76467    0.000
 5844.00    0.75385   0.75988    0.000
 5845.00    0.76934   0.75355    0.000
 5846.00    0.78416   0.74751    0.000
 5847.00    0.79426   0.74485    0.000
 5848.00    0.80314   0.74549    0.000
 5849.00    0.80547   0.74546    0.000
 5850.00    0.79908   0.74090    0.000
 5851.00    0.75488   0.73112    0.000
 5852.00    0.72251   0.72154    0.000
 5853.00    0.73231   0.71968    0.000
 5854.00    0.74407   0.72267    0.000
 5855.00    0.76170   0.71927    0.000
 5856.00    0.76563   0.70868    0.000
 5857.00    0.73461   0.70366    0.000
 5858.00    0.70132   0.71090    0.000
 5859.00    0.66308   0.72272    0.000
 5860.00    0.64661   0.72960    0.000
 5861.00    0.67162   0.72985    0.000
 5862.00    0.69854   0.72945    0.000
 5863.00    0.72866   0.73201    0.000
 5864.00    0.74164   0.73286    0.000
 5865.00    0.72967   0.72872    0.000
 5866.00    0.73234   0.72591    0.000
 5867.00    0.75378   0.73063    0.000
 5868.00    0.75773   0.73920    0.000
 5869.00    0.74193   0.74508    0.000
 5870.00    0.73980   0.74602    0.000
 5871.00    0.75129   0.74300    0.000
 5872.00    0.74674   0.73888    0.000
 5873.00    0.72809   0.73573    0.000
 5874.00    0.72595   0.73288    0.000
 5875.00    0.73657   0.72990    0.000
 5876.00    0.73104   0.72788    0.000
 5877.00    0.71452   0.72612    0.000
 5878.00    0.69996   0.72246    0.000
 5879.00    0.68656   0.71861    0.000
 5880.00    0.70202   0.71857    0.000
 5881.00    0.73250   0.72083    0.000
 5882.00    0.74377   0.72034    0.000
 5883.00    0.74637   0.71774    0.000
 5884.00    0.72957   0.71693    0.000
 5885.00    0.70525   0.71493    0.000
 5886.00    0.68765   0.69993    0.000
 5887.00    0.67228   0.65920    0.000
 5888.00    0.65903   0.59951    0.000
 5889.00    0.64637   0.56015    0.000
 5890.00    0.65607   0.57316    0.000
 5891.00    0.67085   0.61678    0.000
 5892.00    0.64549   0.64667    0.000
 5893.00    0.61282   0.64213    0.000
 5894.00    0.61199   0.61055    0.000
 5895.00    0.61561   0.58718    0.000
 5896.00    0.61625   0.60315    0.000
 5897.00    0.61660   0.64258    0.000
 5898.00    0.61124   0.67318    0.000
 5899.00    0.60551   0.69040    0.000
 5900.00    0.62205   0.70252    0.000
 5901.00    0.63926   0.71074    0.018
 5902.00    0.65846   0.71472    0.018
 5903.00    0.67618   0.71565    0.018
 5904.00    0.65201   0.71431    0.018
 5905.00    0.63144   0.71327    0.018
 5906.00    0.66214   0.71531    0.018
 5907.00    0.69343   0.71874    0.018
 5908.00    0.73024   0.72016    0.018
 5909.00    0.76132   0.72070    0.018
 5910.00    0.75359   0.72229    0.018
 5911.00    0.74946   0.72088    0.017
 5912.00    0.76434   0.71239    0.017
 5913.00    0.77702   0.70155    0.017
 5914.00    0.78035   0.69688    0.018
 5915.00    0.77748   0.69997    0.018
 5916.00    0.75297   0.70678    0.018
 5917.00    0.73011   0.71300    0.018
 5918.00    0.71213   0.71706    0.018
 5919.00    0.69853   0.71906    0.018
 5920.00    0.69590   0.71793    0.017
 5921.00    0.70627   0.71537    0.017
 5922.00    0.74470   0.71564    0.018
 5923.00    0.77113   0.71896    0.018
 5924.00    0.77507   0.72236    0.018
 5925.00    0.78933   0.72371    0.018
 5926.00    0.82046   0.72170    0.018
 5927.00    0.83562   0.71631    0.018
 5928.00    0.82784   0.70969    0.018
 5929.00    0.80402   0.70688    0.018
 5930.00    0.75996   0.71174    0.018
 5931.00    0.72280   0.71927    0.018
 5932.00    0.69333   0.72043    0.018
 5933.00    0.69387   0.71509    0.018
 5934.00    0.72385   0.71205    0.018
 5935.00    0.75211   0.71595    0.018
 5936.00    0.77887   0.72219    0.018
 5937.00    0.78470   0.72593    0.018
 5938.00    0.77458   0.72550    0.018
 5939.00    0.75863   0.71988    0.018
 5940.00    0.73878   0.71241    0.018
 5941.00    0.72863   0.70996    0.017
 5942.00    0.72418   0.71373    0.017
 5943.00    0.71601   0.71952    0.017
 5944.00    0.70593   0.72470    0.017
 5945.00    0.70987   0.72691    0.017
 5946.00    0.72003   0.72268    0.017
 5947.00    0.72800   0.71325    0.017
 5948.00    0.73514   0.70690    0.017
 5949.00    0.74385   0.70885    0.017
 5950.00    0.75308   0.71255    0.017
 5951.00    0.73739   0.71056    0.017
 5952.00    0.71496   0.70738    0.017
 5953.00    0.71559   0.70951    0.017
 5954.00    0.72135   0.71214    0.017
 5955.00    0.73368   0.70918    0.018
 5956.00    0.74718   0.70515    0.018
 5957.00    0.71688   0.70690    0.018
 5958.00    0.68066   0.71392    0.017
 5959.00    0.69244   0.72182    0.018
 5960.00    0.70884   0.72738    0.018
 5961.00    0.72124   0.72961    0.018
 5962.00    0.73341   0.72896    0.018
 5963.00    0.79022   0.72589    0.018
 5964.00    0.84759   0.72125    0.018
 5965.00    0.81328   0.71853    0.018
 5966.00    0.77953   0.72065    0.018
 5967.00    0.75971   0.72519    0.018
 5968.00    0.74251   0.72890    0.018
 5969.00    0.76049   0.73141    0.017
 5970.00    0.77883   0.73261    0.017
 5971.00    0.80043   0.73214    0.017
 5972.00    0.81776   0.73011    0.017
 5973.00    0.80692   0.72557    0.017
 5974.00    0.79971   0.71788    0.017
 5975.00    0.81117   0.70964    0.017
 5976.00    0.81098   0.70483    0.017
 5977.00    0.76259   0.70544    0.017
 5978.00    0.72087   0.71092    0.017
 5979.00    0.70205   0.71808    0.017
 5980.00    0.69397   0.72181    0.017
 5981.00    0.71691   0.71846    0.017
 5982.00    0.73426   0.70856    0.017
 5983.00    0.73788   0.69902    0.017
 5984.00    0.73335   0.69828    0.017
 5985.00    0.71150   0.70511    0.017
 5986.00    0.69350   0.71152    0.017
 5987.00    0.68258   0.71510    0.017
 5988.00    0.68650   0.71761    0.017
 5989.00    0.71436   0.71821    0.017
 5990.00    0.74540   0.71687    0.017
 5991.00    0.78096   0.71819    0.018
 5992.00    0.78752   0.72427    0.018
 5993.00    0.75799   0.73004    0.018
 5994.00    0.74813   0.73008    0.018
 5995.00    0.75984   0.72456    0.018
 5996.00    0.76526   0.71767    0.018
 5997.00    0.76460   0.71395    0.018
 5998.00    0.76961   0.71480    0.018
 5999.00    0.77946   0.71737    0.018
 6000.00    0.77418   0.71715    0.018
 6001.00    0.75752   0.71271    0.017
 6002.00    0.73216   0.70908    0.017
 6003.00    0.70106   0.71072    0.017
 6004.00    0.70612   0.71303    0.017
 6005.00    0.73207   0.70923    0.017
 6006.00    0.74622   0.70008    0.017
 6007.00    0.75442   0.69385    0.017
 6008.00    0.74815   0.69840    0.017
 6009.00    0.73557   0.70991    0.017
 6010.00    0.72377   0.71632    0.017
 6011.00    0.71226   0.71319    0.017
 6012.00    0.70321   0.70768    0.017
 6013.00    0.69494   0.70724    0.017
 6014.00    0.70996   0.70938    0.017
 6015.00    0.73117   0.70849    0.017
 6016.00    0.73713   0.70681    0.017
 6017.00    0.73978   0.70724    0.017
 6018.00    0.73537   0.70578    0.018
 6019.00    0.72975   0.70112    0.018
 6020.00    0.71085   0.69861    0.018
 6021.00    0.69022   0.70065    0.018
 6022.00    0.69397   0.70395    0.017
 6023.00    0.69997   0.70711    0.017
 6024.00    0.68614   0.71160    0.017
 6025.00    0.67121   0.71544    0.018
 6026.00    0.69118   0.71719    0.018
 6027.00    0.71210   0.72018    0.018
 6028.00    0.75257   0.72450    0.018
 6029.00    0.79071   0.72658    0.018
 6030.00    0.77486   0.72672    0.018
 6031.00    0.76046   0.72790    0.018
 6032.00    0.76449   0.73010    0.017
 6033.00    0.77166   0.73130    0.017
 6034.00    0.80588   0.73110    0.017
 6035.00    0.83380   0.73047    0.017
 6036.00    0.82150   0.72985    0.017
 6037.00    0.80855   0.72841    0.017
 6038.00    0.79228   0.72570    0.017
 6039.00    0.78166   0.72333    0.017
 6040.00    0.79387   0.72278    0.017
 6041.00    0.79859   0.72417    0.017
 6042.00    0.77812   0.72755    0.017
 6043.00    0.76394   0.73148    0.017
 6044.00    0.76756   0.73398    0.017
 6045.00    0.76966   0.73508    0.017
 6046.00    0.76808   0.73540    0.017
 6047.00    0.76956   0.73477    0.017
 6048.00    0.77743   0.73393    0.017
 6049.00    0.78570   0.73430    0.018
 6050.00    0.79472   0.73451    0.017
 6051.00    0.79321   0.73240    0.017
 6052.00    0.77498   0.72858    0.017
 6053.00    0.75038   0.72465    0.017
 6054.00    0.71690   0.72070    0.017
 6055.00    0.71115   0.71746    0.017
 6056.00    0.73942   0.71726    0.017
 6057.00    0.75441   0.72071    0.017
 6058.00    0.75504   0.72571    0.018
 6059.00    0.75511   0.72926    0.018
 6060.00    0.75464   0.72926    0.017
 6061.00    0.75761   0.72512    0.017
 6062.00    0.76347   0.71715    0.017
 6063.00    0.76312   0.70611    0.017
 6064.00    0.75818   0.69743    0.017
 6065.00    0.75799   0.70057    0.017
 6066.00    0.76090   0.71489    0.017
 6067.00    0.75238   0.72862    0.017
 6068.00    0.73735   0.73514    0.017
 6069.00    0.75232   0.73685    0.017
 6070.00    0.78216   0.73748    0.017
 6071.00    0.79693   0.73806    0.017
 6072.00    0.80523   0.73808    0.017
 6073.00    0.81895   0.73752    0.017
 6074.00    0.83467   0.73612    0.017
 6075.00    0.82686   0.73233    0.017
 6076.00    0.81174   0.72523    0.017
 6077.00    0.79298   0.71716    0.017
 6078.00    0.77328   0.71292    0.017
 6079.00    0.76314   0.71264    0.017
 6080.00    0.75504   0.71104    0.017
 6081.00    0.73438   0.70768    0.017
 6082.00    0.71162   0.70705    0.017
 6083.00    0.70857   0.70884    0.017
 6084.00    0.70800   0.70994    0.017
 6085.00    0.72364   0.71180    0.017
 6086.00    0.74069   0.71586    0.017
 6087.00    0.75840   0.71810    0.017
 6088.00    0.77613   0.71423    0.017
 6089.00    0.77212   0.70739    0.017
 6090.00    0.76752   0.70451    0.017
 6091.00    0.74804   0.70650    0.017
 6092.00    0.72882   0.71051    0.017
 6093.00    0.71527   0.71645    0.017
 6094.00    0.70310   0.72255    0.017
 6095.00    0.70769   0.72430    0.017
 6096.00    0.71617   0.72255    0.016
 6097.00    0.75683   0.72236    0.016
 6098.00    0.79519   0.72435    0.016
 6099.00    0.81929   0.72208    0.017
 6100.00    0.83544   0.70755    0.017
 6101.00    0.81282   0.68466    0.017
 6102.00    0.79146   0.67363    0.017
 6103.00    0.77504   0.68539    0.017
 6104.00    0.76661   0.70513    0.017
 6105.00    0.78451   0.71540    0.017
 6106.00    0.79769   0.71512    0.017
 6107.00    0.79773   0.71321    0.017
 6108.00    0.78952   0.71538    0.017
 6109.00    0.76164   0.71784    0.017
 6110.00    0.74230   0.71672    0.017
 6111.00    0.74055   0.71633    0.017
 6112.00    0.73889   0.72026    0.017
 6113.00    0.73739   0.72441    0.017
 6114.00    0.73743   0.72379    0.017
 6115.00    0.73989   0.71986    0.017
 6116.00    0.73672   0.71812    0.017
 6117.00    0.72582   0.71808    0.017
 6118.00    0.71980   0.71294    0.017
 6119.00    0.71967   0.70003    0.017
 6120.00    0.72365   0.68369    0.017
 6121.00    0.73201   0.67411    0.017
 6122.00    0.73296   0.68098    0.017
 6123.00    0.72693   0.69758    0.017
 6124.00    0.72423   0.70763    0.017
 6125.00    0.72428   0.70765    0.017
 6126.00    0.74135   0.70461    0.017
 6127.00    0.77083   0.70367    0.017
 6128.00    0.79416   0.70715    0.017
 6129.00    0.81354   0.71420    0.017
 6130.00    0.81184   0.72006    0.017
 6131.00    0.79831   0.72151    0.016
 6132.00    0.78265   0.71852    0.016
 6133.00    0.76595   0.70869    0.016
 6134.00    0.74762   0.68818    0.017
 6135.00    0.72861   0.66106    0.017
 6136.00    0.70830   0.64485    0.017
 6137.00    0.68750   0.65527    0.017
 6138.00    0.67642   0.68163    0.017
 6139.00    0.66830   0.69715    0.017
 6140.00    0.66469   0.69432    0.017
 6141.00    0.66222   0.69049    0.017
 6142.00    0.65833   0.69891    0.017
 6143.00    0.65416   0.71274    0.017
 6144.00    0.66029   0.72060    0.017
 6145.00    0.66810   0.72040    0.017
 6146.00    0.69904   0.71493    0.017
 6147.00    0.73279   0.70647    0.017
 6148.00    0.73895   0.69833    0.017
 6149.00    0.74280   0.69462    0.017
 6150.00    0.74186   0.69736    0.017
 6151.00    0.74070   0.70404    0.017
 6152.00    0.73221   0.70816    0.016
 6153.00    0.72378   0.70568    0.016
 6154.00    0.72456   0.70106    0.016
 6155.00    0.72475   0.69945    0.016
 6156.00    0.71321   0.69861    0.016
 6157.00    0.70143   0.69505    0.017
 6158.00    0.68683   0.68610    0.017
 6159.00    0.67465   0.66662    0.017
 6160.00    0.68179   0.63808    0.017
 6161.00    0.68745   0.61634    0.017
 6162.00    0.68420   0.61584    0.017
 6163.00    0.68156   0.63225    0.017
 6164.00    0.68188   0.65037    0.017
 6165.00    0.67900   0.66168    0.017
 6166.00    0.66378   0.66525    0.017
 6167.00    0.64860   0.65864    0.017
 6168.00    0.63357   0.64504    0.017
 6169.00    0.62427   0.64032    0.017
 6170.00    0.63062   0.65203    0.017
 6171.00    0.63606   0.66700    0.017
 6172.00    0.63937   0.67314    0.017
 6173.00    0.64500   0.67358    0.017
 6174.00    0.65532   0.67364    0.017
 6175.00    0.66841   0.67385    0.017
 6176.00    0.68636   0.67572    0.017
 6177.00    0.68890   0.68017    0.017
 6178.00    0.66769   0.68340    0.016
 6179.00    0.65306   0.68413    0.016
 6180.00    0.64736   0.68624    0.016
 6181.00    0.65728   0.68981    0.016
 6182.00    0.68582   0.69134    0.016
 6183.00    0.70748   0.68993    0.016
 6184.00    0.72189   0.68560    0.016
 6185.00    0.71559   0.67824    0.016
 6186.00    0.69009   0.67068    0.016
 6187.00    0.67759   0.66577    0.016
 6188.00    0.67572   0.66087    0.016
 6189.00    0.67676   0.65054    0.016
 6190.00    0.67988   0.63865    0.016
 6191.00    0.66191   0.63918    0.016
 6192.00    0.63062   0.65433    0.016
 6193.00    0.62131   0.67015    0.016
 6194.00    0.62414   0.67840    0.016
 6195.00    0.60946   0.68192    0.017
 6196.00    0.58637   0.68248   -2.000
 6197.00    0.52264   0.67758   -2.000
 6198.00    0.44206   0.66811   -2.000
 6199.00    0.45050   0.66235   -2.000
 6200.00    0.49049   0.66631   -2.000
 6201.00    0.54342   0.67547   -2.000
 6202.00    0.60022   0.68195   -2.000
 6203.00    0.65323   0.68393   -2.000
 6204.00    0.70529   0.68475   -2.000
 6205.00    0.70285   0.68658   -2.000
 6206.00    0.68944   0.68845   -2.000
 6207.00    0.65396   0.68902   -2.000
 6208.00    0.61500   0.68763    0.017
 6209.00    0.61510   0.68390    0.017
 6210.00    0.61978   0.67810    0.017
 6211.00    0.61799   0.66913    0.016
 6212.00    0.61569   0.65636    0.016
 6213.00    0.62193   0.64491    0.016
 6214.00    0.62855   0.64066    0.016
 6215.00    0.63784   0.64446    0.016
 6216.00    0.64666   0.65200    0.016
 6217.00    0.63126   0.65509    0.016
 6218.00    0.61729   0.65104    0.016
 6219.00    0.62949   0.64743    0.016
 6220.00    0.64290   0.65012    0.016
 6221.00    0.66963   0.65607    0.016
 6222.00    0.69395   0.65958    0.017
 6223.00    0.69959   0.65986    0.016
 6224.00    0.70518   0.66041    0.016
 6225.00    0.71051   0.66213    0.016
 6226.00    0.70915   0.66246    0.016
 6227.00    0.67675   0.65802    0.016
 6228.00    0.64959   0.64599    0.016
 6229.00    0.64223   0.63050    0.017
 6230.00    0.63403   0.62321    0.017
 6231.00    0.62313   0.62934    0.017
 6232.00    0.62400   0.64340    0.016
 6233.00    0.65648   0.65862    0.016
 6234.00    0.68163   0.66903    0.016
 6235.00    0.68992   0.67048    0.016
 6236.00    0.69006   0.66455    0.016
 6237.00    0.67396   0.65591    0.016
 6238.00    0.66039   0.64820    0.016
 6239.00    0.65119   0.64443    0.016
 6240.00    0.64019   0.64456    0.016
 6241.00    0.62644   0.64286    0.016
 6242.00    0.62058   0.63748    0.016
 6243.00    0.62525   0.63406    0.016
 6244.00    0.62865   0.63417    0.016
 6245.00    0.63054   0.63672    0.016
 6246.00    0.64169   0.64432    0.016
 6247.00    0.66244   0.65572    0.016
 6248.00    0.67249   0.66398    0.016
 6249.00    0.67278   0.66390    0.016
 6250.00    0.67271   0.65449    0.016
 6251.00    0.67235   0.64048    0.016
 6252.00    0.66834   0.63125    0.016
 6253.00    0.66175   0.63040    0.016
 6254.00    0.64792   0.63210    0.016
 6255.00    0.62959   0.62962    0.016
 6256.00    0.60858   0.62315    0.016
 6257.00    0.58610   0.61934    0.016
 6258.00    0.57882   0.62447    0.016
 6259.00    0.57873   0.63623    0.017
 6260.00    0.57114   0.64767    0.018
 6261.00    0.56049   0.65751    0.019
 6262.00    0.54769   0.66452    0.020
 6263.00    0.53413   0.66402    0.020
 6264.00    0.54755   0.65894    0.020
 6265.00    0.56888   0.65811    0.019
 6266.00    0.62195   0.66163    0.019
 6267.00    0.68273   0.66268    0.018
 6268.00    0.69065   0.66001    0.017
 6269.00    0.68820   0.65848    0.016
 6270.00    0.67783   0.66106    0.016
 6271.00    0.66626   0.66589    0.016
 6272.00    0.67586   0.66896    0.016
 6273.00    0.68786   0.66883    0.016
 6274.00    0.68418   0.66778    0.016
 6275.00    0.67932   0.66746    0.016
 6276.00    0.67642   0.66672    0.016
 6277.00    0.67360   0.66336    0.016
 6278.00    0.68589   0.65645    0.016
 6279.00    0.69824   0.64927    0.016
 6280.00    0.70817   0.64756    0.000
 6281.00    0.71794   0.65220    0.000
 6282.00    0.72509   0.65859    0.000
 6283.00    0.73214   0.66266    0.000
 6284.00    0.73821   0.66485    0.000
 6285.00    0.74199   0.66898    0.000
 6286.00    0.72878   0.67574    0.000
 6287.00    0.71354   0.68134    0.000
 6288.00    0.68670   0.68224    0.000
 6289.00    0.66487   0.67805    0.000
 6290.00    0.66569   0.67208    0.000
 6291.00    0.67350   0.66833    0.000
 6292.00    0.70726   0.66820    0.000
 6293.00    0.73903   0.66938    0.000
 6294.00    0.76456   0.66676    0.000
 6295.00    0.77726   0.65895    0.000
 6296.00    0.75610   0.65232    0.000
 6297.00    0.73822   0.65257    0.000
 6298.00    0.72778   0.65589    0.000
 6299.00    0.72290   0.65447    0.000
 6300.00    0.72893   0.64851    0.000
 6301.00    0.73415   0.64629    0.000
 6302.00    0.73798   0.65199    0.000
 6303.00    0.74042   0.66040    0.000
 6304.00    0.74078   0.66609    0.000
 6305.00    0.73970   0.67076    0.000
 6306.00    0.73673   0.67688    0.000
 6307.00    0.73296   0.68117    0.000
 6308.00    0.72824   0.67994    0.000
 6309.00    0.72340   0.67480    0.000
 6310.00    0.71843   0.67008    0.000
 6311.00    0.72236   0.66836    0.000
 6312.00    0.73430   0.66742    0.000
 6313.00    0.73189   0.66305    0.000
 6314.00    0.71808   0.65747    0.000
 6315.00    0.70096   0.65518    0.000
 6316.00    0.68152   0.65298    0.000
 6317.00    0.68388   0.64930    0.000
 6318.00    0.69960   0.65074    0.000
 6319.00    0.70553   0.65827    0.000
 6320.00    0.70621   0.66462    0.000
 6321.00    0.69933   0.66734    0.016
 6322.00    0.68892   0.67059    0.015
 6323.00    0.68470   0.67567    0.015
 6324.00    0.68297   0.67933    0.016
 6325.00    0.69528   0.67988    0.016
 6326.00    0.71239   0.67908    0.016
 6327.00    0.72476   0.67918    0.016
 6328.00    0.73575   0.67917    0.016
 6329.00    0.76030   0.67812    0.016
 6330.00    0.78807   0.67933    0.016
 6331.00    0.79454   0.68350    0.016
 6332.00    0.79694   0.68437    0.016
 6333.00    0.78814   0.67557    0.016
 6334.00    0.77768   0.66037    0.016
 6335.00    0.77499   0.65094    0.016
 6336.00    0.77315   0.65367    0.016
 6337.00    0.75504   0.66262    0.016
 6338.00    0.73579   0.67099    0.016
 6339.00    0.72162   0.67783    0.016
 6340.00    0.70763   0.68160    0.016
 6341.00    0.74147   0.67903    0.016
 6342.00    0.77466   0.67086    0.016
 6343.00    0.77835   0.66341    0.016
 6344.00    0.78055   0.66221    0.016
 6345.00    0.75912   0.66578    0.016
 6346.00    0.73822   0.67062    0.016
 6347.00    0.72265   0.67622    0.016
 6348.00    0.70861   0.68153    0.016
 6349.00    0.70569   0.68438    0.015
 6350.00    0.70745   0.68443    0.015
 6351.00    0.73510   0.68188    0.016
 6352.00    0.75994   0.67584    0.016
 6353.00    0.77235   0.66760    0.016
 6354.00    0.77626   0.66226    0.016
 6355.00    0.74925   0.66165    0.016
 6356.00    0.72777   0.65970    0.016
 6357.00    0.72310   0.65287    0.016
 6358.00    0.71878   0.64704    0.016
 6359.00    0.71537   0.64615    0.016
 6360.00    0.70716   0.64605    0.016
 6361.00    0.68826   0.64439    0.016
 6362.00    0.68181   0.64488    0.016
 6363.00    0.69938   0.64961    0.016
 6364.00    0.71927   0.65628    0.016
 6365.00    0.74306   0.66286    0.016
 6366.00    0.75123   0.66916    0.016
 6367.00    0.73637   0.67376    0.016
 6368.00    0.72466   0.67455    0.016
 6369.00    0.71708   0.67327    0.016
 6370.00    0.72616   0.67440    0.016
 6371.00    0.75429   0.67917    0.016
 6372.00    0.77990   0.68409    0.016
 6373.00    0.80298   0.68607    0.016
 6374.00    0.80226   0.68568    0.016
 6375.00    0.78037   0.68422    0.016
 6376.00    0.76942   0.68077    0.016
 6377.00    0.76702   0.67473    0.016
 6378.00    0.76911   0.66887    0.016
 6379.00    0.77427   0.66633    0.016
 6380.00    0.77431   0.66774    0.016
 6381.00    0.77124   0.67133    0.016
 6382.00    0.77058   0.67364    0.016
 6383.00    0.77117   0.67323    0.016
 6384.00    0.76160   0.67285    0.016
 6385.00    0.74737   0.67456    0.016
 6386.00    0.74647   0.67647    0.016
 6387.00    0.75082   0.67659    0.016
 6388.00    0.75393   0.67574    0.016
 6389.00    0.75663   0.67446    0.015
 6390.00    0.76527   0.67000    0.016
 6391.00    0.77557   0.65966    0.016
 6392.00    0.76108   0.64899    0.016
 6393.00    0.74085   0.64917    0.016
 6394.00    0.72124   0.66134    0.016
 6395.00    0.70175   0.67488    0.016
 6396.00    0.70643   0.68033    0.016
 6397.00    0.71457   0.67363    0.016
 6398.00    0.74548   0.65760    0.016
 6399.00    0.77877   0.64635    0.016
 6400.00    0.79617   0.65279    0.016
 6401.00    0.81251   0.67030    0.016
 6402.00    0.79259   0.68396    0.016
 6403.00    0.77150   0.68881    0.016
 6404.00    0.75540   0.68690    0.016
 6405.00    0.73955   0.68017    0.016
 6406.00    0.73147   0.67179    0.016
 6407.00    0.72395   0.66801    0.016
 6408.00    0.72464   0.67071    0.016
 6409.00    0.72527   0.67183    0.016
 6410.00    0.72532   0.66680    0.016
 6411.00    0.72627   0.66299    0.016
 6412.00    0.73347   0.66543    0.016
 6413.00    0.74018   0.67006    0.016
 6414.00    0.74426   0.67339    0.016
 6415.00    0.74671   0.67549    0.016
 6416.00    0.74210   0.67589    0.016
 6417.00    0.73797   0.67283    0.016
 6418.00    0.73552   0.66479    0.016
 6419.00    0.73448   0.65461    0.016
 6420.00    0.73768   0.65123    0.016
 6421.00    0.74136   0.66007    0.015
 6422.00    0.74629   0.67404    0.016
 6423.00    0.75097   0.68243    0.016
 6424.00    0.75509   0.68431    0.016
 6425.00    0.75407   0.68501    0.016
 6426.00    0.74327   0.68612    0.016
 6427.00    0.72973   0.68388    0.016
 6428.00    0.71164   0.67447    0.016
 6429.00    0.70731   0.66059    0.017
 6430.00    0.72298   0.65235    0.017
 6431.00    0.73285   0.65615    0.017
 6432.00    0.73531   0.66689    0.017
 6433.00    0.73579   0.67664    0.017
 6434.00    0.73406   0.68215    0.016
 6435.00    0.73988   0.68211    0.016
 6436.00    0.75322   0.67410    0.016
 6437.00    0.76009   0.66032    0.016
 6438.00    0.76131   0.65285    0.016
 6439.00    0.75130   0.66079    0.016
 6440.00    0.73261   0.67665    0.016
 6441.00    0.72487   0.68815    0.016
 6442.00    0.72456   0.69272    0.016
 6443.00    0.73652   0.69380    0.016
 6444.00    0.75579   0.69407    0.016
 6445.00    0.75486   0.69328    0.016
 6446.00    0.74344   0.68734    0.016
 6447.00    0.74004   0.67160    0.016
 6448.00    0.74025   0.64986    0.016
 6449.00    0.74298   0.63755    0.016
 6450.00    0.74669   0.64482    0.016
 6451.00    0.75558   0.66240    0.016
 6452.00    0.76616   0.67478    0.016
 6453.00    0.76350   0.67520    0.016
 6454.00    0.75719   0.66768    0.015
 6455.00    0.74617   0.66347    0.015
 6456.00    0.73407   0.66959    0.015
 6457.00    0.71893   0.68095    0.016
 6458.00    0.70323   0.68820    0.016
 6459.00    0.70137   0.68524    0.016
 6460.00    0.70143   0.66991    0.016
 6461.00    0.70358   0.65006    0.016
 6462.00    0.70595   0.64267    0.016
 6463.00    0.72131   0.65311    0.016
 6464.00    0.73750   0.66924    0.016
 6465.00    0.74870   0.68049    0.016
 6466.00    0.75974   0.68530    0.016
 6467.00    0.76512   0.68474    0.016
 6468.00    0.77074   0.68029    0.016
 6469.00    0.78334   0.67415    0.016
 6470.00    0.79449   0.66904    0.016
 6471.00    0.78513   0.66803    0.016
 6472.00    0.77505   0.66977    0.016
 6473.00    0.75834   0.66890    0.016
 6474.00    0.74299   0.66616    0.016
 6475.00    0.73684   0.66752    0.016
 6476.00    0.72788   0.67301    0.016
 6477.00    0.70412   0.67710    0.016
 6478.00    0.68737   0.67658    0.015
 6479.00    0.70014   0.67029    0.015
 6480.00    0.71400   0.65874    0.015
 6481.00    0.73160   0.64820    0.015
 6482.00    0.74498   0.64663    0.015
 6483.00    0.74599   0.65376    0.015
 6484.00    0.74796   0.66245    0.015
 6485.00    0.75234   0.66790    0.015
 6486.00    0.76071   0.67018    0.016
 6487.00    0.77767   0.67000    0.016
 6488.00    0.78539   0.66668    0.016
 6489.00    0.77582   0.66051    0.016
 6490.00    0.75829   0.65275    0.016
 6491.00    0.72775   0.64143    0.016
 6492.00    0.70857   0.62242    0.016
 6493.00    0.70569   0.59958    0.016
 6494.00    0.70041   0.58499    0.016
 6495.00    0.69212   0.58480    0.016
 6496.00    0.69125   0.59497    0.016
 6497.00    0.69863   0.60812    0.016
 6498.00    0.70373   0.61995    0.016
 6499.00    0.70660   0.63190    0.016
 6500.00    0.70867   0.64415    0.016
 6501.00    0.71005   0.65387    0.016
 6502.00    0.71031   0.66007    0.016
 6503.00    0.70973   0.66399    0.016
 6504.00    0.72265   0.66684    0.015
 6505.00    0.74462   0.66797    0.015
 6506.00    0.75879   0.66622    0.015
 6507.00    0.76839   0.66317    0.015
 6508.00    0.77715   0.66238    0.016
 6509.00    0.78549   0.66465    0.016
 6510.00    0.79170   0.66711    0.016
 6511.00    0.79699   0.66743    0.016
 6512.00    0.77140   0.66532    0.016
 6513.00    0.73409   0.66075    0.016
 6514.00    0.71716   0.65449    0.015
 6515.00    0.70681   0.64908    0.015
 6516.00    0.72488   0.64619    0.016
 6517.00    0.75063   0.64597    0.016
 6518.00    0.75801   0.64965    0.016
 6519.00    0.76131   0.65685    0.016
 6520.00    0.76954   0.66337    0.016
 6521.00    0.77864   0.66632    0.016
 6522.00    0.77905   0.66682    0.016
 6523.00    0.77830   0.66655    0.016
 6524.00    0.75204   0.66463    0.016
 6525.00    0.72335   0.66045    0.016
 6526.00    0.72615   0.65742    0.016
 6527.00    0.73081   0.65907    0.016
 6528.00    0.74236   0.66326    0.000
 6529.00    0.75406   0.66497    0.000
 6530.00    0.76189   0.66244    0.000
 6531.00    0.76894   0.65826    0.000
 6532.00    0.75649   0.65654    0.000
 6533.00    0.74422   0.65907    0.000
 6534.00    0.73434   0.66342    0.000
 6535.00    0.72614   0.66592    0.000
 6536.00    0.73299   0.66609    0.000
 6537.00    0.73758   0.66662    0.000
 6538.00    0.72735   0.66886    0.000
 6539.00    0.71993   0.67044    0.000
 6540.00    0.72692   0.66854    0.000
 6541.00    0.73316   0.66352    0.000
 6542.00    0.73637   0.65743    0.000
 6543.00    0.74019   0.65041    0.000
 6544.00    0.74608   0.64155    0.000
 6545.00    0.75593   0.63453    0.000
 6546.00    0.77722   0.63520    0.000
 6547.00    0.79278   0.64152    0.000
 6548.00    0.79425   0.64583    0.000
 6549.00    0.79020   0.64490    0.000
 6550.00    0.77441   0.64120    0.000
 6551.00    0.76576   0.63709    0.000
 6552.00    0.77026   0.63182    0.000
 6553.00    0.77053   0.62449    0.000
 6554.00    0.76401   0.61765    0.000
 6555.00    0.75423   0.61488    0.000
 6556.00    0.73984   0.61540    0.000
 6557.00    0.73802   0.61390    0.000
 6558.00    0.75181   0.60446    0.000
 6559.00    0.76005   0.57905    0.000
 6560.00    0.76222   0.52952    0.000
 6561.00    0.76041   0.47064    0.000
 6562.00    0.75475   0.44745    0.000
 6563.00    0.75484   0.48302    0.000
 6564.00    0.75981   0.54432    0.000
 6565.00    0.77281   0.59007    0.000
 6566.00    0.79183   0.61170    0.000
 6567.00    0.78708   0.61837    0.000
 6568.00    0.76667   0.61973    0.000
 6569.00    0.75175   0.62184    0.000
 6570.00    0.74002   0.62346    0.000
 6571.00    0.74104   0.62064    0.000
 6572.00    0.74848   0.61529    0.000
 6573.00    0.73786   0.61357    0.000
 6574.00    0.71939   0.61933    0.000
 6575.00    0.70368   0.63074    0.000
 6576.00    0.68900   0.64165    0.000
 6577.00    0.70071   0.64710    0.000
 6578.00    0.72079   0.64642    0.000
 6579.00    0.73103   0.64233    0.000
 6580.00    0.73866   0.63963    0.000
 6581.00    0.76934   0.64163    0.000
 6582.00    0.80500   0.64586    0.000
 6583.00    0.84033   0.64779    0.000
 6584.00    0.87559   0.64667    0.000
 6585.00    0.90335   0.64566    0.000
 6586.00    0.93014   0.64811    0.000
 6587.00    0.90327   0.65296    0.000
 6588.00    0.87151   0.65593    0.000
 6589.00    0.84910   0.65357    0.000
 6590.00    0.82720   0.64318    0.000
 6591.00    0.80478   0.62658    0.000
 6592.00    0.78263   0.61439    0.000
 6593.00    0.78600   0.61685    0.000
 6594.00    0.78829   0.62985    0.000
 6595.00    0.76550   0.64048    0.000
 6596.00    0.74296   0.64283    0.000
 6597.00    0.72356   0.64108    0.000
 6598.00    0.70787   0.64214    0.000
 6599.00    0.72398   0.64788    0.000
 6600.00    0.74150   0.65377    0.000
 6601.00    0.76801   0.65521    0.000
 6602.00    0.78693   0.65190    0.000
 6603.00    0.76805   0.64647    0.000
 6604.00    0.74788   0.64200    0.000
 6605.00    0.72249   0.63927    0.000
 6606.00    0.70266   0.63617    0.000
 6607.00    0.70149   0.63191    0.000
 6608.00    0.70672   0.63061    0.000
 6609.00    0.73003   0.63640    0.016
 6610.00    0.73758   0.64532    0.016
 6611.00    0.70705   0.64945    0.016
 6612.00    0.69211   0.64806    0.016
 6613.00    0.70967   0.64726    0.016
 6614.00    0.73109   0.65011    0.016
 6615.00    0.75951   0.65328    0.016
 6616.00    0.77694   0.65406    0.016
 6617.00    0.77692   0.65379    0.016
 6618.00    0.78507   0.65439    0.016
 6619.00    0.80457   0.65564    0.016
 6620.00    0.80129   0.65574    0.016
 6621.00    0.77013   0.65284    0.015
 6622.00    0.74995   0.64667    0.015
 6623.00    0.74164   0.63968    0.015
 6624.00    0.73812   0.63618    0.016
 6625.00    0.73915   0.63782    0.016
 6626.00    0.74320   0.64140    0.016
 6627.00    0.74977   0.64355    0.016
 6628.00    0.75388   0.64363    0.016
 6629.00    0.75619   0.64221    0.016
 6630.00    0.75648   0.63929    0.016
 6631.00    0.75545   0.63430    0.016
 6632.00    0.75037   0.62864    0.016
 6633.00    0.74299   0.62680    0.016
 6634.00    0.74833   0.63111    0.016
 6635.00    0.75996   0.63801    0.016
 6636.00    0.76587   0.64277    0.016
 6637.00    0.76933   0.64385    0.016
 6638.00    0.76928   0.64295    0.016
 6639.00    0.76794   0.64271    0.016
 6640.00    0.75759   0.64269    0.016
 6641.00    0.74444   0.63874    0.016
 6642.00    0.72033   0.63123    0.016
 6643.00    0.69338   0.62785    0.016
 6644.00    0.69982   0.63179    0.016
 6645.00    0.71331   0.63723    0.016
 6646.00    0.72147   0.63961    0.015
 6647.00    0.72874   0.64033    0.015
 6648.00    0.71727   0.64084    0.015
 6649.00    0.70345   0.63994    0.015
 6650.00    0.71976   0.63726    0.016
 6651.00    0.73870   0.63490    0.016
 6652.00    0.73662   0.63432    0.016
 6653.00    0.73346   0.63498    0.016
 6654.00    0.73713   0.63567    0.016
 6655.00    0.74064   0.63578    0.016
 6656.00    0.72428   0.63581    0.016
 6657.00    0.70945   0.63594    0.016
 6658.00    0.72689   0.63531    0.016
 6659.00    0.74403   0.63317    0.016
 6660.00    0.75764   0.62899    0.016
 6661.00    0.76979   0.62250    0.016
 6662.00    0.76994   0.61674    0.016
 6663.00    0.76566   0.61674    0.016
 6664.00    0.73411   0.62149    0.016
 6665.00    0.70393   0.62550    0.016
 6666.00    0.68038   0.62741    0.016
 6667.00    0.65887   0.62976    0.016
 6668.00    0.64539   0.63385    0.016
 6669.00    0.64523   0.63798    0.016
 6670.00    0.68880   0.64001    0.015
 6671.00    0.72453   0.63995    0.015
 6672.00    0.73853   0.63931    0.016
 6673.00    0.75409   0.63858    0.016
 6674.00    0.77336   0.63562    0.016
 6675.00    0.78668   0.62674    0.016
 6676.00    0.78775   0.61285    0.016
 6677.00    0.78242   0.60357    0.016
 6678.00    0.76564   0.60627    0.016
 6679.00    0.74684   0.61534    0.016
 6680.00    0.72487   0.62178    0.016
 6681.00    0.70912   0.62471    0.016
 6682.00    0.70191   0.62707    0.016
 6683.00    0.69637   0.62920    0.016
 6684.00    0.69286   0.62992    0.016
 6685.00    0.69436   0.62924    0.016
 6686.00    0.70120   0.62810    0.016
 6687.00    0.70834   0.62769    0.016
 6688.00    0.71579   0.62863    0.016
 6689.00    0.72811   0.62992    0.016
 6690.00    0.74446   0.63037    0.016
 6691.00    0.75134   0.63008    0.016
 6692.00    0.75130   0.62916    0.016
 6693.00    0.74536   0.62669    0.016
 6694.00    0.73564   0.62234    0.016
 6695.00    0.72110   0.61837    0.016
 6696.00    0.70385   0.61777    0.000
 6697.00    0.68609   0.62058    0.000
 6698.00    0.66808   0.62499    0.000
 6699.00    0.68248   0.62902    0.000
 6700.00    0.71051   0.63046    0.000
 6701.00    0.70806   0.62831    0.000
 6702.00    0.69464   0.62414    0.000
 6703.00    0.67758   0.62128    0.000
 6704.00    0.65942   0.62178    0.000
 6705.00    0.65349   0.62444    0.000
 6706.00    0.65065   0.62674    0.000
 6707.00    0.66456   0.62736    0.000
 6708.00    0.68191   0.62634    0.000
 6709.00    0.68771   0.62462    0.000
 6710.00    0.69164   0.62360    0.000
 6711.00    0.68559   0.62268    0.000
 6712.00    0.67834   0.61982    0.000
 6713.00    0.68477   0.61480    0.000
 6714.00    0.69233   0.60806    0.000
 6715.00    0.69729   0.59989    0.000
 6716.00    0.70214   0.59338    0.000
 6717.00    0.71276   0.59389    0.000
 6718.00    0.72323   0.60133    0.000
 6719.00    0.71998   0.60879    0.000
 6720.00    0.71633   0.61205    0.000
 6721.00    0.70476   0.61336    0.000
 6722.00    0.69347   0.61523    0.000
 6723.00    0.68531   0.61633    0.000
 6724.00    0.67931   0.61516    0.000
 6725.00    0.69052   0.61347    0.000
 6726.00    0.69944   0.61397    0.000
 6727.00    0.69458   0.61648    0.000
 6728.00    0.69206   0.61902    0.000
 6729.00    0.70066   0.62033    0.000
 6730.00    0.70745   0.62002    0.000
 6731.00    0.70724   0.61860    0.000
 6732.00    0.71249   0.61746    0.000
 6733.00    0.73534   0.61761    0.000
 6734.00    0.75041   0.61866    0.000
 6735.00    0.74428   0.61899    0.000
 6736.00    0.73251   0.61701    0.000
 6737.00    0.70757   0.61334    0.000
 6738.00    0.68631   0.61081    0.000
 6739.00    0.67249   0.61099    0.000
 6740.00    0.66189   0.61176    0.000
 6741.00    0.65696   0.61060    0.000
 6742.00    0.64924   0.60913    0.000
 6743.00    0.63720   0.61025    0.000
 6744.00    0.63717   0.61255    0.000
 6745.00    0.65336   0.61286    0.000
 6746.00    0.68134   0.61059    0.000
 6747.00    0.72335   0.60682    0.000
 6748.00    0.75196   0.60297    0.000
 6749.00    0.76650   0.60118    0.000
 6750.00    0.72589   0.60226    0.000
 6751.00    0.63422   0.60398    0.000
 6752.00    0.60289   0.60541    0.000
 6753.00    0.62080   0.60816    0.018
 6754.00    0.64375   0.61195    0.018
 6755.00    0.67032   0.61552    0.019
 6756.00    0.67759   0.61863    0.019
 6757.00    0.67269   0.62103    0.019
 6758.00    0.65492   0.62236    0.019
 6759.00    0.63005   0.62269    0.019
 6760.00    0.66142   0.62217    0.019
 6761.00    0.71975   0.62133    0.019
 6762.00    0.76816   0.62097    0.019
 6763.00    0.81248   0.62036    0.020
 6764.00    0.82475   0.61766    0.020
 6765.00    0.82568   0.61241    0.020
 6766.00    0.80195   0.60732    0.020
 6767.00    0.77085   0.60613    0.019
 6768.00    0.76124   0.60814    0.019
 6769.00    0.75695   0.60927    0.019
 6770.00    0.73774   0.60911    0.019
 6771.00    0.71554   0.61073    0.019
 6772.00    0.75390   0.61494    0.019
 6773.00    0.80178   0.61983    0.019
 6774.00    0.76158   0.62360    0.018
 6775.00    0.71110   0.62556    0.018
 6776.00    0.72042   0.62618    0.018
 6777.00    0.73446   0.62645    0.018
 6778.00    0.74283   0.62633    0.018
 6779.00    0.75096   0.62444    0.018
 6780.00    0.71782   0.61976    0.018
 6781.00    0.68504   0.61263    0.018
 6782.00    0.68915   0.60527    0.018
 6783.00    0.69429   0.60071    0.018
 6784.00    0.71813   0.60018    0.018
 6785.00    0.73759   0.60262    0.018
 6786.00    0.70911   0.60642    0.018
 6787.00    0.68266   0.60978    0.018
 6788.00    0.67180   0.61116    0.018
 6789.00    0.66619   0.61113    0.018
 6790.00    0.69120   0.61096    0.018
 6791.00    0.70628   0.61011    0.019
 6792.00    0.67550   0.60814    0.019
 6793.00    0.65996   0.60674    0.019
 6794.00    0.70201   0.60726    0.019
 6795.00    0.73074   0.60897    0.019
 6796.00    0.71740   0.61074    0.019
 6797.00    0.69885   0.61204    0.018
 6798.00    0.66634   0.61328    0.018
 6799.00    0.66575   0.61491    0.018
 6800.00    0.73851   0.61637    0.018
 6801.00    0.77102   0.61670    0.019
 6802.00    0.72350   0.61554    0.018
 6803.00    0.70219   0.61388    0.018
 6804.00    0.72628   0.61283    0.018
 6805.00    0.74057   0.61204    0.018
 6806.00    0.73999   0.61167    0.018
 6807.00    0.72296   0.61217    0.018
 6808.00    0.68401   0.61228    0.018
 6809.00    0.66727   0.61184    0.018
 6810.00    0.67663   0.61240    0.018
 6811.00    0.69146   0.61350    0.018
 6812.00    0.71198   0.61302    0.019
 6813.00    0.69985   0.61052    0.019
 6814.00    0.65794   0.60866    0.020
 6815.00    0.64505   0.60995    0.019
 6816.00    0.65552   0.61281    0.019
 6817.00    0.66699   0.61370    0.019
 6818.00    0.67917   0.61198    0.019
 6819.00    0.68698   0.61046    0.018
 6820.00    0.69207   0.61164    0.018
 6821.00    0.71278   0.61475    0.018
 6822.00    0.74196   0.61734    0.018
 6823.00    0.75458   0.61847    0.018
 6824.00    0.75938   0.61834    0.018
 6825.00    0.75370   0.61632    0.018
 6826.00    0.74376   0.61205    0.018
 6827.00    0.72953   0.60817    0.018
 6828.00    0.71382   0.60816    0.019
 6829.00    0.70275   0.61157    0.019
 6830.00    0.69304   0.61467    0.019
 6831.00    0.67532   0.61534    0.019
 6832.00    0.65565   0.61526    0.018
 6833.00    0.65898   0.61637    0.018
 6834.00    0.66681   0.61761    0.018
 6835.00    0.69460   0.61702    0.019
 6836.00    0.72543   0.61417    0.019
 6837.00    0.75912   0.60962    0.020
 6838.00    0.79313   0.60401    0.020
 6839.00    0.72976   0.59823    0.020
 6840.00    0.65910   0.59390    0.020
 6841.00    0.66099   0.59348    0.020
 6842.00    0.66575   0.59791    0.020
 6843.00    0.67096   0.60485    0.019
 6844.00    0.67739   0.61049    0.019
 6845.00    0.73182   0.61285    0.019
 6846.00    0.77891   0.61312    0.019
 6847.00    0.70185   0.61297    0.019
 6848.00    0.63370   0.61244    0.018
 6849.00    0.65888   0.61152    0.018
 6850.00    0.67854   0.61084    0.018
 6851.00    0.65720   0.61008    0.018
 6852.00    0.64212   0.60747    0.018
 6853.00    0.66252   0.60215    0.018
 6854.00    0.67075   0.59713    0.019
 6855.00    0.62407   0.59601    0.018
 6856.00    0.59390   0.59806    0.018
 6857.00    0.62483   0.60039    0.019
 6858.00    0.64380   0.60106    0.019
 6859.00    0.62576   0.59903    0.019
 6860.00    0.61449   0.59627    0.019
 6861.00    0.62103   0.59746    0.019
 6862.00    0.63472   0.60367    0.019
 6863.00    0.66457   0.60996    0.019
 6864.00    0.67058   0.61143    0.019
 6865.00    0.62991   0.60820    0.019
 6866.00    0.59629   0.60347    0.019
 6867.00    0.57470   0.60038    0.019
 6868.00    0.57995   0.60048    0.019
 6869.00    0.62533   0.60190    0.019
 6870.00    0.64869   0.60159    0.019
 6871.00    0.64312   0.60031    0.019
 6872.00    0.63988   0.60093    0.019
 6873.00    0.63935   0.60330    0.018
 6874.00    0.64916   0.60578    0.018
 6875.00    0.66951   0.60860    0.018
 6876.00    0.66773   0.61200    0.018
 6877.00    0.64603   0.61463    0.019
 6878.00    0.64973   0.61487    0.019
 6879.00    0.67357   0.61213    0.019
 6880.00    0.68061   0.60706    0.019
 6881.00    0.67594   0.60234    0.019
 6882.00    0.70338   0.60102    0.019
 6883.00    0.75047   0.60288    0.019
 6884.00    0.76613   0.60495    0.019
 6885.00    0.76499   0.60629    0.019
 6886.00    0.73032   0.60871    0.019
 6887.00    0.68009   0.61232    0.019
 6888.00    0.67202   0.61519    0.019
 6889.00    0.68079   0.61684    0.019
 6890.00    0.67751   0.61781    0.019
 6891.00    0.67012   0.61766    0.019
 6892.00    0.68361   0.61633    0.019
 6893.00    0.70309   0.61475    0.019
 6894.00    0.71873   0.61339    0.019
 6895.00    0.73347   0.61249    0.019
 6896.00    0.73248   0.61251    0.019
 6897.00    0.72848   0.61302    0.019
 6898.00    0.71321   0.61244    0.019
 6899.00    0.69626   0.61085    0.020
 6900.00    0.70700   0.61091    0.020
 6901.00    0.72071   0.61356    0.020
 6902.00    0.71643   0.61612    0.020
 6903.00    0.71088   0.61659    0.020
 6904.00    0.68834   0.61652    0.019
 6905.00    0.66519   0.61827    0.019
 6906.00    0.69325   0.62132    0.019
 6907.00    0.72058   0.62310    0.020
 6908.00    0.71669   0.62252    0.020
 6909.00    0.71428   0.62027    0.020
 6910.00    0.73507   0.61735    0.020
 6911.00    0.74919   0.61388    0.020
 6912.00    0.69642   0.60931    0.019
 6913.00    0.65000   0.60526    0.019
 6914.00    0.64918   0.60452    0.019
 6915.00    0.65481   0.60639    0.019
 6916.00    0.69601   0.60859    0.019
 6917.00    0.72494   0.61054    0.019
 6918.00    0.69981   0.61239    0.019
 6919.00    0.68183   0.61454    0.019
 6920.00    0.68980   0.61651    0.019
 6921.00    0.70010   0.61619    0.019
 6922.00    0.71747   0.61215    0.019
 6923.00    0.72279   0.60628    0.019
 6924.00    0.69692   0.60300    0.019
 6925.00    0.68652   0.60476    0.020
 6926.00    0.71050   0.60993    0.019
 6927.00    0.72300   0.61471    0.019
 6928.00    0.71338   0.61683    0.020
 6929.00    0.70883   0.61648    0.020
 6930.00    0.71281   0.61451    0.020
 6931.00    0.69198   0.61165    0.020
 6932.00    0.63459   0.60968    0.020
 6933.00    0.62354   0.61055    0.020
 6934.00    0.67247   0.61316    0.020
 6935.00    0.69062   0.61472    0.020
 6936.00    0.67365   0.61482    0.020
 6937.00    0.66978   0.61494    0.020
 6938.00    0.67909   0.61610    0.020
 6939.00    0.67230   0.61786    0.020
 6940.00    0.65123   0.61875    0.020
 6941.00    0.64879   0.61719    0.020
 6942.00    0.66092   0.61255    0.020
 6943.00    0.67674   0.60647    0.020
 6944.00    0.69509   0.60334    0.019
 6945.00    0.67080   0.60635    0.020
 6946.00    0.62081   0.61286    0.020
 6947.00    0.62414   0.61779    0.020
 6948.00    0.65552   0.61896    0.020
 6949.00    0.63807   0.61678    0.020
 6950.00    0.59833   0.61304    0.020
 6951.00    0.61682   0.61012    0.020
 6952.00    0.65819   0.60878    0.020
 6953.00    0.70129   0.60889    0.020
 6954.00    0.74497   0.61093    0.020
 6955.00    0.75204   0.61430    0.020
 6956.00    0.74882   0.61700    0.020
 6957.00    0.72698   0.61810    0.020
 6958.00    0.70083   0.61840    0.020
 6959.00    0.69406   0.61898    0.020
 6960.00    0.69089   0.62015    0.020
 6961.00    0.68163   0.62149    0.020
 6962.00    0.67149   0.62227    0.020
 6963.00    0.70218   0.62175    0.020
 6964.00    0.73711   0.62025    0.020
 6965.00    0.71022   0.61967    0.020
 6966.00    0.67921   0.62132    0.020
 6967.00    0.64870   0.62369    0.020
 6968.00    0.61821   0.62404    0.020
 6969.00    0.61262   0.62204    0.020
 6970.00    0.60730   0.62012    0.020
 6971.00    0.61022   0.62023    0.020
 6972.00    0.61623   0.62107    0.020
 6973.00    0.66825   0.61957    0.020
 6974.00    0.71286   0.61458    0.020
 6975.00    0.68631   0.60659    0.020
 6976.00    0.66149   0.59640    0.020
 6977.00    0.64865   0.58764    0.020
 6978.00    0.64005   0.58702    0.020
 6979.00    0.65424   0.59622    0.020
 6980.00    0.65923   0.60875    0.020
 6981.00    0.62463   0.61810    0.020
 6982.00    0.59461   0.62292    0.020
 6983.00    0.58081   0.62459    0.019
 6984.00    0.57720   0.62471    0.019
 6985.00    0.60399   0.62385    0.019
 6986.00    0.63036   0.62139    0.019
 6987.00    0.65570   0.61731    0.020
 6988.00    0.67104   0.61393    0.020
 6989.00    0.66456   0.61380    0.020
 6990.00    0.66596   0.61655    0.020
 6991.00    0.68229   0.61926    0.020
 6992.00    0.67923   0.61975    0.020
 6993.00    0.64406   0.61877    0.020
 6994.00    0.63178   0.61842    0.020
 6995.00    0.65272   0.61883    0.020
 6996.00    0.65915   0.61794    0.020
 6997.00    0.64707   0.61417    0.020
 6998.00    0.65100   0.60918    0.020
 6999.00    0.67295   0.60713    0.020
 7000.00    0.66847   0.60961    0.020
 7001.00    0.63779   0.61292    0.020
 7002.00    0.62813   0.61255    0.020
 7003.00    0.63685   0.60887    0.020
 7004.00    0.63866   0.60623    0.020
 7005.00    0.63513   0.60715    0.020
 7006.00    0.62816   0.61053    0.020
 7007.00    0.61887   0.61425    0.020
 7008.00    0.63084   0.61670    0.020
 7009.00    0.65543   0.61693    0.020
 7010.00    0.67130   0.61596    0.020
 7011.00    0.68264   0.61585    0.020
 7012.00    0.66926   0.61565    0.020
 7013.00    0.64476   0.61109    0.020
 7014.00    0.61885   0.60112    0.020
 7015.00    0.59238   0.59284    0.020
 7016.00    0.58021   0.59485    0.020
 7017.00    0.57273   0.60589    0.020
 7018.00    0.58749   0.61688    0.020
 7019.00    0.60836   0.62216    0.020
 7020.00    0.61278   0.62155    0.020
 7021.00    0.61347   0.61638    0.021
 7022.00    0.62211   0.60950    0.021
 7023.00    0.63219   0.60563    0.021
 7024.00    0.62122   0.60720    0.020
 7025.00    0.60734   0.61157    0.020
 7026.00    0.61718   0.61488    0.020
 7027.00    0.62938   0.61667    0.020
 7028.00    0.63089   0.61843    0.020
 7029.00    0.63174   0.62031    0.020
 7030.00    0.61521   0.62114    0.020
 7031.00    0.59821   0.62031    0.020
 7032.00    0.58856   0.61875    0.020
 7033.00    0.58043   0.61810    0.021
 7034.00    0.61407   0.61868    0.021
 7035.00    0.64702   0.61785    0.020
 7036.00    0.67010   0.61305    0.021
 7037.00    0.69010   0.60808    0.021
 7038.00    0.68172   0.61054    0.021
 7039.00    0.67227   0.62100    0.021
 7040.00    0.65570   0.63214    0.021
 7041.00    0.63712   0.63815    0.021
 7042.00    0.60808   0.63841    0.021
 7043.00    0.59069   0.63530    0.021
 7044.00    0.62233   0.63274    0.021
 7045.00    0.65547   0.63357    0.020
 7046.00    0.69385   0.63675    0.020
 7047.00    0.71155   0.63891    0.020
 7048.00    0.66872   0.63798    0.020
 7049.00    0.63825   0.63409    0.020
 7050.00    0.63867   0.62720   -2.000
 7051.00    0.64482   0.61705   -2.000
 7052.00    0.66329   0.60569   -2.000
 7053.00    0.66768   0.59690   -2.000
 7054.00    0.64580   0.59348   -2.000
 7055.00    0.63477   0.59543   -2.000
 7056.00    0.64144   0.59894   -2.000
 7057.00    0.65118   0.59901   -2.000
 7058.00    0.66531   0.59464   -2.000
 7059.00    0.68825   0.58963   -2.000
 7060.00    0.72230   0.58784   -2.000
 7061.00    0.72159   0.58948   -2.000
 7062.00    0.68236   0.59243   -2.000
 7063.00    0.67813   0.59437   -2.000
 7064.00    0.70816   0.59331   -2.000
 7065.00    0.71746   0.58932   -2.000
 7066.00    0.70890   0.58488   -2.000
 7067.00    0.66936   0.58284   -2.000
 7068.00    0.60630   0.58542   -2.000
 7069.00    0.58717   0.59183   -2.000
 7070.00    0.59737   0.59829   -2.000
 7071.00    0.65315   0.60233   -2.000
 7072.00    0.73559   0.60422   -2.000
 7073.00    0.75873   0.60467   -2.000
 7074.00    0.75164   0.60395   -2.000
 7075.00    0.73912   0.60291   -2.000
 7076.00    0.72420   0.60269   -2.000
 7077.00    0.70168   0.60355   -2.000
 7078.00    0.67626   0.60487   -2.000
 7079.00    0.68450   0.60574   -2.000
 7080.00    0.70358   0.60455   -2.000
 7081.00    0.66653   0.59927   -2.000
 7082.00    0.61435   0.58990   -2.000
 7083.00    0.67444   0.58019   -2.000
 7084.00    0.75931   0.57467   -2.000
 7085.00    0.71407   0.57292   -2.000
 7086.00    0.64597   0.57028   -2.000
 7087.00    0.68581   0.56530   -2.000
 7088.00    0.74012   0.56078   -2.000
 7089.00    0.69112   0.55901   -2.000
 7090.00    0.63229   0.56007   -2.000
 7091.00    0.65308   0.56207   -2.000
 7092.00    0.67854   0.56294   -2.000
 7093.00    0.69042   0.56262   -2.000
 7094.00    0.70173   0.56204   -2.000
 7095.00    0.68019   0.56213   -2.000
 7096.00    0.65586   0.56399   -2.000
 7097.00    0.56214   0.56833   -2.000
 7098.00    0.47512   0.57383   -2.000
 7099.00    0.47716   0.57706   -2.000
 7100.00    0.48004   0.57664   -2.000
 7101.00    0.49036   0.57452   -2.000
 7102.00    0.50014   0.57387   -2.000
 7103.00    0.50634   0.57595   -2.000
 7104.00    0.51616   0.57875   -2.000
 7105.00    0.54443   0.57982   -2.000
 7106.00    0.55673   0.57955   -2.000
 7107.00    0.50331   0.57927   -2.000
 7108.00    0.47508   0.57802   -2.000
 7109.00    0.53270   0.57465   -2.000
 7110.00    0.58303   0.57136   -2.000
 7111.00    0.61241   0.57157   -2.000
 7112.00    0.64186   0.57508   -2.000
 7113.00    0.67144   0.57889   -2.000
 7114.00    0.67206   0.58154   -2.000
 7115.00    0.61138   0.58364   -2.000
 7116.00    0.57274   0.58521   -2.000
 7117.00    0.57462   0.58565   -2.000
 7118.00    0.58055   0.58487   -2.000
 7119.00    0.59299   0.58296   -2.000
 7120.00    0.62728   0.58035   -2.000
 7121.00    0.69237   0.57881   -2.000
 7122.00    0.71307   0.57922   -2.000
 7123.00    0.67873   0.57831   -2.000
 7124.00    0.61094   0.57290   -2.000
 7125.00    0.50659   0.56581   -2.000
 7126.00    0.50331   0.56168   -2.000
 7127.00    0.59752   0.56016   -2.000
 7128.00    0.60550   0.55749   -2.000
 7129.00    0.54017   0.55317   -2.000
 7130.00    0.52185   0.55111   -2.000
 7131.00    0.53873   0.55391   -2.000
 7132.00    0.55239   0.55966   -2.000
 7133.00    0.56392   0.56504   -2.000
 7134.00    0.57629   0.56841   -2.000
 7135.00    0.58912   0.56993   -2.000
 7136.00    0.61082   0.56991   -2.000
 7137.00    0.63695   0.56834   -2.000
 7138.00    0.61742   0.56693   -2.000
 7139.00    0.57804   0.56786   -2.000
 7140.00    0.52609   0.57045   -2.000
 7141.00    0.46945   0.57239   -2.000
 7142.00    0.50072   0.57306   -2.000
 7143.00    0.55977   0.57290   -2.000
 7144.00    0.53903   0.57158   -2.000
 7145.00    0.49725   0.56773   -2.000
 7146.00    0.53346   0.56112   -2.000
 7147.00    0.58649   0.55616   -2.000
 7148.00    0.55174   0.55782   -2.000
 7149.00    0.50200   0.56448   -2.000
 7150.00    0.49326   0.57137   -2.000
 7151.00    0.48982   0.57678   -2.000
 7152.00    0.49361   0.58024   -2.000
 7153.00    0.49805   0.58124   -2.000
 7154.00    0.46207   0.58156   -2.000
 7155.00    0.42388   0.58351   -2.000
 7156.00    0.53957   0.58558   -2.000
 7157.00    0.65724   0.58444   -2.000
 7158.00    0.66207   0.58061   -2.000
 7159.00    0.65779   0.57785   -2.000
 7160.00    0.44693   0.57751   -2.000
 7161.00    0.25051   0.57591   -2.000
 7162.00    0.23608   0.56913   -2.000
 7163.00    0.23926   0.56004   -2.000
 7164.00    0.39272   0.55633   -2.000
 7165.00    0.56279   0.56114   -2.000
 7166.00    0.83815   0.56937   -2.000
 7167.00    1.00853   0.57471   -2.000
 7168.00    0.65763   0.57632   -2.000
 7169.00    0.39269   0.57722   -2.000
 7170.00    0.47373   0.57943   -2.000
 7171.00    0.54418   0.58206   -2.000
 7172.00    0.57924   0.58295   -2.000
 7173.00    0.61408   0.58102   -2.000
 7174.00    0.64828   0.57747   -2.000
 7175.00    0.68661   0.57515   -2.000
 7176.00    0.73487   0.57553   -2.000
 7177.00    0.73083   0.57602   -2.000
 7178.00    0.61791   0.57279   -2.000
 7179.00    0.54625   0.56665   -2.000
 7180.00    0.54930   0.56323   -2.000
 7181.00    0.52765   0.56676   -2.000
 7182.00    0.46690   0.57485   -2.000
 7183.00    0.47008   0.58058   -2.000
 7184.00    0.56208   0.57924   -2.000
 7185.00    0.60159   0.57132   -2.000
 7186.00    0.57692   0.56164   -2.000
 7187.00    0.55414   0.55642   -2.000
 7188.00    0.53339   0.55827   -2.000
 7189.00    0.49764   0.56459   -2.000
 7190.00    0.44765   0.57035   -2.000
 7191.00    0.49213   0.57257   -2.000
 7192.00    0.61584   0.57300   -2.000
 7193.00    0.63433   0.57434   -2.000
 7194.00    0.57517   0.57553   -2.000
 7195.00    0.56510   0.57404   -2.000
 7196.00    0.58687   0.57133   -2.000
 7197.00    0.57826   0.57110   -2.000
 7198.00    0.55242   0.57305   -2.000
 7199.00    0.43223   0.57312   -2.000
 7200.00    0.26543   0.56995   -2.000
 7201.00    0.13677   0.56784   -2.000
 7202.00    0.02440   0.57080   -2.000
 7203.00    0.14752   0.57555   -2.000
 7204.00    0.35680   0.57478   -2.000
 7205.00    0.50559   0.56630   -2.000
 7206.00    0.63564   0.55649   -2.000
 7207.00    0.62414   0.55352   -2.000
 7208.00    0.57610   0.55885   -2.000
 7209.00    0.59531   0.56806   -2.000
 7210.00    0.62865   0.57562   -2.000
 7211.00    0.24653   0.57785   -2.000
 7212.00   -0.20461   0.57550   -2.000
 7213.00    0.03879   0.57244   -2.000
 7214.00    0.36896   0.57158   -2.000
 7215.00    0.46708   0.57360   -2.000
 7216.00    0.54511   0.57765   -2.000
 7217.00    0.60346   0.58143   -2.000
 7218.00    0.66081   0.58272   -2.000
