###################################################################
## OUTPUT of StarlightChains_v04.for    [Cid@UFSC - 01/Apr/2007] ##
###################################################################

## Some input info
KUG0210-078._49_40.txt                   [arq_obs]
Base.CB07.vall.4m                        [arq_base]
Masks.EmLines.NEW.gm                     [arq_masks]
StCv04.C11.config                        [arq_config]
   66                                    [N_base]
    0                                    [N_YAV_components = # of components with extra extinction!]
    0                                    [i_FitPowerLaw (1/0 = Yes/No)]
-9.99                                    [alpha_PowerLaw]
CCM                                      [red_law_option]
 1.458241                                [q_norm = A(l_norm)/A(V)]

## (Re)Sampling Parameters
 3741.00                                 [l_ini (A)]
 7218.00                                 [l_fin (A)]
    1.00                                 [dl    (A)]     (OBS: dl_cushion =    50.00 A)

## Normalization info
 4020.00                                 [l_norm (A) - for base]
 4010.00                                 [llow_norm (A) - window for f_obs]
 4060.00                                 [lupp_norm (A) - window for f_obs]
8.932280E-18                             [fobs_norm (in input units)]

## S/N
 3691.00                                 [llow_SN (A) - window for S/N]
 7268.00                                 [lupp_SN (A) - window for S/N]
   2.416                                 [S/N in S/N window]
   3.439                                 [S/N in norm. window]
   0.007                                 [S/N_err in S/N window]
   0.010                                 [S/N_err in norm. window]
  1.0000                                 [fscale_chi2]

## etc...
    -2007943                             [idum_orig]
  2393                                   [NOl_eff]
  2372                                   [Nl_eff]
    21    NSIGMA                         [Ntot_cliped & clip_method]
 15278900                                [Nglobal_steps]
   7                                     [N_chains]
  40                                     [NEX0s_base = N_base in EX0s-fits]
 0   0   1       21   2.0   1.718E+03    [Clip-Bug, RC-Crash & Burn-In warning-flags, n_censored_weights, wei_nsig_threshold & wei_limit]
  1118   1115.330   1113.470      1.861  [idt_all, wdt_TotTime, wdt_UsrTime & wdt_SysTime (sec)]

## Synthesis Results - Best model ##

 1.62042E-05                             [chi2/Nl_eff]
    46.64673                             [adev (%)]

   107.29729                             [sum-of-x (%)]
 2.50181E-18                             [Flux_tot (units of input spectrum!)]
 5.38253E-14                             [Mini_tot (???)]
 2.91688E-14                             [Mcor_tot (???)]

-201.01                                  [v0_min  (km/s)]
   2.51                                  [vd_min  (km/s)]
-1.0000                                  [AV_min  (mag)]
 0.0000                                  [YAV_min (mag)]

# j     x_j(%)      Mini_j(%)     Mcor_j(%)     age_j(yr)     Z_j      (L/M)_j    YAV?  Mstars   component_j        a/Fe...       SSP_chi2r SSP_adev(%)   SSP_AV   SSP_x(%)
  1      0.0000     0.0000E+00    0.0000E+00    1.000000E+06  0.00400  1.094E-02    0   1.0000   age020_m42            0.0000     2.2993E-05    61.6430   2.4035    88.6491
  2      0.0000     0.0000E+00    0.0000E+00    3.160000E+06  0.00400  4.007E-02    0   0.9999   age045_m42            0.0000     2.0849E-05    56.7205   1.6357    95.6217
  3      0.0000     0.0000E+00    0.0000E+00    5.010000E+06  0.00400  2.539E-02    0   0.9488   age055_m42            0.0000     2.1865E-05    58.9153   1.9837    92.6448
  4      0.0000     0.0000E+00    0.0000E+00    6.610000E+06  0.00400  2.620E-02    0   0.9220   age061_m42            0.0000     2.0833E-05    56.2703   1.5741    95.4621
  5      0.0000     0.0000E+00    0.0000E+00    1.000000E+07  0.00400  1.322E-02    0   0.8862   age070_m42            0.0000     2.1577E-05    58.8121   1.3643    95.5014
  6      0.0000     0.0000E+00    0.0000E+00    1.445000E+07  0.00400  7.883E-03    0   0.8571   age078_m42            0.0000     2.2140E-05    60.0246   1.6932    93.0910
  7      0.0000     0.0000E+00    0.0000E+00    2.512000E+07  0.00400  5.251E-03    0   0.8174   age090_m42            0.0000     2.1581E-05    58.9271   1.2433    95.7622
  8      2.5735     3.0551E-02    4.4261E-02    4.000000E+07  0.00400  3.649E-03    0   0.7851   age104_m42            0.0000     2.1087E-05    57.7918   1.0007    96.9464
  9      0.0000     0.0000E+00    0.0000E+00    5.500000E+07  0.00400  3.098E-03    0   0.7629   age110_m42            0.0000     2.0515E-05    55.4424   1.1148    97.9959
 10      0.0000     0.0000E+00    0.0000E+00    1.015200E+08  0.00400  2.228E-03    0   0.7207   age116_m42            0.0000     2.0066E-05    53.5816   1.1103    98.8417
 11      1.8377     7.2835E-02    8.9351E-02    2.861200E+08  0.00400  1.093E-03    0   0.6648   age125_m42            0.0000     1.9573E-05    52.7118   0.5499   101.4006
 12      0.0000     0.0000E+00    0.0000E+00    5.088000E+08  0.00400  6.597E-04    0   0.6365   age130_m42            0.0000     1.8874E-05    50.1197   0.4923   103.5795
 13      0.4537     9.2190E-02    9.8635E-02    1.434000E+09  0.00400  2.132E-04    0   0.5798   age139_m42            0.0000     1.7536E-05    49.0538  -0.5145   106.6302
 14      0.0000     0.0000E+00    0.0000E+00    4.250000E+09  0.00400  5.895E-05    0   0.5377   age158_m42            0.0000     1.7268E-05    50.1675  -0.9981   103.8252
 15      0.0000     0.0000E+00    0.0000E+00    7.500000E+09  0.00400  3.510E-05    0   0.5212   age171_m42            0.0000     1.7291E-05    53.4640  -1.0000   100.5083
 16      0.0000     0.0000E+00    0.0000E+00    1.300000E+10  0.00400  2.005E-05    0   0.5034   age193_m42            0.0000     1.7763E-05    56.6132  -1.0000    97.2779
 17      0.3390     9.6298E-01    8.8263E-01    1.800000E+10  0.00400  1.525E-05    0   0.4967   age213_m42            0.0000     1.7885E-05    57.4210  -1.0000    96.4338
 18      0.0000     0.0000E+00    0.0000E+00    1.000000E+06  0.00800  1.238E-02    0   1.0000   age020_m52            0.0000     2.2985E-05    61.6819   2.4013    88.8061
 19      0.0000     0.0000E+00    0.0000E+00    3.160000E+06  0.00800  3.074E-02    0   0.9966   age045_m52            0.0000     2.2821E-05    61.3074   2.3200    89.6859
 20      0.6984     1.1339E-03    1.9759E-03    5.010000E+06  0.00800  2.668E-02    0   0.9443   age055_m52            0.0000     2.2173E-05    59.6228   2.0755    91.5868
 21      0.0000     0.0000E+00    0.0000E+00    6.610000E+06  0.00800  2.136E-02    0   0.9177   age061_m52            0.0000     2.1189E-05    59.6660   0.8536    96.9706
 22      0.0000     0.0000E+00    0.0000E+00    1.000000E+07  0.00800  1.215E-02    0   0.8827   age070_m52            0.0000     2.2090E-05    60.3246   1.5653    94.6999
 23      0.1265     6.2843E-04    9.9173E-04    1.445000E+07  0.00800  8.717E-03    0   0.8552   age078_m52            0.0000     2.1913E-05    59.6622   1.6576    94.4014
 24      0.0000     0.0000E+00    0.0000E+00    2.512000E+07  0.00800  5.592E-03    0   0.8162   age090_m52            0.0000     2.1439E-05    58.7658   1.3068    96.8794
 25      0.0000     0.0000E+00    0.0000E+00    4.000000E+07  0.00800  3.896E-03    0   0.7841   age104_m52            0.0000     2.0854E-05    57.0921   1.1958    98.2285
 26      0.0000     0.0000E+00    0.0000E+00    1.015200E+08  0.00800  2.148E-03    0   0.7226   age116_m52            0.0000     2.0085E-05    54.4955   1.0944    99.1553
 27      0.0000     0.0000E+00    0.0000E+00    2.861200E+08  0.00800  9.925E-04    0   0.6683   age125_m52            0.0000     1.8734E-05    49.9857   0.5623   104.3997
 28      0.0000     0.0000E+00    0.0000E+00    9.047900E+08  0.00800  3.141E-04    0   0.6138   age135_m52            0.0000     1.6864E-05    46.8719  -0.3293   111.4375
 29      0.0000     0.0000E+00    0.0000E+00    1.434000E+09  0.00800  1.719E-04    0   0.5853   age139_m52            0.0000     1.6878E-05    48.7256  -0.9032   108.9534
 30      0.0000     0.0000E+00    0.0000E+00    2.500000E+09  0.00800  7.872E-05    0   0.5600   age150_m52            0.0000     1.6778E-05    51.7704  -1.0000   103.9881
 31      0.0755     7.5409E-02    7.5505E-02    4.250000E+09  0.00800  4.336E-05    0   0.5426   age158_m52            0.0000     1.6860E-05    52.6484  -1.0000   102.8017
 32      0.0000     0.0000E+00    0.0000E+00    6.250000E+09  0.00800  3.159E-05    0   0.5319   age166_m52            0.0000     1.7379E-05    55.8093  -1.0000    99.4624
 33      0.0000     0.0000E+00    0.0000E+00    1.300000E+10  0.00800  1.361E-05    0   0.5073   age193_m52            0.0000     2.0875E-05    64.0643  -1.0000    89.3071
 34      0.0002     9.1488E-04    8.4242E-04    1.800000E+10  0.00800  9.886E-06    0   0.4990   age213_m52            0.0000     2.2254E-05    65.2264  -1.0000    86.5202
 35      0.0000     0.0000E+00    0.0000E+00    1.000000E+06  0.02000  1.544E-02    0   1.0000   age020_m62            0.0000     2.3033E-05    61.8098   2.3962    89.0310
 36      0.0000     0.0000E+00    0.0000E+00    3.160000E+06  0.02000  3.762E-02    0   0.9858   age045_m62            0.0000     2.3003E-05    61.6642   2.3355    89.8068
 37      0.0000     0.0000E+00    0.0000E+00    5.010000E+06  0.02000  3.296E-02    0   0.9342   age055_m62            0.0000     2.1390E-05    57.4263   1.9298    94.0986
 38      0.0000     0.0000E+00    0.0000E+00    8.710000E+06  0.02000  1.154E-02    0   0.8861   age067_m62            0.0000     2.4239E-05    66.8871   1.1388    93.9263
 39      0.0000     0.0000E+00    0.0000E+00    1.445000E+07  0.02000  7.663E-03    0   0.8472   age078_m62            0.0000     2.2374E-05    62.0661   1.2433    95.9364
 40      0.0053     5.0599E-05    7.5621E-05    2.512000E+07  0.02000  4.532E-03    0   0.8099   age090_m62            0.0000     2.2441E-05    61.7108   1.2424    95.3940
 41      0.0000     0.0000E+00    0.0000E+00    5.500000E+07  0.02000  2.733E-03    0   0.7595   age110_m62            0.0000     2.1019E-05    57.4570   1.1848    97.3540
 42      0.0000     0.0000E+00    0.0000E+00    1.609000E+08  0.02000  1.369E-03    0   0.6985   age120_m62            0.0000     1.9652E-05    52.2442   0.9587   101.7458
 43      0.0000     0.0000E+00    0.0000E+00    2.861200E+08  0.02000  9.013E-04    0   0.6714   age125_m62            0.0000     1.8766E-05    48.9067   0.6682   105.8341
 44      0.0000     0.0000E+00    0.0000E+00    5.088000E+08  0.02000  5.028E-04    0   0.6449   age130_m62            0.0000     1.7383E-05    45.6576   0.2043   111.2355
 45     23.9324     4.2699E+00    4.8686E+00    9.047900E+08  0.02000  2.428E-04    0   0.6179   age135_m62            0.0000     1.6503E-05    46.4004  -0.4207   111.7140
 46      4.8298     1.6565E+00    1.8060E+00    1.434000E+09  0.02000  1.263E-04    0   0.5908   age139_m62            0.0000     1.6326E-05    47.3240  -0.8754   110.3987
 47      0.4620     3.3440E-01    3.5006E-01    2.500000E+09  0.02000  5.985E-05    0   0.5673   age150_m62            0.0000     1.6493E-05    51.3610  -1.0000   105.3980
 48      0.0652     8.6371E-02    8.7149E-02    4.250000E+09  0.02000  3.271E-05    0   0.5468   age158_m62            0.0000     1.7797E-05    56.2204  -1.0000    99.0157
 49      0.2674     8.5187E-01    8.1223E-01    1.000000E+10  0.02000  1.360E-05    0   0.5167   age181_m62            0.0000     2.0929E-05    61.3788  -1.0000    91.2177
 50      0.0000     0.0000E+00    0.0000E+00    1.800000E+10  0.02000  7.124E-06    0   0.5013   age213_m62            0.0000     2.3820E-05    64.0654  -1.0000    85.6002
 51      0.0000     0.0000E+00    0.0000E+00    1.000000E+06  0.05000  2.592E-02    0   0.9998   age020_m72            0.0000     2.3223E-05    62.5006   2.3925    88.9682
 52      0.0000     0.0000E+00    0.0000E+00    3.160000E+06  0.05000  4.845E-02    0   0.9577   age045_m72            0.0000     2.2395E-05    59.9234   2.2048    91.2658
 53      0.0000     0.0000E+00    0.0000E+00    5.010000E+06  0.05000  3.072E-02    0   0.9147   age055_m72            0.0000     2.2631E-05    61.9126   1.7960    93.2076
 54      0.0000     0.0000E+00    0.0000E+00    6.610000E+06  0.05000  1.455E-02    0   0.8877   age061_m72            0.0000     2.5399E-05    68.7928   1.2173    93.4252
 55      0.0000     0.0000E+00    0.0000E+00    1.000000E+07  0.05000  9.074E-03    0   0.8524   age070_m72            0.0000     2.2811E-05    61.6994   1.9705    92.9011
 56      0.0000     0.0000E+00    0.0000E+00    2.512000E+07  0.05000  4.250E-03    0   0.7902   age090_m72            0.0000     2.1980E-05    59.4486   1.6672    94.7890
 57      0.0000     0.0000E+00    0.0000E+00    4.000000E+07  0.05000  3.087E-03    0   0.7618   age104_m72            0.0000     2.1633E-05    58.5513   1.4434    96.2374
 58      0.0000     0.0000E+00    0.0000E+00    1.015200E+08  0.05000  1.700E-03    0   0.7096   age116_m72            0.0000     2.0090E-05    53.6074   1.1278   100.5686
 59      4.5460     2.6670E-01    3.2643E-01    2.861200E+08  0.05000  7.384E-04    0   0.6633   age125_m72            0.0000     1.7906E-05    47.0813   0.4900   108.6836
 60     10.0921     1.1448E+00    1.3460E+00    5.088000E+08  0.05000  3.819E-04    0   0.6372   age130_m72            0.0000     1.6646E-05    45.8464  -0.0757   112.7530
 61      0.0000     0.0000E+00    0.0000E+00    9.047900E+08  0.05000  1.676E-04    0   0.6110   age135_m72            0.0000     1.5820E-05    45.9398  -0.8472   112.9761
 62     30.3002     1.4853E+01    1.6100E+01    1.434000E+09  0.05000  8.837E-05    0   0.5874   age139_m72            0.0000     1.6232E-05    51.0490  -1.0000   107.1577
 63      2.6451     2.7069E+00    2.7962E+00    2.500000E+09  0.05000  4.233E-05    0   0.5598   age150_m72            0.0000     1.7764E-05    56.0821  -1.0000   100.0620
 64     24.0472     7.2593E+01    7.0313E+01    6.250000E+09  0.05000  1.435E-05    0   0.5249   age166_m72            0.0000     2.2089E-05    63.2215  -1.0000    88.6487
 65      0.0000     0.0000E+00    0.0000E+00    1.300000E+10  0.05000  6.513E-06    0   0.5036   age193_m72            0.0000     2.6506E-05    66.7091  -1.0000    82.5322
 66      0.0000     0.0000E+00    0.0000E+00    1.800000E+10  0.05000  4.527E-06    0   0.4945   age213_m72            0.0000     2.9476E-05    68.6532  -1.0000    78.2112


## Synthesis Results - Average & Chains ##

# j      x_j: min, <> & last-chain-values for 1 ...  7 chains
  1      0.0000      8.6026      3.1268      0.0000      6.0672      0.1728      1.4904      0.0000      6.4194
  2      0.0000      1.0626      0.3626      0.8091      0.5842      0.0000      0.0000      2.0253      2.2901
  3      0.0000      1.4910      0.0000      0.1266      0.0000      2.3309      0.0000      0.0000      0.4305
  4      0.0000      1.2614      0.4028      7.5323      1.9453      1.0397      0.0000      5.1202      0.0000
  5      0.0000      1.4028      0.5997      1.1760      0.4611      0.0000      0.0000      0.0000      1.3346
  6      0.0000      1.3366      0.0000      6.9227      3.0638      5.3150      0.0000      0.0000      0.0000
  7      0.0000      1.4486      1.4700      0.6142      6.1392      5.8847      4.9322      1.0471      0.0000
  8      2.5735      1.3240      0.1400      0.0000      1.1009      2.1580      5.0430      1.6439      0.2505
  9      0.0000      1.3524      0.3306      0.0000      0.0000      0.7493      6.8353      4.1562      0.1750
 10      0.0000      1.2425      1.7425      4.0837      0.0000      0.0000      3.0738      1.2294      4.3838
 11      1.8377      1.2456      0.2983      3.4782      3.6758      4.7495      0.1633      1.6130      1.8750
 12      0.0000      1.2871      0.8900      4.2042      0.5892      0.0000      0.0000      9.3540      0.8257
 13      0.4537      1.4347      0.4297      0.0068      0.9450      6.9273      0.0000      1.3584      1.4396
 14      0.0000     17.9017     70.9020      6.9597      8.0141      4.6904      1.9261      0.0000      1.6346
 15      0.0000      1.2974      0.0000      3.9286      0.0000      1.3156      3.6785      5.6275      2.2528
 16      0.0000      1.0452      0.9911      0.4396      0.0000      0.0000      0.0000      2.2021      1.2990
 17      0.3390      1.3347      0.0157      0.0000      3.5826      1.3520      1.4887      0.9765      2.1453
 18      0.0000      6.9304      0.2867      0.1338      2.4149      3.6829      0.0000      6.5592      0.0000
 19      0.0000      1.4336      0.0000      0.0000      1.1415      0.7644      1.9994      7.6287      0.8200
 20      0.6984      1.3422      1.8990      0.7412      0.0000      0.9650      0.0000      4.1007      0.0000
 21      0.0000      1.1436      0.6374      1.4249      0.0000      0.0000      2.4769      0.9270      3.0135
 22      0.0000      0.7769      1.1292      1.6369      1.3203      0.0000      2.6806      0.0000      0.0424
 23      0.1265      0.9785      1.3477      4.4247      0.0000      8.7838      0.8284      0.0000      0.0000
 24      0.0000      1.0024      0.0002      1.9172      0.0000      2.6732      0.0000      0.1972      0.0000
 25      0.0000      1.3596      0.3285      0.0000      2.0023      1.2578      1.4012      4.5425      0.6218
 26      0.0000      0.9042      0.4641      0.3601      2.5574      0.0000      3.1610      0.0000      2.2985
 27      0.0000      1.3394      1.2769      0.3062      0.3292      1.1920      1.0825      0.0000      0.0000
 28      0.0000      1.3458      3.2941      0.9761      0.0000      0.0000      0.0503      3.6324      6.8189
 29      0.0000      1.4735      1.9605      1.2536      2.7821      0.2114      2.6104      2.7161      2.6036
 30      0.0000      1.0295      0.3078      7.2634      0.4329      2.9853      1.7701      0.0000      0.0000
 31      0.0755      1.0181      0.0000      0.0000      1.5905      4.2745      0.0000      0.0000      0.0000
 32      0.0000      1.7656      1.0389      1.4127      0.9704      0.0000      1.3847      3.1959      4.8683
 33      0.0000      1.2491      0.1379      0.1710      0.0000      1.6308      1.7809      0.8647      4.0226
 34      0.0002      0.9674      0.0000      0.0000      0.7681      3.3438      8.3369      1.2271      0.7972
 35      0.0000      1.1606      0.0000      0.1814      0.5322      2.8683      0.0000      1.4358      3.6685
 36      0.0000      1.0754      1.2721      0.0000      0.6964      0.0000      0.0000      3.0677      2.1144
 37      0.0000      1.3433      3.3674      1.6630      1.4690      0.0000      5.0346      4.1233      0.0000
 38      0.0000      1.4606      1.4418      0.0000      0.0000      0.0000      0.1364      0.3363      0.0000
 39      0.0000      1.5014      0.7279      4.1785      0.0000      4.2906      0.6300      0.0000      0.0000
 40      0.0053      1.2727      0.9309      2.6020      3.2338      1.0439      0.0000      3.0715      5.6580
 41      0.0000      1.0033      2.1839      0.3477      0.0000      2.1140      2.8517      0.0000      0.0000
 42      0.0000      1.1707      0.2854      0.0000      1.0100      1.0909      3.5914      0.9957      5.1093
 43      0.0000      1.2802      0.3844      2.9086      8.3233      0.0000      8.0367      0.0000      1.1369
 44      0.0000      1.6242      1.1725      0.9283      4.8024      4.6150      0.0000      4.0843      9.3356
 45     23.9324      1.3659      1.5595      0.0000      1.9052      2.2874      0.0000      4.5938      0.0000
 46      4.8298      1.3119      0.7649      5.2201      5.5598      0.7959      1.0525      0.5345      1.4725
 47      0.4620      1.1956      1.1852      1.6639      4.6317      6.1939      0.8521      0.0000      2.9872
 48      0.0652      1.4460      0.3248      0.1945      0.0393      6.8535      0.5301      3.9526      0.0000
 49      0.2674      1.5080      1.7718      0.0000      1.2315      0.8682      0.5520      0.0000      0.4935
 50      0.0000      1.0265      0.0000      0.0000      6.0590      0.0000      1.5698      4.3306      3.3190
 51      0.0000     17.1784      5.9306      4.4582      3.8251      3.1536      0.0000      0.8542      4.6500
 52      0.0000      1.4704      0.0866      0.0000      0.1556      0.0499      0.3614      0.0000      5.1411
 53      0.0000      1.0378      1.3017      5.3821      1.4262      3.2204      2.3765      2.7079      0.0000
 54      0.0000      0.9084      0.0804      0.0000      5.5987      0.7254      0.0336      0.0000      0.4055
 55      0.0000      1.2416      0.6061      7.1950      2.0212      0.0000      1.1943      0.0000      5.1724
 56      0.0000      1.1478      0.0000      1.3192      0.0000      0.0000      5.4027      0.0000      1.3475
 57      0.0000      1.2115      0.0000      3.9406      5.9232      0.0000      2.9726      5.3101      3.3515
 58      0.0000      1.3988      0.0947      0.5641      1.8543      0.0000     10.7973      1.8399      0.0000
 59      4.5460      1.1157      0.8814      0.7128      0.0916      2.0453      5.5403      1.1560      1.9586
 60     10.0921      1.6257      2.3054      5.1242      0.0000      3.0706      6.4866      0.1620      0.4963
 61      0.0000      1.1803      0.2675      0.6695      2.0900      0.0000      0.1174      0.1238     12.3367
 62     30.3002      1.3425      1.1410      0.0000      1.9380      0.7754      0.0000      0.0000      5.2478
 63      2.6451      1.3512      0.7035     10.6365      0.0218      0.9042      0.0000      6.5038      0.3411
 64     24.0472      1.2566      0.4139      3.0525      6.5596      1.9407      0.0000      3.9141      0.0000
 65      0.0000      1.4298      1.0607      1.4199      2.3896      0.0000      6.1713      0.0000      1.0616
 66      0.0000      1.1490      0.0000      0.6845      1.4576      5.8456      0.2044      2.1357      0.0000

# j      m_j: min, <> & last-chain-values for 1 ...  7 chains
  1  0.0000E+00  8.6042E-02  3.0749E-02  0.0000E+00  3.8074E-02  1.1317E-03  1.0134E-02  0.0000E+00  6.3128E-02
  2  0.0000E+00  2.9013E-03  9.7350E-04  2.7671E-03  1.0008E-03  0.0000E+00  0.0000E+00  4.1740E-03  6.1480E-03
  3  0.0000E+00  6.0966E-03  0.0000E+00  6.4834E-04  0.0000E+00  6.2412E-03  0.0000E+00  0.0000E+00  1.7306E-03
  4  0.0000E+00  4.8570E-03  1.5251E-03  3.6326E-02  4.6997E-03  2.6217E-03  0.0000E+00  1.4882E-02  0.0000E+00
  5  0.0000E+00  1.0290E-02  4.3248E-03  1.0803E-02  2.1221E-03  0.0000E+00  0.0000E+00  0.0000E+00  9.6250E-03
  6  0.0000E+00  1.5902E-02  0.0000E+00  1.0315E-01  2.2869E-02  4.1407E-02  0.0000E+00  0.0000E+00  0.0000E+00
  7  0.0000E+00  2.4675E-02  2.4618E-02  1.3102E-02  6.5609E-02  6.5638E-02  5.7111E-02  1.3462E-02  0.0000E+00
  8  4.4261E-02  3.1171E-02  3.2418E-03  0.0000E+00  1.6262E-02  3.3268E-02  8.0709E-02  2.9212E-02  5.7973E-03
  9  0.0000E+00  3.6441E-02  8.7577E-03  0.0000E+00  0.0000E+00  1.3221E-02  1.2521E-01  8.4531E-02  4.6373E-03
 10  0.0000E+00  4.3978E-02  6.0641E-02  1.8103E-01  0.0000E+00  0.0000E+00  7.3960E-02  3.2844E-02  1.5256E-01
 11  8.9351E-02  8.2899E-02  1.9519E-02  2.8992E-01  1.5349E-01  2.0699E-01  7.3892E-03  8.1026E-02  1.2269E-01
 12  0.0000E+00  1.3588E-01  9.2387E-02  5.5589E-01  3.9027E-02  0.0000E+00  0.0000E+00  7.4538E-01  8.5703E-02
 13  9.8635E-02  4.2692E-01  1.2572E-01  2.5500E-03  1.7643E-01  1.3499E+00  0.0000E+00  3.0510E-01  4.2119E-01
 14  0.0000E+00  1.7867E+01  6.9576E+01  8.6997E+00  5.0185E+00  3.0655E+00  1.3069E+00  0.0000E+00  1.6041E+00
 15  0.0000E+00  2.1080E+00  0.0000E+00  7.9946E+00  0.0000E+00  1.3997E+00  4.0631E+00  6.9015E+00  3.5989E+00
 16  0.0000E+00  2.8714E+00  2.6771E+00  1.5125E+00  0.0000E+00  0.0000E+00  0.0000E+00  4.5664E+00  3.5089E+00
 17  8.8263E-01  4.7568E+00  5.5046E-02  0.0000E+00  8.0109E+00  3.1554E+00  3.6068E+00  2.6269E+00  7.5172E+00
 18  0.0000E+00  6.1254E-02  2.4918E-03  1.4811E-03  1.3392E-02  2.1316E-02  0.0000E+00  4.3758E-02  0.0000E+00
 19  0.0000E+00  5.0857E-03  0.0000E+00  0.0000E+00  2.5407E-03  1.7757E-03  4.8218E-03  2.0427E-02  2.8599E-03
 20  1.9759E-03  5.1982E-03  7.2309E-03  3.5949E-03  0.0000E+00  2.4473E-03  0.0000E+00  1.1987E-02  0.0000E+00
 21  0.0000E+00  5.3762E-03  2.9462E-03  8.3896E-03  0.0000E+00  0.0000E+00  7.9159E-03  3.2892E-03  1.3929E-02
 22  0.0000E+00  6.1758E-03  8.8260E-03  1.6297E-02  6.5854E-03  0.0000E+00  1.4486E-02  0.0000E+00  3.3162E-04
 23  9.9173E-04  1.0504E-02  1.4224E-02  5.9489E-02  0.0000E+00  6.1747E-02  6.0454E-03  0.0000E+00  0.0000E+00
 24  0.0000E+00  1.6010E-02  2.6501E-06  3.8348E-02  0.0000E+00  2.7957E-02  0.0000E+00  2.3767E-03  0.0000E+00
 25  0.0000E+00  2.9940E-02  7.1133E-03  0.0000E+00  2.7666E-02  1.8138E-02  2.0977E-02  7.5505E-02  1.3464E-02
 26  0.0000E+00  3.3285E-02  1.6797E-02  1.6601E-02  5.9064E-02  0.0000E+00  7.9099E-02  0.0000E+00  8.3187E-02
 27  0.0000E+00  9.8683E-02  9.2501E-02  2.8252E-02  1.5218E-02  5.7513E-02  5.4218E-02  0.0000E+00  0.0000E+00
 28  0.0000E+00  2.8777E-01  6.9254E-01  2.6140E-01  0.0000E+00  0.0000E+00  7.3066E-03  5.8625E-01  1.4336E+00
 29  0.0000E+00  5.4896E-01  7.1815E-01  5.8495E-01  6.5033E-01  5.1581E-02  6.6115E-01  7.6381E-01  9.5372E-01
 30  0.0000E+00  8.0135E-01  2.3556E-01  7.0810E+00  2.1142E-01  1.5217E+00  9.3666E-01  0.0000E+00  0.0000E+00
 31  7.5505E-02  1.3940E+00  0.0000E+00  0.0000E+00  1.3665E+00  3.8328E+00  0.0000E+00  0.0000E+00  0.0000E+00
 32  0.0000E+00  3.2528E+00  1.8819E+00  3.2597E+00  1.1217E+00  0.0000E+00  1.7343E+00  4.4443E+00  8.8187E+00
 33  0.0000E+00  5.0946E+00  5.5297E-01  8.7365E-01  0.0000E+00  4.3556E+00  4.9377E+00  2.6618E+00  1.6131E+01
 34  8.4242E-04  5.3429E+00  0.0000E+00  0.0000E+00  2.6617E+00  1.2093E+01  3.1302E+01  5.1154E+00  4.3293E+00
 35  0.0000E+00  8.2248E-03  0.0000E+00  1.6104E-03  2.3663E-03  1.3311E-02  0.0000E+00  7.6802E-03  2.5562E-02
 36  0.0000E+00  3.0835E-03  3.5862E-03  0.0000E+00  1.2527E-03  0.0000E+00  0.0000E+00  6.6392E-03  5.9607E-03
 37  0.0000E+00  4.1659E-03  1.0268E-02  6.4593E-03  2.8584E-03  0.0000E+00  1.0615E-02  9.6523E-03  0.0000E+00
 38  0.0000E+00  1.2272E-02  1.1911E-02  0.0000E+00  0.0000E+00  0.0000E+00  7.7888E-04  2.1325E-03  0.0000E+00
 39  0.0000E+00  1.8162E-02  8.6580E-03  6.3308E-02  0.0000E+00  3.3989E-02  5.1808E-03  0.0000E+00  0.0000E+00
 40  7.5621E-05  2.4887E-02  1.7897E-02  6.3725E-02  3.9674E-02  1.3366E-02  0.0000E+00  4.5333E-02  1.0878E-01
 41  0.0000E+00  3.0509E-02  6.5294E-02  1.3243E-02  0.0000E+00  4.2096E-02  5.8950E-02  0.0000E+00  0.0000E+00
 42  0.0000E+00  6.5359E-02  1.5667E-02  0.0000E+00  3.5378E-02  3.9883E-02  1.3631E-01  4.1959E-02  2.8046E-01
 43  0.0000E+00  1.0435E-01  3.0805E-02  2.9693E-01  4.2566E-01  0.0000E+00  4.4533E-01  0.0000E+00  9.1110E-02
 44  0.0000E+00  2.2794E-01  1.6179E-01  1.6318E-01  4.2288E-01  4.2414E-01  0.0000E+00  4.3266E-01  1.2882E+00
 45  4.8686E+00  3.8034E-01  4.2698E-01  0.0000E+00  3.3287E-01  4.1711E-01  0.0000E+00  9.6555E-01  0.0000E+00
 46  1.8060E+00  6.7150E-01  3.8496E-01  3.3463E+00  1.7855E+00  2.6678E-01  3.6623E-01  2.0649E-01  7.4104E-01
 47  3.5006E-01  1.2400E+00  1.2086E+00  2.1614E+00  3.0141E+00  4.2067E+00  6.0082E-01  0.0000E+00  3.0462E+00
 48  8.7149E-02  2.6449E+00  5.8414E-01  4.4564E-01  4.5130E-02  8.2091E+00  6.5910E-01  5.4570E+00  0.0000E+00
 49  8.1223E-01  6.2691E+00  7.2420E+00  0.0000E+00  3.2122E+00  2.3634E+00  1.5599E+00  0.0000E+00  2.0173E+00
 50  0.0000E+00  7.9037E+00  0.0000E+00  0.0000E+00  2.9271E+01  0.0000E+00  8.2170E+00  2.5168E+01  2.5126E+01
 51  0.0000E+00  7.2503E-02  2.4611E-02  2.3566E-02  1.0129E-02  8.7161E-03  0.0000E+00  2.7214E-03  1.9297E-02
 52  0.0000E+00  3.1804E-03  1.8426E-04  0.0000E+00  2.1110E-04  7.0693E-05  5.3139E-04  0.0000E+00  1.0933E-02
 53  0.0000E+00  3.3811E-03  4.1699E-03  2.1962E-02  2.9154E-03  6.8707E-03  5.2635E-03  6.6591E-03  0.0000E+00
 54  0.0000E+00  6.0646E-03  5.2757E-04  0.0000E+00  2.3450E-02  3.1709E-03  1.5266E-04  0.0000E+00  2.6618E-03
 55  0.0000E+00  1.2762E-02  6.1249E-03  9.2626E-02  1.3035E-02  0.0000E+00  8.3451E-03  0.0000E+00  5.2274E-02
 56  0.0000E+00  2.3350E-02  0.0000E+00  3.3614E-02  0.0000E+00  0.0000E+00  7.4722E-02  0.0000E+00  2.6953E-02
 57  0.0000E+00  3.2713E-02  0.0000E+00  1.3327E-01  1.0035E-01  0.0000E+00  5.4567E-02  1.0823E-01  8.8979E-02
 58  0.0000E+00  6.3886E-02  4.2524E-03  3.2266E-02  5.3139E-02  0.0000E+00  3.3525E-01  6.3431E-02  0.0000E+00
 59  3.2643E-01  1.0966E-01  8.5183E-02  8.7745E-02  5.6479E-03  1.3165E-01  3.7020E-01  8.5765E-02  1.8928E-01
 60  1.3460E+00  2.9680E-01  4.1383E-01  1.1717E+00  0.0000E+00  3.6710E-01  8.0506E-01  2.2324E-02  8.9085E-02
 61  0.0000E+00  4.7081E-01  1.0490E-01  3.3448E-01  5.2309E-01  0.0000E+00  3.1843E-02  3.7266E-02  4.8385E+00
 62  1.6100E+01  9.7643E-01  8.1594E-01  0.0000E+00  8.8438E-01  3.6930E-01  0.0000E+00  0.0000E+00  3.7528E+00
 63  2.7962E+00  1.9552E+00  1.0009E+00  1.9277E+01  1.9800E-02  8.5683E-01  0.0000E+00  7.1036E+00  4.8536E-01
 64  7.0313E+01  5.0295E+00  1.6287E+00  1.5302E+01  1.6472E+01  5.0864E+00  0.0000E+00  1.1825E+01  0.0000E+00
 65  0.0000E+00  1.2097E+01  8.8238E+00  1.5046E+01  1.2685E+01  0.0000E+00  3.5495E+01  0.0000E+00  8.8311E+00
 66  0.0000E+00  1.3733E+01  0.0000E+00  1.0247E+01  1.0931E+01  4.5753E+01  1.6611E+00  1.9268E+01  0.0000E+00

# AV, chi2 & Mass for <> & i_chain = 1 ...  7 solutions
AV      -1.0000     -0.0319     -1.0000     -0.5410     -0.7642     -0.6911     -0.5518     -0.4385     -0.6280
chi2 1.6204E-05  2.9600E-05  2.3641E-05  2.4784E-05  2.4052E-05  2.2542E-05  2.3082E-05  2.4868E-05  2.4687E-05
Mass 2.9169E-14  7.8214E-14  2.1673E-14  3.1517E-14  4.6619E-14  4.9273E-14  5.7226E-14  6.0016E-14  3.5718E-14
-201.01                                  [v0_min (km/s) before EX0s...]
   2.51                                  [vd_min (km/s) before EX0s...]


## Synthetic spectrum (Best Model) ##l_obs f_obs f_syn wei
 3478    [Nl_obs]
 3741.00    1.06279   0.56321    0.000
 3742.00    0.94825   0.53076    0.000
 3743.00    0.84015   0.49461    0.000
 3744.00    0.64349   0.46140    0.000
 3745.00    0.39525   0.41851    0.027
 3746.00    0.20363   0.36102    0.026
 3747.00    0.04078   0.34540    0.026
 3748.00   -0.10952   0.40540    0.000
 3749.00   -0.25431   0.49851    0.000
 3750.00   -0.01152   0.57690    0.000
 3751.00    0.37761   0.64459    0.027
 3752.00    0.38345   0.70770    0.026
 3753.00    0.26645   0.72849    0.025
 3754.00    0.55203   0.67100    0.025
 3755.00    0.94549   0.57364    0.025
 3756.00    1.00756   0.52484    0.025
 3757.00    0.99689   0.54744    0.025
 3758.00    0.63160   0.58965    0.024
 3759.00    0.20441   0.61581    0.024
 3760.00   -0.05723   0.62112    0.000
 3761.00   -0.29688   0.61740    0.000
 3762.00   -0.23433   0.62221    0.000
 3763.00   -0.14338   0.60974    0.000
 3764.00    0.00293   0.56567    0.023
 3765.00    0.15243   0.53830    0.023
 3766.00    0.04936   0.53774    0.022
 3767.00   -0.05562   0.52405    0.000
 3768.00    0.33472   0.51691    0.023
 3769.00    0.70342   0.56003    0.024
 3770.00    0.54656   0.62309    0.023
 3771.00    0.38116   0.65455    0.022
 3772.00    0.10386   0.65825    0.021
 3773.00   -0.10197   0.66820    0.000
 3774.00    0.31965   0.69448    0.022
 3775.00    0.73506   0.72035    0.022
 3776.00    1.11025   0.74804    0.024
 3777.00    1.42117   0.78783    0.026
 3778.00    1.40684   0.81486    0.025
 3779.00    1.34058   0.81442    0.025
 3780.00    1.06177   0.81389    0.024
 3781.00    0.83693   0.82882    0.024
 3782.00    0.79515   0.81723    0.024
 3783.00    0.70007   0.74488    0.024
 3784.00    0.45251   0.66773    0.024
 3785.00    0.21629   0.63492    0.024
 3786.00    0.00777   0.62145    0.024
 3787.00   -0.08904   0.61642    0.000
 3788.00    0.04958   0.63436    0.024
 3789.00    0.05799   0.65032    0.024
 3790.00   -0.17213   0.62690    0.000
 3791.00   -0.38670   0.57490    0.000
 3792.00   -0.57637   0.53013    0.000
 3793.00   -0.45044   0.50213    0.000
 3794.00    0.11882   0.46536    0.023
 3795.00    0.47891   0.42126    0.023
 3796.00    0.58047   0.42055    0.022
 3797.00    0.53421   0.48270    0.022
 3798.00    0.32691   0.56427    0.023
 3799.00   -0.23337   0.63150    0.000
 3800.00   -1.13284   0.69106    0.000
 3801.00   -1.69235   0.73537    0.000
 3802.00   -1.96376   0.74423    0.000
 3803.00   -1.42136   0.71741    0.000
 3804.00   -0.27167   0.68419    0.000
 3805.00    0.41459   0.69209    0.023
 3806.00    0.79704   0.74614    0.022
 3807.00    0.78068   0.80086    0.022
 3808.00    0.53547   0.82214    0.022
 3809.00    0.51676   0.79772    0.022
 3810.00    0.61127   0.73121    0.023
 3811.00    0.54505   0.66191    0.023
 3812.00    0.40934   0.62404    0.024
 3813.00    0.61784   0.62321    0.023
 3814.00    0.95400   0.66168    0.023
 3815.00    0.85365   0.70350    0.022
 3816.00    0.61609   0.69032    0.022
 3817.00    0.06317   0.62943    0.024
 3818.00   -0.57247   0.59849    0.000
 3819.00   -0.25743   0.63346    0.000
 3820.00    0.26130   0.66567    0.022
 3821.00    0.18158   0.63104    0.022
 3822.00    0.00029   0.56795    0.000
 3823.00    0.17028   0.53423    0.022
 3824.00    0.38535   0.52945    0.023
 3825.00    0.49218   0.53112    0.022
 3826.00    0.58929   0.53193    0.022
 3827.00    0.29421   0.53325    0.022
 3828.00   -0.02194   0.51910    0.000
 3829.00    0.02766   0.47070    0.023
 3830.00    0.08395   0.41185    0.023
 3831.00    0.08609   0.37537    0.023
 3832.00    0.08744   0.36698    0.024
 3833.00    0.07113   0.38486    0.023
 3834.00    0.02113   0.41189    0.023
 3835.00   -0.44784   0.42613    0.000
 3836.00   -0.80852   0.43563    0.000
 3837.00   -0.25382   0.45605    0.000
 3838.00    0.28048   0.49723    0.024
 3839.00    0.68642   0.56523    0.024
 3840.00    1.01059   0.62990    0.024
 3841.00    0.93129   0.66306    0.023
 3842.00    0.82755   0.67418    0.022
 3843.00    0.62597   0.68084    0.022
 3844.00    0.45062   0.70081    0.022
 3845.00    0.36248   0.72322    0.022
 3846.00    0.28537   0.71082    0.022
 3847.00    0.23922   0.68077    0.000
 3848.00    0.15804   0.69240    0.000
 3849.00   -0.00730   0.73616    0.000
 3850.00   -0.09669   0.75386    0.000
 3851.00   -0.02856   0.73979    0.000
 3852.00    0.07304   0.71712    0.000
 3853.00    0.23500   0.69778    0.000
 3854.00    0.44103   0.69660    0.000
 3855.00    0.71656   0.69038    0.000
 3856.00    0.72615   0.65377    0.000
 3857.00    0.36760   0.63278    0.000
 3858.00   -0.04386   0.66956    0.000
 3859.00   -0.51977   0.73429    0.000
 3860.00   -0.46861   0.77870    0.000
 3861.00    0.14871   0.78799    0.000
 3862.00    0.36346   0.77340    0.000
 3863.00    0.19679   0.75574    0.000
 3864.00    0.15729   0.75173    0.000
 3865.00    0.22405   0.75904    0.000
 3866.00    0.37689   0.76110    0.000
 3867.00    0.59303   0.74102    0.000
 3868.00    0.74725   0.69762    0.000
 3869.00    0.86147   0.64859    0.000
 3870.00    0.95425   0.63442    0.000
 3871.00    1.03493   0.67881    0.000
 3872.00    0.84456   0.74134    0.000
 3873.00    0.52085   0.76308    0.000
 3874.00    0.44232   0.72393    0.000
 3875.00    0.46805   0.65222    0.000
 3876.00    0.25427   0.62283    0.000
 3877.00   -0.04675   0.65480    0.000
 3878.00    0.04243   0.66761    0.000
 3879.00    0.25190   0.63272    0.000
 3880.00    0.67398   0.61345    0.000
 3881.00    1.15065   0.62641    0.025
 3882.00    0.93240   0.60473    0.024
 3883.00    0.56886   0.53360    0.022
 3884.00    0.01636   0.47618    0.022
 3885.00   -0.56730   0.45026    0.000
 3886.00   -0.36844   0.44037    0.000
 3887.00   -0.07267   0.46900    0.000
 3888.00    0.27892   0.54217    0.022
 3889.00    0.63527   0.61906    0.022
 3890.00    0.37187   0.66231    0.022
 3891.00    0.07757   0.67059    0.021
 3892.00    0.14113   0.66373    0.022
 3893.00    0.20850   0.67243    0.022
 3894.00    0.14290   0.70421    0.022
 3895.00    0.07871   0.71971    0.021
 3896.00    0.04342   0.70694    0.021
 3897.00    0.03339   0.70848    0.021
 3898.00    0.32218   0.75017    0.021
 3899.00    0.54183   0.78103    0.021
 3900.00    0.19811   0.76334    0.020
 3901.00   -0.06105   0.74028    0.000
 3902.00    0.19626   0.71998    0.019
 3903.00    0.44799   0.69705    0.019
 3904.00    0.67287   0.71790    0.019
 3905.00    0.78282   0.78306    0.019
 3906.00    0.44268   0.83988    0.019
 3907.00    0.27365   0.86602    0.019
 3908.00    0.66238   0.87879    0.019
 3909.00    0.87222   0.88608    0.020
 3910.00    0.58879   0.87266    0.021
 3911.00    0.44853   0.85005    0.021
 3912.00    0.64635   0.84212    0.022
 3913.00    0.85041   0.83079    0.022
 3914.00    1.06720   0.81069    0.023
 3915.00    1.12350   0.79547    0.024
 3916.00    0.89472   0.77424    0.024
 3917.00    0.72007   0.74274    0.024
 3918.00    0.62952   0.72083    0.024
 3919.00    0.62309   0.72507    0.023
 3920.00    0.73147   0.74510    0.023
 3921.00    0.86699   0.76248    0.023
 3922.00    1.03512   0.75404    0.023
 3923.00    0.72334   0.71510    0.023
 3924.00   -0.09671   0.66367    0.000
 3925.00   -0.14836   0.60347    0.000
 3926.00    0.51782   0.53871    0.023
 3927.00    0.65600   0.47631    0.023
 3928.00    0.35932   0.41532    0.023
 3929.00    0.40678   0.35376    0.023
 3930.00    0.70372   0.29790    0.023
 3931.00    0.63161   0.27092    0.023
 3932.00    0.32462   0.29263    0.023
 3933.00    0.14962   0.35687    0.022
 3934.00    0.04808   0.43630    0.022
 3935.00    0.09958   0.51208    0.022
 3936.00    0.22517   0.58395    0.022
 3937.00    0.64519   0.64239    0.022
 3938.00    1.18832   0.67034    0.022
 3939.00    1.00696   0.67497    0.022
 3940.00    0.56644   0.66533    0.022
 3941.00    0.41805   0.65546    0.022
 3942.00    0.35795   0.68695    0.022
 3943.00    0.65848   0.75552    0.022
 3944.00    1.04958   0.78836    0.022
 3945.00    0.90412   0.76869    0.022
 3946.00    0.64924   0.75968    0.022
 3947.00    0.65792   0.79000    0.022
 3948.00    0.70881   0.81621    0.022
 3949.00    0.62378   0.80185    0.022
 3950.00    0.52252   0.78773    0.022
 3951.00    0.28024   0.81648    0.022
 3952.00    0.02648   0.83275    0.022
 3953.00    0.26392   0.78992    0.022
 3954.00    0.52394   0.74650    0.023
 3955.00    0.44312   0.75461    0.023
 3956.00    0.35916   0.78074    0.023
 3957.00    0.33740   0.76026    0.023
 3958.00    0.32410   0.67710    0.023
 3959.00    0.47114   0.58989    0.023
 3960.00    0.60524   0.54663    0.000
 3961.00    0.59340   0.52292    0.000
 3962.00    0.58786   0.47932    0.000
 3963.00    0.63191   0.40789    0.000
 3964.00    0.65133   0.32674    0.000
 3965.00    0.52456   0.26099    0.000
 3966.00    0.36914   0.23081    0.000
 3967.00    0.07916   0.24575    0.000
 3968.00   -0.01032   0.29932    0.000
 3969.00    0.66856   0.37054    0.000
 3970.00    1.03733   0.43783    0.000
 3971.00    0.41489   0.50106    0.000
 3972.00    0.12871   0.56838    0.000
 3973.00    0.75323   0.62633    0.000
 3974.00    1.30658   0.67100    0.000
 3975.00    1.69467   0.72168    0.000
 3976.00    1.74936   0.78120    0.000
 3977.00    1.13444   0.82888    0.000
 3978.00    0.73482   0.83749    0.000
 3979.00    0.71181   0.81537    0.000
 3980.00    0.60868   0.80441    0.000
 3981.00    0.38288   0.81854    0.024
 3982.00    0.48091   0.84585    0.024
 3983.00    1.01445   0.86464    0.023
 3984.00    1.26961   0.87795    0.023
 3985.00    1.19513   0.90693    0.023
 3986.00    1.01631   0.91980    0.023
 3987.00    0.72855   0.90497    0.023
 3988.00    0.63117   0.90760    0.022
 3989.00    0.70914   0.93687    0.022
 3990.00    0.71025   0.96340    0.022
 3991.00    0.64896   0.96322    0.022
 3992.00    0.82132   0.93886    0.022
 3993.00    1.16061   0.90393    0.022
 3994.00    1.21502   0.86815    0.022
 3995.00    1.09082   0.86202    0.022
 3996.00    0.92359   0.91344    0.021
 3997.00    0.73278   0.97988    0.021
 3998.00    0.91703   1.00405    0.021
 3999.00    1.27992   1.00604    0.022
 4000.00    0.99841   1.01240    0.022
 4001.00    0.45203   0.97956    0.021
 4002.00    0.24074   0.89088    0.021
 4003.00    0.14715   0.83911    0.021
 4004.00    0.50880   0.88237    0.022
 4005.00    1.00535   0.95620    0.022
 4006.00    0.99820   0.99456    0.022
 4007.00    0.86732   1.00268    0.021
 4008.00    0.76128   1.00472    0.022
 4009.00    0.66017   1.00342    0.022
 4010.00    0.85391   1.00369    0.022
 4011.00    1.09346   1.00839    0.022
 4012.00    0.51679   1.02271    0.022
 4013.00   -0.15373   1.03342    0.000
 4014.00    0.16550   1.01596    0.023
 4015.00    0.56126   1.00655    0.023
 4016.00    0.78427   1.04081    0.023
 4017.00    1.00000   1.06780    0.023
 4018.00    1.00503   1.05177    0.023
 4019.00    1.00192   1.02605    0.024
 4020.00    0.72630   1.00927    0.023
 4021.00    0.51761   0.98401    0.023
 4022.00    1.48913   0.97192    0.024
 4023.00    2.31883   1.00805    0.024
 4024.00    1.62253   1.06006    0.024
 4025.00    1.00883   1.08242    0.024
 4026.00    1.02216   1.05335    0.024
 4027.00    0.99556   0.96311    0.024
 4028.00    0.73862   0.87045    0.023
 4029.00    0.62651   0.83483    0.023
 4030.00    1.17814   0.83617    0.023
 4031.00    1.53831   0.85855    0.022
 4032.00    1.18036   0.90547    0.022
 4033.00    0.96459   0.97516    0.022
 4034.00    1.19458   1.05007    0.022
 4035.00    1.35965   1.09373    0.022
 4036.00    1.35199   1.08792    0.022
 4037.00    1.20892   1.04800    0.022
 4038.00    0.75663   1.01737    0.022
 4039.00    0.49978   1.02920    0.022
 4040.00    0.62930   1.03335    0.022
 4041.00    0.83584   0.95639    0.022
 4042.00    1.17507   0.82829    0.022
 4043.00    1.32186   0.77373    0.022
 4044.00    1.17835   0.85591    0.022
 4045.00    1.04578   0.96943    0.022
 4046.00    0.92772   1.02051    0.022
 4047.00    0.93019   1.04072    0.022
 4048.00    1.07336   1.04976    0.022
 4049.00    0.96132   1.02883    0.022
 4050.00    0.58651   0.99010    0.022
 4051.00    0.37385   0.95343    0.022
 4052.00    0.30845   0.93222    0.022
 4053.00    0.51276   0.93332    0.022
 4054.00    0.93294   0.92284    0.022
 4055.00    1.06881   0.90169    0.022
 4056.00    1.00447   0.92338    0.022
 4057.00    1.03126   0.98120    0.022
 4058.00    1.11434   1.00677    0.022
 4059.00    1.08385   0.95134    0.022
 4060.00    0.99209   0.84782    0.022
 4061.00    0.64715   0.80692    0.022
 4062.00    0.18355   0.86804    0.021
 4063.00   -0.06042   0.92221    0.000
 4064.00   -0.21566   0.91895    0.000
 4065.00   -0.35407   0.93826    0.000
 4066.00   -0.48667   0.99796    0.000
 4067.00    0.07292   1.00406    0.022
 4068.00    0.83350   0.92419    0.022
 4069.00    1.19263   0.86736    0.022
 4070.00    1.45534   0.91074    0.022
 4071.00    1.32925   0.97078    0.023
 4072.00    1.12782   0.95848    0.023
 4073.00    1.17880   0.87773    0.023
 4074.00    1.26783   0.78939    0.023
 4075.00    1.02804   0.77107    0.023
 4076.00    0.75189   0.83557    0.022
 4077.00    0.88995   0.93003    0.022
 4078.00    1.05834   1.00543    0.022
 4079.00    1.23140   1.02107    0.022
 4080.00    1.40464   0.97965    0.022
 4081.00    1.12247   0.93370    0.022
 4082.00    0.85134   0.91281    0.022
 4083.00    1.09138   0.92344    0.022
 4084.00    1.31451   0.96801    0.022
 4085.00    1.25892   1.01996    0.022
 4086.00    1.19257   1.03852    0.022
 4087.00    1.01535   1.01965    0.022
 4088.00    0.84516   0.98892    0.022
 4089.00    0.72652   0.96047    0.022
 4090.00    0.65387   0.95214    0.021
 4091.00    0.83927   0.95186    0.022
 4092.00    1.03336   0.90885    0.000
 4093.00    1.26634   0.84084    0.000
 4094.00    1.30110   0.79941    0.000
 4095.00    0.60789   0.78171    0.000
 4096.00    0.19112   0.75702    0.000
 4097.00    0.62454   0.69508    0.000
 4098.00    0.98103   0.60478    0.000
 4099.00    1.13642   0.56599    0.000
 4100.00    1.18359   0.61681    0.000
 4101.00    0.98774   0.70120    0.000
 4102.00    0.95385   0.77676    0.000
 4103.00    1.23513   0.83816    0.000
 4104.00    1.31282   0.86995    0.000
 4105.00    1.04509   0.87395    0.000
 4106.00    0.96843   0.86297    0.000
 4107.00    1.17579   0.84907    0.000
 4108.00    1.20281   0.85003    0.000
 4109.00    0.99419   0.87104    0.000
 4110.00    0.83831   0.90851    0.000
 4111.00    0.74312   0.94589    0.000
 4112.00    0.82390   0.97087    0.000
 4113.00    1.08331   0.99094    0.021
 4114.00    1.18966   0.98950    0.020
 4115.00    1.15898   0.94325    0.020
 4116.00    0.98353   0.89701    0.020
 4117.00    0.69386   0.90584    0.020
 4118.00    0.44260   0.93061    0.020
 4119.00    0.21800   0.92603    0.020
 4120.00    0.39604   0.91841    0.029
 4121.00    0.81908   0.94300    0.112
 4122.00    1.12053   0.97704   -1.000
 4123.00    1.35738   0.97548   -1.000
 4124.00    1.41224   0.94122   -1.000
 4125.00    1.38318   0.90652   -1.000
 4126.00    1.43018   0.89903   -1.000
 4127.00    1.50738   0.90486   -1.000
 4128.00    1.12914   0.88794    0.053
 4129.00    0.59676   0.84529    0.023
 4130.00    0.33225   0.82910    0.020
 4131.00    0.14395   0.85646    0.019
 4132.00    0.47344   0.91541    0.020
 4133.00    0.92449   0.97670    0.020
 4134.00    1.09927   0.99549    0.020
 4135.00    1.22189   1.00315    0.020
 4136.00    1.08437   1.02764    0.020
 4137.00    0.90887   1.04198    0.020
 4138.00    1.13396   1.02089    0.020
 4139.00    1.40162   0.94359    0.020
 4140.00    1.68754   0.83879    0.021
 4141.00    1.97472   0.80558    0.021
 4142.00    1.51356   0.87073    0.021
 4143.00    1.02658   0.94450    0.021
 4144.00    1.26383   0.97461    0.021
 4145.00    1.48536   0.97253    0.021
 4146.00    1.14010   0.94716    0.021
 4147.00    0.79614   0.92287    0.021
 4148.00    0.47248   0.92419    0.021
 4149.00    0.19484   0.93037    0.020
 4150.00    0.37074   0.92227    0.021
 4151.00    0.54074   0.89758    0.021
 4152.00    0.66877   0.88210    0.021
 4153.00    0.78064   0.88116    0.021
 4154.00    0.80428   0.88830    0.021
 4155.00    0.96043   0.92183    0.021
 4156.00    1.69577   0.96165    0.021
 4157.00    2.06409   0.97542    0.021
 4158.00    1.11232   0.96943    0.021
 4159.00    0.39859   0.98738    0.020
 4160.00    0.40312   1.01659    0.020
 4161.00    0.55165   1.01506    0.020
 4162.00    1.06995   1.00003    0.021
 4163.00    1.53661   0.97840    0.021
 4164.00    1.88921   0.94348    0.021
 4165.00    1.93326   0.93646    0.021
 4166.00    1.38625   0.97094    0.021
 4167.00    0.98640   0.98483    0.020
 4168.00    0.83252   0.93524    0.020
 4169.00    0.87889   0.84660    0.020
 4170.00    1.21858   0.79291    0.020
 4171.00    1.18772   0.81157    0.021
 4172.00    0.67959   0.86122    0.021
 4173.00    0.31627   0.88681    0.020
 4174.00    0.11729   0.87298    0.020
 4175.00    0.41912   0.85316    0.020
 4176.00    1.22220   0.87291    0.021
 4177.00    1.57081   0.91783    0.021
 4178.00    1.51827   0.92744    0.021
 4179.00    1.39913   0.90148    0.021
 4180.00    1.22819   0.89511    0.020
 4181.00    1.24971   0.92156    0.020
 4182.00    1.40285   0.96150    0.020
 4183.00    1.46571   0.95825    0.020
 4184.00    1.47446   0.89526    0.020
 4185.00    1.31596   0.87030    0.020
 4186.00    1.07000   0.92016    0.020
 4187.00    1.01037   0.95945    0.020
 4188.00    1.03526   0.94970    0.020
 4189.00    0.99150   0.95822    0.020
 4190.00    0.92095   1.00858    0.019
 4191.00    0.85161   1.02193    0.019
 4192.00    0.78266   0.96551    0.020
 4193.00    0.92563   0.90074    0.020
 4194.00    1.12765   0.86607    0.020
 4195.00    1.17029   0.83577    0.019
 4196.00    1.17636   0.83051    0.019
 4197.00    1.28525   0.86643    0.019
 4198.00    1.41304   0.87615    0.020
 4199.00    1.37936   0.85495    0.019
 4200.00    1.32285   0.86623    0.019
 4201.00    1.39739   0.89603    0.019
 4202.00    1.48529   0.91610    0.019
 4203.00    1.45796   0.94473    0.018
 4204.00    1.42313   0.97735    0.018
 4205.00    1.30549   0.99561    0.018
 4206.00    1.18579   0.98384    0.018
 4207.00    1.38025   0.96033    0.018
 4208.00    1.57285   0.96956    0.018
 4209.00    1.71108   1.00213    0.019
 4210.00    1.81988   1.00847    0.019
 4211.00    1.50037   0.96347    0.019
 4212.00    1.19053   0.88256    0.019
 4213.00    0.97210   0.85158    0.019
 4214.00    0.80847   0.92018    0.019
 4215.00    1.02157   1.00204    0.019
 4216.00    1.16235   1.03000    0.019
 4217.00    0.91881   1.03430    0.019
 4218.00    0.70471   1.03995    0.018
 4219.00    0.61635   1.01441    0.018
 4220.00    0.52598   0.95561    0.018
 4221.00    0.42848   0.88280    0.018
 4222.00    0.39079   0.78808    0.018
 4223.00    0.53018   0.68223    0.018
 4224.00    0.70807   0.64723    0.019
 4225.00    0.98308   0.75107    0.019
 4226.00    1.13340   0.89999    0.019
 4227.00    1.01278   0.98924    0.018
 4228.00    0.94245   1.02285    0.018
 4229.00    0.96697   0.99290    0.018
 4230.00    1.06047   0.92312    0.018
 4231.00    1.26753   0.90006    0.018
 4232.00    1.06079   0.90456    0.018
 4233.00    0.25672   0.88854    0.017
 4234.00   -0.00012   0.89525    0.000
 4235.00    0.43783   0.91303    0.017
 4236.00    0.79558   0.91134    0.018
 4237.00    1.06362   0.92607    0.018
 4238.00    1.18674   0.97184    0.018
 4239.00    1.16686   0.99806    0.018
 4240.00    1.04903   1.00580    0.018
 4241.00    0.84595   1.03979    0.018
 4242.00    0.90787   1.05680    0.018
 4243.00    1.17295   1.01133    0.018
 4244.00    1.34443   0.94810    0.019
 4245.00    1.45283   0.92323    0.019
 4246.00    1.29856   0.91385    0.019
 4247.00    0.98919   0.87615    0.019
 4248.00    0.97594   0.87003    0.020
 4249.00    1.11514   0.92407    0.020
 4250.00    1.11854   0.94545    0.020
 4251.00    1.06134   0.90449    0.020
 4252.00    0.88665   0.88551    0.020
 4253.00    0.66690   0.93806    0.020
 4254.00    0.80193   0.99591    0.019
 4255.00    1.05258   0.97900    0.019
 4256.00    1.09907   0.90875    0.019
 4257.00    1.08983   0.84170    0.019
 4258.00    0.94746   0.83294    0.019
 4259.00    0.77525   0.90890    0.019
 4260.00    0.96112   1.00261    0.019
 4261.00    1.21104   1.05011    0.019
 4262.00    1.29236   1.06728    0.020
 4263.00    1.35062   1.07213    0.020
 4264.00    1.03258   1.04143    0.020
 4265.00    0.67778   0.99024    0.020
 4266.00    0.91345   0.94914    0.020
 4267.00    1.18523   0.89043    0.019
 4268.00    0.98732   0.79768    0.019
 4269.00    0.77827   0.75183    0.019
 4270.00    0.86880   0.79090    0.019
 4271.00    0.95118   0.81942    0.019
 4272.00    0.81803   0.83058    0.019
 4273.00    0.70666   0.89291    0.018
 4274.00    0.89483   0.97502    0.018
 4275.00    1.06284   1.01971    0.019
 4276.00    1.04778   1.00991    0.019
 4277.00    0.99738   0.96107    0.019
 4278.00    0.71161   0.93248    0.019
 4279.00    0.52951   0.93010    0.019
 4280.00    0.88411   0.93516    0.019
 4281.00    1.21942   0.94612    0.019
 4282.00    1.47414   0.93319   -2.000
 4283.00    1.60817   0.91306   -2.000
 4284.00    1.32555   0.90915   -2.000
 4285.00    1.07577   0.88236   -2.000
 4286.00    0.92145   0.80270   -2.000
 4287.00    0.98317   0.74145   -2.000
 4288.00    1.58073   0.77982   -2.000
 4289.00    1.86538   0.87623   -2.000
 4290.00    1.48105   0.93194   -2.000
 4291.00    1.15954   0.91050   -2.000
 4292.00    0.95467   0.88679   -2.000
 4293.00    0.90790   0.88852   -2.000
 4294.00    1.11753   0.87241   -2.000
 4295.00    1.08943   0.81942   -2.000
 4296.00    0.72310   0.72876   -2.000
 4297.00    0.47520   0.67236   -2.000
 4298.00    0.37553   0.69129    0.019
 4299.00    0.29979   0.71382    0.019
 4300.00    0.25045   0.72641    0.019
 4301.00    0.40613   0.76037    0.018
 4302.00    0.76129   0.77334    0.018
 4303.00    0.90916   0.75333    0.018
 4304.00    0.87920   0.71495    0.018
 4305.00    0.78834   0.66862    0.018
 4306.00    0.65145   0.66863    0.018
 4307.00    0.69370   0.72676    0.018
 4308.00    0.85492   0.79612    0.018
 4309.00    1.09283   0.83564    0.018
 4310.00    1.37535   0.84428    0.018
 4311.00    1.44099   0.84298    0.018
 4312.00    1.39672   0.88645    0.018
 4313.00    1.28605   0.99623    0.017
 4314.00    1.14624   1.07573    0.017
 4315.00    1.09103   1.07844    0.017
 4316.00    1.06768   1.05145    0.017
 4317.00    1.12351   1.01689    0.017
 4318.00    1.20465   0.98401    0.017
 4319.00    1.15575   0.97453    0.017
 4320.00    1.07210   0.93556    0.018
 4321.00    0.86776   0.83414    0.018
 4322.00    0.63701   0.72271    0.018
 4323.00    0.49570   0.69576    0.017
 4324.00    0.36995   0.79966    0.017
 4325.00    0.59533   0.94057    0.017
 4326.00    0.86716   1.00317    0.018
 4327.00    1.09621   0.97486    0.018
 4328.00    1.32126   0.94102    0.018
 4329.00    1.27859   0.95025    0.018
 4330.00    1.22061   0.96219    0.000
 4331.00    1.24507   0.96845    0.000
 4332.00    1.26986   0.97739    0.000
 4333.00    1.11085   0.93366    0.000
 4334.00    0.95476   0.80818    0.000
 4335.00    0.86884   0.68924    0.000
 4336.00    0.79562   0.62072    0.000
 4337.00    0.88765   0.56696    0.000
 4338.00    0.95558   0.58279    0.000
 4339.00    0.81289   0.68903    0.000
 4340.00    0.70104   0.77259    0.000
 4341.00    0.78841   0.80204    0.000
 4342.00    0.86667   0.84984    0.000
 4343.00    0.89898   0.89767    0.000
 4344.00    0.95452   0.91444    0.000
 4345.00    1.10483   0.94946    0.000
 4346.00    1.18540   0.99942    0.000
 4347.00    1.03003   0.97374    0.000
 4348.00    0.93738   0.85310    0.000
 4349.00    1.02372   0.77127    0.000
 4350.00    1.16025   0.81621    0.000
 4351.00    1.41913   0.89650    0.018
 4352.00    1.61884   0.93847    0.018
 4353.00    1.69405   0.97920    0.018
 4354.00    1.77644   1.01228    0.021
 4355.00    1.87191   0.98613    0.056
 4356.00    1.77267   0.93571   -1.000
 4357.00    1.36233   0.94606   -1.000
 4358.00    1.21960   1.00760   -1.000
 4359.00    1.45208   1.04470   -1.000
 4360.00    1.60734   1.04736   -1.000
 4361.00    1.66732   1.06856   -1.000
 4362.00    1.63631   1.10025    0.075
 4363.00    1.50632   1.08001    0.024
 4364.00    1.33862   1.00606    0.018
 4365.00    1.13473   0.95354    0.018
 4366.00    1.12913   0.95744    0.018
 4367.00    1.29125   0.97529    0.018
 4368.00    1.47811   0.99251    0.018
 4369.00    1.68340   1.00622    0.018
 4370.00    1.59181   0.97443    0.018
 4371.00    1.30596   0.89122    0.018
 4372.00    1.15197   0.83973    0.018
 4373.00    1.07350   0.88436    0.018
 4374.00    0.87430   0.98187    0.018
 4375.00    0.61488   1.04275    0.018
 4376.00    0.76549   1.03727    0.018
 4377.00    1.09305   1.00592    0.018
 4378.00    1.27279   0.97793    0.018
 4379.00    1.39784   0.89915    0.018
 4380.00    1.34174   0.74854    0.018
 4381.00    1.22883   0.65293    0.018
 4382.00    1.22531   0.70910    0.018
 4383.00    1.25042   0.84140    0.019
 4384.00    1.27997   0.91818    0.018
 4385.00    1.31047   0.92560    0.018
 4386.00    1.44030   0.91798    0.018
 4387.00    1.58693   0.90552    0.018
 4388.00    1.46328   0.90814    0.018
 4389.00    1.30510   0.94460    0.018
 4390.00    1.19989   0.96498    0.018
 4391.00    1.09940   0.93152    0.017
 4392.00    1.01549   0.90129    0.017
 4393.00    0.93245   0.95240    0.018
 4394.00    1.45959   1.03479    0.018
 4395.00    1.98444   1.04637    0.018
 4396.00    1.35321   0.98988    0.018
 4397.00    0.74662   0.91569    0.019
 4398.00    0.68185   0.90314    0.018
 4399.00    0.64283   0.96763    0.018
 4400.00    0.92187   0.97222    0.018
 4401.00    1.17989   0.86712    0.018
 4402.00    1.26108   0.80572    0.018
 4403.00    1.29902   0.86089    0.018
 4404.00    1.06588   0.90449    0.018
 4405.00    0.90639   0.88717    0.018
 4406.00    1.10917   0.90838    0.018
 4407.00    1.29224   0.98323    0.018
 4408.00    1.39665   1.03795    0.018
 4409.00    1.37965   1.06434    0.018
 4410.00    0.95999   1.05833    0.018
 4411.00    0.68767   0.97198    0.018
 4412.00    0.82815   0.86556    0.018
 4413.00    1.02793   0.85607    0.017
 4414.00    1.36986   0.90879    0.018
 4415.00    1.53666   0.96476    0.019
 4416.00    1.34100   1.03212    0.018
 4417.00    1.20050   1.06943    0.018
 4418.00    1.15928   1.03501    0.018
 4419.00    1.07740   0.96302    0.018
 4420.00    0.93154   0.93472    0.017
 4421.00    0.95658   0.96653    0.017
 4422.00    1.21778   0.98970    0.018
 4423.00    1.23500   0.98380    0.018
 4424.00    0.95544   0.97977    0.018
 4425.00    0.97588   0.99755    0.018
 4426.00    1.31798   1.00047    0.018
 4427.00    1.25417   0.95762    0.018
 4428.00    0.80644   0.94902    0.018
 4429.00    0.63895   0.98509    0.018
 4430.00    0.70518   0.97415    0.018
 4431.00    0.86021   0.90764    0.018
 4432.00    1.08043   0.85412    0.018
 4433.00    1.12606   0.88233    0.018
 4434.00    1.05911   0.97624    0.018
 4435.00    0.95172   1.05762    0.018
 4436.00    0.82152   1.09243    0.018
 4437.00    1.05937   1.06564    0.018
 4438.00    1.47791   0.98752    0.019
 4439.00    1.45590   0.90580    0.018
 4440.00    1.24694   0.86826    0.018
 4441.00    1.21839   0.90887    0.018
 4442.00    1.25539   1.00463    0.018
 4443.00    1.44490   1.05976    0.018
 4444.00    1.68132   1.04345    0.018
 4445.00    1.34356   1.03945    0.018
 4446.00    0.85881   1.04548    0.018
 4447.00    1.02656   1.01518    0.018
 4448.00    1.33031   1.00284    0.018
 4449.00    1.32142   1.01960    0.018
 4450.00    1.26118   0.99935    0.018
 4451.00    1.19954   0.92218    0.018
 4452.00    1.13773   0.84931    0.018
 4453.00    1.30434   0.85370    0.018
 4454.00    1.49039   0.89508    0.017
 4455.00    1.31881   0.89966    0.017
 4456.00    1.12959   0.88639    0.017
 4457.00    1.21577   0.88412    0.017
 4458.00    1.30463   0.86274    0.017
 4459.00    1.28643   0.85735    0.017
 4460.00    1.26429   0.92461    0.017
 4461.00    1.16219   0.98081    0.000
 4462.00    1.05962   0.97620    0.000
 4463.00    0.95158   0.96410    0.000
 4464.00    0.85079   0.96118    0.000
 4465.00    0.80883   0.94492    0.000
 4466.00    0.81332   0.91568    0.000
 4467.00    1.10039   0.91994    0.000
 4468.00    1.32962   0.95915    0.000
 4469.00    1.28132   1.00447    0.000
 4470.00    1.23268   1.04700    0.000
 4471.00    1.18271   1.07001    0.000
 4472.00    1.15252   1.05859    0.000
 4473.00    1.18662   1.05767    0.000
 4474.00    1.23417   1.09393    0.000
 4475.00    1.31875   1.10728    0.000
 4476.00    1.25635   1.04917    0.000
 4477.00    0.84762   0.94983    0.000
 4478.00    0.71366   0.87561    0.000
 4479.00    1.13931   0.87820    0.000
 4480.00    1.40242   0.95454    0.000
 4481.00    1.37736   1.03715    0.000
 4482.00    1.33756   1.08372    0.017
 4483.00    1.27489   1.10091    0.017
 4484.00    1.16021   1.07796    0.016
 4485.00    0.97472   1.01038    0.017
 4486.00    0.92664   0.94148    0.017
 4487.00    1.04332   0.92697    0.017
 4488.00    1.14058   0.97049    0.017
 4489.00    1.21731   1.02435    0.017
 4490.00    1.32289   1.02571    0.017
 4491.00    1.45538   0.96708    0.017
 4492.00    1.36515   0.92934    0.016
 4493.00    1.09182   0.94410    0.016
 4494.00    0.97222   0.98615    0.016
 4495.00    0.96384   1.03765    0.016
 4496.00    0.84795   1.06594    0.016
 4497.00    0.66376   1.04785    0.016
 4498.00    0.81030   1.00256    0.016
 4499.00    1.14055   1.01548    0.016
 4500.00    1.23868   1.09797    0.016
 4501.00    1.22467   1.15282    0.016
 4502.00    1.33595   1.14904    0.016
 4503.00    1.49950   1.11832    0.017
 4504.00    1.27757   1.08196    0.017
 4505.00    0.91808   1.06092    0.016
 4506.00    0.76386   1.07405    0.016
 4507.00    0.67153   1.10464    0.016
 4508.00    0.99395   1.11141    0.016
 4509.00    1.42026   1.08012    0.016
 4510.00    1.42914   1.04112    0.016
 4511.00    1.35316   1.01226    0.016
 4512.00    1.24760   1.00618    0.016
 4513.00    1.13733   1.02555    0.016
 4514.00    1.14056   1.02697    0.016
 4515.00    1.15728   1.01192    0.016
 4516.00    1.09422   1.02638    0.016
 4517.00    1.02471   1.05738    0.016
 4518.00    1.18471   1.07513    0.016
 4519.00    1.35515   1.04366    0.016
 4520.00    1.33363   1.00036    0.016
 4521.00    1.31064   0.99520    0.016
 4522.00    1.33278   0.97682    0.016
 4523.00    1.33791   0.93342    0.016
 4524.00    1.02363   0.89257    0.016
 4525.00    0.73357   0.86359    0.016
 4526.00    0.71479   0.85979    0.016
 4527.00    0.73078   0.88546    0.016
 4528.00    1.01884   0.91838    0.016
 4529.00    1.23588   0.94906    0.016
 4530.00    1.03303   0.93324    0.016
 4531.00    0.88313   0.88079    0.016
 4532.00    0.98111   0.86518    0.016
 4533.00    1.10084   0.92855    0.016
 4534.00    1.30372   1.03701    0.016
 4535.00    1.41969   1.08290    0.016
 4536.00    1.25855   1.04864    0.016
 4537.00    1.12596   0.99589    0.016
 4538.00    1.07052   0.97120    0.016
 4539.00    1.03958   0.99733    0.016
 4540.00    1.06544   1.03065    0.016
 4541.00    1.08425   1.01160    0.016
 4542.00    1.08895   0.97504    0.016
 4543.00    1.05581   0.97939    0.016
 4544.00    0.95659   0.99500    0.016
 4545.00    0.94430   0.97264    0.016
 4546.00    1.06484   0.91925    0.016
 4547.00    1.14666   0.91782    0.016
 4548.00    1.17650   0.97167    0.016
 4549.00    1.19476   0.98589    0.016
 4550.00    1.19931   0.95789    0.000
 4551.00    1.03159   0.92382    0.000
 4552.00    0.68432   0.91000    0.000
 4553.00    0.56517   0.94828    0.000
 4554.00    0.65578   1.01502    0.000
 4555.00    0.85302   1.04977    0.000
 4556.00    1.13668   1.05416    0.000
 4557.00    1.14463   1.05640    0.000
 4558.00    0.95595   1.06401    0.000
 4559.00    0.90091   1.06110    0.000
 4560.00    0.92950   1.01315    0.000
 4561.00    0.89768   0.95275    0.000
 4562.00    0.83283   0.93761    0.000
 4563.00    0.88723   0.97797    0.000
 4564.00    0.99832   1.04454    0.000
 4565.00    0.96150   1.07870    0.000
 4566.00    0.86401   1.07361    0.000
 4567.00    1.08420   1.04289    0.000
 4568.00    1.41572   0.98043    0.000
 4569.00    1.44343   0.96280    0.000
 4570.00    1.38135   1.02774    0.000
 4571.00    1.25249   1.06688    0.000
 4572.00    1.10726   1.05146    0.000
 4573.00    1.08002   1.04214    0.000
 4574.00    1.07616   1.04346    0.000
 4575.00    1.03785   1.02635    0.000
 4576.00    0.99422   0.97837    0.000
 4577.00    0.96176   0.93203    0.000
 4578.00    0.93058   0.92557    0.000
 4579.00    0.97562   0.94680    0.000
 4580.00    1.02650   0.95227    0.000
 4581.00    1.09300   0.94598    0.000
 4582.00    1.16015   0.94904    0.000
 4583.00    1.20105   0.95609    0.000
 4584.00    1.23989   0.98318    0.000
 4585.00    1.20082   1.02210    0.000
 4586.00    1.16587   1.04280    0.000
 4587.00    1.20301   1.03021    0.000
 4588.00    1.21528   0.99069    0.000
 4589.00    0.96145   0.95862    0.000
 4590.00    0.76950   0.95975    0.000
 4591.00    1.04528   0.96907    0.000
 4592.00    1.25891   0.96170    0.000
 4593.00    1.11527   0.96001    0.000
 4594.00    0.97866   0.96958    0.000
 4595.00    0.87413   0.98144    0.000
 4596.00    0.84283   0.99036    0.000
 4597.00    1.08546   0.97030    0.000
 4598.00    1.23331   0.95738    0.000
 4599.00    1.08475   0.97701    0.000
 4600.00    1.00363   0.98817    0.000
 4601.00    1.10156   0.98257    0.000
 4602.00    1.18163   0.96963    0.000
 4603.00    1.22101   0.97807    0.000
 4604.00    1.22012   1.01784    0.000
 4605.00    1.13977   1.06898    0.000
 4606.00    1.05848   1.09884    0.000
 4607.00    0.97555   1.08215    0.000
 4608.00    0.87189   1.04556    0.000
 4609.00    0.73701   1.02291    0.000
 4610.00    0.71293   1.01173    0.000
 4611.00    0.83546   1.02299    0.000
 4612.00    0.98099   1.04365    0.000
 4613.00    1.15333   1.03911    0.000
 4614.00    1.19040   1.03925    0.000
 4615.00    1.08847   1.03451    0.000
 4616.00    1.04043   1.00690    0.000
 4617.00    1.04125   1.01304    0.000
 4618.00    1.10396   1.04867    0.000
 4619.00    1.21609   1.05596    0.000
 4620.00    1.19485   1.05037    0.000
 4621.00    1.07985   1.04951    0.000
 4622.00    0.96138   1.03176    0.000
 4623.00    0.84077   1.01843    0.000
 4624.00    0.69523   1.02941    0.000
 4625.00    0.53626   1.02746    0.000
 4626.00    0.72513   1.00362    0.000
 4627.00    1.07668   1.01062    0.000
 4628.00    1.05792   1.04936    0.000
 4629.00    0.88987   1.04882    0.000
 4630.00    0.78091   1.00538    0.000
 4631.00    0.69228   0.98243    0.000
 4632.00    0.88774   0.98942    0.000
 4633.00    1.16549   0.99217    0.000
 4634.00    1.21133   0.97338    0.000
 4635.00    1.20161   0.95486    0.000
 4636.00    1.25922   0.95004    0.000
 4637.00    1.32984   0.95398    0.000
 4638.00    1.18257   0.98333    0.000
 4639.00    1.00260   1.00936    0.000
 4640.00    1.17421   0.99775    0.000
 4641.00    1.38452   0.97229    0.000
 4642.00    1.15221   0.93964    0.000
 4643.00    0.88771   0.88927    0.000
 4644.00    0.98779   0.86197    0.000
 4645.00    1.10164   0.88038    0.000
 4646.00    1.00378   0.92334    0.000
 4647.00    0.90718   0.96732    0.000
 4648.00    0.89695   0.99189    0.000
 4649.00    0.90978   1.00402    0.000
 4650.00    1.29948   1.00382    0.000
 4651.00    1.61185   0.96901    0.000
 4652.00    1.13283   0.93133    0.000
 4653.00    0.73563   0.92458    0.000
 4654.00    0.93628   0.95251    0.000
 4655.00    1.09355   1.01491    0.000
 4656.00    1.00836   1.06956    0.000
 4657.00    0.91756   1.07851    0.000
 4658.00    0.80181   1.04500    0.000
 4659.00    0.74108   0.99599    0.000
 4660.00    0.88194   0.95987    0.000
 4661.00    0.96169   0.95329    0.000
 4662.00    0.85393   0.94216    0.000
 4663.00    0.80868   0.87953    0.000
 4664.00    0.92646   0.80721    0.000
 4665.00    0.96820   0.80544    0.000
 4666.00    0.83949   0.86579    0.000
 4667.00    0.72903   0.93024    0.000
 4668.00    0.65400   0.97180    0.000
 4669.00    0.61284   0.97752    0.000
 4670.00    0.62904   0.96193    0.000
 4671.00    0.68564   0.95952    0.000
 4672.00    0.80219   0.98125    0.000
 4673.00    0.83925   1.01126    0.000
 4674.00    0.77263   1.00950    0.000
 4675.00    0.83889   0.97035    0.000
 4676.00    1.05782   0.93587    0.000
 4677.00    1.09573   0.92259    0.000
 4678.00    0.95020   0.91864    0.000
 4679.00    0.81489   0.93128    0.000
 4680.00    0.68873   0.96300    0.000
 4681.00    0.77254   0.98280    0.000
 4682.00    1.02172   0.98153    0.000
 4683.00    1.06537   0.97833    0.000
 4684.00    0.96663   0.96897    0.000
 4685.00    0.87568   0.95875    0.000
 4686.00    0.78946   0.96065    0.000
 4687.00    0.78140   0.95805    0.000
 4688.00    0.81478   0.94419    0.000
 4689.00    0.84213   0.94461    0.000
 4690.00    0.86670   0.95918    0.000
 4691.00    0.85348   0.97573    0.000
 4692.00    0.82529   0.99741    0.000
 4693.00    0.84858   1.00858    0.000
 4694.00    0.88926   0.98182    0.000
 4695.00    0.92673   0.92905    0.000
 4696.00    0.96331   0.90302    0.000
 4697.00    1.09016   0.91457    0.000
 4698.00    1.23815   0.91647    0.000
 4699.00    1.16121   0.89401    0.000
 4700.00    1.04197   0.88056    0.000
 4701.00    0.99201   0.90800    0.000
 4702.00    0.95214   0.94267    0.000
 4703.00    0.97074   0.93905    0.000
 4704.00    0.99553   0.90757    0.000
 4705.00    0.75379   0.88724    0.000
 4706.00    0.49375   0.89259    0.000
 4707.00    0.51608   0.92587    0.000
 4708.00    0.54801   0.96905    0.000
 4709.00    1.05619   0.97735    0.000
 4710.00    1.53744   0.94727    0.000
 4711.00    1.11907   0.91221    0.000
 4712.00    0.73759   0.91713    0.000
 4713.00    0.92218   0.96415    0.000
 4714.00    1.06309   0.99916    0.000
 4715.00    0.77565   1.01077    0.000
 4716.00    0.53622   1.02502    0.000
 4717.00    0.63617   1.03539    0.000
 4718.00    0.78538   1.02596    0.000
 4719.00    1.20258   1.00686    0.000
 4720.00    1.46489   1.00486    0.000
 4721.00    1.05208   1.02729    0.000
 4722.00    0.76889   1.03973    0.000
 4723.00    0.95066   1.00877    0.000
 4724.00    1.10943   0.93984    0.000
 4725.00    1.19891   0.88784    0.000
 4726.00    1.17013   0.88062    0.000
 4727.00    0.83833   0.89102    0.000
 4728.00    0.66575   0.90551    0.000
 4729.00    0.84413   0.93276    0.000
 4730.00    0.99929   0.95618    0.000
 4731.00    1.11006   0.96768    0.000
 4732.00    1.10771   0.96887    0.000
 4733.00    0.91664   0.94352    0.000
 4734.00    0.87824   0.93286    0.000
 4735.00    1.06305   0.97188    0.000
 4736.00    1.16262   0.99709    0.000
 4737.00    1.15262   0.97912    0.000
 4738.00    1.03157   0.96325    0.000
 4739.00    0.78474   0.97439    0.000
 4740.00    0.79959   0.99230    0.000
 4741.00    1.07586   0.98970    0.000
 4742.00    1.08125   0.98081    0.000
 4743.00    0.84795   0.99404    0.000
 4744.00    0.88308   1.00758    0.000
 4745.00    1.12660   1.00164    0.000
 4746.00    1.19769   0.99957    0.000
 4747.00    1.15109   1.00505    0.000
 4748.00    1.26790   0.99588    0.000
 4749.00    1.48247   0.97177    0.000
 4750.00    1.37558   0.95266    0.000
 4751.00    1.10091   0.94068    0.000
 4752.00    0.79883   0.93653    0.000
 4753.00    0.48436   0.93950    0.000
 4754.00    0.76201   0.94902    0.000
 4755.00    1.27020   0.96444    0.000
 4756.00    1.18270   0.98011    0.000
 4757.00    0.89782   0.98192    0.000
 4758.00    1.07083   0.95088    0.000
 4759.00    1.37114   0.90731    0.000
 4760.00    1.35353   0.88898    0.000
 4761.00    1.26320   0.88166    0.014
 4762.00    0.89155   0.86666    0.014
 4763.00    0.46837   0.86519    0.013
 4764.00    0.45226   0.89287    0.013
 4765.00    0.49347   0.93151    0.014
 4766.00    0.62591   0.96417    0.014
 4767.00    0.76760   0.97226    0.014
 4768.00    0.92043   0.94714    0.014
 4769.00    1.07398   0.93042    0.014
 4770.00    0.96392   0.95234    0.014
 4771.00    0.84634   0.98842    0.014
 4772.00    0.95624   0.99861    0.014
 4773.00    1.06369   0.99055    0.014
 4774.00    1.09989   0.99771    0.014
 4775.00    1.11943   1.00118    0.013
 4776.00    0.89832   0.98361    0.013
 4777.00    0.69564   0.97200    0.013
 4778.00    0.66647   0.97105    0.013
 4779.00    0.64929   0.95183    0.013
 4780.00    0.71426   0.92505    0.013
 4781.00    0.77132   0.92972    0.013
 4782.00    0.78647   0.93941    0.013
 4783.00    0.83920   0.92011    0.013
 4784.00    1.05199   0.91549    0.013
 4785.00    1.20130   0.92862    0.013
 4786.00    1.12754   0.92472    0.013
 4787.00    1.01479   0.92578    0.013
 4788.00    0.78687   0.94205    0.013
 4789.00    0.67540   0.96124    0.013
 4790.00    0.85719   0.99288    0.013
 4791.00    1.00240   1.02751    0.013
 4792.00    1.06829   1.03633    0.013
 4793.00    1.06710   1.01619    0.013
 4794.00    0.93965   0.98487    0.013
 4795.00    0.82928   0.95081    0.013
 4796.00    0.74697   0.92642    0.013
 4797.00    0.69927   0.93078    0.013
 4798.00    0.70142   0.96416    0.013
 4799.00    0.71685   0.99856    0.013
 4800.00    0.74913   1.00191    0.013
 4801.00    0.81866   0.97220    0.013
 4802.00    0.92981   0.94214    0.013
 4803.00    0.90364   0.93606    0.013
 4804.00    0.74222   0.93167    0.013
 4805.00    0.69443   0.92613    0.013
 4806.00    0.74536   0.93859    0.013
 4807.00    0.79275   0.95503    0.013
 4808.00    0.83743   0.95906    0.013
 4809.00    0.84756   0.95666    0.013
 4810.00    0.83444   0.95746    0.013
 4811.00    0.88402   0.96419    0.013
 4812.00    0.97055   0.97384    0.013
 4813.00    0.93975   0.98560    0.013
 4814.00    0.84866   0.99621    0.013
 4815.00    0.82784   1.00440    0.013
 4816.00    0.83830   1.01103    0.013
 4817.00    0.99311   1.00722    0.013
 4818.00    1.20314   0.98999    0.013
 4819.00    1.24948   0.95047    0.013
 4820.00    1.24261   0.89575    0.013
 4821.00    1.22454   0.88457    0.013
 4822.00    1.20343   0.92752    0.013
 4823.00    1.24226   0.96222    0.013
 4824.00    1.29449   0.96082    0.013
 4825.00    1.05253   0.94264    0.013
 4826.00    0.75813   0.93505    0.013
 4827.00    0.76866   0.93761    0.013
 4828.00    0.82074   0.92252    0.013
 4829.00    0.88770   0.90523    0.013
 4830.00    0.95610   0.92002    0.013
 4831.00    0.93720   0.94545    0.013
 4832.00    0.91300   0.95048    0.013
 4833.00    0.88578   0.94383    0.013
 4834.00    0.85899   0.94252    0.013
 4835.00    0.92233   0.92864    0.013
 4836.00    0.97976   0.89979    0.013
 4837.00    0.88289   0.88806    0.013
 4838.00    0.80023   0.90071    0.013
 4839.00    0.91155   0.90493    0.013
 4840.00    1.01501   0.89547    0.013
 4841.00    1.04753   0.90814    0.013
 4842.00    1.05930   0.93684    0.013
 4843.00    0.93345   0.94123    0.013
 4844.00    0.85655   0.91093    0.013
 4845.00    1.03225   0.87253    0.013
 4846.00    1.14920   0.86855    0.013
 4847.00    1.02154   0.89550    0.013
 4848.00    0.91387   0.90599    0.000
 4849.00    0.87498   0.89507    0.000
 4850.00    0.84907   0.87398    0.000
 4851.00    0.86079   0.82479    0.000
 4852.00    0.87730   0.77197    0.000
 4853.00    0.90568   0.76947    0.000
 4854.00    0.91839   0.79427    0.000
 4855.00    0.89770   0.77801    0.000
 4856.00    0.90898   0.70626    0.000
 4857.00    0.97955   0.61162    0.000
 4858.00    1.06129   0.55987    0.000
 4859.00    1.16113   0.60334    0.000
 4860.00    1.16697   0.68696    0.000
 4861.00    1.03936   0.73718    0.000
 4862.00    0.93911   0.77163    0.000
 4863.00    0.87307   0.80579    0.000
 4864.00    0.87317   0.82577    0.000
 4865.00    0.94609   0.83521    0.000
 4866.00    0.96815   0.83497    0.000
 4867.00    0.94080   0.79662    0.000
 4868.00    0.88228   0.74114    0.000
 4869.00    0.79708   0.74404    0.000
 4870.00    0.69970   0.79912    0.000
 4871.00    0.59315   0.83593    0.000
 4872.00    0.55459   0.84356    0.000
 4873.00    0.56112   0.85215    0.000
 4874.00    0.65313   0.86738    0.000
 4875.00    0.79477   0.88956    0.013
 4876.00    0.89213   0.92320    0.013
 4877.00    0.96708   0.92586    0.013
 4878.00    0.91594   0.89025    0.013
 4879.00    0.80959   0.87428    0.013
 4880.00    0.75285   0.88095    0.013
 4881.00    0.71476   0.86614    0.013
 4882.00    0.77827   0.83408    0.013
 4883.00    0.87418   0.82159    0.014
 4884.00    0.87631   0.83698    0.013
 4885.00    0.85345   0.85261    0.013
 4886.00    0.86484   0.83989    0.013
 4887.00    0.88369   0.79653    0.013
 4888.00    0.88426   0.77384    0.013
 4889.00    0.88166   0.82858    0.013
 4890.00    0.96238   0.91245    0.014
 4891.00    1.05408   0.96646    0.014
 4892.00    0.88878   0.99104    0.014
 4893.00    0.69959   0.99262    0.013
 4894.00    0.79954   0.98440    0.013
 4895.00    0.91589   0.96754    0.014
 4896.00    0.98915   0.93409    0.013
 4897.00    1.05924   0.91326    0.013
 4898.00    0.89049   0.92294    0.013
 4899.00    0.73155   0.92223    0.013
 4900.00    0.80558   0.90350    0.013
 4901.00    0.88099   0.91116    0.013
 4902.00    0.97434   0.95076    0.013
 4903.00    1.05393   0.97682    0.013
 4904.00    1.01401   0.96166    0.013
 4905.00    0.98460   0.92177    0.013
 4906.00    1.02280   0.87651    0.013
 4907.00    1.06350   0.84627    0.013
 4908.00    1.11674   0.85623    0.013
 4909.00    1.14512   0.89239    0.013
 4910.00    1.07233   0.92140    0.013
 4911.00    1.00018   0.94271    0.013
 4912.00    0.93016   0.96191    0.013
 4913.00    0.84413   0.95517    0.013
 4914.00    0.71251   0.90294    0.013
 4915.00    0.69789   0.81976    0.013
 4916.00    0.96790   0.74886    0.013
 4917.00    1.09478   0.72997    0.013
 4918.00    0.92121   0.77089    0.013
 4919.00    0.82804   0.82886    0.013
 4920.00    0.88156   0.84591    0.013
 4921.00    0.87624   0.83775    0.012
 4922.00    0.77709   0.86124    0.012
 4923.00    0.69455   0.90982    0.012
 4924.00    0.63525   0.93925    0.012
 4925.00    0.60454   0.95644    0.012
 4926.00    0.60903   0.97354    0.013
 4927.00    0.67034   0.97488    0.013
 4928.00    0.79335   0.96247    0.012
 4929.00    0.92367   0.92722    0.012
 4930.00    1.06100   0.87339    0.013
 4931.00    1.08551   0.86172    0.013
 4932.00    1.01476   0.89597    0.012
 4933.00    0.90285   0.90044    0.012
 4934.00    0.76033   0.85309    0.012
 4935.00    0.72632   0.80355    0.012
 4936.00    0.76316   0.80721    0.012
 4937.00    0.88649   0.86792    0.012
 4938.00    1.05927   0.92614    0.012
 4939.00    1.04656   0.94850    0.012
 4940.00    0.94151   0.95961    0.000
 4941.00    0.79348   0.95952    0.000
 4942.00    0.62695   0.93761    0.000
 4943.00    0.67798   0.92598    0.000
 4944.00    0.80933   0.94248    0.000
 4945.00    0.91149   0.95937    0.000
 4946.00    1.00451   0.96302    0.000
 4947.00    1.03794   0.96705    0.000
 4948.00    1.05581   0.96999    0.000
 4949.00    0.97276   0.95626    0.000
 4950.00    0.86821   0.93679    0.000
 4951.00    0.84305   0.92808    0.000
 4952.00    0.83127   0.90809    0.000
 4953.00    0.93626   0.84053    0.000
 4954.00    1.05610   0.76315    0.000
 4955.00    1.03120   0.77983    0.000
 4956.00    0.99346   0.87479    0.000
 4957.00    0.76015   0.93615    0.000
 4958.00    0.51652   0.94072    0.000
 4959.00    0.65068   0.93436    0.000
 4960.00    0.78985   0.93473    0.000
 4961.00    0.75646   0.91535    0.000
 4962.00    0.73334   0.87681    0.000
 4963.00    0.93343   0.85751    0.000
 4964.00    1.10444   0.86179    0.000
 4965.00    0.91840   0.86842    0.000
 4966.00    0.75996   0.87536    0.000
 4967.00    0.83250   0.88469    0.000
 4968.00    0.85470   0.90142    0.000
 4969.00    0.56250   0.92121    0.000
 4970.00    0.36528   0.93378    0.000
 4971.00    0.63374   0.94123    0.000
 4972.00    0.85948   0.93808    0.000
 4973.00    0.91514   0.92489    0.000
 4974.00    0.97186   0.90309    0.000
 4975.00    1.03208   0.87459    0.000
 4976.00    1.07860   0.85866    0.000
 4977.00    1.08680   0.84764    0.000
 4978.00    1.01584   0.80763    0.000
 4979.00    0.75554   0.75169    0.000
 4980.00    0.62206   0.73298    0.000
 4981.00    0.75053   0.76018    0.000
 4982.00    0.83898   0.80058    0.000
 4983.00    0.85554   0.84568    0.000
 4984.00    0.90995   0.88724    0.000
 4985.00    1.02383   0.89809    0.000
 4986.00    1.04527   0.88230    0.000
 4987.00    0.93922   0.86295    0.000
 4988.00    0.81663   0.85798    0.000
 4989.00    0.67396   0.86842    0.000
 4990.00    0.67621   0.86817    0.000
 4991.00    0.83358   0.86698    0.000
 4992.00    0.84828   0.88441    0.000
 4993.00    0.72827   0.89524    0.000
 4994.00    0.77399   0.88944    0.000
 4995.00    0.95764   0.86804    0.000
 4996.00    1.01891   0.83158    0.000
 4997.00    0.99050   0.80382    0.000
 4998.00    1.00038   0.79815    0.000
 4999.00    1.03491   0.80708    0.000
 5000.00    1.02084   0.81652    0.000
 5001.00    0.97942   0.80179    0.000
 5002.00    0.98803   0.76212    0.000
 5003.00    1.02116   0.74491    0.000
 5004.00    1.11272   0.78473    0.000
 5005.00    1.22903   0.84282    0.000
 5006.00    1.13914   0.86479    0.000
 5007.00    0.97450   0.85008    0.000
 5008.00    0.95527   0.81566    0.000
 5009.00    0.98065   0.77107    0.000
 5010.00    0.94337   0.74060    0.000
 5011.00    0.89009   0.74164    0.000
 5012.00    0.78490   0.77020    0.000
 5013.00    0.66894   0.78931    0.000
 5014.00    0.68289   0.77396    0.000
 5015.00    0.71811   0.76179    0.000
 5016.00    0.72470   0.78242    0.000
 5017.00    0.72779   0.80495    0.000
 5018.00    0.87238   0.80095    0.000
 5019.00    1.02892   0.79285    0.000
 5020.00    0.93726   0.81196    0.000
 5021.00    0.83346   0.84088    0.000
 5022.00    0.83568   0.84900    0.000
 5023.00    0.83756   0.83179    0.000
 5024.00    0.71833   0.80689    0.000
 5025.00    0.60767   0.81290    0.000
 5026.00    0.66888   0.84354    0.000
 5027.00    0.73234   0.86099    0.000
 5028.00    0.82211   0.87472    0.000
 5029.00    0.92081   0.89960    0.012
 5030.00    1.09166   0.91307    0.012
 5031.00    1.22357   0.88573    0.012
 5032.00    1.11941   0.83005    0.012
 5033.00    1.01264   0.80374    0.012
 5034.00    0.89341   0.81709    0.012
 5035.00    0.78139   0.81126    0.012
 5036.00    0.69742   0.76407    0.012
 5037.00    0.65996   0.70716    0.012
 5038.00    0.77338   0.69378    0.012
 5039.00    0.87912   0.75392    0.012
 5040.00    0.96376   0.83333    0.012
 5041.00    1.02682   0.88166    0.012
 5042.00    1.03911   0.91040    0.012
 5043.00    1.04161   0.91585    0.012
 5044.00    1.02422   0.87969    0.012
 5045.00    1.01028   0.82448    0.012
 5046.00    1.00242   0.79404    0.012
 5047.00    0.95829   0.79293    0.012
 5048.00    0.85800   0.79860    0.012
 5049.00    0.81180   0.81286    0.012
 5050.00    0.83914   0.84354    0.012
 5051.00    0.82813   0.87229    0.012
 5052.00    0.77121   0.88197    0.012
 5053.00    0.72967   0.88026    0.012
 5054.00    0.70435   0.88437    0.012
 5055.00    0.73907   0.89335    0.012
 5056.00    0.82968   0.89897    0.012
 5057.00    0.94974   0.90815    0.012
 5058.00    1.09397   0.91979    0.012
 5059.00    1.05860   0.91355    0.012
 5060.00    0.89351   0.87347    0.012
 5061.00    0.78807   0.81770    0.012
 5062.00    0.72047   0.79720    0.012
 5063.00    0.75304   0.81531    0.012
 5064.00    0.84116   0.82221    0.012
 5065.00    0.87181   0.81669    0.012
 5066.00    0.87475   0.83147    0.012
 5067.00    0.79059   0.84879    0.012
 5068.00    0.67018   0.83321    0.012
 5069.00    0.66125   0.81239    0.012
 5070.00    0.69202   0.82257    0.012
 5071.00    0.61919   0.83506    0.012
 5072.00    0.51522   0.82985    0.012
 5073.00    0.62075   0.83279    0.012
 5074.00    0.77861   0.83701    0.012
 5075.00    0.82681   0.79952    0.012
 5076.00    0.85280   0.73753    0.012
 5077.00    0.97377   0.72087    0.012
 5078.00    1.10983   0.75306    0.012
 5079.00    1.08365   0.77897    0.012
 5080.00    1.03827   0.78674    0.012
 5081.00    0.97018   0.80519    0.012
 5082.00    0.90026   0.83118    0.012
 5083.00    0.89965   0.83961    0.012
 5084.00    0.90216   0.83537    0.012
 5085.00    0.91227   0.83925    0.011
 5086.00    0.92014   0.84847    0.011
 5087.00    0.81148   0.85153    0.011
 5088.00    0.71026   0.85761    0.011
 5089.00    0.74720   0.87477    0.011
 5090.00    0.77745   0.88700    0.011
 5091.00    0.73315   0.87862    0.011
 5092.00    0.70070   0.85414    0.011
 5093.00    0.76057   0.82249    0.011
 5094.00    0.81328   0.78511    0.011
 5095.00    0.82386   0.74965    0.011
 5096.00    0.82461   0.74491    0.011
 5097.00    0.77952   0.78388    0.012
 5098.00    0.76459   0.82889    0.012
 5099.00    0.86467   0.84379    0.011
 5100.00    0.93675   0.83441    0.011
 5101.00    0.91980   0.82347    0.011
 5102.00    0.90402   0.81713    0.011
 5103.00    0.89142   0.80305    0.011
 5104.00    0.85475   0.78438    0.011
 5105.00    0.76239   0.77879    0.011
 5106.00    0.70578   0.77829    0.011
 5107.00    0.72069   0.78246    0.011
 5108.00    0.74807   0.80629    0.011
 5109.00    0.79717   0.83035    0.011
 5110.00    0.76522   0.83989    0.011
 5111.00    0.60967   0.84514    0.012
 5112.00    0.57981   0.85038    0.012
 5113.00    0.71840   0.86196    0.012
 5114.00    0.84410   0.87674    0.012
 5115.00    0.95460   0.87737    0.012
 5116.00    1.04483   0.86133    0.012
 5117.00    1.11398   0.83849    0.012
 5118.00    1.09693   0.81520    0.012
 5119.00    1.00078   0.78645    0.012
 5120.00    0.98431   0.75527    0.012
 5121.00    1.03230   0.74478    0.012
 5122.00    0.92325   0.75657    0.012
 5123.00    0.70242   0.76702    0.012
 5124.00    0.61191   0.76600    0.012
 5125.00    0.60280   0.76065    0.012
 5126.00    0.67726   0.76237    0.012
 5127.00    0.79734   0.77853    0.012
 5128.00    0.87696   0.79833    0.012
 5129.00    0.93738   0.80521    0.012
 5130.00    0.81728   0.80738    0.012
 5131.00    0.62329   0.82320    0.012
 5132.00    0.64374   0.83545    0.012
 5133.00    0.73915   0.81617    0.012
 5134.00    0.69208   0.78295    0.012
 5135.00    0.60300   0.75840    0.012
 5136.00    0.64388   0.75719    0.012
 5137.00    0.71651   0.78168    0.012
 5138.00    0.69524   0.78355    0.012
 5139.00    0.65542   0.75930    0.012
 5140.00    0.70463   0.76512    0.012
 5141.00    0.76757   0.78719    0.012
 5142.00    0.66366   0.78070    0.012
 5143.00    0.54076   0.76007    0.012
 5144.00    0.74917   0.75443    0.012
 5145.00    0.98286   0.76876    0.012
 5146.00    0.84720   0.78394    0.012
 5147.00    0.69634   0.77815    0.012
 5148.00    0.76106   0.76255    0.012
 5149.00    0.82468   0.75309    0.012
 5150.00    0.76781   0.74848    0.012
 5151.00    0.71806   0.75704    0.012
 5152.00    0.79165   0.78404    0.012
 5153.00    0.86119   0.81559    0.012
 5154.00    0.88765   0.83680    0.012
 5155.00    0.90309   0.84051    0.012
 5156.00    0.83558   0.83762    0.012
 5157.00    0.77242   0.83523    0.012
 5158.00    0.73421   0.81857    0.012
 5159.00    0.70120   0.79610    0.012
 5160.00    0.69192   0.78447    0.012
 5161.00    0.69369   0.75729    0.011
 5162.00    0.73667   0.69163    0.011
 5163.00    0.74548   0.60889    0.011
 5164.00    0.64767   0.55718    0.011
 5165.00    0.58061   0.57442    0.011
 5166.00    0.59500   0.63811    0.011
 5167.00    0.60921   0.66582    0.011
 5168.00    0.62297   0.61314    0.011
 5169.00    0.63796   0.55708    0.011
 5170.00    0.65533   0.59372    0.011
 5171.00    0.67420   0.69351    0.011
 5172.00    0.69563   0.76259    0.011
 5173.00    0.69301   0.78219    0.011
 5174.00    0.65424   0.78969    0.011
 5175.00    0.59339   0.79415    0.011
 5176.00    0.50340   0.78508    0.011
 5177.00    0.43333   0.76089    0.011
 5178.00    0.38644   0.70953    0.011
 5179.00    0.43243   0.62134    0.011
 5180.00    0.57369   0.55292    0.011
 5181.00    0.59886   0.58284    0.011
 5182.00    0.51897   0.68212    0.011
 5183.00    0.58188   0.75803    0.011
 5184.00    0.75867   0.77802    0.011
 5185.00    0.71821   0.77892    0.011
 5186.00    0.52533   0.79371    0.011
 5187.00    0.54597   0.78450    0.011
 5188.00    0.69800   0.72802    0.011
 5189.00    0.73138   0.69446    0.011
 5190.00    0.70097   0.71841    0.000
 5191.00    0.70870   0.74135    0.000
 5192.00    0.73424   0.74180    0.000
 5193.00    0.70360   0.75183    0.000
 5194.00    0.65036   0.77346    0.000
 5195.00    0.65450   0.79448    0.000
 5196.00    0.67834   0.81056    0.000
 5197.00    0.74446   0.81360    0.000
 5198.00    0.82280   0.80410    0.000
 5199.00    0.80597   0.79048    0.000
 5200.00    0.76642   0.76396    0.000
 5201.00    0.71870   0.71446    0.000
 5202.00    0.66941   0.67583    0.000
 5203.00    0.71680   0.67504    0.000
 5204.00    0.77864   0.67816    0.000
 5205.00    0.66768   0.67381    0.000
 5206.00    0.53780   0.69479    0.000
 5207.00    0.59428   0.73807    0.000
 5208.00    0.66422   0.78316    0.000
 5209.00    0.62128   0.81893    0.000
 5210.00    0.57412   0.82748    0.000
 5211.00    0.65124   0.80053    0.012
 5212.00    0.72727   0.76263    0.011
 5213.00    0.74287   0.75179    0.012
 5214.00    0.75747   0.77570    0.012
 5215.00    0.75579   0.81198    0.012
 5216.00    0.74935   0.83625    0.012
 5217.00    0.69443   0.84509    0.012
 5218.00    0.65576   0.84492    0.011
 5219.00    0.73537   0.83027    0.012
 5220.00    0.79993   0.79659    0.012
 5221.00    0.78069   0.74768    0.012
 5222.00    0.77870   0.68853    0.012
 5223.00    0.85343   0.64533    0.012
 5224.00    0.88817   0.66710    0.011
 5225.00    0.77682   0.74174    0.011
 5226.00    0.69614   0.79887    0.011
 5227.00    0.70934   0.81878    0.011
 5228.00    0.72077   0.80841    0.011
 5229.00    0.72757   0.77051    0.011
 5230.00    0.73795   0.74298    0.011
 5231.00    0.75634   0.75060    0.011
 5232.00    0.75296   0.78147    0.011
 5233.00    0.70736   0.81771    0.011
 5234.00    0.68615   0.83972    0.011
 5235.00    0.70617   0.84201    0.011
 5236.00    0.70442   0.83689    0.011
 5237.00    0.67043   0.83668    0.011
 5238.00    0.68534   0.83631    0.011
 5239.00    0.76391   0.83061    0.011
 5240.00    0.84606   0.83706    0.011
 5241.00    0.93232   0.85387    0.011
 5242.00    0.95981   0.84180    0.011
 5243.00    0.92786   0.79618    0.011
 5244.00    0.86768   0.76941    0.011
 5245.00    0.78231   0.77496    0.011
 5246.00    0.80042   0.77008    0.011
 5247.00    0.89988   0.75784    0.011
 5248.00    0.86050   0.77167    0.011
 5249.00    0.72513   0.79592    0.011
 5250.00    0.55647   0.79615    0.011
 5251.00    0.36763   0.77629    0.011
 5252.00    0.40261   0.77851    0.011
 5253.00    0.55602   0.81785    0.011
 5254.00    0.58544   0.85757    0.011
 5255.00    0.55791   0.87039    0.011
 5256.00    0.63042   0.85621    0.011
 5257.00    0.74247   0.82030    0.011
 5258.00    0.67612   0.76903    0.011
 5259.00    0.54967   0.71614    0.011
 5260.00    0.56633   0.67474    0.011
 5261.00    0.62351   0.64543    0.011
 5262.00    0.65372   0.63407    0.012
 5263.00    0.67764   0.66059    0.012
 5264.00    0.73362   0.69421    0.012
 5265.00    0.79560   0.66473    0.012
 5266.00    0.81551   0.60761    0.012
 5267.00    0.82933   0.62606    0.012
 5268.00    0.86944   0.70459    0.012
 5269.00    0.91232   0.75336    0.013
 5270.00    0.91205   0.75572    0.012
 5271.00    0.90883   0.73895    0.012
 5272.00    0.66856   0.73461    0.012
 5273.00    0.42034   0.77360    0.012
 5274.00    0.61185   0.82875    0.012
 5275.00    0.79881   0.84855    0.012
 5276.00    0.82451   0.82942    0.012
 5277.00    0.84642   0.79837    0.012
 5278.00    0.81074   0.77337    0.012
 5279.00    0.77689   0.75292    0.012
 5280.00    0.76091   0.74261    0.012
 5281.00    0.74598   0.77071    0.012
 5282.00    0.73847   0.83066    0.012
 5283.00    0.74381   0.87066    0.011
 5284.00    0.81883   0.87101    0.011
 5285.00    0.87387   0.86123    0.011
 5286.00    0.84204   0.86609    0.011
 5287.00    0.81293   0.87655    0.011
 5288.00    0.79354   0.87341    0.011
 5289.00    0.81504   0.85735    0.011
 5290.00    0.95935   0.84640    0.011
 5291.00    1.02012   0.84177    0.011
 5292.00    0.86727   0.81772    0.011
 5293.00    0.71709   0.76433    0.011
 5294.00    0.57282   0.71932    0.011
 5295.00    0.49175   0.72907    0.011
 5296.00    0.53129   0.77307    0.011
 5297.00    0.61656   0.79301    0.011
 5298.00    0.77797   0.78868    0.011
 5299.00    0.90072   0.80019    0.011
 5300.00    0.96704   0.83460    0.011
 5301.00    0.93214   0.86445    0.011
 5302.00    0.76736   0.86806    0.011
 5303.00    0.71543   0.85086    0.011
 5304.00    0.79110   0.83992    0.011
 5305.00    0.80015   0.85120    0.011
 5306.00    0.74275   0.86839    0.011
 5307.00    0.66823   0.87256    0.011
 5308.00    0.57865   0.86498    0.011
 5309.00    0.62923   0.85275    0.011
 5310.00    0.78845   0.84335    0.011
 5311.00    0.79286   0.83690    0.011
 5312.00    0.69181   0.82084    0.011
 5313.00    0.59540   0.80443    0.011
 5314.00    0.50177   0.80946    0.011
 5315.00    0.52471   0.82395    0.011
 5316.00    0.60839   0.82955    0.011
 5317.00    0.67192   0.82947    0.011
 5318.00    0.72634   0.82537    0.011
 5319.00    0.84938   0.80652    0.011
 5320.00    0.99907   0.77291    0.011
 5321.00    0.92005   0.75720    0.011
 5322.00    0.76542   0.76438    0.011
 5323.00    0.60650   0.73803    0.011
 5324.00    0.44640   0.66341    0.011
 5325.00    0.61272   0.62893    0.011
 5326.00    0.85348   0.68651    0.011
 5327.00    0.79882   0.76745    0.011
 5328.00    0.69024   0.80164    0.012
 5329.00    0.79528   0.80001    0.011
 5330.00    0.93028   0.80712    0.011
 5331.00    0.86706   0.82794    0.011
 5332.00    0.78384   0.83510    0.011
 5333.00    0.71411   0.82510    0.011
 5334.00    0.64524   0.81572    0.011
 5335.00    0.73604   0.79858    0.011
 5336.00    0.83124   0.75880    0.011
 5337.00    0.78423   0.73286    0.011
 5338.00    0.74027   0.75805    0.011
 5339.00    0.78376   0.80183    0.011
 5340.00    0.82583   0.82199    0.011
 5341.00    0.84745   0.81375    0.011
 5342.00    0.86726   0.79592    0.011
 5343.00    0.87004   0.79218    0.011
 5344.00    0.85714   0.78986    0.011
 5345.00    0.73739   0.77394    0.011
 5346.00    0.64891   0.77289    0.011
 5347.00    0.72559   0.80277    0.011
 5348.00    0.78317   0.83384    0.011
 5349.00    0.75965   0.84301    0.010
 5350.00    0.73645   0.84868    0.010
 5351.00    0.71432   0.86634    0.010
 5352.00    0.72504   0.88031    0.010
 5353.00    0.83256   0.88262    0.010
 5354.00    0.88067   0.88128    0.010
 5355.00    0.77952   0.87982    0.010
 5356.00    0.71195   0.87458    0.010
 5357.00    0.71707   0.85808    0.010
 5358.00    0.72378   0.83263    0.010
 5359.00    0.73350   0.81557    0.010
 5360.00    0.72942   0.80787    0.010
 5361.00    0.70271   0.79697    0.010
 5362.00    0.63863   0.79142    0.010
 5363.00    0.52078   0.79365    0.010
 5364.00    0.51796   0.79293    0.010
 5365.00    0.66064   0.77768    0.010
 5366.00    0.73878   0.73749    0.010
 5367.00    0.74496   0.69663    0.010
 5368.00    0.73367   0.70236   -2.000
 5369.00    0.70521   0.75896   -2.000
 5370.00    0.76531   0.81673   -2.000
 5371.00    0.90223   0.84577   -2.000
 5372.00    0.90521   0.84847   -2.000
 5373.00    0.80588   0.83714   -2.000
 5374.00    0.82011   0.83274   -2.000
 5375.00    0.91060   0.83701   -2.000
 5376.00    0.87493   0.83133   -2.000
 5377.00    0.76507   0.81785   -2.000
 5378.00    0.60595   0.80763   -2.000
 5379.00    0.42158   0.79788   -2.000
 5380.00    0.38556   0.79919   -2.000
 5381.00    0.41545   0.81851   -2.000
 5382.00    0.58615   0.83287   -2.000
 5383.00    0.81059   0.83148    0.011
 5384.00    0.79493   0.82322    0.011
 5385.00    0.70139   0.80744    0.011
 5386.00    0.76925   0.78682    0.011
 5387.00    0.88093   0.77379    0.011
 5388.00    0.83404   0.76987    0.011
 5389.00    0.75182   0.76879    0.011
 5390.00    0.70512   0.77020    0.011
 5391.00    0.66473   0.77189    0.010
 5392.00    0.66079   0.75358    0.010
 5393.00    0.66179   0.71750    0.011
 5394.00    0.59660   0.71520    0.010
 5395.00    0.52500   0.75339    0.010
 5396.00    0.55960   0.77942    0.010
 5397.00    0.60058   0.78391    0.010
 5398.00    0.61727   0.79085    0.010
 5399.00    0.63352   0.78370    0.010
 5400.00    0.68108   0.74075    0.010
 5401.00    0.72587   0.68853    0.010
 5402.00    0.69912   0.67066    0.010
 5403.00    0.67938   0.69963    0.010
 5404.00    0.75460   0.73868    0.010
 5405.00    0.81770   0.74211    0.010
 5406.00    0.77178   0.72137    0.010
 5407.00    0.71810   0.72839    0.010
 5408.00    0.61309   0.76848    0.010
 5409.00    0.54173   0.79874    0.010
 5410.00    0.64342   0.79816    0.010
 5411.00    0.75083   0.78896    0.010
 5412.00    0.88196   0.79990    0.010
 5413.00    0.95077   0.82306    0.010
 5414.00    0.80552   0.83072    0.010
 5415.00    0.69253   0.81847    0.010
 5416.00    0.67289   0.79943    0.010
 5417.00    0.65114   0.79062    0.010
 5418.00    0.62418   0.79938    0.010
 5419.00    0.61146   0.79730    0.010
 5420.00    0.62905   0.77082    0.010
 5421.00    0.62798   0.76337    0.010
 5422.00    0.59238   0.79574    0.010
 5423.00    0.60814   0.83084    0.010
 5424.00    0.70686   0.82338    0.010
 5425.00    0.72919   0.76651    0.010
 5426.00    0.64322   0.72473    0.010
 5427.00    0.63640   0.74545    0.010
 5428.00    0.72828   0.77222    0.010
 5429.00    0.78731   0.75971    0.010
 5430.00    0.81024   0.73304    0.010
 5431.00    0.81361   0.72213    0.010
 5432.00    0.79802   0.73460    0.010
 5433.00    0.75593   0.76332    0.010
 5434.00    0.69120   0.79978    0.010
 5435.00    0.63261   0.83075    0.010
 5436.00    0.57864   0.84642    0.010
 5437.00    0.58520   0.84926    0.010
 5438.00    0.63180   0.84800    0.010
 5439.00    0.71101   0.84581    0.010
 5440.00    0.80911   0.83097    0.010
 5441.00    0.82137   0.79242    0.010
 5442.00    0.79031   0.73697    0.010
 5443.00    0.79318   0.70238    0.010
 5444.00    0.81087   0.72528    0.010
 5445.00    0.74918   0.77729    0.010
 5446.00    0.65772   0.81004    0.010
 5447.00    0.61981   0.81600    0.010
 5448.00    0.59894   0.80966    0.010
 5449.00    0.65421   0.79729    0.010
 5450.00    0.72973   0.76914    0.010
 5451.00    0.69809   0.72442    0.010
 5452.00    0.64315   0.70510    0.010
 5453.00    0.61156   0.74070    0.010
 5454.00    0.58400   0.79294    0.010
 5455.00    0.71273   0.81823    0.010
 5456.00    0.86195   0.81322    0.010
 5457.00    0.85804   0.79423    0.010
 5458.00    0.83999   0.76784    0.010
 5459.00    0.77319   0.74124    0.010
 5460.00    0.70365   0.74351    0.010
 5461.00    0.72933   0.77090    0.010
 5462.00    0.75645   0.78490    0.010
 5463.00    0.71175   0.78567    0.010
 5464.00    0.66989   0.79250    0.010
 5465.00    0.69475   0.79528    0.010
 5466.00    0.72134   0.78437    0.010
 5467.00    0.77027   0.77641    0.010
 5468.00    0.80969   0.77549    0.010
 5469.00    0.76686   0.76413    0.010
 5470.00    0.73261   0.75252    0.010
 5471.00    0.75340   0.74588    0.010
 5472.00    0.76419   0.71510    0.010
 5473.00    0.72488   0.68352    0.010
 5474.00    0.70211   0.70519    0.010
 5475.00    0.74645   0.75484    0.010
 5476.00    0.77665   0.76826    0.010
 5477.00    0.75927   0.74236    0.010
 5478.00    0.74986   0.72760   -2.000
 5479.00    0.76306   0.74427   -2.000
 5480.00    0.82251   0.77459   -2.000
 5481.00    0.99424   0.80046   -2.000
 5482.00    1.04030   0.80151   -2.000
 5483.00    0.82310   0.77366   -2.000
 5484.00    0.78923   0.75194   -2.000
 5485.00    1.08920   0.75819   -2.000
 5486.00    1.35009   0.77024   -2.000
 5487.00    1.54877   0.77909   -2.000
 5488.00    1.76318   0.78558   -2.000
 5489.00    1.99958   0.77784   -2.000
 5490.00    1.92941   0.76851   -2.000
 5491.00    1.48234   0.77565   -2.000
 5492.00    1.05359   0.77892   -2.000
 5493.00    0.64468   0.76202   -2.000
 5494.00    0.46964   0.75802   -2.000
 5495.00    0.51815   0.78290   -2.000
 5496.00    0.59195   0.79503   -2.000
 5497.00    0.68706   0.77229   -2.000
 5498.00    0.68534   0.74678   -2.000
 5499.00    0.61175   0.74535   -2.000
 5500.00    0.57816   0.75742   -2.000
 5501.00    0.57063   0.75905   -2.000
 5502.00    0.57341   0.74045    0.009
 5503.00    0.58207   0.73195    0.009
 5504.00    0.58732   0.75157    0.009
 5505.00    0.59089   0.76843    0.009
 5506.00    0.62464   0.76672    0.009
 5507.00    0.67137   0.75381    0.009
 5508.00    0.68160   0.73215    0.009
 5509.00    0.67839   0.71855    0.009
 5510.00    0.66061   0.72434    0.009
 5511.00    0.63828   0.73905    0.009
 5512.00    0.65395   0.75247    0.009
 5513.00    0.67950   0.76519    0.009
 5514.00    0.63511   0.78476    0.009
 5515.00    0.57588   0.80079    0.009
 5516.00    0.65821   0.80075    0.010
 5517.00    0.76432   0.79371    0.010
 5518.00    0.67443   0.79033    0.010
 5519.00    0.55973   0.79108    0.010
 5520.00    0.57663   0.78963    0.010
 5521.00    0.60513   0.77974    0.010
 5522.00    0.59557   0.76227    0.010
 5523.00    0.58403   0.73601    0.010
 5524.00    0.60211   0.70960    0.010
 5525.00    0.62133   0.71336    0.009
 5526.00    0.68539   0.74888    0.010
 5527.00    0.74719   0.77704    0.010
 5528.00    0.76028   0.78062    0.010
 5529.00    0.77077   0.77288    0.010
 5530.00    0.74950   0.76127    0.010
 5531.00    0.72841   0.74890    0.010
 5532.00    0.70868   0.75218    0.010
 5533.00    0.69629   0.76495    0.010
 5534.00    0.72948   0.76963    0.010
 5535.00    0.76285   0.77495    0.010
 5536.00    0.79714   0.78841    0.010
 5537.00    0.80162   0.79912    0.010
 5538.00    0.68779   0.79335    0.010
 5539.00    0.57798   0.77465    0.009
 5540.00    0.48144   0.76459    0.009
 5541.00    0.44669   0.76686    0.010
 5542.00    0.58431   0.76704    0.009
 5543.00    0.68589   0.77186    0.009
 5544.00    0.70146   0.78980    0.009
 5545.00    0.68440   0.80454    0.009
 5546.00    0.60010   0.80808    0.009
 5547.00    0.55767   0.80659    0.009
 5548.00    0.59031   0.79991    0.009
 5549.00    0.64110   0.78646    0.009
 5550.00    0.72037   0.77191    0.009
 5551.00    0.73453   0.76843    0.009
 5552.00    0.65905   0.77572    0.009
 5553.00    0.63702   0.77872    0.009
 5554.00    0.67978   0.77564    0.009
 5555.00    0.71039   0.77672    0.009
 5556.00    0.72802   0.77810    0.009
 5557.00    0.72948   0.77337    0.009
 5558.00    0.71570   0.76192    0.009
 5559.00    0.68098   0.75138    0.009
 5560.00    0.62885   0.75197    0.009
 5561.00    0.59379   0.75217    0.009
 5562.00    0.57124   0.74385    0.009
 5563.00    0.60358   0.74145    0.009
 5564.00    0.67119   0.74532    0.009
 5565.00    0.70072   0.74169    0.009
 5566.00    0.70885   0.74193    0.009
 5567.00    0.68318   0.75531    0.009
 5568.00    0.64099   0.74978    0.009
 5569.00    0.60305   0.73197    0.009
 5570.00    0.56690   0.74340    0.009
 5571.00    0.52457   0.76323    0.009
 5572.00    0.48002   0.76332    0.009
 5573.00    0.52891   0.76472    0.010
 5574.00    0.60640   0.76989    0.010
 5575.00    0.66144   0.77066    0.010
 5576.00    0.71078   0.77468    0.009
 5577.00    0.73538   0.77337    0.009
 5578.00    0.75486   0.76375    0.009
 5579.00    0.77431   0.76175    0.009
 5580.00    0.79376   0.76218    0.010
 5581.00    0.80158   0.74874    0.010
 5582.00    0.80798   0.71768    0.010
 5583.00    0.70237   0.68177    0.009
 5584.00    0.58735   0.66319    0.009
 5585.00    0.57046   0.66670    0.009
 5586.00    0.55832   0.68752    0.009
 5587.00    0.52842   0.71389    0.009
 5588.00    0.50015   0.72744    0.009
 5589.00    0.58480   0.72519    0.009
 5590.00    0.66653   0.71613    0.009
 5591.00    0.69018   0.72565    0.009
 5592.00    0.71250   0.75735    0.009
 5593.00    0.71947   0.76718    0.009
 5594.00    0.72583   0.74079    0.009
 5595.00    0.72726   0.71951    0.009
 5596.00    0.72670   0.71568    0.009
 5597.00    0.71409   0.70655    0.009
 5598.00    0.69742   0.69310    0.010
 5599.00    0.66132   0.69527    0.009
 5600.00    0.63181   0.72519    0.009
 5601.00    0.62790   0.76417    0.010
 5602.00    0.63072   0.78817    0.010
 5603.00    0.65530   0.79491    0.009
 5604.00    0.67062   0.79163    0.009
 5605.00    0.66055   0.78674    0.009
 5606.00    0.65142   0.78447    0.009
 5607.00    0.64448   0.78826    0.009
 5608.00    0.64167   0.79569    0.009
 5609.00    0.64723   0.79324    0.009
 5610.00    0.64562   0.75772    0.009
 5611.00    0.63134   0.69750    0.009
 5612.00    0.64689   0.67374    0.009
 5613.00    0.70854   0.70470    0.009
 5614.00    0.75730   0.73581    0.009
 5615.00    0.78859   0.73956    0.009
 5616.00    0.81375   0.73740    0.009
 5617.00    0.83158   0.74799    0.009
 5618.00    0.81482   0.76143    0.009
 5619.00    0.76160   0.75262    0.009
 5620.00    0.74348   0.71664    0.009
 5621.00    0.75799   0.69235    0.009
 5622.00    0.73076   0.70620    0.009
 5623.00    0.66935   0.73065    0.009
 5624.00    0.65405   0.74517    0.009
 5625.00    0.67201   0.75998    0.009
 5626.00    0.65942   0.77469    0.009
 5627.00    0.62748   0.78026    0.009
 5628.00    0.63424   0.77707    0.009
 5629.00    0.66241   0.76867    0.009
 5630.00    0.67584   0.75772    0.009
 5631.00    0.68218   0.74840    0.009
 5632.00    0.65385   0.73789    0.009
 5633.00    0.61112   0.72560    0.009
 5634.00    0.55714   0.72333    0.009
 5635.00    0.49916   0.73420    0.009
 5636.00    0.49919   0.73806    0.009
 5637.00    0.51662   0.72618    0.009
 5638.00    0.49735   0.72125    0.009
 5639.00    0.46895   0.72978    0.009
 5640.00    0.49441   0.73708    0.009
 5641.00    0.53076   0.74241    0.009
 5642.00    0.54754   0.74836    0.009
 5643.00    0.56123   0.75461    0.009
 5644.00    0.55413   0.75542    0.009
 5645.00    0.54458   0.74747    0.009
 5646.00    0.56537   0.74123    0.009
 5647.00    0.58858   0.74863    0.009
 5648.00    0.54568   0.76213    0.009
 5649.00    0.49983   0.76402    0.009
 5650.00    0.57571   0.74589    0.009
 5651.00    0.65153   0.72833    0.009
 5652.00    0.65736   0.73305    0.009
 5653.00    0.66058   0.72621    0.009
 5654.00    0.61582   0.68527    0.009
 5655.00    0.57695   0.66703    0.009
 5656.00    0.60344   0.69812    0.009
 5657.00    0.63005   0.72069    0.009
 5658.00    0.65757   0.70979    0.009
 5659.00    0.68454   0.70363    0.009
 5660.00    0.70831   0.72381    0.009
 5661.00    0.73015   0.74695    0.009
 5662.00    0.74300   0.75003    0.009
 5663.00    0.73474   0.73514    0.009
 5664.00    0.64622   0.72379    0.009
 5665.00    0.58425   0.72556    0.009
 5666.00    0.60651   0.73234    0.009
 5667.00    0.62244   0.73987    0.009
 5668.00    0.62137   0.75440    0.009
 5669.00    0.62956   0.77246    0.009
 5670.00    0.65914   0.77673    0.009
 5671.00    0.70065   0.76629    0.009
 5672.00    0.76600   0.76369    0.009
 5673.00    0.84000   0.77148    0.009
 5674.00    0.92907   0.76969    0.009
 5675.00    0.97360   0.75927    0.009
 5676.00    0.95036   0.75571    0.009
 5677.00    0.87716   0.75099    0.009
 5678.00    0.73717   0.72985    0.009
 5679.00    0.62055   0.71357    0.009
 5680.00    0.53146   0.72114    0.009
 5681.00    0.49196   0.73583    0.009
 5682.00    0.50396   0.73393    0.009
 5683.00    0.56703   0.71799    0.009
 5684.00    0.67689   0.70871    0.009
 5685.00    0.70063   0.71759    0.009
 5686.00    0.65481   0.73671    0.009
 5687.00    0.60980   0.75088    0.009
 5688.00    0.56536   0.76257    0.009
 5689.00    0.58778   0.76807    0.009
 5690.00    0.65189   0.76272    0.009
 5691.00    0.68208   0.75714    0.009
 5692.00    0.69380   0.75900    0.009
 5693.00    0.65373   0.75693    0.009
 5694.00    0.58915   0.74205    0.009
 5695.00    0.56961   0.73147    0.009
 5696.00    0.56845   0.72686    0.009
 5697.00    0.64039   0.71298    0.009
 5698.00    0.73783   0.70440    0.009
 5699.00    0.70095   0.71506    0.009
 5700.00    0.62457   0.73107    0.009
 5701.00    0.60842   0.73061    0.009
 5702.00    0.60695   0.71241    0.009
 5703.00    0.59948   0.69538    0.009
 5704.00    0.59083   0.68116    0.009
 5705.00    0.58790   0.66826    0.009
 5706.00    0.58585   0.67161    0.009
 5707.00    0.61693   0.67870    0.009
 5708.00    0.65176   0.68368    0.009
 5709.00    0.59485   0.70734    0.009
 5710.00    0.53099   0.73281    0.009
 5711.00    0.54550   0.74286    0.009
 5712.00    0.56319   0.74926    0.009
 5713.00    0.60557   0.75142    0.009
 5714.00    0.64633   0.74935    0.009
 5715.00    0.61192   0.75416    0.009
 5716.00    0.58308   0.76067    0.009
 5717.00    0.64978   0.76595    0.009
 5718.00    0.70993   0.77383    0.009
 5719.00    0.70072   0.77911    0.009
 5720.00    0.68752   0.77742    0.009
 5721.00    0.64448   0.77284    0.009
 5722.00    0.60518   0.76099    0.009
 5723.00    0.58730   0.74323    0.009
 5724.00    0.56899   0.74254    0.009
 5725.00    0.54876   0.75838    0.009
 5726.00    0.54859   0.76171    0.009
 5727.00    0.62303   0.74382    0.009
 5728.00    0.67909   0.73325    0.009
 5729.00    0.67792   0.74646    0.009
 5730.00    0.66498   0.76392    0.009
 5731.00    0.62097   0.76972    0.009
 5732.00    0.58175   0.76571    0.009
 5733.00    0.55343   0.75824    0.009
 5734.00    0.54431   0.75478    0.009
 5735.00    0.57295   0.75529    0.009
 5736.00    0.59613   0.75656    0.009
 5737.00    0.61000   0.75585    0.009
 5738.00    0.59745   0.75055    0.009
 5739.00    0.54529   0.74551    0.009
 5740.00    0.53876   0.75179    0.000
 5741.00    0.59240   0.76581    0.000
 5742.00    0.57753   0.77130    0.000
 5743.00    0.48310   0.75486    0.000
 5744.00    0.45482   0.73262    0.000
 5745.00    0.49428   0.73438    0.000
 5746.00    0.54232   0.75476    0.000
 5747.00    0.59813   0.76230    0.000
 5748.00    0.60427   0.74343    0.000
 5749.00    0.57088   0.71268    0.000
 5750.00    0.58169   0.69684    0.000
 5751.00    0.62346   0.71325    0.000
 5752.00    0.69616   0.74511    0.000
 5753.00    0.78787   0.76529    0.000
 5754.00    0.80995   0.76990    0.000
 5755.00    0.79468   0.76088    0.000
 5756.00    0.72365   0.74221    0.000
 5757.00    0.62666   0.72123    0.000
 5758.00    0.61242   0.70305    0.000
 5759.00    0.63141   0.70103    0.000
 5760.00    0.61798   0.72786    0.000
 5761.00    0.59345   0.75752    0.000
 5762.00    0.60143   0.76793    0.000
 5763.00    0.61876   0.76930    0.000
 5764.00    0.63820   0.76846    0.000
 5765.00    0.65814   0.76413    0.000
 5766.00    0.70363   0.75929    0.000
 5767.00    0.75402   0.75365    0.000
 5768.00    0.76756   0.74509    0.000
 5769.00    0.77561   0.74244    0.000
 5770.00    0.76539   0.74081    0.000
 5771.00    0.75318   0.73888    0.000
 5772.00    0.68505   0.74572    0.000
 5773.00    0.61291   0.75457    0.000
 5774.00    0.62204   0.75484    0.000
 5775.00    0.63417   0.74365    0.000
 5776.00    0.68281   0.71547    0.000
 5777.00    0.72857   0.68244    0.000
 5778.00    0.66573   0.67264    0.000
 5779.00    0.60730   0.68327    0.000
 5780.00    0.61970   0.68484    0.000
 5781.00    0.63491   0.67383    0.000
 5782.00    0.67859   0.68092    0.000
 5783.00    0.71333   0.70837    0.000
 5784.00    0.68326   0.72869    0.000
 5785.00    0.65883   0.73735    0.000
 5786.00    0.66578   0.73140    0.000
 5787.00    0.67600   0.71810    0.000
 5788.00    0.70077   0.72108    0.000
 5789.00    0.71693   0.73412    0.000
 5790.00    0.70172   0.74604    0.000
 5791.00    0.65989   0.75713   -2.000
 5792.00    0.53679   0.75506   -2.000
 5793.00    0.38353   0.73423   -2.000
 5794.00    0.15196   0.71934   -2.000
 5795.00   -0.02860   0.73395   -2.000
 5796.00   -0.09532   0.75894   -2.000
 5797.00   -0.05431   0.77138   -2.000
 5798.00    0.19508   0.77377   -2.000
 5799.00    0.39971   0.76462   -2.000
 5800.00    0.52884   0.74296   -2.000
 5801.00    0.61149   0.72839   -2.000
 5802.00    0.62542   0.72823   -2.000
 5803.00    0.60995   0.73528   -2.000
 5804.00    0.55626   0.74128   -2.000
 5805.00    0.55578   0.74354   -2.000
 5806.00    0.61625   0.74847   -2.000
 5807.00    0.69208   0.75452   -2.000
 5808.00    0.78342   0.75458   -2.000
 5809.00    0.79333   0.75223   -2.000
 5810.00    0.73073   0.74643   -2.000
 5811.00    0.68890   0.73213    0.000
 5812.00    0.66337   0.71743    0.000
 5813.00    0.63161   0.72249    0.000
 5814.00    0.59556   0.74472    0.000
 5815.00    0.56388   0.76110    0.000
 5816.00    0.53487   0.76527    0.000
 5817.00    0.51652   0.76447    0.000
 5818.00    0.50381   0.75954    0.000
 5819.00    0.56105   0.75362    0.000
 5820.00    0.65036   0.75271    0.000
 5821.00    0.68145   0.75679    0.000
 5822.00    0.68957   0.75863    0.000
 5823.00    0.71655   0.75674    0.000
 5824.00    0.74986   0.75630    0.000
 5825.00    0.74425   0.76032    0.000
 5826.00    0.72766   0.76216    0.000
 5827.00    0.74463   0.75855    0.000
 5828.00    0.76942   0.75665    0.000
 5829.00    0.81311   0.75491    0.000
 5830.00    0.86035   0.74627    0.000
 5831.00    0.73855   0.73934    0.000
 5832.00    0.59237   0.74563    0.000
 5833.00    0.55036   0.75057    0.000
 5834.00    0.51924   0.74319    0.000
 5835.00    0.59129   0.74131    0.000
 5836.00    0.67033   0.75209    0.000
 5837.00    0.74370   0.76194    0.000
 5838.00    0.81688   0.76501    0.000
 5839.00    0.78412   0.76418    0.000
 5840.00    0.75071   0.75953    0.000
 5841.00    0.69889   0.75158    0.000
 5842.00    0.65065   0.74151    0.000
 5843.00    0.65647   0.73179    0.000
 5844.00    0.66215   0.72811    0.000
 5845.00    0.66658   0.73258    0.000
 5846.00    0.66176   0.73772    0.000
 5847.00    0.59204   0.73517    0.000
 5848.00    0.52503   0.72008    0.000
 5849.00    0.47265   0.70098    0.000
 5850.00    0.42018   0.69949    0.000
 5851.00    0.36729   0.71153    0.000
 5852.00    0.33982   0.70692    0.000
 5853.00    0.40303   0.68048    0.000
 5854.00    0.47181   0.66676    0.000
 5855.00    0.55733   0.68285    0.000
 5856.00    0.63717   0.70559    0.000
 5857.00    0.70255   0.71910    0.000
 5858.00    0.73267   0.71569    0.000
 5859.00    0.68538   0.71138    0.000
 5860.00    0.63832   0.71987    0.000
 5861.00    0.59171   0.72618    0.000
 5862.00    0.57017   0.71763    0.000
 5863.00    0.59030   0.70923    0.000
 5864.00    0.60374   0.71786    0.000
 5865.00    0.60746   0.73267    0.000
 5866.00    0.62758   0.74094    0.000
 5867.00    0.66872   0.74044    0.000
 5868.00    0.72128   0.73366    0.000
 5869.00    0.78674   0.72684    0.000
 5870.00    0.81274   0.72934    0.000
 5871.00    0.79948   0.73508    0.000
 5872.00    0.79906   0.73221    0.000
 5873.00    0.80991   0.72542    0.000
 5874.00    0.79728   0.71985    0.000
 5875.00    0.76649   0.71106    0.000
 5876.00    0.74375   0.69959    0.000
 5877.00    0.72648   0.69959    0.000
 5878.00    0.72897   0.70867    0.000
 5879.00    0.74325   0.70703    0.000
 5880.00    0.73002   0.69764    0.000
 5881.00    0.70248   0.69773    0.000
 5882.00    0.62662   0.70136    0.000
 5883.00    0.52896   0.68695    0.000
 5884.00    0.48777   0.63233    0.000
 5885.00    0.46847   0.53281    0.000
 5886.00    0.49139   0.46196    0.000
 5887.00    0.52822   0.49536    0.000
 5888.00    0.53363   0.57347    0.000
 5889.00    0.53036   0.61739    0.000
 5890.00    0.53835   0.61477    0.000
 5891.00    0.54890   0.55678    0.000
 5892.00    0.50631   0.50374    0.000
 5893.00    0.45406   0.54137    0.000
 5894.00    0.42804   0.61675    0.000
 5895.00    0.40568   0.65561    0.000
 5896.00    0.48989   0.67431    0.000
 5897.00    0.58479   0.69194    0.000
 5898.00    0.63462   0.69978    0.000
 5899.00    0.68157   0.70341    0.000
 5900.00    0.65502   0.70542    0.000
 5901.00    0.62642   0.69983    0.008
 5902.00    0.63610   0.69475    0.008
 5903.00    0.64441   0.70082    0.008
 5904.00    0.61380   0.71017    0.008
 5905.00    0.58641   0.71232    0.008
 5906.00    0.60490   0.71213    0.008
 5907.00    0.62143   0.71755    0.008
 5908.00    0.61965   0.71941    0.008
 5909.00    0.61546   0.70420    0.008
 5910.00    0.59491   0.68193    0.008
 5911.00    0.57381   0.67518    0.008
 5912.00    0.54985   0.68080    0.008
 5913.00    0.54446   0.69263    0.008
 5914.00    0.61774   0.70373    0.008
 5915.00    0.68854   0.70895    0.008
 5916.00    0.75070   0.71402    0.008
 5917.00    0.78915   0.71289    0.008
 5918.00    0.75787   0.70560    0.008
 5919.00    0.73151   0.70440    0.008
 5920.00    0.71747   0.70950    0.008
 5921.00    0.70666   0.71477    0.008
 5922.00    0.70285   0.71936    0.008
 5923.00    0.69239   0.71652    0.008
 5924.00    0.66947   0.70543    0.008
 5925.00    0.65221   0.69112    0.008
 5926.00    0.64424   0.68165    0.008
 5927.00    0.64721   0.69332    0.008
 5928.00    0.66589   0.71296    0.008
 5929.00    0.67326   0.71416    0.008
 5930.00    0.66632   0.69733    0.008
 5931.00    0.65444   0.68838    0.008
 5932.00    0.63704   0.70028    0.008
 5933.00    0.63896   0.71257    0.008
 5934.00    0.65985   0.71782    0.008
 5935.00    0.67375   0.72123    0.008
 5936.00    0.68162   0.71376    0.008
 5937.00    0.67604   0.69712    0.008
 5938.00    0.66021   0.69149    0.008
 5939.00    0.61484   0.69855    0.008
 5940.00    0.54967   0.70844    0.008
 5941.00    0.53111   0.71759    0.008
 5942.00    0.53992   0.72192    0.008
 5943.00    0.57670   0.71433    0.008
 5944.00    0.62781   0.69551    0.008
 5945.00    0.64617   0.68300    0.008
 5946.00    0.65001   0.69326    0.008
 5947.00    0.61683   0.70682    0.008
 5948.00    0.56956   0.69757    0.008
 5949.00    0.55212   0.68344    0.008
 5950.00    0.54433   0.69241    0.008
 5951.00    0.57590   0.70527    0.008
 5952.00    0.61814   0.69823    0.008
 5953.00    0.66146   0.68611    0.008
 5954.00    0.70502   0.68689    0.008
 5955.00    0.70907   0.69756    0.008
 5956.00    0.70612   0.70966    0.008
 5957.00    0.68759   0.71903    0.008
 5958.00    0.66695   0.72223    0.008
 5959.00    0.61350   0.72103    0.008
 5960.00    0.55690   0.71829    0.008
 5961.00    0.54997   0.71000    0.008
 5962.00    0.54600   0.70287    0.008
 5963.00    0.58303   0.70904    0.008
 5964.00    0.62077   0.71768    0.008
 5965.00    0.60504   0.72069    0.008
 5966.00    0.58881   0.72426    0.008
 5967.00    0.55983   0.72746    0.008
 5968.00    0.52650   0.72683    0.008
 5969.00    0.43462   0.72436    0.008
 5970.00    0.35357   0.71893    0.008
 5971.00    0.36931   0.70556    0.008
 5972.00    0.39076   0.68879    0.008
 5973.00    0.44979   0.68137    0.008
 5974.00    0.51198   0.68472    0.008
 5975.00    0.59045   0.69498    0.008
 5976.00    0.65473   0.70900    0.008
 5977.00    0.66029   0.71516    0.008
 5978.00    0.65269   0.70769    0.008
 5979.00    0.59998   0.68673    0.008
 5980.00    0.57233   0.66410    0.008
 5981.00    0.61702   0.66496    0.008
 5982.00    0.65623   0.68343    0.008
 5983.00    0.68193   0.69262    0.008
 5984.00    0.68567   0.69671    0.008
 5985.00    0.64271   0.70455    0.008
 5986.00    0.60074   0.70685    0.008
 5987.00    0.56058   0.69780    0.008
 5988.00    0.54443   0.69442    0.008
 5989.00    0.56703   0.70736    0.008
 5990.00    0.58848   0.71901    0.008
 5991.00    0.60830   0.71737    0.008
 5992.00    0.62410   0.70523    0.008
 5993.00    0.63487   0.68889    0.008
 5994.00    0.62758   0.68098    0.008
 5995.00    0.60047   0.68694    0.008
 5996.00    0.59449   0.69744    0.008
 5997.00    0.60897   0.70165    0.008
 5998.00    0.62309   0.69307    0.008
 5999.00    0.63690   0.68352    0.008
 6000.00    0.63722   0.69061    0.008
 6001.00    0.62741   0.69735    0.008
 6002.00    0.62271   0.68917    0.008
 6003.00    0.62139   0.67089    0.008
 6004.00    0.61886   0.65457    0.008
 6005.00    0.61564   0.66589    0.008
 6006.00    0.60083   0.69556    0.008
 6007.00    0.58018   0.70655    0.008
 6008.00    0.55913   0.69231    0.008
 6009.00    0.53791   0.67402    0.008
 6010.00    0.56474   0.67406    0.008
 6011.00    0.60954   0.68410    0.008
 6012.00    0.63107   0.68084    0.008
 6013.00    0.64521   0.67584    0.008
 6014.00    0.63345   0.68184    0.008
 6015.00    0.61483   0.68023    0.008
 6016.00    0.63884   0.66770    0.008
 6017.00    0.67211   0.66454    0.008
 6018.00    0.67593   0.67143    0.008
 6019.00    0.67468   0.67717    0.008
 6020.00    0.60981   0.67910    0.008
 6021.00    0.53662   0.68837    0.008
 6022.00    0.49850   0.69576    0.008
 6023.00    0.46359   0.69286    0.008
 6024.00    0.49426   0.69738    0.008
 6025.00    0.52858   0.70678    0.008
 6026.00    0.59293   0.70787    0.008
 6027.00    0.65688   0.70583    0.008
 6028.00    0.61657   0.70971    0.008
 6029.00    0.57641   0.71443    0.008
 6030.00    0.53965   0.71432    0.008
 6031.00    0.50676   0.71222    0.008
 6032.00    0.52321   0.71270    0.008
 6033.00    0.54416   0.71442    0.008
 6034.00    0.60384   0.71417    0.008
 6035.00    0.65808   0.70957    0.008
 6036.00    0.67765   0.70395    0.008
 6037.00    0.68563   0.70106    0.008
 6038.00    0.63563   0.69942    0.008
 6039.00    0.58873   0.70608    0.008
 6040.00    0.55439   0.71512    0.008
 6041.00    0.51695   0.71693    0.008
 6042.00    0.46909   0.71628    0.008
 6043.00    0.43685   0.71774    0.008
 6044.00    0.44885   0.71698    0.008
 6045.00    0.46724   0.71477    0.008
 6046.00    0.50109   0.71755    0.008
 6047.00    0.53596   0.71927    0.008
 6048.00    0.57298   0.71238    0.008
 6049.00    0.60217   0.70157    0.008
 6050.00    0.61714   0.69595    0.008
 6051.00    0.61688   0.69298    0.008
 6052.00    0.59244   0.68728    0.008
 6053.00    0.57497   0.68726    0.008
 6054.00    0.56721   0.69530    0.008
 6055.00    0.56494   0.70489    0.008
 6056.00    0.56940   0.71038    0.008
 6057.00    0.57581   0.70931    0.008
 6058.00    0.58431   0.70223    0.008
 6059.00    0.59161   0.69236    0.008
 6060.00    0.59778   0.67910    0.008
 6061.00    0.58280   0.66291    0.008
 6062.00    0.55003   0.66838    0.008
 6063.00    0.53389   0.69672    0.008
 6064.00    0.53007   0.71644    0.008
 6065.00    0.55346   0.72019    0.008
 6066.00    0.59455   0.71853    0.008
 6067.00    0.60733   0.71826    0.008
 6068.00    0.60400   0.72032    0.008
 6069.00    0.62113   0.72171    0.008
 6070.00    0.64841   0.72124    0.008
 6071.00    0.68627   0.71840    0.008
 6072.00    0.72867   0.71192    0.008
 6073.00    0.71385   0.70075    0.008
 6074.00    0.67800   0.68450    0.008
 6075.00    0.66174   0.67777    0.008
 6076.00    0.65157   0.68617    0.008
 6077.00    0.63152   0.68589    0.008
 6078.00    0.60889   0.67533    0.008
 6079.00    0.61246   0.67621    0.008
 6080.00    0.62156   0.68286    0.008
 6081.00    0.66779   0.68151    0.008
 6082.00    0.72023   0.68028    0.008
 6083.00    0.66583   0.68670    0.008
 6084.00    0.59797   0.69307    0.008
 6085.00    0.56722   0.68675    0.008
 6086.00    0.53973   0.67307    0.008
 6087.00    0.56334   0.66978    0.008
 6088.00    0.58960   0.67365    0.008
 6089.00    0.63758   0.67656    0.008
 6090.00    0.68516   0.68454    0.008
 6091.00    0.67527   0.69721    0.008
 6092.00    0.66485   0.69820    0.008
 6093.00    0.64303   0.69048    0.008
 6094.00    0.62200   0.69072    0.008
 6095.00    0.61061   0.69863    0.008
 6096.00    0.59713   0.70198    0.008
 6097.00    0.56620   0.68176    0.008
 6098.00    0.53798   0.63642    0.007
 6099.00    0.52654   0.61413    0.008
 6100.00    0.51958   0.64645    0.008
 6101.00    0.53448   0.68417    0.008
 6102.00    0.56114   0.69387    0.008
 6103.00    0.63442   0.68770    0.008
 6104.00    0.68778   0.68348    0.008
 6105.00    0.67562   0.69185    0.008
 6106.00    0.65823   0.69746    0.008
 6107.00    0.62632   0.68870    0.008
 6108.00    0.59780   0.68409    0.008
 6109.00    0.57736   0.69325    0.008
 6110.00    0.55655   0.70301    0.008
 6111.00    0.53497   0.70036    0.008
 6112.00    0.52277   0.68764    0.008
 6113.00    0.52735   0.68545    0.008
 6114.00    0.55105   0.69203    0.008
 6115.00    0.60469   0.68627    0.008
 6116.00    0.62221   0.66784    0.008
 6117.00    0.59012   0.64384    0.008
 6118.00    0.58031   0.62511    0.008
 6119.00    0.59745   0.64044    0.008
 6120.00    0.59898   0.67453    0.008
 6121.00    0.58385   0.68570    0.008
 6122.00    0.56226   0.67977    0.008
 6123.00    0.53461   0.67271    0.008
 6124.00    0.53602   0.66686    0.008
 6125.00    0.56153   0.66894    0.008
 6126.00    0.57539   0.68048    0.008
 6127.00    0.58075   0.69046    0.007
 6128.00    0.56020   0.69428    0.007
 6129.00    0.52304   0.69508    0.007
 6130.00    0.48527   0.68513    0.007
 6131.00    0.44715   0.65504    0.007
 6132.00    0.46207   0.60874    0.007
 6133.00    0.50287   0.57744    0.008
 6134.00    0.52594   0.60110    0.008
 6135.00    0.54153   0.65633    0.008
 6136.00    0.54258   0.68151    0.008
 6137.00    0.53837   0.66428    0.008
 6138.00    0.55501   0.64961    0.008
 6139.00    0.57801   0.66765    0.008
 6140.00    0.59997   0.69101    0.008
 6141.00    0.62166   0.69585    0.008
 6142.00    0.61743   0.69104    0.008
 6143.00    0.60784   0.68208    0.008
 6144.00    0.59819   0.66893    0.008
 6145.00    0.58852   0.65866    0.008
 6146.00    0.61464   0.65791    0.008
 6147.00    0.64511   0.66612    0.008
 6148.00    0.63856   0.67673    0.008
 6149.00    0.62891   0.68017    0.008
 6150.00    0.61790   0.66882    0.008
 6151.00    0.60683   0.65730    0.008
 6152.00    0.58247   0.66024    0.008
 6153.00    0.55815   0.66493    0.007
 6154.00    0.54766   0.66376    0.007
 6155.00    0.53899   0.65869    0.007
 6156.00    0.56602   0.63392    0.007
 6157.00    0.58915   0.58579    0.008
 6158.00    0.56724   0.55275    0.008
 6159.00    0.54662   0.56364    0.008
 6160.00    0.53631   0.59940    0.008
 6161.00    0.52985   0.62712    0.008
 6162.00    0.54652   0.63853    0.008
 6163.00    0.56445   0.64567    0.008
 6164.00    0.58842   0.63645    0.008
 6165.00    0.60492   0.60421    0.008
 6166.00    0.59249   0.59147    0.008
 6167.00    0.57817   0.61988    0.008
 6168.00    0.55776   0.64826    0.008
 6169.00    0.54265   0.65083    0.008
 6170.00    0.54205   0.64878    0.008
 6171.00    0.53031   0.65031    0.008
 6172.00    0.49248   0.64720    0.008
 6173.00    0.46674   0.64607    0.008
 6174.00    0.46549   0.65528    0.008
 6175.00    0.46916   0.66121    0.008
 6176.00    0.48151   0.65759    0.008
 6177.00    0.49317   0.66089    0.008
 6178.00    0.50377   0.66873    0.008
 6179.00    0.50609   0.66911    0.007
 6180.00    0.49719   0.66686    0.007
 6181.00    0.49096   0.66266    0.007
 6182.00    0.48792   0.65064    0.007
 6183.00    0.49899   0.63964    0.007
 6184.00    0.52490   0.63726    0.007
 6185.00    0.53862   0.63772    0.008
 6186.00    0.54101   0.62459    0.008
 6187.00    0.54685   0.59844    0.008
 6188.00    0.55550   0.59837    0.008
 6189.00    0.55278   0.63057    0.008
 6190.00    0.54186   0.65322    0.008
 6191.00    0.54389   0.65829    0.008
 6192.00    0.55410   0.66316    0.008
 6193.00    0.58748   0.66755    0.008
 6194.00    0.63364   0.65953    0.008
 6195.00    0.70921   0.63877    0.008
 6196.00    0.79890   0.62732   -2.000
 6197.00    1.03692   0.63977   -2.000
 6198.00    1.33643   0.65957   -2.000
 6199.00    1.48191   0.66761   -2.000
 6200.00    1.57280   0.66568   -2.000
 6201.00    1.36352   0.66361   -2.000
 6202.00    1.06441   0.66512   -2.000
 6203.00    0.75302   0.66619   -2.000
 6204.00    0.43858   0.66523   -2.000
 6205.00    0.43134   0.66332   -2.000
 6206.00    0.48595   0.65865   -2.000
 6207.00    0.52979   0.65241   -2.000
 6208.00    0.57193   0.64193    0.008
 6209.00    0.56001   0.62099    0.008
 6210.00    0.54175   0.60206    0.008
 6211.00    0.51695   0.59872    0.007
 6212.00    0.49164   0.60848    0.007
 6213.00    0.50580   0.62408    0.007
 6214.00    0.52170   0.62923    0.007
 6215.00    0.54761   0.61688    0.007
 6216.00    0.57358   0.60753    0.007
 6217.00    0.59731   0.61448    0.007
 6218.00    0.61744   0.62823    0.007
 6219.00    0.57168   0.63464    0.007
 6220.00    0.52910   0.63181    0.008
 6221.00    0.52142   0.63240    0.008
 6222.00    0.51399   0.63693    0.008
 6223.00    0.50851   0.63831    0.008
 6224.00    0.50477   0.63428    0.008
 6225.00    0.51119   0.61589    0.008
 6226.00    0.51921   0.58713    0.008
 6227.00    0.53466   0.57631    0.008
 6228.00    0.54455   0.59134    0.008
 6229.00    0.53336   0.61236    0.008
 6230.00    0.52090   0.63595    0.008
 6231.00    0.50441   0.65302    0.008
 6232.00    0.48980   0.65164    0.008
 6233.00    0.48025   0.63737    0.008
 6234.00    0.47792   0.62188    0.007
 6235.00    0.49223   0.60967    0.007
 6236.00    0.50543   0.60363    0.007
 6237.00    0.51641   0.60996    0.007
 6238.00    0.52191   0.61123    0.007
 6239.00    0.51791   0.59747    0.007
 6240.00    0.52752   0.59192    0.007
 6241.00    0.55781   0.59493    0.007
 6242.00    0.57169   0.59649    0.007
 6243.00    0.56369   0.60861    0.007
 6244.00    0.55083   0.62853    0.007
 6245.00    0.53227   0.63861    0.007
 6246.00    0.53968   0.63672    0.008
 6247.00    0.57402   0.62264    0.008
 6248.00    0.59612   0.59958    0.008
 6249.00    0.60703   0.58677    0.008
 6250.00    0.58502   0.58921    0.008
 6251.00    0.53647   0.59397    0.008
 6252.00    0.50844   0.59011    0.008
 6253.00    0.49495   0.57929    0.008
 6254.00    0.48759   0.57256    0.008
 6255.00    0.48405   0.58233    0.008
 6256.00    0.49409   0.60413    0.008
 6257.00    0.51153   0.61851    0.008
 6258.00    0.56612   0.63049    0.008
 6259.00    0.63826   0.64152    0.008
 6260.00    0.72670   0.63569    0.008
 6261.00    0.82177   0.61987    0.009
 6262.00    0.81185   0.61995    0.009
 6263.00    0.76539   0.63181    0.010
 6264.00    0.68960   0.63339    0.009
 6265.00    0.60519   0.62615    0.009
 6266.00    0.55349   0.62352    0.009
 6267.00    0.50974   0.62795    0.008
 6268.00    0.48590   0.63539    0.008
 6269.00    0.46596   0.63960    0.007
 6270.00    0.47509   0.63821    0.007
 6271.00    0.48866   0.63726    0.007
 6272.00    0.55201   0.63837    0.007
 6273.00    0.62098   0.63692    0.007
 6274.00    0.64508   0.63289    0.007
 6275.00    0.66580   0.62409    0.007
 6276.00    0.61029   0.61220    0.008
 6277.00    0.55171   0.61108    0.008
 6278.00    0.52796   0.62085    0.008
 6279.00    0.50566   0.63185    0.008
 6280.00    0.53161   0.63887    0.000
 6281.00    0.55755   0.63833    0.000
 6282.00    0.58357   0.63933    0.000
 6283.00    0.60713   0.64705    0.000
 6284.00    0.60479   0.65425    0.000
 6285.00    0.59818   0.65458    0.000
 6286.00    0.55971   0.64535    0.000
 6287.00    0.53261   0.63437    0.000
 6288.00    0.57017   0.62955    0.000
 6289.00    0.60315   0.62997    0.000
 6290.00    0.61538   0.63496    0.000
 6291.00    0.62553   0.63441    0.000
 6292.00    0.62793   0.62104    0.000
 6293.00    0.62354   0.60881    0.000
 6294.00    0.59808   0.61037    0.000
 6295.00    0.57101   0.61841    0.000
 6296.00    0.53967   0.61676    0.000
 6297.00    0.52085   0.60337    0.000
 6298.00    0.53035   0.59761    0.000
 6299.00    0.54183   0.61007    0.000
 6300.00    0.55719   0.62408    0.000
 6301.00    0.57263   0.62729    0.000
 6302.00    0.58823   0.63128    0.000
 6303.00    0.59398   0.64343    0.000
 6304.00    0.58500   0.65129    0.000
 6305.00    0.56764   0.64635    0.000
 6306.00    0.53924   0.63403    0.000
 6307.00    0.53644   0.62490    0.000
 6308.00    0.56332   0.62477    0.000
 6309.00    0.56634   0.62678    0.000
 6310.00    0.54498   0.61766    0.000
 6311.00    0.52572   0.60518    0.000
 6312.00    0.50834   0.60523    0.000
 6313.00    0.50352   0.60253    0.000
 6314.00    0.50868   0.59033    0.000
 6315.00    0.51529   0.59407    0.000
 6316.00    0.52292   0.61275    0.000
 6317.00    0.52290   0.62267    0.000
 6318.00    0.51819   0.62246    0.000
 6319.00    0.52196   0.62707    0.000
 6320.00    0.53027   0.63755    0.000
 6321.00    0.52639   0.64305    0.007
 6322.00    0.51685   0.64145    0.007
 6323.00    0.51014   0.63779    0.007
 6324.00    0.50457   0.63919    0.007
 6325.00    0.48458   0.64129    0.007
 6326.00    0.45967   0.63606    0.007
 6327.00    0.47885   0.63471    0.007
 6328.00    0.51070   0.64214    0.007
 6329.00    0.52905   0.64557    0.007
 6330.00    0.54419   0.63178    0.008
 6331.00    0.53335   0.60521    0.008
 6332.00    0.51753   0.59189    0.007
 6333.00    0.55301   0.60213    0.008
 6334.00    0.59609   0.61623    0.008
 6335.00    0.61004   0.62295    0.008
 6336.00    0.62084   0.63194    0.007
 6337.00    0.56961   0.63798    0.007
 6338.00    0.51397   0.62940    0.007
 6339.00    0.49596   0.61233    0.007
 6340.00    0.47932   0.60348    0.007
 6341.00    0.46568   0.61047    0.007
 6342.00    0.45301   0.61915    0.007
 6343.00    0.47388   0.62293    0.007
 6344.00    0.49316   0.63036    0.007
 6345.00    0.48711   0.63790    0.007
 6346.00    0.47789   0.63985    0.007
 6347.00    0.43680   0.64078    0.007
 6348.00    0.40119   0.64061    0.007
 6349.00    0.40522   0.63305    0.007
 6350.00    0.41161   0.61864    0.007
 6351.00    0.43105   0.61106    0.007
 6352.00    0.44375   0.61610    0.007
 6353.00    0.42661   0.61557    0.007
 6354.00    0.41264   0.60081    0.007
 6355.00    0.41016   0.58925    0.007
 6356.00    0.42453   0.58734    0.007
 6357.00    0.49021   0.58301    0.008
 6358.00    0.55001   0.57729    0.008
 6359.00    0.59457   0.58160    0.008
 6360.00    0.62840   0.59446    0.008
 6361.00    0.63832   0.60657    0.008
 6362.00    0.63443   0.61550    0.008
 6363.00    0.60389   0.62491    0.008
 6364.00    0.58027   0.63249    0.008
 6365.00    0.56832   0.63052    0.008
 6366.00    0.56235   0.62360    0.007
 6367.00    0.56521   0.62485    0.007
 6368.00    0.54712   0.63636    0.007
 6369.00    0.50185   0.64551    0.007
 6370.00    0.47019   0.64457    0.007
 6371.00    0.45410   0.64141    0.007
 6372.00    0.45769   0.64161    0.007
 6373.00    0.48111   0.63883    0.007
 6374.00    0.49454   0.63001    0.007
 6375.00    0.49910   0.62393    0.007
 6376.00    0.49992   0.62341    0.007
 6377.00    0.49781   0.62556    0.007
 6378.00    0.48848   0.63061    0.007
 6379.00    0.47418   0.63170    0.007
 6380.00    0.46026   0.62732    0.007
 6381.00    0.44657   0.62793    0.007
 6382.00    0.43770   0.63549    0.007
 6383.00    0.43137   0.64035    0.007
 6384.00    0.43612   0.63999    0.007
 6385.00    0.44594   0.63991    0.007
 6386.00    0.47082   0.64021    0.007
 6387.00    0.50164   0.63304    0.008
 6388.00    0.51860   0.61221    0.007
 6389.00    0.53090   0.59125    0.007
 6390.00    0.53122   0.59525    0.007
 6391.00    0.52817   0.61997    0.007
 6392.00    0.48973   0.63879    0.007
 6393.00    0.44308   0.64257    0.007
 6394.00    0.40526   0.62954    0.007
 6395.00    0.36908   0.60001    0.007
 6396.00    0.39510   0.58170    0.007
 6397.00    0.43005   0.60167    0.007
 6398.00    0.47686   0.63284    0.007
 6399.00    0.52491   0.64506    0.007
 6400.00    0.51651   0.64489    0.007
 6401.00    0.50432   0.63960    0.007
 6402.00    0.49254   0.62774    0.007
 6403.00    0.48078   0.61204    0.007
 6404.00    0.49718   0.60733    0.007
 6405.00    0.51336   0.61917    0.008
 6406.00    0.52253   0.62318    0.008
 6407.00    0.52832   0.61126    0.008
 6408.00    0.48341   0.60833    0.007
 6409.00    0.44169   0.61689    0.007
 6410.00    0.43072   0.62096    0.007
 6411.00    0.42342   0.62313    0.007
 6412.00    0.44183   0.62737    0.007
 6413.00    0.46270   0.62779    0.007
 6414.00    0.49683   0.62203    0.007
 6415.00    0.52482   0.60846    0.007
 6416.00    0.52624   0.59281    0.007
 6417.00    0.52442   0.59288    0.007
 6418.00    0.51107   0.61408    0.007
 6419.00    0.50294   0.63588    0.007
 6420.00    0.51039   0.64034    0.007
 6421.00    0.51857   0.63724    0.007
 6422.00    0.52862   0.63993    0.007
 6423.00    0.52357   0.64543    0.007
 6424.00    0.48544   0.64355    0.007
 6425.00    0.46564   0.62722    0.007
 6426.00    0.48069   0.60232    0.007
 6427.00    0.51643   0.59080    0.007
 6428.00    0.58653   0.60244    0.008
 6429.00    0.61783   0.62087    0.008
 6430.00    0.59271   0.63316    0.008
 6431.00    0.55827   0.63849    0.008
 6432.00    0.51190   0.63684    0.008
 6433.00    0.50576   0.62379    0.008
 6434.00    0.54496   0.60048    0.007
 6435.00    0.56067   0.59127    0.007
 6436.00    0.55304   0.61188    0.007
 6437.00    0.54498   0.63736    0.007
 6438.00    0.53654   0.64630    0.007
 6439.00    0.51541   0.64552    0.007
 6440.00    0.48448   0.64493    0.007
 6441.00    0.47140   0.64746    0.007
 6442.00    0.47045   0.64976    0.007
 6443.00    0.46941   0.64272    0.007
 6444.00    0.46833   0.61600    0.007
 6445.00    0.46870   0.57833    0.007
 6446.00    0.46983   0.56527    0.007
 6447.00    0.46702   0.58873    0.007
 6448.00    0.46243   0.61800    0.007
 6449.00    0.43926   0.63161    0.007
 6450.00    0.40891   0.62624    0.008
 6451.00    0.39092   0.60853    0.007
 6452.00    0.37700   0.60059    0.007
 6453.00    0.38206   0.61465    0.007
 6454.00    0.39237   0.63570    0.007
 6455.00    0.41270   0.64652    0.007
 6456.00    0.43530   0.64190    0.007
 6457.00    0.45313   0.61820    0.007
 6458.00    0.47009   0.58775    0.007
 6459.00    0.48672   0.58343    0.007
 6460.00    0.50330   0.60645    0.008
 6461.00    0.50417   0.62646    0.007
 6462.00    0.50347   0.63481    0.007
 6463.00    0.46689   0.63776    0.007
 6464.00    0.42805   0.63498    0.007
 6465.00    0.41232   0.62691    0.007
 6466.00    0.39734   0.61858    0.007
 6467.00    0.41225   0.61314    0.007
 6468.00    0.42735   0.61737    0.007
 6469.00    0.44777   0.62731    0.007
 6470.00    0.46926   0.62726    0.007
 6471.00    0.50595   0.62114    0.007
 6472.00    0.53939   0.62370    0.007
 6473.00    0.54273   0.63061    0.007
 6474.00    0.54366   0.63134    0.007
 6475.00    0.52840   0.62883    0.007
 6476.00    0.51699   0.62167    0.007
 6477.00    0.52586   0.60481    0.007
 6478.00    0.53716   0.59020    0.007
 6479.00    0.55870   0.59329    0.007
 6480.00    0.57876   0.60755    0.007
 6481.00    0.59362   0.61842    0.007
 6482.00    0.59519   0.62291    0.007
 6483.00    0.55776   0.62513    0.007
 6484.00    0.52616   0.62522    0.007
 6485.00    0.50915   0.61932    0.007
 6486.00    0.50121   0.60916    0.007
 6487.00    0.51277   0.60015    0.007
 6488.00    0.53477   0.58704    0.007
 6489.00    0.57631   0.55789    0.007
 6490.00    0.59805   0.52249    0.007
 6491.00    0.58744   0.50889    0.007
 6492.00    0.57301   0.52032    0.007
 6493.00    0.55312   0.54053    0.007
 6494.00    0.52989   0.55725    0.007
 6495.00    0.50246   0.56764    0.007
 6496.00    0.47957   0.58112    0.007
 6497.00    0.46172   0.59617    0.007
 6498.00    0.47024   0.60527    0.007
 6499.00    0.50458   0.61020    0.007
 6500.00    0.53934   0.61430    0.007
 6501.00    0.57448   0.61854    0.007
 6502.00    0.58284   0.62075    0.007
 6503.00    0.57083   0.61712    0.007
 6504.00    0.56584   0.61083    0.007
 6505.00    0.56553   0.61031    0.007
 6506.00    0.54081   0.61580    0.007
 6507.00    0.50180   0.61938    0.007
 6508.00    0.45255   0.61896    0.007
 6509.00    0.39806   0.61761    0.007
 6510.00    0.37515   0.61253    0.007
 6511.00    0.36622   0.60261    0.007
 6512.00    0.38067   0.59521    0.007
 6513.00    0.40399   0.59232    0.007
 6514.00    0.43939   0.59076    0.007
 6515.00    0.47869   0.59590    0.007
 6516.00    0.48811   0.60848    0.007
 6517.00    0.48947   0.61690    0.007
 6518.00    0.47127   0.61781    0.007
 6519.00    0.44874   0.61735    0.007
 6520.00    0.46613   0.61875    0.007
 6521.00    0.49057   0.61576    0.007
 6522.00    0.49181   0.60521    0.007
 6523.00    0.48993   0.59812    0.007
 6524.00    0.46891   0.60288    0.007
 6525.00    0.44606   0.61173    0.007
 6526.00    0.43649   0.61433    0.007
 6527.00    0.42770   0.60825    0.007
 6528.00    0.42086   0.59931    0.000
 6529.00    0.41408   0.59683    0.000
 6530.00    0.40715   0.60408    0.000
 6531.00    0.40104   0.61352    0.000
 6532.00    0.41571   0.61483    0.000
 6533.00    0.43110   0.61031    0.000
 6534.00    0.45616   0.61111    0.000
 6535.00    0.47736   0.61791    0.000
 6536.00    0.46416   0.62034    0.000
 6537.00    0.45597   0.61434    0.000
 6538.00    0.48061   0.60575    0.000
 6539.00    0.50273   0.59955    0.000
 6540.00    0.51200   0.59306    0.000
 6541.00    0.52246   0.58079    0.000
 6542.00    0.53779   0.57046    0.000
 6543.00    0.55975   0.57521    0.000
 6544.00    0.60438   0.58775    0.000
 6545.00    0.62658   0.59356    0.000
 6546.00    0.58416   0.58997    0.000
 6547.00    0.54113   0.58281    0.000
 6548.00    0.49656   0.57726    0.000
 6549.00    0.46344   0.57006    0.000
 6550.00    0.45459   0.55852    0.000
 6551.00    0.45686   0.54922    0.000
 6552.00    0.47962   0.54899    0.000
 6553.00    0.49568   0.55368    0.000
 6554.00    0.50099   0.55313    0.000
 6555.00    0.53129   0.54374    0.000
 6556.00    0.59689   0.51874    0.000
 6557.00    0.71361   0.46205    0.000
 6558.00    0.89384   0.39352    0.000
 6559.00    1.01734   0.38354    0.000
 6560.00    1.07873   0.44701    0.000
 6561.00    1.05559   0.51519    0.000
 6562.00    0.95080   0.55003    0.000
 6563.00    0.83095   0.56263    0.000
 6564.00    0.69827   0.56112    0.000
 6565.00    0.60977   0.55547    0.000
 6566.00    0.55443   0.55789    0.000
 6567.00    0.50963   0.56243    0.000
 6568.00    0.47177   0.55892    0.000
 6569.00    0.46617   0.55137    0.000
 6570.00    0.47918   0.54834    0.000
 6571.00    0.48339   0.55623    0.000
 6572.00    0.48318   0.57400    0.000
 6573.00    0.48244   0.58954    0.000
 6574.00    0.48147   0.59466    0.000
 6575.00    0.52529   0.59004    0.000
 6576.00    0.58584   0.58079    0.000
 6577.00    0.63623   0.57680    0.000
 6578.00    0.68342   0.58233    0.000
 6579.00    0.71326   0.58943    0.000
 6580.00    0.73852   0.59117    0.000
 6581.00    0.72998   0.58795    0.000
 6582.00    0.71413   0.58546    0.000
 6583.00    0.69516   0.59010    0.000
 6584.00    0.67564   0.59772    0.000
 6585.00    0.60454   0.60127    0.000
 6586.00    0.52673   0.59795    0.000
 6587.00    0.48063   0.58146    0.000
 6588.00    0.43743   0.55419    0.000
 6589.00    0.45368   0.53943    0.000
 6590.00    0.47321   0.55273    0.000
 6591.00    0.47703   0.57517    0.000
 6592.00    0.48064   0.58428    0.000
 6593.00    0.49610   0.58143    0.000
 6594.00    0.51142   0.57829    0.000
 6595.00    0.52350   0.58341    0.000
 6596.00    0.53427   0.59464    0.000
 6597.00    0.52859   0.60197    0.000
 6598.00    0.52286   0.60104    0.000
 6599.00    0.51675   0.59459    0.000
 6600.00    0.50851   0.58629    0.000
 6601.00    0.48669   0.58031    0.000
 6602.00    0.46247   0.57750    0.000
 6603.00    0.42626   0.57297    0.000
 6604.00    0.39915   0.56518    0.000
 6605.00    0.40872   0.56401    0.000
 6606.00    0.41252   0.57735    0.000
 6607.00    0.39701   0.59267    0.000
 6608.00    0.38679   0.59492    0.000
 6609.00    0.39154   0.58927    0.007
 6610.00    0.40258   0.59019    0.007
 6611.00    0.42883   0.59772    0.007
 6612.00    0.44640   0.59981    0.007
 6613.00    0.44583   0.59615    0.007
 6614.00    0.44045   0.59551    0.007
 6615.00    0.42633   0.59902    0.007
 6616.00    0.42180   0.60191    0.007
 6617.00    0.43251   0.60147    0.007
 6618.00    0.46778   0.59631    0.007
 6619.00    0.53722   0.58535    0.007
 6620.00    0.58252   0.57422    0.007
 6621.00    0.59823   0.57352    0.007
 6622.00    0.60091   0.58160    0.007
 6623.00    0.58952   0.58662    0.007
 6624.00    0.57888   0.58645    0.007
 6625.00    0.56896   0.58445    0.007
 6626.00    0.54124   0.58140    0.007
 6627.00    0.49857   0.57586    0.007
 6628.00    0.45322   0.56533    0.007
 6629.00    0.40591   0.55424    0.007
 6630.00    0.37028   0.55471    0.007
 6631.00    0.34225   0.56804    0.007
 6632.00    0.34428   0.58168    0.007
 6633.00    0.36338   0.58714    0.007
 6634.00    0.36903   0.58479    0.007
 6635.00    0.36801   0.58012    0.007
 6636.00    0.37342   0.58113    0.007
 6637.00    0.38158   0.58479    0.007
 6638.00    0.40797   0.57812    0.007
 6639.00    0.44105   0.56615    0.007
 6640.00    0.48903   0.56671    0.007
 6641.00    0.54163   0.57684    0.007
 6642.00    0.53366   0.58145    0.007
 6643.00    0.51002   0.58012    0.007
 6644.00    0.46151   0.58090    0.007
 6645.00    0.40775   0.58384    0.007
 6646.00    0.36050   0.58354    0.007
 6647.00    0.31434   0.58019    0.007
 6648.00    0.35687   0.57811    0.007
 6649.00    0.41054   0.57832    0.007
 6650.00    0.43601   0.57970    0.007
 6651.00    0.45902   0.58047    0.007
 6652.00    0.44656   0.57924    0.007
 6653.00    0.43228   0.57863    0.007
 6654.00    0.43248   0.57927    0.007
 6655.00    0.43302   0.57750    0.007
 6656.00    0.43888   0.57326    0.007
 6657.00    0.44245   0.56731    0.007
 6658.00    0.39785   0.55707    0.007
 6659.00    0.35744   0.54897    0.007
 6660.00    0.36767   0.55299    0.007
 6661.00    0.37845   0.56146    0.007
 6662.00    0.39383   0.56363    0.007
 6663.00    0.40887   0.56311    0.007
 6664.00    0.42180   0.56667    0.007
 6665.00    0.42857   0.57427    0.007
 6666.00    0.40537   0.58062    0.007
 6667.00    0.38329   0.58224    0.007
 6668.00    0.36568   0.58128    0.007
 6669.00    0.36533   0.58110    0.007
 6670.00    0.42169   0.58221    0.007
 6671.00    0.48238   0.58015    0.007
 6672.00    0.55506   0.56613    0.007
 6673.00    0.59431   0.54322    0.007
 6674.00    0.55412   0.53467    0.007
 6675.00    0.49810   0.54896    0.007
 6676.00    0.40959   0.56432    0.007
 6677.00    0.35332   0.56897    0.007
 6678.00    0.35464   0.57095    0.007
 6679.00    0.37780   0.57419    0.007
 6680.00    0.43510   0.57659    0.007
 6681.00    0.47540   0.57697    0.007
 6682.00    0.49239   0.57575    0.007
 6683.00    0.50000   0.57347    0.007
 6684.00    0.49629   0.57256    0.007
 6685.00    0.49031   0.57457    0.007
 6686.00    0.48193   0.57636    0.007
 6687.00    0.46287   0.57631    0.007
 6688.00    0.43378   0.57593    0.007
 6689.00    0.39663   0.57517    0.007
 6690.00    0.35281   0.57025    0.007
 6691.00    0.35657   0.55950    0.007
 6692.00    0.39502   0.55081    0.007
 6693.00    0.42109   0.55133    0.007
 6694.00    0.43925   0.55795    0.007
 6695.00    0.44727   0.56673    0.007
 6696.00    0.44961   0.57368    0.000
 6697.00    0.43998   0.57430    0.000
 6698.00    0.42452   0.56869    0.000
 6699.00    0.40232   0.56066    0.000
 6700.00    0.37729   0.55675    0.000
 6701.00    0.39274   0.55988    0.000
 6702.00    0.42276   0.56466    0.000
 6703.00    0.42801   0.56661    0.000
 6704.00    0.42571   0.56715    0.000
 6705.00    0.42542   0.56567    0.000
 6706.00    0.42564   0.56280    0.000
 6707.00    0.45272   0.56164    0.000
 6708.00    0.48533   0.55934    0.000
 6709.00    0.53686   0.55427    0.000
 6710.00    0.59147   0.54863    0.000
 6711.00    0.63471   0.54100    0.000
 6712.00    0.67658   0.53098    0.000
 6713.00    0.72780   0.52676    0.000
 6714.00    0.77979   0.53668    0.000
 6715.00    0.72061   0.55227    0.000
 6716.00    0.65616   0.55868    0.000
 6717.00    0.60333   0.55705    0.000
 6718.00    0.55106   0.55833    0.000
 6719.00    0.52098   0.56372    0.000
 6720.00    0.49126   0.56423    0.000
 6721.00    0.46846   0.55788    0.000
 6722.00    0.44901   0.55380    0.000
 6723.00    0.46802   0.55656    0.000
 6724.00    0.49461   0.56110    0.000
 6725.00    0.58154   0.56440    0.000
 6726.00    0.65904   0.56682    0.000
 6727.00    0.68003   0.56662    0.000
 6728.00    0.68798   0.56311    0.000
 6729.00    0.63410   0.55983    0.000
 6730.00    0.58311   0.56035    0.000
 6731.00    0.54328   0.56337    0.000
 6732.00    0.50926   0.56312    0.000
 6733.00    0.49395   0.55667    0.000
 6734.00    0.47516   0.54961    0.000
 6735.00    0.44691   0.54909    0.000
 6736.00    0.43098   0.55377    0.000
 6737.00    0.44383   0.55501    0.000
 6738.00    0.46181   0.55041    0.000
 6739.00    0.49013   0.54819    0.000
 6740.00    0.50172   0.55153    0.000
 6741.00    0.48386   0.55354    0.000
 6742.00    0.47537   0.55143    0.000
 6743.00    0.48130   0.54801    0.000
 6744.00    0.47490   0.54458    0.000
 6745.00    0.45181   0.54177    0.000
 6746.00    0.45036   0.54284    0.000
 6747.00    0.47466   0.54583    0.000
 6748.00    0.49956   0.54515    0.000
 6749.00    0.52511   0.54538    0.000
 6750.00    0.52129   0.54968    0.000
 6751.00    0.49029   0.55346    0.000
 6752.00    0.48083   0.55691    0.000
 6753.00    0.48895   0.56163    0.008
 6754.00    0.52419   0.56561    0.008
 6755.00    0.57891   0.56759    0.008
 6756.00    0.57856   0.56716    0.008
 6757.00    0.54350   0.56455    0.008
 6758.00    0.51487   0.56293    0.008
 6759.00    0.48979   0.56364    0.008
 6760.00    0.50968   0.56325    0.008
 6761.00    0.55113   0.55796    0.008
 6762.00    0.61636   0.54854    0.008
 6763.00    0.69144   0.54239    0.009
 6764.00    0.68541   0.54512    0.009
 6765.00    0.65071   0.55016    0.009
 6766.00    0.60963   0.54896    0.009
 6767.00    0.56664   0.54659    0.009
 6768.00    0.54681   0.55078    0.009
 6769.00    0.53271   0.55898    0.008
 6770.00    0.50273   0.56541    0.008
 6771.00    0.46957   0.56835    0.008
 6772.00    0.51634   0.56795    0.008
 6773.00    0.57568   0.56660    0.008
 6774.00    0.57853   0.56812    0.008
 6775.00    0.57480   0.57009    0.008
 6776.00    0.50267   0.56764    0.008
 6777.00    0.42515   0.55977    0.007
 6778.00    0.47560   0.54802    0.008
 6779.00    0.53161   0.53706    0.008
 6780.00    0.50581   0.53269    0.008
 6781.00    0.47888   0.53504    0.008
 6782.00    0.43851   0.54135    0.008
 6783.00    0.40179   0.54990    0.008
 6784.00    0.43093   0.55513    0.008
 6785.00    0.46118   0.55496    0.008
 6786.00    0.50344   0.55508    0.008
 6787.00    0.54237   0.55616    0.008
 6788.00    0.55561   0.55262    0.008
 6789.00    0.56996   0.54637    0.008
 6790.00    0.59078   0.54421    0.008
 6791.00    0.59954   0.54537    0.008
 6792.00    0.55252   0.54766    0.008
 6793.00    0.51672   0.55048    0.008
 6794.00    0.52333   0.55219    0.008
 6795.00    0.51943   0.55351    0.008
 6796.00    0.48237   0.55576    0.008
 6797.00    0.46675   0.55770    0.008
 6798.00    0.50855   0.55639    0.007
 6799.00    0.54667   0.55230    0.007
 6800.00    0.57635   0.55109    0.007
 6801.00    0.57668   0.55209    0.008
 6802.00    0.51865   0.55089    0.008
 6803.00    0.48938   0.55068    0.008
 6804.00    0.50995   0.55121    0.008
 6805.00    0.52553   0.54862    0.008
 6806.00    0.53355   0.54757    0.008
 6807.00    0.51450   0.55085    0.008
 6808.00    0.45938   0.55251    0.008
 6809.00    0.43314   0.54894    0.008
 6810.00    0.44079   0.54365    0.008
 6811.00    0.45086   0.54452    0.008
 6812.00    0.46342   0.55225    0.008
 6813.00    0.44386   0.55731    0.008
 6814.00    0.39497   0.55462    0.008
 6815.00    0.42210   0.54860    0.008
 6816.00    0.51038   0.54675    0.008
 6817.00    0.52686   0.55157    0.008
 6818.00    0.49250   0.55823    0.008
 6819.00    0.45749   0.56166    0.007
 6820.00    0.42207   0.56176    0.007
 6821.00    0.41695   0.56029    0.007
 6822.00    0.42828   0.55556    0.007
 6823.00    0.42275   0.54650    0.007
 6824.00    0.40927   0.54088    0.007
 6825.00    0.37592   0.54515    0.007
 6826.00    0.33448   0.55301    0.007
 6827.00    0.35100   0.55570    0.007
 6828.00    0.38766   0.55356    0.007
 6829.00    0.41698   0.55321    0.008
 6830.00    0.44415   0.55665    0.008
 6831.00    0.43680   0.55792    0.008
 6832.00    0.42109   0.55381    0.008
 6833.00    0.45649   0.54713    0.008
 6834.00    0.50189   0.53936    0.008
 6835.00    0.56625   0.53104    0.008
 6836.00    0.63350   0.52258    0.008
 6837.00    0.66521   0.51693    0.008
 6838.00    0.69293   0.51948    0.008
 6839.00    0.63599   0.53016    0.008
 6840.00    0.57273   0.54236    0.008
 6841.00    0.54009   0.54940    0.008
 6842.00    0.50868   0.55097    0.008
 6843.00    0.44222   0.55111    0.007
 6844.00    0.37880   0.55083    0.007
 6845.00    0.44533   0.54962    0.007
 6846.00    0.50273   0.54888    0.007
 6847.00    0.40565   0.54974    0.007
 6848.00    0.32296   0.55062    0.007
 6849.00    0.39062   0.54531    0.007
 6850.00    0.45480   0.53280    0.008
 6851.00    0.49307   0.52531    0.008
 6852.00    0.53026   0.52821    0.008
 6853.00    0.56132   0.53323    0.008
 6854.00    0.58327   0.53687    0.008
 6855.00    0.56404   0.53689    0.008
 6856.00    0.54672   0.52983    0.008
 6857.00    0.53645   0.52437    0.008
 6858.00    0.52160   0.53137    0.008
 6859.00    0.49257   0.54475    0.008
 6860.00    0.47591   0.55128    0.008
 6861.00    0.49179   0.54839    0.008
 6862.00    0.48109   0.53926    0.008
 6863.00    0.41030   0.52857    0.008
 6864.00    0.38182   0.52643    0.007
 6865.00    0.43612   0.53470    0.007
 6866.00    0.46773   0.54034    0.007
 6867.00    0.46062   0.53688    0.008
 6868.00    0.42353   0.53310    0.008
 6869.00    0.34164   0.53433    0.008
 6870.00    0.29206   0.53577    0.008
 6871.00    0.28492   0.53591    0.008
 6872.00    0.30113   0.53893    0.008
 6873.00    0.34435   0.54458    0.008
 6874.00    0.42184   0.54712    0.008
 6875.00    0.53429   0.54465    0.008
 6876.00    0.56956   0.53867    0.008
 6877.00    0.53536   0.53062    0.008
 6878.00    0.47590   0.52596    0.008
 6879.00    0.39640   0.53081    0.007
 6880.00    0.38137   0.53863    0.007
 6881.00    0.41132   0.53984    0.007
 6882.00    0.43228   0.54006    0.007
 6883.00    0.44774   0.54544    0.007
 6884.00    0.42933   0.55017    0.007
 6885.00    0.39282   0.55229    0.007
 6886.00    0.41195   0.55501    0.007
 6887.00    0.45691   0.55511    0.007
 6888.00    0.50163   0.55127    0.007
 6889.00    0.54625   0.54867    0.007
 6890.00    0.56801   0.54712    0.007
 6891.00    0.58197   0.54414    0.007
 6892.00    0.53600   0.54383    0.008
 6893.00    0.47283   0.54816    0.008
 6894.00    0.43326   0.55039    0.008
 6895.00    0.39926   0.54673    0.008
 6896.00    0.41034   0.54434    0.008
 6897.00    0.43000   0.54841    0.008
 6898.00    0.43440   0.55295    0.008
 6899.00    0.43654   0.55203    0.008
 6900.00    0.42697   0.54864    0.008
 6901.00    0.41614   0.54845    0.008
 6902.00    0.41412   0.55247    0.008
 6903.00    0.41272   0.55551    0.008
 6904.00    0.38335   0.55544    0.007
 6905.00    0.35299   0.55446    0.007
 6906.00    0.41429   0.55233    0.007
 6907.00    0.47318   0.54872    0.007
 6908.00    0.43796   0.54327    0.007
 6909.00    0.40317   0.53600    0.007
 6910.00    0.37499   0.53309    0.007
 6911.00    0.35691   0.53594    0.007
 6912.00    0.43985   0.53746    0.007
 6913.00    0.51237   0.53868    0.007
 6914.00    0.51009   0.54305    0.007
 6915.00    0.50019   0.54880    0.008
 6916.00    0.44825   0.55362    0.007
 6917.00    0.41439   0.55530    0.007
 6918.00    0.46027   0.55114    0.008
 6919.00    0.49304   0.53991    0.008
 6920.00    0.47833   0.52837    0.008
 6921.00    0.45645   0.52564    0.008
 6922.00    0.41282   0.53278    0.007
 6923.00    0.40299   0.54191    0.007
 6924.00    0.48052   0.54628    0.007
 6925.00    0.53178   0.54697    0.007
 6926.00    0.52468   0.54638    0.007
 6927.00    0.52936   0.54323    0.007
 6928.00    0.55675   0.53732    0.007
 6929.00    0.56131   0.53576    0.008
 6930.00    0.52753   0.54135    0.008
 6931.00    0.50761   0.54593    0.008
 6932.00    0.50811   0.54542    0.008
 6933.00    0.52597   0.54398    0.008
 6934.00    0.56630   0.54548    0.008
 6935.00    0.57323   0.54979    0.008
 6936.00    0.54207   0.55295    0.008
 6937.00    0.49739   0.55086    0.008
 6938.00    0.43909   0.54389    0.008
 6939.00    0.40757   0.53415    0.008
 6940.00    0.39980   0.52480    0.008
 6941.00    0.39199   0.52476    0.008
 6942.00    0.38416   0.53474    0.008
 6943.00    0.37847   0.54384    0.008
 6944.00    0.37426   0.54803    0.008
 6945.00    0.40790   0.54740    0.008
 6946.00    0.46436   0.54043    0.008
 6947.00    0.44677   0.53338    0.008
 6948.00    0.39021   0.53136    0.008
 6949.00    0.42114   0.53138    0.008
 6950.00    0.49199   0.53325    0.008
 6951.00    0.50515   0.53863    0.008
 6952.00    0.49566   0.54405    0.008
 6953.00    0.50333   0.54576    0.008
 6954.00    0.51673   0.54519    0.008
 6955.00    0.53053   0.54480    0.008
 6956.00    0.54442   0.54598    0.008
 6957.00    0.47595   0.54812    0.008
 6958.00    0.38842   0.54979    0.008
 6959.00    0.38022   0.55032    0.008
 6960.00    0.38674   0.54721    0.008
 6961.00    0.45824   0.54206    0.008
 6962.00    0.53903   0.54297    0.008
 6963.00    0.56540   0.55031    0.008
 6964.00    0.58612   0.55480    0.008
 6965.00    0.47603   0.55208    0.008
 6966.00    0.35723   0.54519    0.008
 6967.00    0.36832   0.54331    0.008
 6968.00    0.38359   0.54889    0.008
 6969.00    0.36026   0.55061    0.008
 6970.00    0.33861   0.54365    0.008
 6971.00    0.36833   0.53382    0.008
 6972.00    0.39822   0.52233    0.008
 6973.00    0.43070   0.50604    0.008
 6974.00    0.46104   0.49530    0.008
 6975.00    0.47091   0.50428    0.008
 6976.00    0.48433   0.52449    0.008
 6977.00    0.52249   0.53978    0.008
 6978.00    0.54686   0.54838    0.008
 6979.00    0.49716   0.55226    0.008
 6980.00    0.45332   0.55228    0.008
 6981.00    0.43476   0.55068    0.008
 6982.00    0.42781   0.54937    0.008
 6983.00    0.46206   0.54661    0.008
 6984.00    0.49337   0.54081    0.008
 6985.00    0.51589   0.53734    0.008
 6986.00    0.51992   0.54104    0.008
 6987.00    0.47695   0.54808    0.008
 6988.00    0.45293   0.55126    0.008
 6989.00    0.47031   0.54852    0.008
 6990.00    0.46368   0.54524    0.008
 6991.00    0.41148   0.54637    0.008
 6992.00    0.36867   0.54910    0.008
 6993.00    0.34140   0.54669    0.008
 6994.00    0.35923   0.53642    0.008
 6995.00    0.44251   0.52632    0.008
 6996.00    0.46100   0.52751    0.008
 6997.00    0.39678   0.53708    0.008
 6998.00    0.37897   0.54113    0.008
 6999.00    0.41337   0.53474    0.008
 7000.00    0.43557   0.52678    0.008
 7001.00    0.44567   0.52508    0.008
 7002.00    0.43494   0.52877    0.008
 7003.00    0.40599   0.53462    0.008
 7004.00    0.40504   0.54083    0.008
 7005.00    0.42568   0.54313    0.008
 7006.00    0.40791   0.53964    0.008
 7007.00    0.36413   0.53693    0.008
 7008.00    0.34221   0.53910    0.008
 7009.00    0.33327   0.54029    0.008
 7010.00    0.32354   0.53014    0.008
 7011.00    0.31341   0.51028    0.008
 7012.00    0.35659   0.50165    0.008
 7013.00    0.42370   0.51617    0.008
 7014.00    0.39884   0.53706    0.008
 7015.00    0.33849   0.54801    0.008
 7016.00    0.33268   0.55001    0.008
 7017.00    0.34478   0.54469    0.008
 7018.00    0.37961   0.53128    0.008
 7019.00    0.42070   0.51849    0.008
 7020.00    0.41676   0.51707    0.008
 7021.00    0.40265   0.52567    0.008
 7022.00    0.48294   0.53339    0.008
 7023.00    0.58028   0.53657    0.008
 7024.00    0.53716   0.53874    0.008
 7025.00    0.47458   0.54140    0.008
 7026.00    0.51646   0.54268    0.008
 7027.00    0.56872   0.54088    0.008
 7028.00    0.51963   0.53826    0.008
 7029.00    0.46419   0.53684    0.008
 7030.00    0.47278   0.53743    0.009
 7031.00    0.48271   0.54156    0.009
 7032.00    0.36565   0.54000    0.009
 7033.00    0.25458   0.52625    0.009
 7034.00    0.30798   0.51898    0.009
 7035.00    0.35795   0.53245    0.009
 7036.00    0.35969   0.55266    0.009
 7037.00    0.36810   0.56417    0.008
 7038.00    0.43805   0.56570    0.009
 7039.00    0.49193   0.55870    0.009
 7040.00    0.43746   0.54844    0.020
 7041.00    0.39785   0.54531   -1.000
 7042.00    0.43588   0.55166   -1.000
 7043.00    0.46708   0.56051   -1.000
 7044.00    0.46952   0.56518   -1.000
 7045.00    0.46845   0.56372   -1.000
 7046.00    0.45520   0.55732   -1.000
 7047.00    0.45194   0.54310   -1.000
 7048.00    0.47790   0.52381   -1.000
 7049.00    0.50845   0.51051   -1.000
 7050.00    0.55046   0.50776   -2.000
 7051.00    0.54493   0.51355   -2.000
 7052.00    0.43717   0.52226   -2.000
 7053.00    0.37628   0.52564   -2.000
 7054.00    0.40292   0.51867   -2.000
 7055.00    0.41648   0.50672   -2.000
 7056.00    0.40871   0.50220   -2.000
 7057.00    0.37687   0.50670   -2.000
 7058.00    0.31061   0.51265   -2.000
 7059.00    0.34946   0.51872   -2.000
 7060.00    0.52058   0.52263   -2.000
 7061.00    0.59977   0.51761   -2.000
 7062.00    0.57701   0.50526   -2.000
 7063.00    0.52390   0.49337   -2.000
 7064.00    0.44109   0.49117   -2.000
 7065.00    0.45909   0.50268   -2.000
 7066.00    0.56407   0.51700   -2.000
 7067.00    0.58959   0.52271   -2.000
 7068.00    0.55476   0.52286   -2.000
 7069.00    0.48958   0.52270   -2.000
 7070.00    0.40414   0.52175   -2.000
 7071.00    0.34132   0.51990   -2.000
 7072.00    0.29171   0.51970   -2.000
 7073.00    0.29348   0.52206   -2.000
 7074.00    0.32144   0.52423   -2.000
 7075.00    0.38551   0.52638   -2.000
 7076.00    0.46553   0.52895   -2.000
 7077.00    0.50558   0.52547   -2.000
 7078.00    0.53048   0.51198   -2.000
 7079.00    0.48392   0.49355   -2.000
 7080.00    0.41435   0.48258   -2.000
 7081.00    0.45870   0.48590   -2.000
 7082.00    0.53374   0.49111   -2.000
 7083.00    0.54512   0.48973   -2.000
 7084.00    0.54245   0.48657   -2.000
 7085.00    0.52577   0.48316   -2.000
 7086.00    0.50662   0.48204   -2.000
 7087.00    0.45368   0.48440   -2.000
 7088.00    0.39620   0.48521   -2.000
 7089.00    0.42137   0.48557   -2.000
 7090.00    0.45439   0.48639   -2.000
 7091.00    0.45922   0.48662   -2.000
 7092.00    0.46240   0.48737   -2.000
 7093.00    0.50060   0.49037   -2.000
 7094.00    0.53930   0.49675   -2.000
 7095.00    0.52711   0.50095   -2.000
 7096.00    0.51342   0.50005   -2.000
 7097.00    0.46226   0.49535   -2.000
 7098.00    0.41248   0.49245   -2.000
 7099.00    0.38108   0.49586   -2.000
 7100.00    0.35879   0.50185   -2.000
 7101.00    0.41731   0.50194   -2.000
 7102.00    0.46396   0.49606   -2.000
 7103.00    0.43305   0.49293   -2.000
 7104.00    0.40163   0.49482   -2.000
 7105.00    0.36755   0.49306   -2.000
 7106.00    0.35501   0.48527   -2.000
 7107.00    0.43115   0.48104   -2.000
 7108.00    0.49285   0.48544   -2.000
 7109.00    0.50530   0.49214   -2.000
 7110.00    0.51212   0.49540   -2.000
 7111.00    0.50278   0.49727   -2.000
 7112.00    0.48454   0.49792   -2.000
 7113.00    0.44447   0.49684   -2.000
 7114.00    0.44069   0.49561   -2.000
 7115.00    0.51373   0.49433   -2.000
 7116.00    0.54444   0.49215   -2.000
 7117.00    0.49733   0.48792   -2.000
 7118.00    0.47207   0.48823   -2.000
 7119.00    0.48194   0.49373   -2.000
 7120.00    0.48169   0.49287   -2.000
 7121.00    0.46717   0.48557   -2.000
 7122.00    0.46398   0.48141   -2.000
 7123.00    0.47484   0.48341   -2.000
 7124.00    0.44385   0.48350   -2.000
 7125.00    0.36709   0.47447   -2.000
 7126.00    0.38426   0.46510   -2.000
 7127.00    0.49201   0.46750   -2.000
 7128.00    0.50174   0.47738   -2.000
 7129.00    0.42811   0.48661   -2.000
 7130.00    0.42231   0.49192   -2.000
 7131.00    0.46730   0.49319   -2.000
 7132.00    0.47905   0.49560   -2.000
 7133.00    0.46893   0.49595   -2.000
 7134.00    0.48516   0.48971   -2.000
 7135.00    0.51657   0.48573   -2.000
 7136.00    0.45390   0.49035   -2.000
 7137.00    0.34401   0.49443   -2.000
 7138.00    0.37244   0.49310   -2.000
 7139.00    0.46094   0.49139   -2.000
 7140.00    0.47868   0.49064   -2.000
 7141.00    0.47006   0.48990   -2.000
 7142.00    0.48726   0.48363   -2.000
 7143.00    0.51261   0.47022   -2.000
 7144.00    0.46756   0.46583   -2.000
 7145.00    0.40394   0.47450   -2.000
 7146.00    0.40136   0.48351   -2.000
 7147.00    0.41194   0.49146   -2.000
 7148.00    0.41130   0.49947   -2.000
 7149.00    0.40875   0.50096   -2.000
 7150.00    0.37369   0.49473   -2.000
 7151.00    0.33443   0.49213   -2.000
 7152.00    0.30703   0.49934   -2.000
 7153.00    0.28071   0.50363   -2.000
 7154.00    0.36531   0.49829   -2.000
 7155.00    0.45598   0.49133   -2.000
 7156.00    0.50148   0.49037   -2.000
 7157.00    0.54519   0.49476   -2.000
 7158.00    0.51241   0.49302   -2.000
 7159.00    0.47464   0.47750   -2.000
 7160.00    0.32346   0.46197   -2.000
 7161.00    0.21693   0.46518   -2.000
 7162.00    0.67279   0.48279   -2.000
 7163.00    1.06065   0.49760   -2.000
 7164.00    0.86837   0.50117   -2.000
 7165.00    0.67800   0.49802   -2.000
 7166.00    0.49982   0.49753   -2.000
 7167.00    0.36087   0.50255   -2.000
 7168.00    0.41667   0.50693   -2.000
 7169.00    0.47645   0.50622   -2.000
 7170.00    0.55224   0.49973   -2.000
 7171.00    0.62115   0.49045   -2.000
 7172.00    0.66710   0.48925   -2.000
 7173.00    0.64347   0.49771   -2.000
 7174.00    0.42356   0.49946   -2.000
 7175.00    0.29786   0.48672   -2.000
 7176.00    0.39941   0.47175   -2.000
 7177.00    0.46806   0.47168   -2.000
 7178.00    0.46821   0.48734   -2.000
 7179.00    0.49193   0.50039   -2.000
 7180.00    0.55831   0.50115   -2.000
 7181.00    0.53800   0.49263   -2.000
 7182.00    0.38048   0.47733   -2.000
 7183.00    0.31144   0.46624   -2.000
 7184.00    0.36531   0.46650   -2.000
 7185.00    0.41414   0.47402   -2.000
 7186.00    0.45682   0.48327   -2.000
 7187.00    0.48874   0.48519   -2.000
 7188.00    0.50906   0.48011   -2.000
 7189.00    0.47106   0.47894   -2.000
 7190.00    0.37761   0.48592   -2.000
 7191.00    0.38467   0.48966   -2.000
 7192.00    0.47601   0.48481   -2.000
 7193.00    0.46317   0.48362   -2.000
 7194.00    0.37343   0.48944   -2.000
 7195.00    0.34680   0.49289   -2.000
 7196.00    0.36109   0.48904   -2.000
 7197.00    0.34179   0.48321   -2.000
 7198.00    0.30344   0.48573   -2.000
 7199.00    0.34775   0.49582   -2.000
 7200.00    0.43288   0.50062   -2.000
 7201.00    0.50975   0.48974   -2.000
 7202.00    0.58309   0.46812   -2.000
 7203.00    0.59219   0.45767   -2.000
 7204.00    0.57779   0.46524   -2.000
 7205.00    0.53161   0.48071   -2.000
 7206.00    0.47559   0.49523   -2.000
 7207.00    0.36807   0.49893   -2.000
 7208.00    0.24724   0.49232   -2.000
 7209.00    0.32236   0.48502   -2.000
 7210.00    0.43870   0.48199   -2.000
 7211.00    0.43197   0.48396   -2.000
 7212.00    0.40480   0.49118   -2.000
 7213.00    0.34431   0.49848   -2.000
 7214.00    0.27966   0.49865   -2.000
 7215.00    0.30571   0.49401   -2.000
 7216.00    0.33961   0.49003   -2.000
 7217.00    0.40446   0.48678   -2.000
 7218.00    0.47089   0.48362   -2.000
