###################################################################
## OUTPUT of StarlightChains_v04.for    [Cid@UFSC - 01/Apr/2007] ##
###################################################################

## Some input info
KUG0210-078._45_30.txt                   [arq_obs]
Base.CB07.vall.4m                        [arq_base]
Masks.EmLines.NEW.gm                     [arq_masks]
StCv04.C11.config                        [arq_config]
   66                                    [N_base]
    0                                    [N_YAV_components = # of components with extra extinction!]
    0                                    [i_FitPowerLaw (1/0 = Yes/No)]
-9.99                                    [alpha_PowerLaw]
CCM                                      [red_law_option]
 1.458241                                [q_norm = A(l_norm)/A(V)]

## (Re)Sampling Parameters
 3741.00                                 [l_ini (A)]
 7218.00                                 [l_fin (A)]
    1.00                                 [dl    (A)]     (OBS: dl_cushion =    50.00 A)

## Normalization info
 4020.00                                 [l_norm (A) - for base]
 4010.00                                 [llow_norm (A) - window for f_obs]
 4060.00                                 [lupp_norm (A) - window for f_obs]
1.130548E-17                             [fobs_norm (in input units)]

## S/N
 3691.00                                 [llow_SN (A) - window for S/N]
 7268.00                                 [lupp_SN (A) - window for S/N]
   2.850                                 [S/N in S/N window]
   4.209                                 [S/N in norm. window]
   0.009                                 [S/N_err in S/N window]
   0.013                                 [S/N_err in norm. window]
  1.0000                                 [fscale_chi2]

## etc...
    -2007858                             [idum_orig]
  2409                                   [NOl_eff]
  2244                                   [Nl_eff]
   165    NSIGMA                         [Ntot_cliped & clip_method]
  6324780                                [Nglobal_steps]
   7                                     [N_chains]
   7                                     [NEX0s_base = N_base in EX0s-fits]
 0   0   1      165   2.0   6.385E+03    [Clip-Bug, RC-Crash & Burn-In warning-flags, n_censored_weights, wei_nsig_threshold & wei_limit]
    73     72.294     71.527      0.767  [idt_all, wdt_TotTime, wdt_UsrTime & wdt_SysTime (sec)]

## Synthesis Results - Best model ##

 9.86795E-06                             [chi2/Nl_eff]
    17.49386                             [adev (%)]

   106.51798                             [sum-of-x (%)]
 1.31663E-17                             [Flux_tot (units of input spectrum!)]
 3.95263E-14                             [Mini_tot (???)]
 2.44100E-14                             [Mcor_tot (???)]

-238.01                                  [v0_min  (km/s)]
   8.73                                  [vd_min  (km/s)]
 0.0664                                  [AV_min  (mag)]
 0.0000                                  [YAV_min (mag)]

# j     x_j(%)      Mini_j(%)     Mcor_j(%)     age_j(yr)     Z_j      (L/M)_j    YAV?  Mstars   component_j        a/Fe...       SSP_chi2r SSP_adev(%)   SSP_AV   SSP_x(%)
  1      0.5545     1.5851E-02    2.5667E-02    1.000000E+06  0.00400  1.094E-02    0   1.0000   age020_m42            0.0000     1.0356E-05    16.1108   1.9956    97.2679
  2      0.0000     0.0000E+00    0.0000E+00    3.160000E+06  0.00400  4.007E-02    0   0.9999   age045_m42            0.0000     1.0314E-05    16.8858   1.3621   100.4807
  3      0.0000     0.0000E+00    0.0000E+00    5.010000E+06  0.00400  2.539E-02    0   0.9488   age055_m42            0.0000     1.0277E-05    16.4331   1.6379    99.4263
  4      0.0000     0.0000E+00    0.0000E+00    6.610000E+06  0.00400  2.620E-02    0   0.9220   age061_m42            0.0000     1.0309E-05    17.0032   1.2980   100.3035
  5      0.0000     0.0000E+00    0.0000E+00    1.000000E+07  0.00400  1.322E-02    0   0.8862   age070_m42            0.0000     1.0323E-05    18.1237   1.0574   101.4726
  6      0.0000     0.0000E+00    0.0000E+00    1.445000E+07  0.00400  7.883E-03    0   0.8571   age078_m42            0.0000     1.0383E-05    17.9445   1.3593   100.0414
  7      0.0000     0.0000E+00    0.0000E+00    2.512000E+07  0.00400  5.251E-03    0   0.8174   age090_m42            0.0000     1.0356E-05    18.4802   0.9460   101.5540
  8      0.0000     0.0000E+00    0.0000E+00    4.000000E+07  0.00400  3.649E-03    0   0.7851   age104_m42            0.0000     1.0295E-05    18.4464   0.7261   101.9877
  9      0.0000     0.0000E+00    0.0000E+00    5.500000E+07  0.00400  3.098E-03    0   0.7629   age110_m42            0.0000     1.0307E-05    18.1013   0.8756   101.9477
 10      0.0000     0.0000E+00    0.0000E+00    1.015200E+08  0.00400  2.228E-03    0   0.7207   age116_m42            0.0000     1.0337E-05    17.9171   0.8988   101.8798
 11      0.0000     0.0000E+00    0.0000E+00    2.861200E+08  0.00400  1.093E-03    0   0.6648   age125_m42            0.0000     1.0417E-05    19.1547   0.3847   103.2498
 12      0.0000     0.0000E+00    0.0000E+00    5.088000E+08  0.00400  6.597E-04    0   0.6365   age130_m42            0.0000     1.0349E-05    18.3434   0.3551   104.1074
 13      0.0000     0.0000E+00    0.0000E+00    1.434000E+09  0.00400  2.132E-04    0   0.5798   age139_m42            0.0000     1.0148E-05    17.4664  -0.6336   105.7451
 14      0.0000     0.0000E+00    0.0000E+00    4.250000E+09  0.00400  5.895E-05    0   0.5377   age158_m42            0.0000     1.0439E-05    16.9767  -1.0000    98.0578
 15      0.0000     0.0000E+00    0.0000E+00    7.500000E+09  0.00400  3.510E-05    0   0.5212   age171_m42            0.0000     1.2049E-05    17.8542  -1.0000    89.9768
 16      0.0000     0.0000E+00    0.0000E+00    1.300000E+10  0.00400  2.005E-05    0   0.5034   age193_m42            0.0000     1.4347E-05    18.8810  -1.0000    83.2535
 17      0.0000     0.0000E+00    0.0000E+00    1.800000E+10  0.00400  1.525E-05    0   0.4967   age213_m42            0.0000     1.4643E-05    19.1339  -1.0000    82.1662
 18     11.6039     2.9312E-01    4.7463E-01    1.000000E+06  0.00800  1.238E-02    0   1.0000   age020_m52            0.0000     1.0320E-05    16.0770   1.9897    97.5227
 19      0.0000     0.0000E+00    0.0000E+00    3.160000E+06  0.00800  3.074E-02    0   0.9966   age045_m52            0.0000     1.0291E-05    16.0282   1.9134    98.2964
 20      0.0000     0.0000E+00    0.0000E+00    5.010000E+06  0.00800  2.668E-02    0   0.9443   age055_m52            0.0000     1.0307E-05    16.5021   1.7133    99.0558
 21      0.0000     0.0000E+00    0.0000E+00    6.610000E+06  0.00800  2.136E-02    0   0.9177   age061_m52            0.0000     1.0152E-05    18.1148   0.5533   103.0952
 22      0.0000     0.0000E+00    0.0000E+00    1.000000E+07  0.00800  1.215E-02    0   0.8827   age070_m52            0.0000     1.0400E-05    18.5259   1.2365   101.6380
 23      0.0000     0.0000E+00    0.0000E+00    1.445000E+07  0.00800  8.717E-03    0   0.8552   age078_m52            0.0000     1.0369E-05    17.9208   1.3288   101.1114
 24      0.0000     0.0000E+00    0.0000E+00    2.512000E+07  0.00800  5.592E-03    0   0.8162   age090_m52            0.0000     1.0350E-05    18.5098   1.0095   102.6160
 25      0.0000     0.0000E+00    0.0000E+00    4.000000E+07  0.00800  3.896E-03    0   0.7841   age104_m52            0.0000     1.0349E-05    18.5535   0.9327   102.9664
 26      0.0000     0.0000E+00    0.0000E+00    1.015200E+08  0.00800  2.148E-03    0   0.7226   age116_m52            0.0000     1.0352E-05    18.2501   0.8768   102.3959
 27      0.0000     0.0000E+00    0.0000E+00    2.861200E+08  0.00800  9.925E-04    0   0.6683   age125_m52            0.0000     1.0344E-05    18.4859   0.4288   104.9007
 28      0.0000     0.0000E+00    0.0000E+00    9.047900E+08  0.00800  3.141E-04    0   0.6138   age135_m52            0.0000     1.0205E-05    17.9628  -0.3832   109.0945
 29      0.0000     0.0000E+00    0.0000E+00    1.434000E+09  0.00800  1.719E-04    0   0.5853   age139_m52            0.0000     1.0093E-05    17.4704  -0.9957   107.5166
 30      0.0000     0.0000E+00    0.0000E+00    2.500000E+09  0.00800  7.872E-05    0   0.5600   age150_m52            0.0000     1.1767E-05    17.9731  -1.0000    93.5215
 31      0.0000     0.0000E+00    0.0000E+00    4.250000E+09  0.00800  4.336E-05    0   0.5426   age158_m52            0.0000     1.2079E-05    18.0156  -1.0000    92.0063
 32      0.0000     0.0000E+00    0.0000E+00    6.250000E+09  0.00800  3.159E-05    0   0.5319   age166_m52            0.0000     1.4865E-05    19.2842  -1.0000    84.3950
 33      0.0000     0.0000E+00    0.0000E+00    1.300000E+10  0.00800  1.361E-05    0   0.5073   age193_m52            0.0000     2.4048E-05    22.8642  -1.0000    67.9386
 34      0.0000     0.0000E+00    0.0000E+00    1.800000E+10  0.00800  9.886E-06    0   0.4990   age213_m52            0.0000     2.6920E-05    23.5676  -1.0000    64.2660
 35      0.0000     0.0000E+00    0.0000E+00    1.000000E+06  0.02000  1.544E-02    0   1.0000   age020_m62            0.0000     1.0310E-05    16.0675   1.9823    97.8915
 36      0.0000     0.0000E+00    0.0000E+00    3.160000E+06  0.02000  3.762E-02    0   0.9858   age045_m62            0.0000     1.0305E-05    16.0269   1.9134    98.9781
 37      0.0000     0.0000E+00    0.0000E+00    5.010000E+06  0.02000  3.296E-02    0   0.9342   age055_m62            0.0000     1.0283E-05    16.4820   1.6083   100.2885
 38      0.0000     0.0000E+00    0.0000E+00    8.710000E+06  0.02000  1.154E-02    0   0.8861   age067_m62            0.0000     1.0651E-05    20.7711   0.7252   104.0982
 39      0.0000     0.0000E+00    0.0000E+00    1.445000E+07  0.02000  7.663E-03    0   0.8472   age078_m62            0.0000     1.0429E-05    19.6172   0.9104   103.4803
 40      0.0000     0.0000E+00    0.0000E+00    2.512000E+07  0.02000  4.532E-03    0   0.8099   age090_m62            0.0000     1.0526E-05    19.9638   0.9194   102.6790
 41      0.0000     0.0000E+00    0.0000E+00    5.500000E+07  0.02000  2.733E-03    0   0.7595   age110_m62            0.0000     1.0352E-05    18.6602   0.9166   102.4277
 42      0.0000     0.0000E+00    0.0000E+00    1.609000E+08  0.02000  1.369E-03    0   0.6985   age120_m62            0.0000     1.0376E-05    18.4600   0.7811   103.8770
 43      0.0000     0.0000E+00    0.0000E+00    2.861200E+08  0.02000  9.013E-04    0   0.6714   age125_m62            0.0000     1.0352E-05    18.3323   0.5440   106.0072
 44      0.0000     0.0000E+00    0.0000E+00    5.088000E+08  0.02000  5.028E-04    0   0.6449   age130_m62            0.0000     1.0288E-05    17.8845   0.1557   108.9140
 45      0.0000     0.0000E+00    0.0000E+00    9.047900E+08  0.02000  2.428E-04    0   0.6179   age135_m62            0.0000     1.0173E-05    17.3666  -0.4664   109.2719
 46      0.0000     0.0000E+00    0.0000E+00    1.434000E+09  0.02000  1.263E-04    0   0.5908   age139_m62            0.0000     1.0183E-05    16.8615  -0.9435   108.4950
 47      0.0000     0.0000E+00    0.0000E+00    2.500000E+09  0.02000  5.985E-05    0   0.5673   age150_m62            0.0000     1.2241E-05    18.0223  -1.0000    94.1341
 48      0.0000     0.0000E+00    0.0000E+00    4.250000E+09  0.02000  3.271E-05    0   0.5468   age158_m62            0.0000     1.7099E-05    19.6479  -1.0000    81.4209
 49      0.0000     0.0000E+00    0.0000E+00    1.000000E+10  0.02000  1.360E-05    0   0.5167   age181_m62            0.0000     2.4612E-05    22.2583  -1.0000    69.3439
 50      0.0000     0.0000E+00    0.0000E+00    1.800000E+10  0.02000  7.124E-06    0   0.5013   age213_m62            0.0000     2.9912E-05    24.0038  -1.0000    62.5814
 51     30.8991     3.7279E-01    6.0353E-01    1.000000E+06  0.05000  2.592E-02    0   0.9998   age020_m72            0.0000     1.0294E-05    16.0302   1.9659    98.2162
 52      0.0000     0.0000E+00    0.0000E+00    3.160000E+06  0.05000  4.845E-02    0   0.9577   age045_m72            0.0000     1.0340E-05    16.0635   1.8180    99.2875
 53      0.0000     0.0000E+00    0.0000E+00    5.010000E+06  0.05000  3.072E-02    0   0.9147   age055_m72            0.0000     1.0485E-05    18.9183   1.4448   101.4762
 54      0.0000     0.0000E+00    0.0000E+00    6.610000E+06  0.05000  1.455E-02    0   0.8877   age061_m72            0.0000     1.1650E-05    24.8168   0.8652   104.5532
 55      0.0000     0.0000E+00    0.0000E+00    1.000000E+07  0.05000  9.074E-03    0   0.8524   age070_m72            0.0000     1.0854E-05    20.3115   1.6557   101.0975
 56      0.0000     0.0000E+00    0.0000E+00    2.512000E+07  0.05000  4.250E-03    0   0.7902   age090_m72            0.0000     1.0686E-05    19.8445   1.3844   101.2017
 57      0.0000     0.0000E+00    0.0000E+00    4.000000E+07  0.05000  3.087E-03    0   0.7618   age104_m72            0.0000     1.0712E-05    20.1672   1.1825   101.8863
 58      0.0000     0.0000E+00    0.0000E+00    1.015200E+08  0.05000  1.700E-03    0   0.7096   age116_m72            0.0000     1.0448E-05    18.8547   0.9273   103.4707
 59      0.0000     0.0000E+00    0.0000E+00    2.861200E+08  0.05000  7.384E-04    0   0.6633   age125_m72            0.0000     1.0184E-05    17.7602   0.3906   107.6901
 60     18.2338     1.4931E+01    1.5406E+01    5.088000E+08  0.05000  3.819E-04    0   0.6372   age130_m72            0.0000     1.0043E-05    16.9387  -0.1392   110.3680
 61     45.2267     8.4387E+01    8.3491E+01    9.047900E+08  0.05000  1.676E-04    0   0.6110   age135_m72            0.0000     1.0237E-05    16.1172  -0.8971   110.2460
 62      0.0000     0.0000E+00    0.0000E+00    1.434000E+09  0.05000  8.837E-05    0   0.5874   age139_m72            0.0000     1.2478E-05    17.8322  -1.0000    94.9499
 63      0.0000     0.0000E+00    0.0000E+00    2.500000E+09  0.05000  4.233E-05    0   0.5598   age150_m72            0.0000     1.7387E-05    19.5889  -1.0000    82.0093
 64      0.0000     0.0000E+00    0.0000E+00    6.250000E+09  0.05000  1.435E-05    0   0.5249   age166_m72            0.0000     2.7092E-05    23.0647  -1.0000    65.9861
 65      0.0000     0.0000E+00    0.0000E+00    1.300000E+10  0.05000  6.513E-06    0   0.5036   age193_m72            0.0000     3.4469E-05    25.4422  -1.0000    58.5821
 66      0.0000     0.0000E+00    0.0000E+00    1.800000E+10  0.05000  4.527E-06    0   0.4945   age213_m72            0.0000     3.9100E-05    26.7172  -1.0000    54.0945


## Synthesis Results - Average & Chains ##

# j      x_j: min, <> & last-chain-values for 1 ...  7 chains
  1      0.5545     22.1119     33.4871     35.6606     34.2988     34.8584     34.1722     32.2200     34.1177
  2      0.0000      0.4856      0.0000      0.0151      0.1117      0.0000      0.0000      0.3171      0.0424
  3      0.0000      0.5021      0.0827      0.0026      0.0000      0.0185      0.0080      0.0000      0.2474
  4      0.0000      0.3533      0.1100      0.0002      0.1418      0.0000      0.0000      0.0000      0.0306
  5      0.0000      0.4933      0.0000      0.0037      0.0000      0.0088      0.0000      0.1268      0.0578
  6      0.0000      0.4212      0.0000      0.0000      0.0000      0.0000      0.0181      0.1182      0.0076
  7      0.0000      0.3729      0.1298      0.0011      0.0428      0.0309      0.0135      0.1609      0.1122
  8      0.0000      0.5529      0.0000      0.0000      0.0809      0.0394      0.0309      0.1434      0.0000
  9      0.0000      0.4732      0.0000      0.0002      0.3198      0.0000      0.0355      0.1574      0.0105
 10      0.0000      0.5095      0.0000      0.0000      0.0803      0.0465      0.0000      0.0641      0.0000
 11      0.0000      0.4855      0.0682      0.0019      0.1561      0.0175      0.0326      0.0529      0.1250
 12      0.0000      0.3723      0.1120      0.0022      0.0274      0.0000      0.0983      0.0472      0.0000
 13      0.0000      0.5636      0.1643      0.0038      0.0000      0.0406      0.0000      0.1588      0.1213
 14      0.0000      0.4599      0.0690      0.0018      0.0000      0.1224      0.0271      0.0741      0.0910
 15      0.0000      0.5523      0.1342      0.0000      0.2918      0.0576      0.0324      0.0267      0.0000
 16      0.0000      0.4347      0.0137      0.0000      0.0263      0.0212      0.0673      0.0034      0.0000
 17      0.0000      0.4925      0.1365      0.0000      0.1643      0.1337      0.1263      0.0426      0.1244
 18     11.6039      6.6821      9.8128     10.0898      9.9266     10.0199      9.9835      9.3634     10.0951
 19      0.0000      0.4910      0.0816      0.0000      0.0982      0.0140      0.0827      0.1600      0.0538
 20      0.0000      0.3803      0.2687      0.0000      0.0451      0.0243      0.0000      0.0000      0.0000
 21      0.0000      0.3874      0.0404      0.0015      0.2487      0.0357      0.0992      0.3848      0.0111
 22      0.0000      0.4048      0.0481      0.0000      0.0759      0.0699      0.1218      0.1704      0.0000
 23      0.0000      0.3992      0.0626      0.0006      0.1022      0.0377      0.0157      0.0879      0.0023
 24      0.0000      0.4370      0.0000      0.0008      0.0212      0.0864      0.0524      0.0000      0.0275
 25      0.0000      0.5449      0.0000      0.0010      0.0000      0.0077      0.0085      0.0940      0.0492
 26      0.0000      0.4810      0.0000      0.0009      0.0000      0.0231      0.0982      0.1400      0.0634
 27      0.0000      0.4102      0.0000      0.0031      0.0000      0.0077      0.0008      0.0000      0.0000
 28      0.0000      0.4419      0.0086      0.0004      0.0084      0.0317      0.1534      0.1415      0.0034
 29      0.0000      0.3500      0.2027      0.0000      0.0666      0.0643      0.0000      0.1046      0.0171
 30      0.0000      0.3406      0.1342      0.0000      0.0188      0.0049      0.0115      0.0812      0.0212
 31      0.0000      0.4078      0.0878      0.0000      0.0000      0.0299      0.0000      0.0229      0.0451
 32      0.0000      0.4446      0.0000      0.0031      0.0000      0.0035      0.0000      0.3803      0.0417
 33      0.0000      0.3220      0.1392      0.0027      0.0398      0.0287      0.0382      0.1093      0.0127
 34      0.0000      0.5035      0.0000      0.0016      0.0000      0.0080      0.0247      0.1082      0.0072
 35      0.0000      0.5833      0.6881      0.8257      0.8597      0.7275      0.8678      0.7147      0.6337
 36      0.0000      0.4248      0.0090      0.0018      0.0000      0.0322      0.0566      0.3787      0.0000
 37      0.0000      0.4352      0.1021      0.0008      0.0000      0.0522      0.0618      0.0695      0.0341
 38      0.0000      0.4223      0.0851      0.0000      0.1909      0.0000      0.0161      0.5495      0.1090
 39      0.0000      0.3802      0.1026      0.0033      0.0558      0.0000      0.0000      0.0050      0.0081
 40      0.0000      0.3764      0.0607      0.0019      0.0024      0.0734      0.0389      0.0000      0.0000
 41      0.0000      0.3060      0.0111      0.0003      0.1806      0.0000      0.0212      0.0000      0.0000
 42      0.0000      0.4839      0.0000      0.0010      0.0319      0.0056      0.0064      0.0601      0.0000
 43      0.0000      0.4227      0.0000      0.0012      0.0000      0.0000      0.0769      0.2798      0.1257
 44      0.0000      0.4472      0.3301      0.5087      0.4324      0.3903      0.2704      0.4318      0.3380
 45      0.0000      0.6061      0.0748      0.0920      0.0984      0.1356      0.0409      0.0964      0.0521
 46      0.0000      0.4536      0.0000      0.0016      0.0000      0.0056      0.0000      0.0759      0.0713
 47      0.0000      0.3223      0.0000      0.0005      0.0917      0.0070      0.0257      0.0000      0.0000
 48      0.0000      0.3602      0.1923      0.0013      0.0000      0.0383      0.0493      0.0211      0.0000
 49      0.0000      0.3816      0.2176      0.0018      0.0167      0.0374      0.0025      0.0684      0.0000
 50      0.0000      0.3967      0.0652      0.0000      0.0000      0.0000      0.0130      0.0412      0.0212
 51     30.8991     14.1215     21.8734     22.1696     20.6347     22.4015     22.1793     20.6869     22.0199
 52      0.0000      0.4619      0.2004      0.0038      0.0000      0.0892      0.0536      0.1642      0.0209
 53      0.0000      0.4443      0.0000      0.0010      0.2098      0.0000      0.0000      0.0498      0.0759
 54      0.0000      0.4609      0.0249      0.0000      0.0000      0.0198      0.0100      0.1887      0.0000
 55      0.0000      0.3693      0.0328      0.0000      0.0554      0.0000      0.0060      0.0000      0.0279
 56      0.0000      0.3269      0.1252      0.0028      0.0532      0.0417      0.0000      0.0858      0.1222
 57      0.0000      0.5804      0.0567      0.0028      0.0000      0.0000      0.0000      0.0000      0.0081
 58      0.0000      0.5487      0.0287      0.0002      0.0286      0.0507      0.0505      0.1042      0.0000
 59      0.0000      0.7164      0.1216      0.0014      0.2436      0.0314      0.0230      0.0000      0.0000
 60     18.2338      0.8342      0.5657      0.8241      0.7251      0.6700      0.5329      0.7372      0.7637
 61     45.2267      0.6549      0.7434      1.2121      0.8287      0.6126      0.9182      1.1356      0.9231
 62      0.0000      0.2908      0.0000      0.0028      0.0091      0.0000      0.0000      0.0000      0.0000
 63      0.0000      0.2800      0.0262      0.0000      0.1316      0.0583      0.0234      0.0000      0.0000
 64      0.0000      0.4147      0.1512      0.0000      0.0000      0.0000      0.0000      0.1508      0.1086
 65      0.0000      0.4785      0.0000      0.0000      0.0000      0.0000      0.0000      0.0423      0.0481
 66      0.0000      0.3736      0.0000      0.0003      0.0000      0.0000      0.0368      0.1333      0.0000

# j      m_j: min, <> & last-chain-values for 1 ...  7 chains
  1  2.5667E-02  7.7569E-01  6.4896E+00  2.6960E+01  1.2073E+01  1.4907E+01  1.2092E+01  4.7987E+00  1.1398E+01
  2  0.0000E+00  4.6503E-03  0.0000E+00  3.1190E-03  1.0733E-02  0.0000E+00  0.0000E+00  1.2893E-02  3.8679E-03
  3  0.0000E+00  7.2012E-03  6.5486E-03  8.0349E-04  0.0000E+00  3.2383E-03  1.1518E-03  0.0000E+00  3.3789E-02
  4  0.0000E+00  4.7714E-03  8.2076E-03  4.8049E-05  1.9215E-02  0.0000E+00  0.0000E+00  0.0000E+00  3.9359E-03
  5  0.0000E+00  1.2690E-02  0.0000E+00  2.0337E-03  0.0000E+00  2.7587E-03  0.0000E+00  1.3846E-02  1.4148E-02
  6  0.0000E+00  1.7574E-02  0.0000E+00  5.7135E-06  0.0000E+00  0.0000E+00  7.6322E-03  2.0933E-02  3.0085E-03
  7  0.0000E+00  2.2276E-02  4.2830E-02  1.4604E-03  2.5654E-02  2.2504E-02  8.1317E-03  4.0812E-02  6.3824E-02
  8  0.0000E+00  4.5657E-02  0.0000E+00  0.0000E+00  6.7032E-02  3.9627E-02  2.5753E-02  5.0286E-02  0.0000E+00
  9  0.0000E+00  4.4724E-02  0.0000E+00  4.7787E-04  3.0327E-01  0.0000E+00  3.3813E-02  6.3172E-02  9.4105E-03
 10  0.0000E+00  6.3253E-02  0.0000E+00  0.0000E+00  9.9989E-02  7.0344E-02  0.0000E+00  3.3795E-02  0.0000E+00
 11  0.0000E+00  1.1333E-01  8.7883E-02  9.7574E-03  3.6562E-01  4.9760E-02  7.6662E-02  5.2447E-02  2.7795E-01
 12  0.0000E+00  1.3786E-01  2.2904E-01  1.7212E-02  1.0179E-01  0.0000E+00  3.6709E-01  7.4175E-02  0.0000E+00
 13  0.0000E+00  5.8821E-01  9.4735E-01  8.5666E-02  0.0000E+00  5.1625E-01  0.0000E+00  7.0359E-01  1.2052E+00
 14  0.0000E+00  1.6099E+00  1.3348E+00  1.3812E-01  0.0000E+00  5.2225E+00  9.5571E-01  1.1016E+00  3.0347E+00
 15  0.0000E+00  3.1474E+00  4.2257E+00  0.0000E+00  1.6684E+01  4.0021E+00  1.8644E+00  6.4591E-01  0.0000E+00
 16  0.0000E+00  4.1890E+00  7.2683E-01  0.0000E+00  2.5415E+00  2.4903E+00  6.5364E+00  1.3957E-01  0.0000E+00
 17  0.0000E+00  6.1561E+00  9.4234E+00  0.0000E+00  2.0609E+01  2.0369E+01  1.5922E+01  2.2602E+00  1.4812E+01
 18  4.7463E-01  2.0714E-01  1.6805E+00  6.7408E+00  3.0877E+00  3.7866E+00  3.1218E+00  1.2323E+00  2.9802E+00
 19  0.0000E+00  6.1088E-03  5.6102E-03  0.0000E+00  1.2264E-02  2.1225E-03  1.0378E-02  8.4519E-03  6.3748E-03
 20  0.0000E+00  5.1652E-03  2.0164E-02  0.0000E+00  6.1507E-03  4.0260E-03  0.0000E+00  0.0000E+00  0.0000E+00
 21  0.0000E+00  6.3875E-03  3.6757E-03  5.4396E-04  4.1144E-02  7.1786E-03  1.6501E-02  2.6940E-02  1.7441E-03
 22  0.0000E+00  1.1285E-02  7.4093E-03  0.0000E+00  2.1222E-02  2.3769E-02  3.4259E-02  2.0169E-02  0.0000E+00
 23  0.0000E+00  1.5029E-02  1.3023E-02  4.8772E-04  3.8624E-02  1.7305E-02  5.9753E-03  1.4057E-02  8.2750E-04
 24  0.0000E+00  2.4479E-02  0.0000E+00  9.9998E-04  1.1942E-02  5.9024E-02  2.9608E-02  0.0000E+00  1.4669E-02
 25  0.0000E+00  4.2087E-02  0.0000E+00  1.7227E-03  0.0000E+00  7.2149E-03  6.5900E-03  3.0816E-02  3.6171E-02
 26  0.0000E+00  6.2095E-02  0.0000E+00  2.4922E-03  0.0000E+00  3.6372E-02  1.2790E-01  7.6714E-02  7.7904E-02
 27  0.0000E+00  1.0601E-01  0.0000E+00  1.6994E-02  0.0000E+00  2.4398E-02  2.1836E-03  0.0000E+00  0.0000E+00
 28  0.0000E+00  3.3139E-01  3.5682E-02  7.0529E-03  6.3158E-02  2.9005E-01  1.1604E+00  4.5067E-01  2.4327E-02
 29  0.0000E+00  4.5732E-01  1.4635E+00  3.4254E-04  8.7296E-01  1.0240E+00  0.0000E+00  5.8011E-01  2.1289E-01
 30  0.0000E+00  9.2979E-01  2.0243E+00  0.0000E+00  5.1428E-01  1.6318E-01  3.1599E-01  9.4069E-01  5.5031E-01
 31  0.0000E+00  1.9583E+00  2.3297E+00  0.0000E+00  0.0000E+00  1.7476E+00  0.0000E+00  4.6757E-01  2.0645E+00
 32  0.0000E+00  2.8729E+00  0.0000E+00  4.2503E-01  0.0000E+00  2.7741E-01  0.0000E+00  1.0433E+01  2.5676E+00
 33  0.0000E+00  4.6060E+00  1.1000E+01  8.3582E-01  5.7192E+00  5.0039E+00  5.5132E+00  6.6400E+00  1.7287E+00
 34  0.0000E+00  9.7536E+00  0.0000E+00  6.8656E-01  0.0000E+00  1.8873E+00  4.8206E+00  8.8955E+00  1.3236E+00
 35  0.0000E+00  1.4499E-02  9.4491E-02  4.4231E-01  2.1443E-01  2.2043E-01  2.1758E-01  7.5422E-02  1.4999E-01
 36  0.0000E+00  4.2725E-03  5.0260E-04  3.8618E-04  0.0000E+00  3.9480E-03  5.7448E-03  1.6170E-02  0.0000E+00
 37  0.0000E+00  4.7340E-03  6.1350E-03  1.8107E-04  0.0000E+00  6.9188E-03  6.7841E-03  3.2093E-03  3.5308E-03
 38  0.0000E+00  1.2444E-02  1.3850E-02  0.0000E+00  5.6455E-02  0.0000E+00  4.7877E-03  6.8748E-02  3.0589E-02
 39  0.0000E+00  1.6130E-02  2.4047E-02  2.9914E-03  2.3746E-02  0.0000E+00  0.0000E+00  8.9196E-04  3.2919E-03
 40  0.0000E+00  2.5816E-02  2.2994E-02  2.8747E-03  1.6591E-03  6.1365E-02  2.6943E-02  0.0000E+00  0.0000E+00
 41  0.0000E+00  3.2637E-02  6.5384E-03  7.5666E-04  1.9331E-01  0.0000E+00  2.2780E-02  0.0000E+00  0.0000E+00
 42  0.0000E+00  9.4756E-02  0.0000E+00  4.0724E-03  6.2683E-02  1.3325E-02  1.2675E-02  4.9929E-02  0.0000E+00
 43  0.0000E+00  1.2085E-01  0.0000E+00  7.1701E-03  0.0000E+00  0.0000E+00  2.2184E-01  3.3957E-01  3.4230E-01
 44  0.0000E+00  2.2014E-01  8.9772E-01  5.3966E+00  2.1357E+00  2.3420E+00  1.3428E+00  9.0233E-01  1.5843E+00
 45  0.0000E+00  5.9196E-01  4.0369E-01  1.9366E+00  9.6458E-01  1.6147E+00  4.0247E-01  3.9973E-01  4.8461E-01
 46  0.0000E+00  8.1423E-01  0.0000E+00  6.1897E-02  0.0000E+00  1.2226E-01  0.0000E+00  5.7829E-01  1.2195E+00
 47  0.0000E+00  1.1724E+00  0.0000E+00  3.7482E-02  3.3473E+00  3.1079E-01  9.4435E-01  0.0000E+00  0.0000E+00
 48  0.0000E+00  2.3109E+00  6.8146E+00  1.8153E-01  0.0000E+00  2.9972E+00  3.1882E+00  5.7426E-01  0.0000E+00
 49  0.0000E+00  5.5644E+00  1.7527E+01  5.5867E-01  2.4465E+00  6.6435E+00  3.7205E-01  4.2353E+00  0.0000E+00
 50  0.0000E+00  1.0713E+01  9.7321E+00  0.0000E+00  0.0000E+00  0.0000E+00  3.5378E+00  4.7238E+00  5.4551E+00
 51  6.0353E-01  2.0905E-01  1.7888E+00  7.0727E+00  3.0650E+00  4.0426E+00  3.3118E+00  1.3001E+00  3.1042E+00
 52  0.0000E+00  3.5036E-03  8.4000E-03  6.1530E-04  0.0000E+00  8.2502E-03  4.0991E-03  5.2882E-03  1.5092E-03
 53  0.0000E+00  5.0774E-03  0.0000E+00  2.5145E-04  2.4057E-02  0.0000E+00  0.0000E+00  2.4182E-03  8.2543E-03
 54  0.0000E+00  1.0791E-02  3.2168E-03  0.0000E+00  0.0000E+00  5.6435E-03  2.3629E-03  1.8758E-02  0.0000E+00
 55  0.0000E+00  1.3313E-02  6.5250E-03  0.0000E+00  2.0056E-02  0.0000E+00  2.1786E-03  0.0000E+00  9.5844E-03
 56  0.0000E+00  2.3329E-02  4.9372E-02  4.2639E-03  3.8114E-02  3.6233E-02  0.0000E+00  2.6000E-02  8.3013E-02
 57  0.0000E+00  5.4973E-02  2.9672E-02  5.6629E-03  0.0000E+00  0.0000E+00  0.0000E+00  0.0000E+00  7.2824E-03
 58  0.0000E+00  8.7895E-02  2.5400E-02  6.6895E-04  4.6048E-02  9.9073E-02  8.1645E-02  7.0894E-02  0.0000E+00
 59  0.0000E+00  2.4696E-01  2.3159E-01  1.0329E-02  8.4253E-01  1.3207E-01  8.0105E-02  0.0000E+00  0.0000E+00
 60  1.5406E+01  5.3415E-01  2.0012E+00  1.1372E+01  4.6589E+00  5.2298E+00  3.4424E+00  2.0043E+00  4.6569E+00
 61  8.3491E+01  9.1629E-01  5.7456E+00  3.6547E+01  1.1633E+01  1.0448E+01  1.2959E+01  6.7452E+00  1.2299E+01
 62  0.0000E+00  7.4179E-01  0.0000E+00  1.5556E-01  2.3190E-01  0.0000E+00  0.0000E+00  0.0000E+00  0.0000E+00
 63  0.0000E+00  1.4209E+00  7.3494E-01  0.0000E+00  6.7042E+00  3.6047E+00  1.1961E+00  0.0000E+00  0.0000E+00
 64  0.0000E+00  5.8222E+00  1.1726E+01  0.0000E+00  0.0000E+00  0.0000E+00  0.0000E+00  8.9847E+00  1.4517E+01
 65  0.0000E+00  1.4199E+01  0.0000E+00  0.0000E+00  0.0000E+00  0.0000E+00  0.0000E+00  5.3297E+00  1.3590E+01
 66  0.0000E+00  1.5663E+01  0.0000E+00  2.5977E-01  0.0000E+00  0.0000E+00  1.5557E+01  2.3716E+01  0.0000E+00

# AV, chi2 & Mass for <> & i_chain = 1 ...  7 solutions
AV       0.0664      2.4742      2.4025      2.5454      2.4611      2.5220      2.5319      2.3266      2.4979
chi2 9.8679E-06  2.0225E-04  1.8262E-05  1.7782E-05  1.8111E-05  1.7899E-05  1.8298E-05  1.8435E-05  1.8171E-05
Mass 2.4410E-14  8.1729E-13  1.3436E-13  4.1731E-14  8.0039E-14  7.1488E-14  8.7562E-14  1.5790E-13  8.8604E-14
-238.01                                  [v0_min (km/s) before EX0s...]
   8.73                                  [vd_min (km/s) before EX0s...]


## Synthetic spectrum (Best Model) ##l_obs f_obs f_syn wei
 3478    [Nl_obs]
 3741.00    0.35650   0.82244    0.000
 3742.00    0.47066   0.79983    0.000
 3743.00    0.48341   0.76524    0.000
 3744.00    0.36695   0.73075    0.000
 3745.00    0.17520   0.68019   -1.000
 3746.00    0.27798   0.62512   -1.000
 3747.00    0.53032   0.61333   -1.000
 3748.00    0.60500   0.66117   -1.000
 3749.00    0.60155   0.73363   -1.000
 3750.00    0.56136   0.79043   -1.000
 3751.00    0.50730   0.82747   -1.000
 3752.00    0.45087   0.86030   -1.000
 3753.00    0.39367   0.87226   -1.000
 3754.00    0.48474   0.83456   -1.000
 3755.00    0.61554   0.79094   -1.000
 3756.00    0.70604   0.77562   -1.000
 3757.00    0.78768   0.78483   -1.000
 3758.00    0.60806   0.81355   -1.000
 3759.00    0.38282   0.83983   -1.000
 3760.00    0.24298   0.85325   -1.000
 3761.00    0.11449   0.85827   -1.000
 3762.00    0.36209   0.85467   -1.000
 3763.00    0.64503   0.82465   -1.000
 3764.00    0.62272   0.78252   -1.000
 3765.00    0.58280   0.75107   -1.000
 3766.00    0.55430   0.70963   -1.000
 3767.00    0.52751   0.65828   -1.000
 3768.00    0.67566   0.65572   -1.000
 3769.00    0.82688   0.71436   -1.000
 3770.00    1.05282   0.76995   -1.000
 3771.00    1.27265   0.79511   -1.000
 3772.00    1.41242   0.81742   -1.000
 3773.00    1.51436   0.84804   -1.000
 3774.00    1.28423   0.88089   -1.000
 3775.00    1.02210   0.90853   -1.000
 3776.00    0.55250   0.93455   -1.000
 3777.00    0.13611   0.95972   -1.000
 3778.00   -0.01091   0.96842    0.000
 3779.00   -0.07248   0.96247    0.000
 3780.00    0.21571   0.96428   -1.000
 3781.00    0.42310   0.97673   -1.000
 3782.00    0.35644   0.96056   -1.000
 3783.00    0.27770   0.90771   -1.000
 3784.00    0.16444   0.87277   -1.000
 3785.00    0.07612   0.86447   -1.000
 3786.00    0.04872   0.85779   -1.000
 3787.00    0.06662   0.85031   -1.000
 3788.00    0.18001   0.84679   -1.000
 3789.00    0.33518   0.84200   -1.000
 3790.00    0.56688   0.81828   -1.000
 3791.00    0.70834   0.77592   -1.000
 3792.00    0.70533   0.73268   -1.000
 3793.00    0.62671   0.68291   -1.000
 3794.00    0.44189   0.61800   -1.000
 3795.00    0.29237   0.58368   -1.000
 3796.00    0.18649   0.62502   -1.000
 3797.00    0.17800   0.70872   -1.000
 3798.00    0.27562   0.78200   -1.000
 3799.00    0.33606   0.83820   -1.000
 3800.00    0.36079   0.88584   -1.000
 3801.00    0.48591   0.91212   -1.000
 3802.00    0.69609   0.90994   -1.000
 3803.00    0.78638   0.89111   -1.000
 3804.00    0.78721   0.88361   -1.000
 3805.00    0.71838   0.90989   -1.000
 3806.00    0.60388   0.95154   -1.000
 3807.00    0.16785   0.98138   -1.000
 3808.00   -0.45268   0.98688    0.000
 3809.00   -0.32190   0.95829    0.000
 3810.00    0.18438   0.90585   -1.000
 3811.00    0.50890   0.87004   -1.000
 3812.00    0.75482   0.86669   -1.000
 3813.00    1.12067   0.88523   -1.000
 3814.00    1.53101   0.91647   -1.000
 3815.00    1.54919   0.92335   -1.000
 3816.00    1.44409   0.88635   -1.000
 3817.00    1.00351   0.84982   -1.000
 3818.00    0.47491   0.86299   -1.000
 3819.00    0.59642   0.90532   -1.000
 3820.00    0.85721   0.91188   -1.000
 3821.00    0.48824   0.87013   -1.000
 3822.00    0.01241   0.83388   -1.000
 3823.00    0.11357   0.82454   -1.000
 3824.00    0.28878   0.82089   -1.000
 3825.00    0.06284   0.81405   -1.000
 3826.00   -0.19911   0.80539    0.000
 3827.00   -0.57481   0.79183    0.000
 3828.00   -0.95662   0.76058    0.000
 3829.00   -0.06888   0.70356    0.000
 3830.00    0.84087   0.64151   -1.000
 3831.00    1.46160   0.58477   -1.000
 3832.00    2.02604   0.54743   -1.000
 3833.00    1.33976   0.56386   -1.000
 3834.00    0.68397   0.62174   -1.000
 3835.00    0.40718   0.67319   -1.000
 3836.00    0.22752   0.71048   -1.000
 3837.00    0.86891   0.74498   -1.000
 3838.00    1.35823   0.78794   -1.000
 3839.00    0.89079   0.83617   -1.000
 3840.00    0.45563   0.86632   -1.000
 3841.00    0.17973   0.87990   -1.000
 3842.00    0.16993   0.88539   -1.000
 3843.00    1.22539   0.89315   -1.000
 3844.00    1.93675   0.91329   -1.000
 3845.00    1.50415   0.92616   -1.000
 3846.00    1.08880   0.91178   -1.000
 3847.00    0.72188   0.90093    0.000
 3848.00    0.46124   0.92461    0.000
 3849.00    0.45585   0.95283    0.000
 3850.00    0.39847   0.95619    0.000
 3851.00    0.23328   0.94952    0.000
 3852.00    0.23691   0.93494    0.000
 3853.00    0.54506   0.92104    0.000
 3854.00    0.87466   0.92609    0.000
 3855.00    1.23812   0.91972    0.000
 3856.00    1.18084   0.89716    0.000
 3857.00    0.54110   0.90581    0.000
 3858.00    0.45034   0.94458    0.000
 3859.00    1.02849   0.97069    0.000
 3860.00    1.23313   0.97299    0.000
 3861.00    1.03655   0.96920    0.000
 3862.00    0.64632   0.96279    0.000
 3863.00    0.07260   0.95490    0.000
 3864.00   -0.21007   0.95658    0.000
 3865.00   -0.24959   0.96970    0.000
 3866.00   -0.09122   0.97873    0.000
 3867.00    0.21270   0.96591    0.000
 3868.00    0.45111   0.92879    0.000
 3869.00    0.64719   0.88272    0.000
 3870.00    0.43132   0.87220    0.000
 3871.00   -0.01736   0.90648    0.000
 3872.00   -0.02703   0.93921    0.000
 3873.00    0.17926   0.94020    0.000
 3874.00    0.49152   0.90849    0.000
 3875.00    0.84883   0.86545    0.000
 3876.00    0.45569   0.86291    0.000
 3877.00   -0.21080   0.88951    0.000
 3878.00   -0.22834   0.88226    0.000
 3879.00   -0.04581   0.84742    0.000
 3880.00    0.48766   0.82462    0.000
 3881.00    1.11123   0.80501   -1.000
 3882.00    1.01467   0.75707   -1.000
 3883.00    0.76756   0.69185   -1.000
 3884.00    0.52422   0.63395   -1.000
 3885.00    0.28149   0.57730   -1.000
 3886.00    0.58267   0.54926   -1.000
 3887.00    0.95120   0.59558   -1.000
 3888.00    1.09170   0.68381   -1.000
 3889.00    1.21269   0.75540   -1.000
 3890.00    0.59610   0.79443   -1.000
 3891.00   -0.05725   0.81190    0.000
 3892.00    0.23883   0.82374   -1.000
 3893.00    0.55042   0.84383   -1.000
 3894.00    0.85897   0.86586   -1.000
 3895.00    1.11486   0.86897   -1.000
 3896.00    0.29351   0.86311   -1.000
 3897.00   -0.40029   0.87820    0.000
 3898.00    0.41423   0.91747   -1.000
 3899.00    1.09184   0.93448   -1.000
 3900.00    0.65407   0.91828   -1.000
 3901.00    0.25019   0.90756   -1.000
 3902.00    0.05322   0.89481   -1.000
 3903.00   -0.11699   0.88223    0.000
 3904.00   -0.15850   0.90382    0.000
 3905.00   -0.16863   0.94668    0.000
 3906.00   -0.05586   0.97769    0.000
 3907.00    0.02807   0.99197   -1.000
 3908.00    0.01804   0.99657   -1.000
 3909.00    0.00577   0.98918   -1.000
 3910.00   -0.01264   0.96657    0.000
 3911.00    0.05445   0.94973   -1.000
 3912.00    0.32344   0.94921   -1.000
 3913.00    0.55663   0.94222   -1.000
 3914.00    0.71672   0.93087   -1.000
 3915.00    0.73535   0.92157   -1.000
 3916.00    0.50273   0.90738   -1.000
 3917.00    0.55527   0.89681   -1.000
 3918.00    1.05087   0.89935   -1.000
 3919.00    1.26530   0.90837   -1.000
 3920.00    1.09610   0.91442   -1.000
 3921.00    0.72590   0.91871   -1.000
 3922.00    0.11424   0.90629   -1.000
 3923.00   -0.09360   0.88005    0.000
 3924.00    0.12624   0.85381   -1.000
 3925.00    0.53844   0.82117   -1.000
 3926.00    1.13033   0.78208   -1.000
 3927.00    0.81637   0.73846   -1.000
 3928.00   -0.24363   0.69029    0.000
 3929.00   -0.76192   0.64046    0.000
 3930.00   -0.88752   0.59756    0.000
 3931.00   -0.45685   0.58549    0.000
 3932.00    0.32784   0.62008   -1.000
 3933.00    0.79929   0.68339   -1.000
 3934.00    1.09643   0.74422   -1.000
 3935.00    1.21139   0.79245   -1.000
 3936.00    1.23816   0.83784   -1.000
 3937.00    0.79367   0.87163   -1.000
 3938.00    0.15215   0.87953   -1.000
 3939.00    0.47082   0.87446   -1.000
 3940.00    1.13295   0.86633   -1.000
 3941.00    0.99280   0.86425    0.078
 3942.00    0.61015   0.89107    0.034
 3943.00    0.23819   0.92911    0.031
 3944.00   -0.13109   0.92783    0.000
 3945.00   -0.13790   0.90161    0.000
 3946.00   -0.07080   0.89864    0.000
 3947.00    0.22906   0.91569    0.033
 3948.00    0.56618   0.92038    0.033
 3949.00    0.71845   0.91057    0.033
 3950.00    0.84866   0.91696    0.033
 3951.00    0.80463   0.93918    0.034
 3952.00    0.74642   0.93050    0.034
 3953.00    0.69647   0.89085    0.033
 3954.00    0.64690   0.87396    0.032
 3955.00    0.64731   0.89180    0.032
 3956.00    0.65193   0.90467    0.032
 3957.00    0.84327   0.87674    0.032
 3958.00    1.01674   0.81516    0.033
 3959.00    0.85146   0.76951    0.032
 3960.00    0.70241   0.74987    0.000
 3961.00    0.73614   0.72201    0.000
 3962.00    0.77170   0.67496    0.000
 3963.00    0.82158   0.61315    0.000
 3964.00    0.82018   0.53965    0.000
 3965.00    0.51452   0.46845    0.000
 3966.00    0.29655   0.42241    0.000
 3967.00    0.49033   0.42912    0.000
 3968.00    0.71521   0.49416    0.000
 3969.00    1.05932   0.57961    0.000
 3970.00    1.17689   0.64887    0.000
 3971.00    0.57037   0.70569    0.000
 3972.00    0.23110   0.75785    0.000
 3973.00    0.61566   0.79606    0.000
 3974.00    0.84911   0.82551    0.000
 3975.00    0.73170   0.86078    0.000
 3976.00    0.67516   0.89801    0.000
 3977.00    0.74090   0.91962    0.000
 3978.00    0.76881   0.91157    0.000
 3979.00    0.73055   0.89358    0.000
 3980.00    0.76830   0.89711    0.000
 3981.00    0.92243   0.91943    0.030
 3982.00    1.12188   0.94045    0.030
 3983.00    1.38226   0.94926    0.030
 3984.00    1.37311   0.95581    0.031
 3985.00    1.04476   0.96760    0.031
 3986.00    0.88821   0.96786    0.032
 3987.00    0.91106   0.96284    0.032
 3988.00    0.80694   0.97362    0.032
 3989.00    0.58589   0.99514    0.031
 3990.00    0.54350   1.00770    0.031
 3991.00    0.64618   0.99910    0.030
 3992.00    0.83007   0.97542    0.030
 3993.00    1.07196   0.95014    0.029
 3994.00    1.19120   0.93112    0.030
 3995.00    1.23352   0.93927    0.031
 3996.00    1.22752   0.98124    0.031
 3997.00    1.19504   1.01748    0.031
 3998.00    1.38075   1.02080    0.030
 3999.00    1.67039   1.01404    0.030
 4000.00    1.61297   1.00722    0.030
 4001.00    1.41291   0.97723    0.030
 4002.00    1.34352   0.93309    0.030
 4003.00    1.32002   0.93022    0.030
 4004.00    1.09293   0.97256    0.029
 4005.00    0.80551   1.00900    0.029
 4006.00    0.90494   1.01933    0.029
 4007.00    1.09940   1.02173    0.029
 4008.00    1.12280   1.02358    0.029
 4009.00    1.11220   1.01959    0.029
 4010.00    1.48547   1.01794    0.029
 4011.00    1.91838   1.02198    0.029
 4012.00    1.55936   1.02957    0.029
 4013.00    1.10927   1.03175    0.029
 4014.00    1.15637   1.02244    0.029
 4015.00    1.24191   1.02838    0.029
 4016.00    1.32142   1.05410    0.029
 4017.00    1.40068   1.06155    0.029
 4018.00    1.01867   1.04170    0.028
 4019.00    0.63548   1.01644    0.028
 4020.00    0.38546   0.99071    0.028
 4021.00    0.16728   0.95822    0.028
 4022.00    0.51056   0.94366    0.028
 4023.00    0.83839   0.97361    0.028
 4024.00    1.00000   1.01781    0.028
 4025.00    1.12451   1.03093    0.028
 4026.00    0.96734   1.00293    0.028
 4027.00    0.81578   0.95174    0.028
 4028.00    0.69661   0.91759    0.028
 4029.00    0.58514   0.91739    0.028
 4030.00    0.50901   0.93165    0.028
 4031.00    0.45328   0.95628    0.027
 4032.00    0.47407   0.98862    0.027
 4033.00    0.43353   1.02531    0.027
 4034.00    0.20072   1.05707    0.027
 4035.00    0.19031   1.06797    0.028
 4036.00    0.77157   1.05457    0.028
 4037.00    1.22919   1.02958    0.028
 4038.00    1.40446   1.01807    0.028
 4039.00    1.52810   1.02806    0.028
 4040.00    1.54968   1.01956    0.029
 4041.00    1.39420   0.96695    0.029
 4042.00    0.93372   0.91324    0.028
 4043.00    0.83327   0.92357    0.028
 4044.00    1.27594   0.98911    0.029
 4045.00    1.33420   1.02966    0.029
 4046.00    0.88291   1.03075    0.029
 4047.00    0.72282   1.03090    0.029
 4048.00    0.90270   1.02788    0.029
 4049.00    1.11362   1.00835    0.029
 4050.00    1.35649   0.98275    0.029
 4051.00    1.27745   0.96283    0.029
 4052.00    0.90608   0.96072    0.028
 4053.00    0.89045   0.97031    0.028
 4054.00    1.15954   0.97044    0.028
 4055.00    1.31778   0.97124    0.028
 4056.00    1.39797   0.99405    0.028
 4057.00    1.28907   1.01779    0.028
 4058.00    1.06337   1.00791    0.028
 4059.00    0.89120   0.96066    0.028
 4060.00    0.74792   0.91794    0.028
 4061.00    0.80957   0.92808    0.027
 4062.00    0.96726   0.96821    0.027
 4063.00    0.84344   0.97213    0.027
 4064.00    0.60589   0.94790    0.027
 4065.00    0.63375   0.95043    0.027
 4066.00    0.75313   0.96990    0.026
 4067.00    0.80235   0.95866    0.026
 4068.00    0.83119   0.92911    0.027
 4069.00    0.92030   0.93130    0.027
 4070.00    1.02388   0.96480    0.027
 4071.00    1.04083   0.97674    0.026
 4072.00    1.04100   0.94236    0.026
 4073.00    0.98650   0.88659    0.027
 4074.00    0.92376   0.85165    0.027
 4075.00    1.04777   0.86733    0.026
 4076.00    1.19243   0.91925    0.025
 4077.00    1.08713   0.96907    0.026
 4078.00    0.96354   0.99482    0.026
 4079.00    0.92380   0.98861    0.026
 4080.00    0.88726   0.96120    0.026
 4081.00    0.94294   0.93644    0.026
 4082.00    0.99574   0.92657    0.026
 4083.00    0.92076   0.93606    0.026
 4084.00    0.84256   0.95645    0.026
 4085.00    0.71112   0.96515    0.026
 4086.00    0.59630   0.96231    0.026
 4087.00    0.65247   0.96117    0.026
 4088.00    0.73574   0.95574    0.026
 4089.00    1.01778   0.94464    0.026
 4090.00    1.25241   0.93809    0.026
 4091.00    1.22111   0.92239    0.027
 4092.00    1.16551   0.88040    0.000
 4093.00    1.00117   0.83047    0.000
 4094.00    0.91787   0.79161    0.000
 4095.00    1.13218   0.76164    0.000
 4096.00    1.28689   0.71669    0.000
 4097.00    1.25832   0.63933    0.000
 4098.00    1.17930   0.56480    0.000
 4099.00    0.96843   0.56038    0.000
 4100.00    0.74651   0.63218    0.000
 4101.00    0.49979   0.72347    0.000
 4102.00    0.42625   0.79571    0.000
 4103.00    0.68972   0.84048    0.000
 4104.00    0.84288   0.86075    0.000
 4105.00    0.80890   0.86683    0.000
 4106.00    0.92769   0.86542    0.000
 4107.00    1.27357   0.86638    0.000
 4108.00    1.26813   0.88075    0.000
 4109.00    0.80366   0.90503    0.000
 4110.00    0.49479   0.92910    0.000
 4111.00    0.36503   0.94645    0.000
 4112.00    0.38858   0.95565    0.000
 4113.00    0.56775   0.96092    0.025
 4114.00    0.70585   0.95311    0.025
 4115.00    0.80717   0.92496    0.025
 4116.00    0.83801   0.90713    0.035
 4117.00    0.81326   0.91628    0.121
 4118.00    0.81219   0.92438   -1.000
 4119.00    0.82755   0.92219   -1.000
 4120.00    0.94551   0.92970   -1.000
 4121.00    1.12591   0.95230   -1.000
 4122.00    1.22890   0.96739   -1.000
 4123.00    1.29076   0.95717   -1.000
 4124.00    1.24300   0.93012    0.069
 4125.00    1.14468   0.91004    0.028
 4126.00    0.98292   0.91232    0.024
 4127.00    0.79598   0.91862    0.024
 4128.00    0.88106   0.90662    0.024
 4129.00    1.05821   0.88969    0.025
 4130.00    1.06323   0.89651    0.025
 4131.00    1.01927   0.92718    0.025
 4132.00    0.94307   0.96490    0.024
 4133.00    0.85931   0.98734    0.024
 4134.00    1.26705   0.98944    0.024
 4135.00    1.76756   0.99983    0.024
 4136.00    1.86683   1.02015    0.025
 4137.00    1.90750   1.02241    0.025
 4138.00    1.27374   0.99223    0.024
 4139.00    0.56830   0.93320    0.024
 4140.00    0.70792   0.88374    0.024
 4141.00    0.90600   0.89187    0.025
 4142.00    1.08017   0.94149    0.025
 4143.00    1.25351   0.97620    0.025
 4144.00    1.20881   0.98215    0.025
 4145.00    1.16605   0.97110    0.025
 4146.00    1.20163   0.95185    0.025
 4147.00    1.24005   0.94407    0.025
 4148.00    1.32254   0.95036    0.025
 4149.00    1.35497   0.95135    0.025
 4150.00    0.89405   0.93982    0.025
 4151.00    0.50773   0.92311    0.025
 4152.00    0.65107   0.91490    0.024
 4153.00    0.77537   0.91726    0.024
 4154.00    0.79582   0.93116    0.025
 4155.00    0.79462   0.95567    0.025
 4156.00    0.69877   0.97178    0.025
 4157.00    0.68034   0.96916    0.024
 4158.00    0.94037   0.96275    0.024
 4159.00    1.08235   0.97270    0.024
 4160.00    0.86811   0.98652    0.024
 4161.00    0.71616   0.99073    0.024
 4162.00    0.72422   0.99016    0.024
 4163.00    0.81759   0.97818    0.024
 4164.00    1.09944   0.96426    0.024
 4165.00    1.20043   0.97084    0.024
 4166.00    0.95499   0.98431    0.024
 4167.00    0.68851   0.96788    0.024
 4168.00    0.38689   0.91642    0.023
 4169.00    0.33225   0.86567    0.023
 4170.00    0.63940   0.85391    0.024
 4171.00    0.87192   0.88045    0.024
 4172.00    1.00832   0.91098    0.024
 4173.00    1.01509   0.91501    0.024
 4174.00    0.87476   0.89572    0.024
 4175.00    0.86295   0.88578    0.024
 4176.00    0.97979   0.90776    0.023
 4177.00    0.93761   0.94037    0.023
 4178.00    0.75505   0.94480    0.023
 4179.00    0.88711   0.92976    0.023
 4180.00    1.26388   0.92767    0.023
 4181.00    1.25362   0.94163    0.023
 4182.00    0.97869   0.95433    0.023
 4183.00    0.84061   0.93868    0.023
 4184.00    0.78455   0.91035    0.023
 4185.00    0.79538   0.91892    0.023
 4186.00    0.84118   0.95110    0.023
 4187.00    1.02009   0.96170    0.023
 4188.00    1.25938   0.95906    0.023
 4189.00    1.26845   0.97735    0.023
 4190.00    1.18770   1.00328    0.023
 4191.00    1.02220   0.99317    0.023
 4192.00    0.82855   0.95053    0.023
 4193.00    0.90006   0.91557    0.022
 4194.00    1.04547   0.89160    0.022
 4195.00    0.95306   0.86460    0.022
 4196.00    0.80608   0.86103    0.022
 4197.00    0.68185   0.88363    0.022
 4198.00    0.56179   0.89189    0.022
 4199.00    0.56216   0.89045    0.022
 4200.00    0.57956   0.90293    0.022
 4201.00    0.71645   0.91519    0.022
 4202.00    0.86552   0.92532    0.022
 4203.00    0.88613   0.94689    0.022
 4204.00    0.89838   0.96690    0.022
 4205.00    0.95587   0.96944    0.022
 4206.00    1.01448   0.95862    0.022
 4207.00    0.89620   0.95586    0.022
 4208.00    0.78064   0.97040    0.022
 4209.00    0.74509   0.98493    0.022
 4210.00    0.71134   0.98038    0.022
 4211.00    0.70379   0.94828    0.022
 4212.00    0.70613   0.91050    0.023
 4213.00    0.80188   0.91588    0.023
 4214.00    0.92693   0.96260    0.023
 4215.00    1.25335   0.99571    0.023
 4216.00    1.48907   0.99937    0.023
 4217.00    1.24274   0.99762    0.023
 4218.00    1.04742   0.99401    0.023
 4219.00    1.06998   0.97318    0.022
 4220.00    1.08943   0.93967    0.022
 4221.00    1.09788   0.89609    0.023
 4222.00    1.04096   0.84163    0.023
 4223.00    0.79050   0.80383    0.022
 4224.00    0.70611   0.82544    0.022
 4225.00    1.04081   0.90429    0.022
 4226.00    1.23234   0.97726    0.022
 4227.00    1.11276   1.00645    0.023
 4228.00    0.99856   0.99587    0.022
 4229.00    0.89449   0.95371    0.022
 4230.00    0.81519   0.91648    0.021
 4231.00    0.77666   0.91365    0.021
 4232.00    0.72294   0.91892    0.021
 4233.00    0.64730   0.91949    0.021
 4234.00    0.62154   0.92673    0.021
 4235.00    0.65912   0.92824    0.021
 4236.00    0.73962   0.92857    0.021
 4237.00    0.86814   0.94767    0.020
 4238.00    0.86277   0.97075    0.020
 4239.00    0.72530   0.97902    0.021
 4240.00    0.70580   0.98755    0.021
 4241.00    0.78897   0.99728    0.021
 4242.00    0.83154   0.98025    0.021
 4243.00    0.84296   0.94190    0.021
 4244.00    0.94655   0.92097    0.021
 4245.00    1.11225   0.92727    0.022
 4246.00    1.18492   0.92646    0.022
 4247.00    1.20265   0.91091    0.022
 4248.00    1.16372   0.91805    0.022
 4249.00    1.09563   0.94199    0.022
 4250.00    0.75416   0.94265    0.022
 4251.00    0.29072   0.93088    0.022
 4252.00    0.18835   0.94248    0.021
 4253.00    0.22443   0.96925    0.021
 4254.00    0.50458   0.97206    0.021
 4255.00    0.86427   0.94341    0.021
 4256.00    1.03116   0.90871    0.021
 4257.00    1.14542   0.89070    0.021
 4258.00    1.06488   0.90844    0.021
 4259.00    0.94067   0.95457    0.021
 4260.00    0.91247   0.99331    0.021
 4261.00    0.90143   1.01134    0.021
 4262.00    0.98298   1.01689    0.021
 4263.00    1.07719   1.00631    0.022
 4264.00    0.99252   0.98032    0.021
 4265.00    0.89038   0.95603    0.021
 4266.00    0.57154   0.93297    0.021
 4267.00    0.23946   0.89482    0.020
 4268.00    0.47325   0.85625    0.020
 4269.00    0.72207   0.85452    0.020
 4270.00    0.92183   0.87719    0.020
 4271.00    1.11412   0.88858    0.020
 4272.00    1.10873   0.90481    0.020
 4273.00    1.08033   0.94216    0.020
 4274.00    0.73541   0.97425    0.020
 4275.00    0.42818   0.98125    0.020
 4276.00    0.46339   0.96872    0.020
 4277.00    0.52073   0.95202    0.020
 4278.00    0.72552   0.94072    0.020
 4279.00    0.92458   0.93181    0.020
 4280.00    1.09398   0.92954    0.021
 4281.00    1.21894   0.93279    0.021
 4282.00    1.15833   0.93121   -2.000
 4283.00    1.14492   0.92598   -2.000
 4284.00    1.29446   0.91083   -2.000
 4285.00    1.41245   0.87322   -2.000
 4286.00    1.43872   0.82846   -2.000
 4287.00    1.39327   0.82431   -2.000
 4288.00    1.16997   0.87545   -2.000
 4289.00    0.94890   0.92670   -2.000
 4290.00    0.73260   0.93042   -2.000
 4291.00    0.57454   0.90731   -2.000
 4292.00    0.52460   0.89786   -2.000
 4293.00    0.54103   0.89820   -2.000
 4294.00    0.66510   0.88600   -2.000
 4295.00    0.76296   0.84765   -2.000
 4296.00    0.82355   0.79957   -2.000
 4297.00    0.87148   0.78371   -2.000
 4298.00    0.90355   0.79431    0.021
 4299.00    0.89236   0.80216    0.021
 4300.00    0.83345   0.81863    0.021
 4301.00    0.88082   0.84226    0.021
 4302.00    1.03161   0.84679    0.021
 4303.00    0.99629   0.83353    0.021
 4304.00    0.80129   0.81218    0.021
 4305.00    0.71306   0.79804    0.021
 4306.00    0.70551   0.81643    0.021
 4307.00    0.77466   0.86112    0.021
 4308.00    0.89474   0.89393    0.021
 4309.00    0.91593   0.88979    0.021
 4310.00    0.87961   0.86384    0.021
 4311.00    0.83426   0.85620    0.020
 4312.00    0.78432   0.89340    0.020
 4313.00    0.70011   0.94805    0.020
 4314.00    0.60084   0.97352    0.020
 4315.00    0.73009   0.96872    0.020
 4316.00    0.94540   0.95104    0.020
 4317.00    0.92917   0.92989    0.020
 4318.00    0.83890   0.92194    0.020
 4319.00    0.92944   0.92430    0.020
 4320.00    1.06830   0.90067    0.021
 4321.00    1.17905   0.84146    0.021
 4322.00    1.28365   0.79266    0.021
 4323.00    1.15786   0.80625    0.021
 4324.00    0.99198   0.86934    0.021
 4325.00    0.95148   0.91753    0.021
 4326.00    0.92757   0.91599    0.021
 4327.00    0.89703   0.88909    0.020
 4328.00    0.86588   0.87680    0.020
 4329.00    0.98493   0.87885    0.021
 4330.00    1.11257   0.87683    0.000
 4331.00    1.17579   0.87117    0.000
 4332.00    1.23430   0.84776    0.000
 4333.00    0.92349   0.78078    0.000
 4334.00    0.63920   0.68791    0.000
 4335.00    0.99207   0.60753    0.000
 4336.00    1.33121   0.54507    0.000
 4337.00    1.49163   0.51933    0.000
 4338.00    1.60696   0.56747    0.000
 4339.00    1.32840   0.65565    0.000
 4340.00    1.08089   0.71909    0.000
 4341.00    1.03397   0.76070    0.000
 4342.00    0.99255   0.80377    0.000
 4343.00    0.97889   0.83855    0.000
 4344.00    0.96081   0.86518    0.000
 4345.00    0.92471   0.89209    0.000
 4346.00    0.90360   0.89576    0.000
 4347.00    0.93322   0.85405    0.000
 4348.00    0.95594   0.80353    0.000
 4349.00    0.95902   0.80499    0.000
 4350.00    0.97301   0.85187    0.000
 4351.00    1.01362   0.89374    0.020
 4352.00    1.03790   0.92129    0.024
 4353.00    1.02784   0.94154    0.061
 4354.00    1.02147   0.93747   -1.000
 4355.00    1.02183   0.91195   -1.000
 4356.00    0.96296   0.90352   -1.000
 4357.00    0.80943   0.92833   -1.000
 4358.00    0.77245   0.95847   -1.000
 4359.00    0.89889   0.97294   -1.000
 4360.00    1.00929   0.98348   -1.000
 4361.00    1.09992   0.99776   -1.000
 4362.00    1.18868   0.99703    0.080
 4363.00    1.27542   0.96656    0.026
 4364.00    1.31159   0.92633    0.020
 4365.00    1.29924   0.90944    0.020
 4366.00    1.21915   0.91708    0.020
 4367.00    1.08177   0.93259    0.020
 4368.00    0.91479   0.94833    0.020
 4369.00    0.72576   0.94695    0.019
 4370.00    0.67714   0.90982    0.019
 4371.00    0.72039   0.86308    0.019
 4372.00    0.84452   0.86232    0.019
 4373.00    1.01498   0.91450    0.019
 4374.00    1.10200   0.96734    0.019
 4375.00    1.14741   0.98067    0.019
 4376.00    1.07462   0.96731    0.020
 4377.00    0.95084   0.95470    0.020
 4378.00    0.84566   0.93069    0.019
 4379.00    0.74737   0.86738    0.019
 4380.00    0.75348   0.79259    0.019
 4381.00    0.79232   0.77137    0.019
 4382.00    0.73571   0.81563    0.019
 4383.00    0.65413   0.86954    0.019
 4384.00    0.74913   0.89215    0.019
 4385.00    0.88185   0.89743    0.019
 4386.00    1.07375   0.89997    0.019
 4387.00    1.27565   0.90054    0.019
 4388.00    1.21953   0.91277    0.019
 4389.00    1.13045   0.92925    0.019
 4390.00    0.99439   0.91753    0.019
 4391.00    0.85415   0.88677    0.019
 4392.00    0.79013   0.88865    0.019
 4393.00    0.73016   0.93105    0.019
 4394.00    0.87225   0.95872    0.019
 4395.00    1.01602   0.94000    0.019
 4396.00    0.97541   0.89774    0.019
 4397.00    0.93074   0.87619    0.019
 4398.00    0.79691   0.90092    0.019
 4399.00    0.68134   0.93108    0.019
 4400.00    0.79136   0.91264    0.019
 4401.00    0.90027   0.87605    0.019
 4402.00    0.99975   0.88046    0.019
 4403.00    1.07578   0.90446    0.019
 4404.00    1.00478   0.90088    0.019
 4405.00    0.94394   0.89192    0.019
 4406.00    0.93312   0.91211    0.019
 4407.00    0.95697   0.94268    0.019
 4408.00    1.11918   0.96290    0.020
 4409.00    1.19022   0.97007    0.020
 4410.00    0.95894   0.94406    0.019
 4411.00    0.80028   0.88739    0.019
 4412.00    0.84510   0.85070    0.019
 4413.00    0.89549   0.85481    0.019
 4414.00    0.95922   0.87813    0.019
 4415.00    0.93888   0.91554    0.019
 4416.00    0.74452   0.95596    0.019
 4417.00    0.68358   0.96510    0.019
 4418.00    0.86282   0.93705    0.019
 4419.00    0.96955   0.91032    0.019
 4420.00    0.96212   0.91567    0.019
 4421.00    1.00862   0.93517    0.019
 4422.00    1.12965   0.94091    0.019
 4423.00    1.13255   0.93512    0.019
 4424.00    0.99179   0.93422    0.019
 4425.00    0.92714   0.93716    0.019
 4426.00    0.94410   0.92534    0.019
 4427.00    1.00148   0.91114    0.019
 4428.00    1.09708   0.91771    0.019
 4429.00    1.08357   0.92274    0.019
 4430.00    0.97908   0.90115    0.019
 4431.00    0.93245   0.87088    0.019
 4432.00    0.92832   0.86987    0.019
 4433.00    0.95936   0.90929    0.019
 4434.00    1.01307   0.95966    0.019
 4435.00    1.14120   0.98942    0.019
 4436.00    1.31130   0.98522    0.019
 4437.00    1.34224   0.94728    0.019
 4438.00    1.30485   0.89284    0.019
 4439.00    1.18611   0.84980    0.019
 4440.00    1.03283   0.84633    0.019
 4441.00    1.03365   0.89025    0.019
 4442.00    1.09046   0.94257    0.019
 4443.00    1.00484   0.95931    0.019
 4444.00    0.87542   0.95500    0.019
 4445.00    0.87716   0.95317    0.019
 4446.00    0.91249   0.94100    0.019
 4447.00    1.02995   0.92577    0.019
 4448.00    1.16453   0.92992    0.019
 4449.00    1.12554   0.93585    0.019
 4450.00    1.05803   0.91204    0.019
 4451.00    1.11038   0.86890    0.019
 4452.00    1.17751   0.85080    0.019
 4453.00    1.12571   0.86670    0.019
 4454.00    1.06380   0.88010    0.019
 4455.00    1.07126   0.87631    0.018
 4456.00    1.08214   0.87047    0.018
 4457.00    1.00026   0.86119    0.018
 4458.00    0.91788   0.85238    0.018
 4459.00    0.89711   0.87061    0.018
 4460.00    0.88200   0.90256    0.018
 4461.00    0.98167   0.91377    0.000
 4462.00    1.07520   0.90960    0.000
 4463.00    1.09661   0.90316    0.000
 4464.00    1.12762   0.88866    0.000
 4465.00    1.23636   0.86670    0.000
 4466.00    1.31754   0.85357    0.000
 4467.00    1.23098   0.85685    0.000
 4468.00    1.15347   0.87798    0.000
 4469.00    1.11932   0.91699    0.000
 4470.00    1.07861   0.95422    0.000
 4471.00    1.01229   0.96770    0.000
 4472.00    0.96126   0.96641    0.000
 4473.00    0.95997   0.97506    0.000
 4474.00    0.97218   0.98638    0.000
 4475.00    1.02150   0.96879    0.000
 4476.00    1.04997   0.91553    0.000
 4477.00    1.02929   0.85591    0.000
 4478.00    1.00087   0.83362    0.000
 4479.00    0.95665   0.86730    0.000
 4480.00    0.97922   0.92310    0.000
 4481.00    1.12019   0.96264    0.000
 4482.00    1.15029   0.98085    0.017
 4483.00    1.00844   0.97706    0.018
 4484.00    0.95105   0.94511    0.018
 4485.00    1.00869   0.90082    0.018
 4486.00    1.04552   0.87842    0.018
 4487.00    1.05741   0.89148    0.017
 4488.00    1.03022   0.92202    0.017
 4489.00    0.96171   0.93838    0.017
 4490.00    0.95018   0.92247    0.017
 4491.00    0.99178   0.89858    0.017
 4492.00    1.00076   0.89744    0.017
 4493.00    0.98292   0.91625    0.017
 4494.00    0.88602   0.94334    0.017
 4495.00    0.73192   0.96408    0.017
 4496.00    0.74799   0.95901    0.017
 4497.00    0.87217   0.93165    0.017
 4498.00    0.95696   0.92447    0.017
 4499.00    1.01988   0.96246    0.018
 4500.00    0.98048   1.00644    0.017
 4501.00    0.89167   1.01957    0.017
 4502.00    0.95076   1.00767    0.017
 4503.00    1.07156   0.98406    0.017
 4504.00    1.01986   0.96074    0.017
 4505.00    0.90659   0.95606    0.017
 4506.00    0.95542   0.97290    0.017
 4507.00    1.05311   0.98741    0.017
 4508.00    1.14509   0.98282    0.017
 4509.00    1.23564   0.96569    0.017
 4510.00    1.09245   0.94243    0.017
 4511.00    0.90174   0.92157    0.017
 4512.00    0.79661   0.92018    0.017
 4513.00    0.70512   0.93042    0.017
 4514.00    0.78029   0.93203    0.017
 4515.00    0.87526   0.93269    0.017
 4516.00    0.91787   0.94163    0.017
 4517.00    0.95624   0.95033    0.017
 4518.00    0.93793   0.94038    0.017
 4519.00    0.91705   0.91662    0.017
 4520.00    0.82632   0.90708    0.017
 4521.00    0.73792   0.90498    0.017
 4522.00    0.81187   0.89297    0.017
 4523.00    0.87973   0.87624    0.017
 4524.00    0.83320   0.85767    0.017
 4525.00    0.79558   0.84391    0.016
 4526.00    0.85766   0.84871    0.017
 4527.00    0.91794   0.86890    0.017
 4528.00    0.96405   0.88960    0.017
 4529.00    0.99575   0.88631    0.016
 4530.00    0.94216   0.85603    0.016
 4531.00    0.92216   0.84057    0.016
 4532.00    1.05939   0.87037    0.017
 4533.00    1.12489   0.92726    0.017
 4534.00    0.91622   0.96374    0.017
 4535.00    0.77657   0.95433    0.017
 4536.00    0.85695   0.91571    0.017
 4537.00    0.89911   0.87916    0.017
 4538.00    0.83798   0.87522    0.017
 4539.00    0.79509   0.90188    0.016
 4540.00    0.79444   0.91579    0.016
 4541.00    0.87042   0.90681    0.016
 4542.00    1.09999   0.90615    0.017
 4543.00    1.20889   0.91686    0.017
 4544.00    1.10715   0.90961    0.017
 4545.00    0.98134   0.87440    0.016
 4546.00    0.81877   0.85196    0.016
 4547.00    0.73695   0.87350    0.017
 4548.00    0.76353   0.89949    0.017
 4549.00    0.84173   0.89445    0.017
 4550.00    0.98097   0.86954    0.000
 4551.00    1.00457   0.84986    0.000
 4552.00    0.90764   0.85914    0.000
 4553.00    0.85607   0.89660    0.000
 4554.00    0.84622   0.92727    0.000
 4555.00    0.78518   0.93572    0.000
 4556.00    0.68264   0.94088    0.000
 4557.00    0.71283   0.95138    0.000
 4558.00    0.83766   0.95397    0.000
 4559.00    0.86409   0.93099    0.000
 4560.00    0.82895   0.89315    0.000
 4561.00    0.77853   0.87536    0.000
 4562.00    0.71975   0.89154    0.000
 4563.00    0.78490   0.92654    0.000
 4564.00    0.90896   0.95293    0.000
 4565.00    0.92995   0.95898    0.000
 4566.00    0.90866   0.94965    0.000
 4567.00    0.80525   0.92066    0.000
 4568.00    0.67305   0.89451    0.000
 4569.00    0.72303   0.91029    0.000
 4570.00    0.82685   0.94211    0.000
 4571.00    0.96994   0.94741    0.000
 4572.00    1.12265   0.93770    0.000
 4573.00    1.00558   0.93570    0.000
 4574.00    0.83504   0.93466    0.000
 4575.00    0.83013   0.91726    0.000
 4576.00    0.85086   0.88994    0.000
 4577.00    0.86375   0.87559    0.000
 4578.00    0.87575   0.87382    0.000
 4579.00    0.81042   0.86689    0.000
 4580.00    0.73914   0.86185    0.000
 4581.00    0.73627   0.87453    0.000
 4582.00    0.73625   0.89300    0.000
 4583.00    0.84561   0.90624    0.000
 4584.00    0.95371   0.91640    0.000
 4585.00    0.96676   0.92399    0.000
 4586.00    0.97549   0.92214    0.000
 4587.00    0.90885   0.90652    0.000
 4588.00    0.84549   0.88750    0.000
 4589.00    0.81725   0.88411    0.000
 4590.00    0.78332   0.89482    0.000
 4591.00    0.70634   0.89916    0.000
 4592.00    0.65479   0.89729    0.000
 4593.00    0.74935   0.90081    0.000
 4594.00    0.81187   0.90954    0.000
 4595.00    0.72803   0.91510    0.000
 4596.00    0.67061   0.90620    0.000
 4597.00    0.71198   0.89405    0.000
 4598.00    0.75638   0.89781    0.000
 4599.00    0.81028   0.90785    0.000
 4600.00    0.84824   0.91045    0.000
 4601.00    0.84388   0.90528    0.000
 4602.00    0.83758   0.90525    0.000
 4603.00    0.82686   0.92132    0.000
 4604.00    0.80594   0.94729    0.000
 4605.00    0.76494   0.96651    0.000
 4606.00    0.74663   0.96400    0.000
 4607.00    0.76736   0.94651    0.000
 4608.00    0.83632   0.93285    0.000
 4609.00    0.97792   0.92603    0.000
 4610.00    1.08386   0.92822    0.000
 4611.00    1.14263   0.93594    0.000
 4612.00    1.12179   0.93325    0.000
 4613.00    1.00814   0.92819    0.000
 4614.00    0.88004   0.92280    0.000
 4615.00    0.73708   0.90673    0.000
 4616.00    0.75753   0.90200    0.000
 4617.00    0.92612   0.92292    0.000
 4618.00    0.98842   0.94347    0.000
 4619.00    0.96581   0.95094    0.000
 4620.00    0.90956   0.95041    0.000
 4621.00    0.82968   0.93980    0.000
 4622.00    0.89323   0.92935    0.000
 4623.00    1.04521   0.93098    0.000
 4624.00    0.99451   0.92805    0.000
 4625.00    0.83466   0.90940    0.000
 4626.00    0.77535   0.90323    0.000
 4627.00    0.76308   0.92412    0.000
 4628.00    0.72132   0.93810    0.000
 4629.00    0.66768   0.92336    0.000
 4630.00    0.78757   0.90256    0.000
 4631.00    0.96715   0.89826    0.000
 4632.00    1.02522   0.90476    0.000
 4633.00    1.04809   0.90382    0.000
 4634.00    0.92049   0.89674    0.000
 4635.00    0.75685   0.89472    0.000
 4636.00    0.85103   0.89818    0.000
 4637.00    0.99500   0.90911    0.000
 4638.00    0.90248   0.92208    0.000
 4639.00    0.77447   0.92263    0.000
 4640.00    0.73862   0.91307    0.000
 4641.00    0.71292   0.89558    0.000
 4642.00    0.84670   0.86210    0.000
 4643.00    0.99209   0.82991    0.000
 4644.00    0.84755   0.82621    0.000
 4645.00    0.69204   0.84814    0.000
 4646.00    0.73281   0.87523    0.000
 4647.00    0.77502   0.89380    0.000
 4648.00    0.83376   0.90741    0.000
 4649.00    0.89020   0.91505    0.000
 4650.00    0.90920   0.90029    0.000
 4651.00    0.92429   0.87506    0.000
 4652.00    0.89934   0.86397    0.000
 4653.00    0.87658   0.87208    0.000
 4654.00    0.86984   0.90304    0.000
 4655.00    0.84796   0.94192    0.000
 4656.00    0.74142   0.95904    0.000
 4657.00    0.68630   0.94696    0.000
 4658.00    0.86053   0.91854    0.000
 4659.00    0.99033   0.89190    0.000
 4660.00    0.95736   0.88179    0.000
 4661.00    0.91484   0.87716    0.000
 4662.00    0.84297   0.84848    0.000
 4663.00    0.76678   0.80392    0.000
 4664.00    0.67928   0.78820    0.000
 4665.00    0.63640   0.81238    0.000
 4666.00    0.69353   0.84965    0.000
 4667.00    0.77398   0.88248    0.000
 4668.00    0.89972   0.89840    0.000
 4669.00    0.94645   0.89421    0.000
 4670.00    0.85937   0.89011    0.000
 4671.00    0.75254   0.90073    0.000
 4672.00    0.61640   0.91932    0.000
 4673.00    0.60130   0.92466    0.000
 4674.00    0.74407   0.90605    0.000
 4675.00    0.85460   0.88211    0.000
 4676.00    0.92810   0.87116    0.000
 4677.00    0.93543   0.86887    0.000
 4678.00    0.87574   0.87221    0.000
 4679.00    0.86101   0.88480    0.000
 4680.00    0.88647   0.88965    0.000
 4681.00    0.88917   0.87388    0.000
 4682.00    0.87395   0.86157    0.000
 4683.00    0.86153   0.86951    0.000
 4684.00    0.85107   0.88326    0.000
 4685.00    0.82969   0.89138    0.000
 4686.00    0.80169   0.89190    0.000
 4687.00    0.74493   0.88441    0.000
 4688.00    0.67292   0.88180    0.000
 4689.00    0.70409   0.88929    0.000
 4690.00    0.78274   0.89887    0.000
 4691.00    0.83637   0.90935    0.000
 4692.00    0.88008   0.91778    0.000
 4693.00    0.85812   0.91042    0.000
 4694.00    0.81400   0.88231    0.000
 4695.00    0.85900   0.85908    0.000
 4696.00    0.92930   0.85950    0.000
 4697.00    0.94254   0.86546    0.000
 4698.00    0.94243   0.85585    0.000
 4699.00    0.88642   0.84086    0.000
 4700.00    0.81990   0.84699    0.000
 4701.00    0.75348   0.86876    0.000
 4702.00    0.68708   0.87644    0.000
 4703.00    0.77137   0.86198    0.000
 4704.00    0.87159   0.84350    0.000
 4705.00    0.71080   0.83918    0.000
 4706.00    0.53207   0.85618    0.000
 4707.00    0.70044   0.88444    0.000
 4708.00    0.88061   0.89498    0.000
 4709.00    0.80681   0.87874    0.000
 4710.00    0.73575   0.85511    0.000
 4711.00    0.76669   0.85315    0.000
 4712.00    0.79678   0.87817    0.000
 4713.00    0.81382   0.90416    0.000
 4714.00    0.82828   0.91465    0.000
 4715.00    0.81741   0.92010    0.000
 4716.00    0.82909   0.92605    0.000
 4717.00    1.00016   0.92584    0.000
 4718.00    1.14210   0.91741    0.000
 4719.00    1.12552   0.91360    0.000
 4720.00    1.08933   0.92335    0.000
 4721.00    0.96764   0.93422    0.000
 4722.00    0.85204   0.92566    0.000
 4723.00    0.75830   0.89211    0.000
 4724.00    0.68894   0.85719    0.000
 4725.00    0.69301   0.84498    0.000
 4726.00    0.69153   0.84552    0.000
 4727.00    0.67580   0.84634    0.000
 4728.00    0.68852   0.85669    0.000
 4729.00    0.76397   0.87511    0.000
 4730.00    0.83137   0.88860    0.000
 4731.00    0.88338   0.89297    0.000
 4732.00    0.87672   0.87963    0.000
 4733.00    0.77217   0.86654    0.000
 4734.00    0.72468   0.88275    0.000
 4735.00    0.76063   0.90366    0.000
 4736.00    0.83137   0.90069    0.000
 4737.00    0.94684   0.89012    0.000
 4738.00    0.92703   0.89306    0.000
 4739.00    0.75397   0.90356    0.000
 4740.00    0.73096   0.90528    0.000
 4741.00    0.85785   0.89907    0.000
 4742.00    0.86744   0.90261    0.000
 4743.00    0.77366   0.91034    0.000
 4744.00    0.71170   0.90750    0.000
 4745.00    0.67445   0.90498    0.000
 4746.00    0.70091   0.91029    0.000
 4747.00    0.77086   0.90934    0.000
 4748.00    0.86776   0.89729    0.000
 4749.00    0.98076   0.88403    0.000
 4750.00    0.97624   0.87393    0.000
 4751.00    0.91037   0.86754    0.000
 4752.00    0.84391   0.86554    0.000
 4753.00    0.77717   0.87171    0.000
 4754.00    0.79546   0.88477    0.000
 4755.00    0.84685   0.89872    0.000
 4756.00    0.87101   0.90492    0.000
 4757.00    0.88615   0.88976    0.000
 4758.00    0.87750   0.85771    0.000
 4759.00    0.86225   0.83483    0.000
 4760.00    0.82773   0.82770    0.000
 4761.00    0.78880   0.82440    0.015
 4762.00    0.73941   0.82628    0.015
 4763.00    0.68811   0.84157    0.015
 4764.00    0.69395   0.86498    0.015
 4765.00    0.70783   0.88659    0.016
 4766.00    0.66666   0.89601    0.016
 4767.00    0.61991   0.88400    0.015
 4768.00    0.64469   0.86892    0.015
 4769.00    0.67411   0.87582    0.015
 4770.00    0.64504   0.89826    0.015
 4771.00    0.61446   0.90977    0.015
 4772.00    0.70970   0.90647    0.015
 4773.00    0.80613   0.90879    0.015
 4774.00    0.93697   0.91310    0.015
 4775.00    1.05267   0.90201    0.015
 4776.00    0.94963   0.88930    0.015
 4777.00    0.86016   0.89099    0.015
 4778.00    0.89829   0.88929    0.015
 4779.00    0.91583   0.87378    0.015
 4780.00    0.79228   0.86978    0.015
 4781.00    0.69913   0.87488    0.015
 4782.00    0.76693   0.86335    0.015
 4783.00    0.80400   0.85511    0.015
 4784.00    0.71022   0.86307    0.015
 4785.00    0.64609   0.86418    0.015
 4786.00    0.68616   0.86305    0.015
 4787.00    0.71862   0.87108    0.015
 4788.00    0.72858   0.88154    0.015
 4789.00    0.75809   0.89773    0.015
 4790.00    0.83686   0.91910    0.015
 4791.00    0.84293   0.93022    0.015
 4792.00    0.69135   0.92326    0.015
 4793.00    0.61144   0.90554    0.015
 4794.00    0.66644   0.88286    0.015
 4795.00    0.71384   0.86432    0.015
 4796.00    0.74877   0.86211    0.015
 4797.00    0.72499   0.87810    0.015
 4798.00    0.61662   0.89978    0.015
 4799.00    0.59582   0.90684    0.015
 4800.00    0.68600   0.89067    0.015
 4801.00    0.71867   0.86705    0.015
 4802.00    0.68713   0.86154    0.015
 4803.00    0.71226   0.86545    0.015
 4804.00    0.79323   0.86562    0.015
 4805.00    0.79597   0.86958    0.015
 4806.00    0.73074   0.87574    0.015
 4807.00    0.71373   0.87699    0.015
 4808.00    0.73361   0.87496    0.015
 4809.00    0.72612   0.87639    0.015
 4810.00    0.70022   0.88309    0.015
 4811.00    0.72554   0.89041    0.015
 4812.00    0.78106   0.89716    0.015
 4813.00    0.83722   0.90283    0.015
 4814.00    0.89372   0.90724    0.015
 4815.00    0.89805   0.91129    0.015
 4816.00    0.87915   0.91137    0.015
 4817.00    0.77856   0.90521    0.015
 4818.00    0.64671   0.88472    0.015
 4819.00    0.61848   0.84230    0.015
 4820.00    0.62394   0.81603    0.015
 4821.00    0.72644   0.83592    0.015
 4822.00    0.85535   0.86858    0.015
 4823.00    0.92241   0.88081    0.015
 4824.00    0.97567   0.87277    0.015
 4825.00    0.96016   0.86395    0.015
 4826.00    0.93239   0.86509    0.015
 4827.00    0.82872   0.86070    0.015
 4828.00    0.71472   0.84889    0.014
 4829.00    0.63657   0.85055    0.014
 4830.00    0.56189   0.86397    0.014
 4831.00    0.53521   0.86811    0.014
 4832.00    0.51144   0.86197    0.014
 4833.00    0.53967   0.86156    0.014
 4834.00    0.56993   0.85863    0.014
 4835.00    0.71934   0.84224    0.014
 4836.00    0.86108   0.82950    0.014
 4837.00    0.80285   0.83515    0.014
 4838.00    0.74435   0.84134    0.014
 4839.00    0.68207   0.83507    0.014
 4840.00    0.62475   0.83620    0.014
 4841.00    0.61229   0.85013    0.014
 4842.00    0.60696   0.85487    0.014
 4843.00    0.64895   0.83568    0.014
 4844.00    0.67865   0.80311    0.014
 4845.00    0.64498   0.79010    0.014
 4846.00    0.64773   0.80675    0.014
 4847.00    0.80210   0.81983    0.015
 4848.00    0.91893   0.81469    0.000
 4849.00    0.90645   0.79941    0.000
 4850.00    0.87009   0.76428    0.000
 4851.00    0.76444   0.71580    0.000
 4852.00    0.70670   0.69537    0.000
 4853.00    0.76753   0.70298    0.000
 4854.00    0.81116   0.69063    0.000
 4855.00    0.81813   0.63576    0.000
 4856.00    0.78910   0.55270    0.000
 4857.00    0.69335   0.48574    0.000
 4858.00    0.62674   0.49432    0.000
 4859.00    0.60731   0.56601    0.000
 4860.00    0.64746   0.62983    0.000
 4861.00    0.77222   0.67196    0.000
 4862.00    0.88464   0.70689    0.000
 4863.00    0.98167   0.73403    0.000
 4864.00    0.93339   0.75354    0.000
 4865.00    0.72514   0.76809    0.000
 4866.00    0.65133   0.75775    0.000
 4867.00    0.70808   0.72178    0.000
 4868.00    0.73055   0.70940    0.000
 4869.00    0.72365   0.73834    0.000
 4870.00    0.72067   0.76882    0.000
 4871.00    0.72064   0.77997    0.000
 4872.00    0.71578   0.78417    0.000
 4873.00    0.70772   0.79191    0.000
 4874.00    0.66306   0.80565    0.000
 4875.00    0.59715   0.83205    0.014
 4876.00    0.57792   0.84827    0.015
 4877.00    0.58231   0.83349    0.015
 4878.00    0.71395   0.81542    0.015
 4879.00    0.90132   0.81003    0.015
 4880.00    0.94840   0.80075    0.015
 4881.00    0.94275   0.78705    0.015
 4882.00    0.90544   0.78251    0.015
 4883.00    0.85802   0.79209    0.015
 4884.00    0.81974   0.80456    0.015
 4885.00    0.78390   0.80386    0.015
 4886.00    0.68702   0.77953    0.015
 4887.00    0.57683   0.75218    0.015
 4888.00    0.63783   0.77194    0.015
 4889.00    0.72850   0.82457    0.015
 4890.00    0.77174   0.86437    0.015
 4891.00    0.80873   0.88636    0.015
 4892.00    0.84695   0.89308    0.015
 4893.00    0.88529   0.89000    0.015
 4894.00    0.93839   0.88043    0.015
 4895.00    0.99234   0.85561    0.015
 4896.00    0.80069   0.83242    0.015
 4897.00    0.60492   0.83827    0.015
 4898.00    0.57186   0.84830    0.015
 4899.00    0.55005   0.83813    0.015
 4900.00    0.79519   0.83429    0.015
 4901.00    1.01075   0.85630    0.015
 4902.00    0.84386   0.88040    0.015
 4903.00    0.69663   0.88000    0.015
 4904.00    0.72045   0.86014    0.015
 4905.00    0.73899   0.83078    0.015
 4906.00    0.72360   0.79954    0.015
 4907.00    0.72755   0.79180    0.015
 4908.00    0.82875   0.81414    0.015
 4909.00    0.90880   0.83975    0.015
 4910.00    0.90275   0.85604    0.015
 4911.00    0.88132   0.87093    0.015
 4912.00    0.80795   0.87549    0.015
 4913.00    0.71609   0.85203    0.015
 4914.00    0.57157   0.80182    0.015
 4915.00    0.52536   0.74976    0.015
 4916.00    0.71834   0.72261    0.015
 4917.00    0.83221   0.73214    0.015
 4918.00    0.78005   0.76539    0.015
 4919.00    0.79083   0.77955    0.015
 4920.00    0.91649   0.77063    0.015
 4921.00    0.98280   0.78422    0.015
 4922.00    0.95444   0.82629    0.015
 4923.00    0.88984   0.85443    0.015
 4924.00    0.77451   0.86560    0.015
 4925.00    0.72443   0.87766    0.015
 4926.00    0.75470   0.88069    0.015
 4927.00    0.76330   0.87508    0.015
 4928.00    0.74837   0.85746    0.015
 4929.00    0.76389   0.81789    0.015
 4930.00    0.80856   0.79313    0.015
 4931.00    0.79142   0.81300    0.015
 4932.00    0.72210   0.83303    0.015
 4933.00    0.61996   0.81506    0.015
 4934.00    0.49341   0.77875    0.015
 4935.00    0.48704   0.76555    0.015
 4936.00    0.55915   0.79706    0.015
 4937.00    0.59007   0.84218    0.015
 4938.00    0.59744   0.86282    0.014
 4939.00    0.70220   0.86955    0.014
 4940.00    0.85543   0.87237    0.000
 4941.00    0.90544   0.86034    0.000
 4942.00    0.91098   0.84580    0.000
 4943.00    0.85938   0.85178    0.000
 4944.00    0.78667   0.86499    0.000
 4945.00    0.82522   0.86896    0.000
 4946.00    0.89856   0.86947    0.000
 4947.00    0.91305   0.87197    0.000
 4948.00    0.91219   0.86631    0.000
 4949.00    0.85983   0.85542    0.000
 4950.00    0.79652   0.85421    0.000
 4951.00    0.81467   0.85527    0.000
 4952.00    0.84656   0.82621    0.000
 4953.00    0.84224   0.76587    0.000
 4954.00    0.83332   0.75090    0.000
 4955.00    0.76842   0.80714    0.000
 4956.00    0.69857   0.85985    0.000
 4957.00    0.62944   0.87031    0.000
 4958.00    0.56035   0.86499    0.000
 4959.00    0.70648   0.86656    0.000
 4960.00    0.85465   0.86166    0.000
 4961.00    0.84092   0.83814    0.000
 4962.00    0.82252   0.81840    0.000
 4963.00    0.70252   0.81720    0.000
 4964.00    0.59665   0.82073    0.000
 4965.00    0.66434   0.82282    0.000
 4966.00    0.72357   0.82535    0.000
 4967.00    0.71186   0.83484    0.000
 4968.00    0.69952   0.84908    0.000
 4969.00    0.68326   0.85832    0.000
 4970.00    0.68084   0.86539    0.000
 4971.00    0.74626   0.86701    0.000
 4972.00    0.80165   0.86071    0.000
 4973.00    0.81714   0.84923    0.000
 4974.00    0.82405   0.83135    0.000
 4975.00    0.80260   0.81734    0.000
 4976.00    0.76915   0.80946    0.000
 4977.00    0.70211   0.78708    0.000
 4978.00    0.63539   0.74474    0.000
 4979.00    0.56943   0.71799    0.000
 4980.00    0.55340   0.72837    0.000
 4981.00    0.64050   0.75574    0.000
 4982.00    0.69439   0.78768    0.000
 4983.00    0.68862   0.82158    0.000
 4984.00    0.67473   0.83709    0.000
 4985.00    0.64807   0.83029    0.000
 4986.00    0.63043   0.81545    0.000
 4987.00    0.62522   0.80507    0.000
 4988.00    0.67788   0.80909    0.000
 4989.00    0.80081   0.80966    0.000
 4990.00    0.82502   0.80678    0.000
 4991.00    0.74356   0.82022    0.000
 4992.00    0.65756   0.83355    0.000
 4993.00    0.56728   0.83439    0.000
 4994.00    0.54688   0.82419    0.000
 4995.00    0.58466   0.80081    0.000
 4996.00    0.67684   0.77603    0.000
 4997.00    0.80887   0.76409    0.000
 4998.00    0.90517   0.76725    0.000
 4999.00    0.97846   0.78046    0.000
 5000.00    0.89912   0.78088    0.000
 5001.00    0.73386   0.75415    0.000
 5002.00    0.66852   0.72963    0.000
 5003.00    0.65214   0.74630    0.000
 5004.00    0.72816   0.79061    0.000
 5005.00    0.84330   0.81574    0.000
 5006.00    0.92420   0.81032    0.000
 5007.00    0.99267   0.78951    0.000
 5008.00    0.89810   0.75880    0.000
 5009.00    0.75352   0.73404    0.000
 5010.00    0.65414   0.72580    0.000
 5011.00    0.56631   0.73818    0.000
 5012.00    0.63845   0.75613    0.000
 5013.00    0.74383   0.74717    0.000
 5014.00    0.68491   0.72343    0.000
 5015.00    0.59910   0.73019    0.000
 5016.00    0.61047   0.76012    0.000
 5017.00    0.63376   0.77248    0.000
 5018.00    0.77762   0.76692    0.000
 5019.00    0.93168   0.77462    0.000
 5020.00    0.81808   0.79658    0.000
 5021.00    0.69139   0.80833    0.000
 5022.00    0.74213   0.80150    0.000
 5023.00    0.79382   0.77922    0.000
 5024.00    0.73612   0.77277    0.000
 5025.00    0.68284   0.79193    0.000
 5026.00    0.71819   0.80441    0.000
 5027.00    0.75253   0.80812    0.000
 5028.00    0.77499   0.82270    0.000
 5029.00    0.79421   0.84030    0.014
 5030.00    0.78719   0.83362    0.014
 5031.00    0.78275   0.79722    0.014
 5032.00    0.79390   0.76882    0.014
 5033.00    0.79910   0.77693    0.014
 5034.00    0.77582   0.78402    0.014
 5035.00    0.76605   0.76147    0.014
 5036.00    0.80894   0.72094    0.014
 5037.00    0.80498   0.69243    0.014
 5038.00    0.64907   0.71686    0.014
 5039.00    0.55055   0.77528    0.014
 5040.00    0.60958   0.81466    0.014
 5041.00    0.65347   0.83562    0.014
 5042.00    0.66178   0.84577    0.014
 5043.00    0.70221   0.82949    0.014
 5044.00    0.80794   0.79208    0.014
 5045.00    0.83409   0.76505    0.014
 5046.00    0.71943   0.76095    0.014
 5047.00    0.66160   0.76337    0.014
 5048.00    0.69175   0.76884    0.014
 5049.00    0.68944   0.78903    0.014
 5050.00    0.64298   0.81252    0.014
 5051.00    0.62901   0.82028    0.014
 5052.00    0.65391   0.81600    0.014
 5053.00    0.69972   0.81806    0.014
 5054.00    0.76758   0.82699    0.014
 5055.00    0.75505   0.83234    0.014
 5056.00    0.66770   0.83735    0.014
 5057.00    0.62528   0.84518    0.013
 5058.00    0.61975   0.84645    0.013
 5059.00    0.64565   0.82951    0.013
 5060.00    0.69427   0.79312    0.013
 5061.00    0.70021   0.76715    0.014
 5062.00    0.67909   0.77526    0.014
 5063.00    0.66668   0.78462    0.014
 5064.00    0.65909   0.77798    0.013
 5065.00    0.61358   0.78076    0.013
 5066.00    0.54979   0.79755    0.014
 5067.00    0.61714   0.79434    0.014
 5068.00    0.73910   0.77377    0.014
 5069.00    0.79227   0.77332    0.014
 5070.00    0.82095   0.78417    0.014
 5071.00    0.76682   0.78134    0.014
 5072.00    0.68778   0.78186    0.014
 5073.00    0.64539   0.79142    0.014
 5074.00    0.61214   0.77779    0.014
 5075.00    0.66459   0.73202    0.014
 5076.00    0.73441   0.70598    0.014
 5077.00    0.71541   0.72360    0.014
 5078.00    0.68229   0.74861    0.014
 5079.00    0.63649   0.75537    0.014
 5080.00    0.58919   0.76341    0.014
 5081.00    0.66056   0.78247    0.014
 5082.00    0.74147   0.79098    0.014
 5083.00    0.72179   0.78445    0.013
 5084.00    0.69760   0.78428    0.013
 5085.00    0.66009   0.79460    0.013
 5086.00    0.62348   0.79919    0.013
 5087.00    0.63960   0.79961    0.013
 5088.00    0.65808   0.80864    0.013
 5089.00    0.72039   0.82008    0.013
 5090.00    0.77449   0.82099    0.013
 5091.00    0.73712   0.80936    0.013
 5092.00    0.69524   0.78853    0.013
 5093.00    0.61825   0.76082    0.013
 5094.00    0.56178   0.73261    0.014
 5095.00    0.62612   0.71755    0.014
 5096.00    0.69202   0.73419    0.014
 5097.00    0.76524   0.76942    0.014
 5098.00    0.80584   0.79209    0.014
 5099.00    0.72212   0.79367    0.014
 5100.00    0.65453   0.78723    0.013
 5101.00    0.63824   0.78223    0.013
 5102.00    0.64130   0.77426    0.013
 5103.00    0.69655   0.75848    0.014
 5104.00    0.71434   0.75056    0.014
 5105.00    0.64554   0.75117    0.014
 5106.00    0.62076   0.74987    0.014
 5107.00    0.68406   0.76224    0.014
 5108.00    0.72327   0.78318    0.014
 5109.00    0.72048   0.79237    0.014
 5110.00    0.75152   0.79419    0.014
 5111.00    0.83414   0.79403    0.013
 5112.00    0.86353   0.79834    0.013
 5113.00    0.82160   0.80950    0.014
 5114.00    0.74043   0.81364    0.014
 5115.00    0.61295   0.80514    0.014
 5116.00    0.56736   0.79122    0.014
 5117.00    0.60697   0.77651    0.014
 5118.00    0.66082   0.75909    0.014
 5119.00    0.72775   0.73625    0.014
 5120.00    0.75762   0.72394    0.014
 5121.00    0.75752   0.73021    0.014
 5122.00    0.72104   0.73958    0.013
 5123.00    0.65867   0.74117    0.013
 5124.00    0.63515   0.73541    0.013
 5125.00    0.63591   0.73143    0.013
 5126.00    0.68173   0.73912    0.013
 5127.00    0.75216   0.75351    0.014
 5128.00    0.73477   0.75962    0.014
 5129.00    0.67573   0.75845    0.014
 5130.00    0.65954   0.76711    0.014
 5131.00    0.66089   0.78311    0.014
 5132.00    0.71965   0.77682    0.014
 5133.00    0.79849   0.75246    0.013
 5134.00    0.79994   0.73540    0.013
 5135.00    0.77857   0.72762    0.013
 5136.00    0.75646   0.74116    0.014
 5137.00    0.73417   0.75430    0.014
 5138.00    0.68684   0.73650    0.014
 5139.00    0.63456   0.73018    0.014
 5140.00    0.62330   0.75072    0.014
 5141.00    0.61837   0.75551    0.014
 5142.00    0.63130   0.73979    0.013
 5143.00    0.64627   0.73067    0.013
 5144.00    0.62804   0.73637    0.013
 5145.00    0.60726   0.74968    0.013
 5146.00    0.61860   0.75195    0.014
 5147.00    0.63126   0.74221    0.014
 5148.00    0.60113   0.73428    0.014
 5149.00    0.57257   0.72504    0.014
 5150.00    0.62499   0.72043    0.014
 5151.00    0.67569   0.73519    0.014
 5152.00    0.69643   0.75957    0.013
 5153.00    0.70614   0.77869    0.013
 5154.00    0.59855   0.78641    0.013
 5155.00    0.52419   0.78356    0.014
 5156.00    0.69993   0.78053    0.014
 5157.00    0.83963   0.77116    0.014
 5158.00    0.77282   0.75474    0.014
 5159.00    0.71483   0.75005    0.014
 5160.00    0.69702   0.74566    0.014
 5161.00    0.69887   0.71543    0.014
 5162.00    0.77403   0.66409    0.014
 5163.00    0.81230   0.61523    0.014
 5164.00    0.73543   0.60249    0.014
 5165.00    0.65647   0.63764    0.014
 5166.00    0.57201   0.68030    0.013
 5167.00    0.52158   0.67032    0.013
 5168.00    0.54856   0.62483    0.013
 5169.00    0.54747   0.62767    0.013
 5170.00    0.49110   0.69239    0.013
 5171.00    0.46155   0.74931    0.013
 5172.00    0.47802   0.76510    0.014
 5173.00    0.53333   0.76742    0.014
 5174.00    0.64703   0.77262    0.014
 5175.00    0.68614   0.76999    0.014
 5176.00    0.62674   0.75955    0.013
 5177.00    0.64201   0.73932    0.013
 5178.00    0.74414   0.69258    0.013
 5179.00    0.78501   0.63027    0.013
 5180.00    0.76303   0.61702    0.013
 5181.00    0.73400   0.67106    0.013
 5182.00    0.69860   0.72734    0.013
 5183.00    0.71633   0.74647    0.013
 5184.00    0.77643   0.74094    0.013
 5185.00    0.75337   0.74584    0.013
 5186.00    0.67196   0.75480    0.013
 5187.00    0.62072   0.72455    0.013
 5188.00    0.58805   0.68732    0.013
 5189.00    0.59590   0.69695    0.013
 5190.00    0.62554   0.72012    0.000
 5191.00    0.65918   0.71750    0.000
 5192.00    0.69468   0.71394    0.000
 5193.00    0.74412   0.72312    0.000
 5194.00    0.79917   0.73690    0.000
 5195.00    0.76605   0.75314    0.000
 5196.00    0.70266   0.76157    0.000
 5197.00    0.66383   0.75956    0.000
 5198.00    0.63210   0.75288    0.000
 5199.00    0.68571   0.74182    0.000
 5200.00    0.75970   0.71283    0.000
 5201.00    0.76609   0.67844    0.000
 5202.00    0.75947   0.67300    0.000
 5203.00    0.76559   0.68567    0.000
 5204.00    0.77361   0.68454    0.000
 5205.00    0.72907   0.69000    0.000
 5206.00    0.67876   0.71476    0.000
 5207.00    0.58283   0.74006    0.000
 5208.00    0.48361   0.76353    0.000
 5209.00    0.54967   0.77727    0.000
 5210.00    0.62191   0.76560    0.000
 5211.00    0.62420   0.73454    0.013
 5212.00    0.62750   0.71566    0.013
 5213.00    0.67951   0.72600    0.013
 5214.00    0.73430   0.75324    0.014
 5215.00    0.83418   0.77686    0.013
 5216.00    0.91281   0.78682    0.013
 5217.00    0.77510   0.78890    0.014
 5218.00    0.65866   0.78422    0.014
 5219.00    0.69703   0.76841    0.013
 5220.00    0.73262   0.74020    0.013
 5221.00    0.75268   0.69909    0.014
 5222.00    0.76625   0.65246    0.014
 5223.00    0.75092   0.64065    0.014
 5224.00    0.72502   0.68792    0.014
 5225.00    0.66046   0.74163    0.014
 5226.00    0.60888   0.76287    0.014
 5227.00    0.59701   0.76280    0.014
 5228.00    0.61138   0.73946    0.013
 5229.00    0.69399   0.70873    0.014
 5230.00    0.75000   0.70183    0.014
 5231.00    0.74652   0.71859    0.014
 5232.00    0.72861   0.74473    0.014
 5233.00    0.68271   0.76445    0.014
 5234.00    0.70137   0.77149    0.014
 5235.00    0.82915   0.77203    0.013
 5236.00    0.87196   0.77348    0.013
 5237.00    0.78893   0.77642    0.013
 5238.00    0.76339   0.77188    0.013
 5239.00    0.81272   0.76963    0.013
 5240.00    0.82775   0.78184    0.013
 5241.00    0.80344   0.78722    0.013
 5242.00    0.75344   0.76444    0.013
 5243.00    0.67747   0.73870    0.013
 5244.00    0.70296   0.73625    0.013
 5245.00    0.81897   0.73628    0.013
 5246.00    0.85065   0.72552    0.013
 5247.00    0.81603   0.72863    0.013
 5248.00    0.74931   0.74676    0.013
 5249.00    0.66038   0.75249    0.013
 5250.00    0.67199   0.73836    0.013
 5251.00    0.74455   0.72873    0.013
 5252.00    0.77289   0.74782    0.013
 5253.00    0.77784   0.77853    0.013
 5254.00    0.74850   0.79426    0.013
 5255.00    0.70341   0.79080    0.013
 5256.00    0.73389   0.77122    0.013
 5257.00    0.79425   0.73854    0.013
 5258.00    0.82515   0.70104    0.013
 5259.00    0.84614   0.66961    0.013
 5260.00    0.79293   0.64713    0.013
 5261.00    0.71872   0.63483    0.013
 5262.00    0.69449   0.64501    0.013
 5263.00    0.68193   0.67485    0.013
 5264.00    0.59361   0.67594    0.014
 5265.00    0.49110   0.63376    0.014
 5266.00    0.54843   0.62093    0.014
 5267.00    0.62892   0.66797    0.014
 5268.00    0.63384   0.71127    0.014
 5269.00    0.63082   0.71482    0.014
 5270.00    0.69863   0.70077    0.014
 5271.00    0.77127   0.68799    0.014
 5272.00    0.70039   0.70300    0.014
 5273.00    0.62470   0.74728    0.014
 5274.00    0.65968   0.77404    0.014
 5275.00    0.69239   0.76635    0.014
 5276.00    0.64850   0.74607    0.014
 5277.00    0.61436   0.73054    0.014
 5278.00    0.72882   0.71798    0.014
 5279.00    0.82958   0.70421    0.014
 5280.00    0.79674   0.70793    0.014
 5281.00    0.77112   0.74600    0.014
 5282.00    0.79629   0.78616    0.014
 5283.00    0.80846   0.79633    0.014
 5284.00    0.75006   0.78865    0.014
 5285.00    0.69882   0.78731    0.014
 5286.00    0.67871   0.79449    0.014
 5287.00    0.66930   0.79587    0.014
 5288.00    0.69815   0.78575    0.014
 5289.00    0.73374   0.77520    0.014
 5290.00    0.78956   0.77333    0.014
 5291.00    0.82804   0.76723    0.014
 5292.00    0.82220   0.74015    0.013
 5293.00    0.81641   0.70457    0.013
 5294.00    0.81072   0.69610    0.014
 5295.00    0.79291   0.72243    0.014
 5296.00    0.75198   0.74485    0.014
 5297.00    0.74619   0.74152    0.013
 5298.00    0.79888   0.73792    0.013
 5299.00    0.81336   0.75461    0.013
 5300.00    0.77205   0.77754    0.013
 5301.00    0.77476   0.78435    0.013
 5302.00    0.83396   0.77419    0.013
 5303.00    0.83535   0.76429    0.013
 5304.00    0.77135   0.76844    0.013
 5305.00    0.74397   0.78181    0.013
 5306.00    0.75311   0.78899    0.013
 5307.00    0.76320   0.78652    0.013
 5308.00    0.77413   0.77878    0.013
 5309.00    0.75669   0.76971    0.013
 5310.00    0.71725   0.76420    0.013
 5311.00    0.67948   0.75276    0.013
 5312.00    0.64283   0.73285    0.012
 5313.00    0.68716   0.72966    0.013
 5314.00    0.77985   0.74760    0.013
 5315.00    0.86414   0.76098    0.013
 5316.00    0.94406   0.76320    0.013
 5317.00    0.91669   0.76314    0.013
 5318.00    0.84086   0.75607    0.013
 5319.00    0.77754   0.73498    0.013
 5320.00    0.71909   0.71272    0.013
 5321.00    0.75100   0.71234    0.013
 5322.00    0.81277   0.71086    0.013
 5323.00    0.78637   0.67192    0.012
 5324.00    0.73552   0.63001    0.012
 5325.00    0.71206   0.64929    0.012
 5326.00    0.69484   0.70935    0.013
 5327.00    0.71005   0.74591    0.013
 5328.00    0.73118   0.74754    0.013
 5329.00    0.68573   0.74351    0.013
 5330.00    0.63094   0.75108    0.013
 5331.00    0.68443   0.75681    0.013
 5332.00    0.74884   0.74966    0.013
 5333.00    0.70954   0.74131    0.013
 5334.00    0.66358   0.73684    0.013
 5335.00    0.71941   0.71988    0.014
 5336.00    0.77803   0.69778    0.015
 5337.00    0.73755   0.70544    0.015
 5338.00    0.69811   0.73847    0.015
 5339.00    0.68850   0.76020    0.015
 5340.00    0.67958   0.75885    0.015
 5341.00    0.68056   0.74399    0.014
 5342.00    0.68679   0.73457    0.013
 5343.00    0.74217   0.73647    0.013
 5344.00    0.78087   0.73118    0.013
 5345.00    0.70585   0.72356    0.013
 5346.00    0.64253   0.73586    0.013
 5347.00    0.64096   0.75904    0.013
 5348.00    0.63295   0.76912    0.013
 5349.00    0.59761   0.76942    0.013
 5350.00    0.57911   0.77815    0.013
 5351.00    0.61969   0.79125    0.013
 5352.00    0.65947   0.79582    0.013
 5353.00    0.69691   0.79518    0.013
 5354.00    0.75125   0.79488    0.013
 5355.00    0.84803   0.79329    0.013
 5356.00    0.89885   0.78480    0.013
 5357.00    0.85017   0.76615    0.013
 5358.00    0.82003   0.74642    0.013
 5359.00    0.82468   0.73824    0.013
 5360.00    0.81617   0.73481    0.012
 5361.00    0.78609   0.73135    0.012
 5362.00    0.75861   0.73327    0.012
 5363.00    0.73487   0.73473    0.012
 5364.00    0.74720   0.72910    0.012
 5365.00    0.80518   0.70898    0.012
 5366.00    0.83615   0.67893    0.012
 5367.00    0.83703   0.67053    0.012
 5368.00    0.85355   0.70106   -2.000
 5369.00    0.88545   0.74482   -2.000
 5370.00    0.89650   0.77042   -2.000
 5371.00    0.88946   0.77642   -2.000
 5372.00    0.92702   0.77096   -2.000
 5373.00    0.99865   0.76421   -2.000
 5374.00    0.99238   0.76333   -2.000
 5375.00    0.93381   0.75882   -2.000
 5376.00    0.84490   0.74618   -2.000
 5377.00    0.73814   0.73798   -2.000
 5378.00    0.67496   0.73487   -2.000
 5379.00    0.63414   0.73465   -2.000
 5380.00    0.67397   0.74656   -2.000
 5381.00    0.74963   0.76211   -2.000
 5382.00    0.84953   0.76543   -2.000
 5383.00    0.95869   0.76034    0.013
 5384.00    0.91400   0.75145    0.013
 5385.00    0.81941   0.73847    0.013
 5386.00    0.77633   0.72807    0.013
 5387.00    0.74723   0.72345    0.013
 5388.00    0.70585   0.72096    0.013
 5389.00    0.66174   0.72097    0.013
 5390.00    0.70286   0.72412    0.013
 5391.00    0.75913   0.71810    0.013
 5392.00    0.66680   0.69378    0.013
 5393.00    0.55431   0.67913    0.013
 5394.00    0.75505   0.69856    0.013
 5395.00    0.98605   0.72300    0.013
 5396.00    0.86922   0.72762    0.013
 5397.00    0.73146   0.72782    0.013
 5398.00    0.65944   0.72661    0.013
 5399.00    0.58987   0.70514    0.013
 5400.00    0.64545   0.66979    0.013
 5401.00    0.69800   0.64999    0.013
 5402.00    0.67242   0.66163    0.013
 5403.00    0.64465   0.68934    0.013
 5404.00    0.58739   0.69916    0.013
 5405.00    0.53756   0.68162    0.012
 5406.00    0.55463   0.66740    0.012
 5407.00    0.57010   0.68324    0.012
 5408.00    0.57500   0.71149    0.012
 5409.00    0.59035   0.72291    0.012
 5410.00    0.65945   0.71916    0.012
 5411.00    0.72385   0.72322    0.012
 5412.00    0.76872   0.74144    0.012
 5413.00    0.79889   0.75308    0.012
 5414.00    0.77859   0.74767    0.012
 5415.00    0.76918   0.73566    0.012
 5416.00    0.79128   0.72865    0.012
 5417.00    0.77074   0.73191    0.012
 5418.00    0.64490   0.73503    0.012
 5419.00    0.58231   0.71947    0.012
 5420.00    0.65437   0.70266    0.012
 5421.00    0.70275   0.71630    0.012
 5422.00    0.70730   0.74666    0.012
 5423.00    0.70895   0.75545    0.012
 5424.00    0.70593   0.72737    0.012
 5425.00    0.72335   0.69121    0.012
 5426.00    0.76975   0.69231    0.012
 5427.00    0.79034   0.71648    0.012
 5428.00    0.77874   0.71674    0.012
 5429.00    0.75132   0.69688    0.012
 5430.00    0.70652   0.68502    0.012
 5431.00    0.66922   0.69123    0.012
 5432.00    0.63922   0.71061    0.012
 5433.00    0.66747   0.73461    0.012
 5434.00    0.74553   0.75554    0.012
 5435.00    0.77486   0.76672    0.012
 5436.00    0.76751   0.76926    0.012
 5437.00    0.77758   0.76763    0.012
 5438.00    0.79918   0.76549    0.012
 5439.00    0.74261   0.75775    0.012
 5440.00    0.64075   0.73567    0.012
 5441.00    0.65175   0.70099    0.012
 5442.00    0.71972   0.67309    0.012
 5443.00    0.74396   0.68003    0.012
 5444.00    0.74910   0.71812    0.012
 5445.00    0.73389   0.74944    0.012
 5446.00    0.71105   0.75802    0.013
 5447.00    0.63906   0.75478    0.012
 5448.00    0.55144   0.74670    0.012
 5449.00    0.59688   0.73012    0.012
 5450.00    0.67770   0.70103    0.012
 5451.00    0.73435   0.67788    0.012
 5452.00    0.78574   0.69073    0.013
 5453.00    0.81063   0.72899    0.012
 5454.00    0.83093   0.75487    0.012
 5455.00    0.80096   0.75703    0.012
 5456.00    0.76439   0.74564    0.012
 5457.00    0.71938   0.72768    0.012
 5458.00    0.67360   0.70575    0.012
 5459.00    0.73227   0.69751    0.012
 5460.00    0.79680   0.71372    0.012
 5461.00    0.74533   0.72971    0.012
 5462.00    0.69189   0.73086    0.012
 5463.00    0.70343   0.73298    0.012
 5464.00    0.71506   0.73866    0.012
 5465.00    0.72858   0.73636    0.012
 5466.00    0.73791   0.73005    0.012
 5467.00    0.69346   0.72682    0.012
 5468.00    0.66099   0.71986    0.012
 5469.00    0.73217   0.70937    0.012
 5470.00    0.79216   0.70379    0.012
 5471.00    0.78037   0.68786    0.012
 5472.00    0.77910   0.65943    0.012
 5473.00    0.83049   0.65877    0.012
 5474.00    0.87836   0.69285    0.012
 5475.00    0.91192   0.71628    0.012
 5476.00    0.90511   0.70747    0.012
 5477.00    0.76238   0.69383    0.012
 5478.00    0.66790   0.70036   -2.000
 5479.00    0.71046   0.71959   -2.000
 5480.00    0.75948   0.73715   -2.000
 5481.00    0.82417   0.74207   -2.000
 5482.00    0.84915   0.72734   -2.000
 5483.00    0.79098   0.70850   -2.000
 5484.00    0.87160   0.70697   -2.000
 5485.00    1.20497   0.71624   -2.000
 5486.00    1.57978   0.72255   -2.000
 5487.00    2.02057   0.72657   -2.000
 5488.00    2.25740   0.72453   -2.000
 5489.00    2.20932   0.71788   -2.000
 5490.00    1.84446   0.71969   -2.000
 5491.00    1.09016   0.72449   -2.000
 5492.00    0.66092   0.71626   -2.000
 5493.00    0.58395   0.70757   -2.000
 5494.00    0.58883   0.71977   -2.000
 5495.00    0.67194   0.73507   -2.000
 5496.00    0.73481   0.72504   -2.000
 5497.00    0.78062   0.70252   -2.000
 5498.00    0.83962   0.69531   -2.000
 5499.00    0.90842   0.70479   -2.000
 5500.00    0.88611   0.71176   -2.000
 5501.00    0.80440   0.70271   -2.000
 5502.00    0.76138   0.69014    0.012
 5503.00    0.74044   0.69513    0.012
 5504.00    0.75979   0.70786    0.012
 5505.00    0.79915   0.70959    0.012
 5506.00    0.82981   0.70409    0.012
 5507.00    0.85672   0.69537    0.012
 5508.00    0.79890   0.68774    0.012
 5509.00    0.70988   0.69058    0.012
 5510.00    0.66291   0.70124    0.011
 5511.00    0.62908   0.71079    0.011
 5512.00    0.66706   0.71787    0.011
 5513.00    0.72372   0.72695    0.011
 5514.00    0.68430   0.73659    0.011
 5515.00    0.62447   0.73803    0.011
 5516.00    0.64174   0.73290    0.011
 5517.00    0.67194   0.72960    0.011
 5518.00    0.68488   0.72968    0.011
 5519.00    0.69563   0.72851    0.011
 5520.00    0.72827   0.72110    0.011
 5521.00    0.76285   0.70752    0.011
 5522.00    0.62780   0.69069    0.012
 5523.00    0.48388   0.67405    0.014
 5524.00    0.48093   0.67138    0.014
 5525.00    0.48019   0.69208    0.015
 5526.00    0.44775   0.71672    0.015
 5527.00    0.41797   0.72484    0.015
 5528.00    0.44519   0.71949    0.015
 5529.00    0.47925   0.70817    0.014
 5530.00    0.59664   0.69572    0.013
 5531.00    0.70377   0.69441    0.012
 5532.00    0.72539   0.70671    0.012
 5533.00    0.74577   0.71647    0.012
 5534.00    0.75854   0.72039    0.012
 5535.00    0.76538   0.72727    0.012
 5536.00    0.74321   0.73418    0.012
 5537.00    0.72032   0.73234    0.012
 5538.00    0.69455   0.72010    0.012
 5539.00    0.69173   0.70847    0.012
 5540.00    0.76459   0.70664    0.012
 5541.00    0.80381   0.70873    0.012
 5542.00    0.74921   0.71243    0.012
 5543.00    0.71985   0.72334    0.012
 5544.00    0.75070   0.73533    0.012
 5545.00    0.77789   0.74006    0.012
 5546.00    0.79754   0.73931    0.012
 5547.00    0.79621   0.73545    0.012
 5548.00    0.75724   0.72803    0.012
 5549.00    0.75708   0.71867    0.011
 5550.00    0.81779   0.71322    0.011
 5551.00    0.81804   0.71594    0.011
 5552.00    0.73506   0.72053    0.011
 5553.00    0.70387   0.72051    0.011
 5554.00    0.73544   0.71981    0.011
 5555.00    0.74569   0.72072    0.011
 5556.00    0.73317   0.71897    0.011
 5557.00    0.73109   0.71249    0.011
 5558.00    0.73884   0.70429    0.011
 5559.00    0.73665   0.70160    0.011
 5560.00    0.72620   0.70298    0.011
 5561.00    0.70800   0.69997    0.011
 5562.00    0.68412   0.69628    0.011
 5563.00    0.68668   0.69715    0.011
 5564.00    0.70623   0.69624    0.011
 5565.00    0.74576   0.69482    0.011
 5566.00    0.79651   0.70131    0.011
 5567.00    0.77540   0.70348    0.011
 5568.00    0.71915   0.69275    0.011
 5569.00    0.68180   0.69223    0.011
 5570.00    0.65244   0.70541    0.011
 5571.00    0.63536   0.70995    0.011
 5572.00    0.62273   0.70889    0.011
 5573.00    0.65838   0.71271    0.011
 5574.00    0.70881   0.71568    0.011
 5575.00    0.68420   0.71731    0.011
 5576.00    0.64047   0.71795    0.011
 5577.00    0.67078   0.71324    0.011
 5578.00    0.71643   0.70983    0.011
 5579.00    0.73911   0.71112    0.011
 5580.00    0.75804   0.70585    0.011
 5581.00    0.73401   0.68680    0.011
 5582.00    0.70473   0.66078    0.012
 5583.00    0.66638   0.64346    0.011
 5584.00    0.62727   0.64230    0.011
 5585.00    0.66463   0.65373    0.011
 5586.00    0.70568   0.66914    0.012
 5587.00    0.76790   0.67751    0.012
 5588.00    0.82874   0.67675    0.012
 5589.00    0.78910   0.67328    0.011
 5590.00    0.75069   0.67807    0.011
 5591.00    0.73669   0.69682    0.012
 5592.00    0.72469   0.71166    0.012
 5593.00    0.73583   0.70282    0.012
 5594.00    0.74627   0.68623    0.012
 5595.00    0.75108   0.68089    0.012
 5596.00    0.75560   0.67700    0.012
 5597.00    0.75833   0.66676    0.012
 5598.00    0.76525   0.66329    0.012
 5599.00    0.79217   0.67877    0.012
 5600.00    0.81134   0.70547    0.012
 5601.00    0.80038   0.72549    0.011
 5602.00    0.79139   0.73290    0.011
 5603.00    0.78878   0.73191    0.011
 5604.00    0.78443   0.72831    0.011
 5605.00    0.77534   0.72607    0.011
 5606.00    0.76097   0.72745    0.011
 5607.00    0.73418   0.73162    0.011
 5608.00    0.72187   0.73155    0.011
 5609.00    0.73896   0.71390    0.011
 5610.00    0.73162   0.67700    0.011
 5611.00    0.68112   0.65116    0.011
 5612.00    0.66284   0.66246    0.011
 5613.00    0.69433   0.68826    0.011
 5614.00    0.72576   0.69804    0.011
 5615.00    0.75712   0.69665    0.011
 5616.00    0.78628   0.70015    0.011
 5617.00    0.81283   0.70840    0.011
 5618.00    0.79354   0.70666    0.011
 5619.00    0.72598   0.68665    0.011
 5620.00    0.67735   0.66570    0.011
 5621.00    0.64630   0.66661    0.011
 5622.00    0.62039   0.68275    0.011
 5623.00    0.59869   0.69561    0.011
 5624.00    0.57779   0.70597    0.011
 5625.00    0.55747   0.71739    0.011
 5626.00    0.62570   0.72348    0.011
 5627.00    0.74998   0.72229    0.011
 5628.00    0.79236   0.71627    0.011
 5629.00    0.78941   0.70779    0.011
 5630.00    0.80539   0.70097    0.011
 5631.00    0.83047   0.69566    0.011
 5632.00    0.82111   0.68822    0.011
 5633.00    0.79744   0.68300    0.011
 5634.00    0.77010   0.68662    0.011
 5635.00    0.74146   0.69081    0.011
 5636.00    0.75884   0.68572    0.011
 5637.00    0.79004   0.68074    0.011
 5638.00    0.79833   0.68520    0.011
 5639.00    0.80092   0.69212    0.011
 5640.00    0.76179   0.69639    0.011
 5641.00    0.71422   0.70035    0.011
 5642.00    0.68186   0.70466    0.011
 5643.00    0.65189   0.70686    0.011
 5644.00    0.68691   0.70331    0.010
 5645.00    0.72958   0.69721    0.010
 5646.00    0.75975   0.69826    0.010
 5647.00    0.78892   0.70632    0.010
 5648.00    0.74741   0.70959    0.020
 5649.00    0.70276   0.70023    1.814
 5650.00    0.66942   0.68635   -1.000
 5651.00    0.63630   0.68280   -1.000
 5652.00    0.60745   0.67890   -1.000
 5653.00    0.58072   0.65597   -1.000
 5654.00    0.59310   0.63764   -1.000
 5655.00    0.60849   0.65251   -1.000
 5656.00    0.65717   0.67522   -1.000
 5657.00    0.69799   0.67388   -1.000
 5658.00    0.67789   0.66404   -1.000
 5659.00    0.66144   0.67182    0.141
 5660.00    0.66644   0.69013    0.018
 5661.00    0.66001   0.69744    0.010
 5662.00    0.60039   0.68953    0.011
 5663.00    0.56414   0.67920    0.011
 5664.00    0.61674   0.67821    0.011
 5665.00    0.66189   0.68478    0.011
 5666.00    0.68337   0.69231    0.011
 5667.00    0.69613   0.70119    0.011
 5668.00    0.68541   0.71210    0.011
 5669.00    0.66214   0.71743    0.011
 5670.00    0.60990   0.71247    0.011
 5671.00    0.59797   0.70784    0.011
 5672.00    0.66651   0.71082    0.011
 5673.00    0.71929   0.71188    0.011
 5674.00    0.74464   0.70620    0.011
 5675.00    0.76388   0.70165    0.011
 5676.00    0.77382   0.69813    0.011
 5677.00    0.77568   0.68619    0.011
 5678.00    0.76676   0.67160    0.011
 5679.00    0.77035   0.66999    0.011
 5680.00    0.78871   0.67905    0.011
 5681.00    0.79047   0.68305    0.011
 5682.00    0.77499   0.67595    0.011
 5683.00    0.76922   0.66795    0.011
 5684.00    0.77235   0.67103    0.011
 5685.00    0.73806   0.68370    0.011
 5686.00    0.67356   0.69528    0.010
 5687.00    0.62807   0.70276    0.010
 5688.00    0.59611   0.70717    0.010
 5689.00    0.58770   0.70597    0.010
 5690.00    0.59396   0.70273    0.010
 5691.00    0.60973   0.70312    0.010
 5692.00    0.63069   0.70334    0.010
 5693.00    0.68808   0.69660    0.010
 5694.00    0.76273   0.68853    0.011
 5695.00    0.74808   0.68325    0.011
 5696.00    0.69698   0.67490    0.011
 5697.00    0.66221   0.66773    0.011
 5698.00    0.63313   0.67169    0.011
 5699.00    0.62941   0.68218    0.011
 5700.00    0.63314   0.68444    0.011
 5701.00    0.67476   0.67430    0.011
 5702.00    0.72562   0.66161    0.011
 5703.00    0.75928   0.65137    0.011
 5704.00    0.78955   0.64207    0.011
 5705.00    0.74377   0.64059    0.011
 5706.00    0.68632   0.64614    0.011
 5707.00    0.62013   0.65163    0.011
 5708.00    0.55295   0.66423    0.011
 5709.00    0.55666   0.68122    0.011
 5710.00    0.56574   0.68998    0.011
 5711.00    0.62040   0.69356    0.011
 5712.00    0.67690   0.69612    0.011
 5713.00    0.70216   0.69609    0.011
 5714.00    0.72659   0.69765    0.011
 5715.00    0.72678   0.70167    0.011
 5716.00    0.72788   0.70495    0.010
 5717.00    0.74448   0.70891    0.010
 5718.00    0.75718   0.71284    0.010
 5719.00    0.72853   0.71389    0.010
 5720.00    0.69996   0.71258    0.010
 5721.00    0.67204   0.70698    0.010
 5722.00    0.65714   0.69681    0.010
 5723.00    0.71660   0.69220    0.010
 5724.00    0.75724   0.69858    0.010
 5725.00    0.71239   0.70321    0.010
 5726.00    0.67569   0.69488    0.010
 5727.00    0.66935   0.68473    0.010
 5728.00    0.67079   0.68849    0.010
 5729.00    0.69645   0.70038    0.010
 5730.00    0.71267   0.70737    0.010
 5731.00    0.70390   0.70700    0.010
 5732.00    0.70364   0.70303    0.010
 5733.00    0.72268   0.69949    0.010
 5734.00    0.75041   0.69817    0.010
 5735.00    0.79523   0.69846    0.010
 5736.00    0.81645   0.69823    0.010
 5737.00    0.79724   0.69557    0.010
 5738.00    0.77950   0.69175    0.010
 5739.00    0.76395   0.69267    0.011
 5740.00    0.74526   0.70047    0.000
 5741.00    0.72243   0.70612    0.000
 5742.00    0.71315   0.69895    0.000
 5743.00    0.71961   0.68445    0.000
 5744.00    0.71677   0.68082    0.000
 5745.00    0.70441   0.69100    0.000
 5746.00    0.71652   0.69816    0.000
 5747.00    0.75070   0.68997    0.000
 5748.00    0.77342   0.67104    0.000
 5749.00    0.78701   0.65758    0.000
 5750.00    0.75771   0.66258    0.000
 5751.00    0.69839   0.68143    0.000
 5752.00    0.68269   0.69780    0.000
 5753.00    0.69377   0.70384    0.000
 5754.00    0.72315   0.70106    0.000
 5755.00    0.76234   0.69184    0.000
 5756.00    0.76468   0.67867    0.000
 5757.00    0.74986   0.66499    0.000
 5758.00    0.77541   0.65970    0.000
 5759.00    0.81717   0.67233    0.000
 5760.00    0.78870   0.69319    0.000
 5761.00    0.73618   0.70511    0.000
 5762.00    0.69290   0.70712    0.000
 5763.00    0.65228   0.70586    0.000
 5764.00    0.67039   0.70336    0.000
 5765.00    0.70249   0.70013    0.000
 5766.00    0.69218   0.69561    0.000
 5767.00    0.67374   0.69007    0.000
 5768.00    0.66575   0.68708    0.000
 5769.00    0.65932   0.68631    0.000
 5770.00    0.64399   0.68572    0.000
 5771.00    0.62770   0.68916    0.000
 5772.00    0.66365   0.69517    0.000
 5773.00    0.70335   0.69669    0.000
 5774.00    0.69748   0.69059    0.000
 5775.00    0.68993   0.67490    0.000
 5776.00    0.70097   0.65401    0.000
 5777.00    0.71259   0.64347    0.000
 5778.00    0.74160   0.64820    0.000
 5779.00    0.77005   0.65228    0.000
 5780.00    0.78952   0.64725    0.000
 5781.00    0.80459   0.64747    0.000
 5782.00    0.77497   0.66135    0.000
 5783.00    0.74316   0.67656    0.000
 5784.00    0.69544   0.68380    0.000
 5785.00    0.65725   0.68160    0.000
 5786.00    0.67193   0.67353    0.000
 5787.00    0.69387   0.67136    0.000
 5788.00    0.74801   0.67719    0.000
 5789.00    0.78461   0.68483    0.000
 5790.00    0.75732   0.69156    0.000
 5791.00    0.74382   0.69219   -2.000
 5792.00    0.77243   0.68203   -2.000
 5793.00    0.80787   0.67126   -2.000
 5794.00    0.86107   0.67492   -2.000
 5795.00    0.89369   0.68674   -2.000
 5796.00    0.88039   0.69376   -2.000
 5797.00    0.85351   0.69619   -2.000
 5798.00    0.80033   0.69584   -2.000
 5799.00    0.77329   0.68758   -2.000
 5800.00    0.79031   0.67665   -2.000
 5801.00    0.80770   0.67318   -2.000
 5802.00    0.82564   0.67694   -2.000
 5803.00    0.81892   0.68182   -2.000
 5804.00    0.78016   0.68480   -2.000
 5805.00    0.75567   0.68701   -2.000
 5806.00    0.74753   0.68850   -2.000
 5807.00    0.74059   0.68836   -2.000
 5808.00    0.73486   0.68744   -2.000
 5809.00    0.71043   0.68673   -2.000
 5810.00    0.66935   0.68135   -2.000
 5811.00    0.65155   0.67259    0.000
 5812.00    0.65201   0.67208    0.000
 5813.00    0.68925   0.68360    0.000
 5814.00    0.75188   0.69580    0.000
 5815.00    0.78403   0.70106    0.000
 5816.00    0.79775   0.70109    0.000
 5817.00    0.78048   0.69783    0.000
 5818.00    0.74685   0.69347    0.000
 5819.00    0.71402   0.69237    0.000
 5820.00    0.68156   0.69561    0.000
 5821.00    0.73171   0.69873    0.000
 5822.00    0.81445   0.69854    0.000
 5823.00    0.90651   0.69677    0.000
 5824.00    1.00170   0.69699    0.000
 5825.00    0.98534   0.69793    0.000
 5826.00    0.93748   0.69687    0.000
 5827.00    0.85817   0.69548    0.000
 5828.00    0.77153   0.69400    0.000
 5829.00    0.76909   0.68911    0.000
 5830.00    0.78238   0.68415    0.000
 5831.00    0.77549   0.68582    0.000
 5832.00    0.76569   0.68975    0.000
 5833.00    0.75167   0.68800    0.000
 5834.00    0.73719   0.68617    0.000
 5835.00    0.73167   0.69078    0.000
 5836.00    0.72675   0.69734    0.000
 5837.00    0.76901   0.70032    0.000
 5838.00    0.81282   0.70009    0.000
 5839.00    0.82079   0.69727    0.000
 5840.00    0.82742   0.69218    0.000
 5841.00    0.79231   0.68608    0.000
 5842.00    0.75689   0.67994    0.000
 5843.00    0.71686   0.67743    0.000
 5844.00    0.68089   0.68009    0.000
 5845.00    0.68437   0.68414    0.000
 5846.00    0.68248   0.68378    0.000
 5847.00    0.64299   0.67421    0.000
 5848.00    0.60794   0.65921    0.000
 5849.00    0.59690   0.65341    0.000
 5850.00    0.59054   0.66041    0.000
 5851.00    0.60451   0.66265    0.000
 5852.00    0.61156   0.64930    0.000
 5853.00    0.59396   0.63753    0.000
 5854.00    0.58521   0.64304    0.000
 5855.00    0.60294   0.65768    0.000
 5856.00    0.63338   0.66823    0.000
 5857.00    0.69627   0.66900    0.000
 5858.00    0.73858   0.66683    0.000
 5859.00    0.73569   0.67152    0.000
 5860.00    0.72414   0.67781    0.000
 5861.00    0.69610   0.67567    0.000
 5862.00    0.67815   0.67002    0.000
 5863.00    0.67695   0.67236    0.000
 5864.00    0.68842   0.68066    0.000
 5865.00    0.71835   0.68643    0.000
 5866.00    0.74561   0.68747    0.000
 5867.00    0.76944   0.68403    0.000
 5868.00    0.76935   0.67965    0.000
 5869.00    0.74225   0.67477    0.000
 5870.00    0.71493   0.66861    0.000
 5871.00    0.68739   0.66365    0.000
 5872.00    0.67373   0.66389    0.000
 5873.00    0.67227   0.66886    0.000
 5874.00    0.66667   0.66825    0.000
 5875.00    0.65788   0.66205    0.000
 5876.00    0.64393   0.66021    0.000
 5877.00    0.62648   0.66446    0.000
 5878.00    0.61596   0.66507    0.000
 5879.00    0.60958   0.66002    0.000
 5880.00    0.65136   0.65805    0.000
 5881.00    0.71818   0.66035    0.000
 5882.00    0.73252   0.65560    0.000
 5883.00    0.72321   0.62704    0.000
 5884.00    0.67129   0.56570    0.000
 5885.00    0.60286   0.50850    0.000
 5886.00    0.57113   0.51154    0.000
 5887.00    0.55150   0.56062    0.000
 5888.00    0.55141   0.60097    0.000
 5889.00    0.55671   0.60785    0.000
 5890.00    0.53805   0.57453    0.000
 5891.00    0.51395   0.53264    0.000
 5892.00    0.50079   0.54081    0.000
 5893.00    0.48962   0.58948    0.000
 5894.00    0.51241   0.62675    0.000
 5895.00    0.53995   0.64378    0.000
 5896.00    0.54961   0.65426    0.000
 5897.00    0.55747   0.66007    0.000
 5898.00    0.56255   0.66233    0.000
 5899.00    0.56747   0.66355    0.000
 5900.00    0.59039   0.66107    0.000
 5901.00    0.61374   0.65801    0.010
 5902.00    0.60469   0.66004    0.010
 5903.00    0.59593   0.66555    0.010
 5904.00    0.59528   0.66768    0.010
 5905.00    0.59605   0.66794    0.010
 5906.00    0.61689   0.67112    0.010
 5907.00    0.63834   0.67289    0.010
 5908.00    0.66540   0.66434    0.010
 5909.00    0.68459   0.64943    0.010
 5910.00    0.65029   0.64196    0.010
 5911.00    0.61452   0.64426    0.010
 5912.00    0.57100   0.65258    0.010
 5913.00    0.53581   0.66119    0.010
 5914.00    0.53590   0.66582    0.010
 5915.00    0.53865   0.66876    0.010
 5916.00    0.55073   0.66900    0.010
 5917.00    0.56081   0.66530    0.010
 5918.00    0.56498   0.66328    0.010
 5919.00    0.56698   0.66581    0.010
 5920.00    0.56351   0.66971    0.010
 5921.00    0.57470   0.67282    0.010
 5922.00    0.61756   0.67123    0.010
 5923.00    0.65079   0.66406    0.010
 5924.00    0.66596   0.65348    0.010
 5925.00    0.68835   0.64517    0.010
 5926.00    0.72256   0.64999    0.010
 5927.00    0.74427   0.66335    0.010
 5928.00    0.74805   0.66797    0.010
 5929.00    0.71110   0.65938    0.010
 5930.00    0.62272   0.65202    0.010
 5931.00    0.58110   0.65718    0.010
 5932.00    0.59152   0.66606    0.010
 5933.00    0.60125   0.66996    0.010
 5934.00    0.61031   0.67184    0.010
 5935.00    0.61016   0.66880    0.010
 5936.00    0.60204   0.65991    0.010
 5937.00    0.59783   0.65425    0.010
 5938.00    0.59661   0.65636    0.010
 5939.00    0.58642   0.66229    0.010
 5940.00    0.57021   0.66823    0.010
 5941.00    0.56022   0.67144    0.010
 5942.00    0.55389   0.66800    0.010
 5943.00    0.57099   0.65697    0.010
 5944.00    0.60008   0.64751    0.010
 5945.00    0.62245   0.65138    0.010
 5946.00    0.64184   0.66067    0.010
 5947.00    0.63307   0.65816    0.010
 5948.00    0.61358   0.64898    0.010
 5949.00    0.60645   0.65111    0.010
 5950.00    0.60331   0.66005    0.010
 5951.00    0.59152   0.66001    0.010
 5952.00    0.57739   0.65280    0.010
 5953.00    0.57164   0.64970    0.010
 5954.00    0.56774   0.65441    0.009
 5955.00    0.57551   0.66226    0.010
 5956.00    0.58533   0.66855    0.010
 5957.00    0.60211   0.67150    0.010
 5958.00    0.61983   0.67155    0.010
 5959.00    0.60241   0.67086    0.010
 5960.00    0.58163   0.66674    0.009
 5961.00    0.58354   0.66155    0.009
 5962.00    0.58681   0.66247    0.009
 5963.00    0.64866   0.66722    0.010
 5964.00    0.71153   0.67075    0.010
 5965.00    0.69978   0.67346    0.010
 5966.00    0.68708   0.67561    0.010
 5967.00    0.65008   0.67545    0.010
 5968.00    0.61554   0.67419    0.010
 5969.00    0.61410   0.67126    0.009
 5970.00    0.61290   0.66298    0.009
 5971.00    0.61398   0.65186    0.009
 5972.00    0.61736   0.64516    0.010
 5973.00    0.63595   0.64502    0.010
 5974.00    0.65061   0.65025    0.010
 5975.00    0.64519   0.66009    0.010
 5976.00    0.63463   0.66619    0.009
 5977.00    0.60286   0.66311    0.009
 5978.00    0.58182   0.64977    0.009
 5979.00    0.59758   0.63254    0.009
 5980.00    0.61560   0.62853    0.009
 5981.00    0.64019   0.63846    0.009
 5982.00    0.64998   0.64646    0.009
 5983.00    0.62335   0.65067    0.009
 5984.00    0.60227   0.65556    0.009
 5985.00    0.59298   0.65667    0.009
 5986.00    0.58832   0.64985    0.009
 5987.00    0.59219   0.64567    0.009
 5988.00    0.60127   0.65334    0.010
 5989.00    0.61876   0.66295    0.009
 5990.00    0.63503   0.66477    0.009
 5991.00    0.64957   0.65848    0.009
 5992.00    0.65049   0.64775    0.009
 5993.00    0.63443   0.64095    0.009
 5994.00    0.63585   0.64316    0.009
 5995.00    0.65645   0.64998    0.009
 5996.00    0.67331   0.65449    0.009
 5997.00    0.68652   0.65006    0.009
 5998.00    0.69220   0.64260    0.009
 5999.00    0.69143   0.64486    0.009
 6000.00    0.68940   0.65001    0.010
 6001.00    0.68641   0.64737    0.010
 6002.00    0.68267   0.63637    0.009
 6003.00    0.67843   0.62357    0.009
 6004.00    0.66058   0.62611    0.009
 6005.00    0.63485   0.64433    0.009
 6006.00    0.62404   0.65564    0.009
 6007.00    0.62076   0.64991    0.009
 6008.00    0.63981   0.63731    0.009
 6009.00    0.66860   0.63368    0.009
 6010.00    0.70503   0.63861    0.009
 6011.00    0.74432   0.63861    0.009
 6012.00    0.70809   0.63586    0.009
 6013.00    0.64788   0.63864    0.010
 6014.00    0.61217   0.63762    0.010
 6015.00    0.58295   0.62907    0.009
 6016.00    0.58167   0.62567    0.009
 6017.00    0.58645   0.62968    0.009
 6018.00    0.60231   0.63318    0.009
 6019.00    0.62007   0.63408    0.009
 6020.00    0.62290   0.63996    0.009
 6021.00    0.62379   0.64589    0.009
 6022.00    0.61945   0.64484    0.009
 6023.00    0.61463   0.64620    0.009
 6024.00    0.62656   0.65207    0.009
 6025.00    0.63943   0.65513    0.009
 6026.00    0.65244   0.65479    0.009
 6027.00    0.66530   0.65678    0.009
 6028.00    0.66240   0.66019    0.009
 6029.00    0.66022   0.66044    0.009
 6030.00    0.67470   0.65839    0.010
 6031.00    0.68775   0.65844    0.010
 6032.00    0.68249   0.66007    0.009
 6033.00    0.67766   0.66119    0.009
 6034.00    0.67648   0.65917    0.009
 6035.00    0.67557   0.65447    0.009
 6036.00    0.67638   0.64995    0.009
 6037.00    0.67299   0.64744    0.009
 6038.00    0.64860   0.65126    0.009
 6039.00    0.62794   0.65728    0.009
 6040.00    0.62238   0.65852    0.009
 6041.00    0.61735   0.65765    0.009
 6042.00    0.61412   0.65941    0.009
 6043.00    0.60892   0.66042    0.009
 6044.00    0.59817   0.65966    0.009
 6045.00    0.59564   0.66071    0.009
 6046.00    0.61305   0.66120    0.009
 6047.00    0.63664   0.65631    0.009
 6048.00    0.67312   0.64848    0.009
 6049.00    0.70421   0.64404    0.009
 6050.00    0.72547   0.64195    0.009
 6051.00    0.73278   0.63848    0.009
 6052.00    0.71791   0.63927    0.009
 6053.00    0.70219   0.64510    0.009
 6054.00    0.68530   0.65162    0.010
 6055.00    0.66017   0.65542    0.010
 6056.00    0.62493   0.65563    0.009
 6057.00    0.60171   0.65229    0.009
 6058.00    0.59151   0.64634    0.010
 6059.00    0.58220   0.63684    0.010
 6060.00    0.57374   0.62374    0.009
 6061.00    0.56757   0.62291    0.009
 6062.00    0.56332   0.64001    0.009
 6063.00    0.57481   0.65604    0.009
 6064.00    0.59796   0.66046    0.009
 6065.00    0.60657   0.65944    0.009
 6066.00    0.60571   0.65904    0.009
 6067.00    0.61035   0.66100    0.009
 6068.00    0.61812   0.66251    0.009
 6069.00    0.62853   0.66249    0.009
 6070.00    0.64024   0.66061    0.009
 6071.00    0.64900   0.65659    0.009
 6072.00    0.65649   0.64960    0.009
 6073.00    0.63825   0.63852    0.009
 6074.00    0.61055   0.63246    0.009
 6075.00    0.60441   0.63754    0.009
 6076.00    0.60498   0.64040    0.009
 6077.00    0.60335   0.63426    0.009
 6078.00    0.60116   0.63011    0.009
 6079.00    0.57311   0.63166    0.009
 6080.00    0.53958   0.63258    0.009
 6081.00    0.55434   0.63291    0.009
 6082.00    0.57717   0.63607    0.009
 6083.00    0.60105   0.64103    0.009
 6084.00    0.62506   0.64016    0.009
 6085.00    0.60299   0.63286    0.009
 6086.00    0.57688   0.62891    0.009
 6087.00    0.54510   0.63056    0.009
 6088.00    0.51303   0.63188    0.009
 6089.00    0.48510   0.63596    0.009
 6090.00    0.45806   0.64383    0.009
 6091.00    0.48965   0.64625    0.009
 6092.00    0.52113   0.64196    0.009
 6093.00    0.55018   0.64030    0.009
 6094.00    0.57602   0.64385    0.010
 6095.00    0.56290   0.64632    0.009
 6096.00    0.55223   0.63561    0.009
 6097.00    0.56189   0.60624    0.009
 6098.00    0.57015   0.58598    0.009
 6099.00    0.56967   0.60215    0.009
 6100.00    0.56922   0.62964    0.009
 6101.00    0.56886   0.64063    0.009
 6102.00    0.57346   0.63773    0.009
 6103.00    0.59771   0.63402    0.009
 6104.00    0.62120   0.63920    0.009
 6105.00    0.64219   0.64500    0.009
 6106.00    0.65064   0.64001    0.009
 6107.00    0.62425   0.63308    0.009
 6108.00    0.60212   0.63536    0.009
 6109.00    0.59011   0.64253    0.009
 6110.00    0.58995   0.64363    0.009
 6111.00    0.61418   0.63669    0.009
 6112.00    0.63557   0.63346    0.009
 6113.00    0.65188   0.63785    0.009
 6114.00    0.66017   0.63721    0.009
 6115.00    0.65591   0.62763    0.009
 6116.00    0.64204   0.61094    0.009
 6117.00    0.61498   0.59382    0.009
 6118.00    0.60137   0.59779    0.009
 6119.00    0.60403   0.62093    0.009
 6120.00    0.61920   0.63419    0.009
 6121.00    0.64773   0.63307    0.009
 6122.00    0.65886   0.62803    0.009
 6123.00    0.65363   0.62210    0.010
 6124.00    0.62959   0.61990    0.010
 6125.00    0.58995   0.62553    0.009
 6126.00    0.56233   0.63314    0.009
 6127.00    0.54348   0.63779    0.009
 6128.00    0.53252   0.64020    0.009
 6129.00    0.52661   0.63662    0.009
 6130.00    0.53184   0.61893    0.009
 6131.00    0.54332   0.58612    0.009
 6132.00    0.56095   0.55779    0.009
 6133.00    0.58158   0.56589    0.009
 6134.00    0.57980   0.60302    0.009
 6135.00    0.56858   0.62408    0.009
 6136.00    0.56365   0.61240    0.009
 6137.00    0.56099   0.59915    0.009
 6138.00    0.56303   0.61166    0.009
 6139.00    0.56651   0.63180    0.009
 6140.00    0.56430   0.63893    0.009
 6141.00    0.56065   0.63531    0.009
 6142.00    0.56777   0.62620    0.009
 6143.00    0.57712   0.61511    0.009
 6144.00    0.56497   0.60968    0.009
 6145.00    0.54934   0.61225    0.009
 6146.00    0.54162   0.62054    0.009
 6147.00    0.53487   0.62882    0.009
 6148.00    0.54513   0.63218    0.009
 6149.00    0.55683   0.62551    0.009
 6150.00    0.56251   0.61600    0.009
 6151.00    0.56791   0.61536    0.009
 6152.00    0.52686   0.61823    0.009
 6153.00    0.48553   0.62029    0.009
 6154.00    0.46610   0.62231    0.009
 6155.00    0.45092   0.61095    0.009
 6156.00    0.51937   0.57914    0.009
 6157.00    0.58597   0.55166    0.009
 6158.00    0.63113   0.55446    0.009
 6159.00    0.66723   0.57897    0.009
 6160.00    0.63071   0.60057    0.009
 6161.00    0.60106   0.60968    0.009
 6162.00    0.61276   0.61514    0.009
 6163.00    0.62575   0.61023    0.009
 6164.00    0.64490   0.58723    0.009
 6165.00    0.65939   0.57284    0.009
 6166.00    0.65588   0.58888    0.009
 6167.00    0.65331   0.61142    0.009
 6168.00    0.65379   0.61670    0.009
 6169.00    0.64635   0.61506    0.009
 6170.00    0.61731   0.61589    0.009
 6171.00    0.59042   0.61409    0.009
 6172.00    0.56859   0.61260    0.009
 6173.00    0.54949   0.61801    0.009
 6174.00    0.53589   0.62252    0.009
 6175.00    0.52554   0.62035    0.009
 6176.00    0.52092   0.62212    0.009
 6177.00    0.52218   0.62809    0.009
 6178.00    0.53251   0.62988    0.009
 6179.00    0.55145   0.62878    0.009
 6180.00    0.58204   0.62689    0.009
 6181.00    0.60770   0.61986    0.009
 6182.00    0.62745   0.61224    0.009
 6183.00    0.63987   0.61015    0.009
 6184.00    0.64460   0.61162    0.009
 6185.00    0.63574   0.60447    0.009
 6186.00    0.61430   0.58406    0.009
 6187.00    0.59564   0.57809    0.009
 6188.00    0.57926   0.59914    0.009
 6189.00    0.57809   0.61868    0.009
 6190.00    0.58786   0.62362    0.009
 6191.00    0.58190   0.62586    0.009
 6192.00    0.56600   0.62997    0.009
 6193.00    0.60206   0.62651    0.009
 6194.00    0.66681   0.61204    0.009
 6195.00    0.91543   0.60104    0.009
 6196.00    1.25234   0.60698   -2.000
 6197.00    1.49718   0.62130   -2.000
 6198.00    1.70387   0.62870   -2.000
 6199.00    1.51057   0.62810   -2.000
 6200.00    1.17549   0.62622   -2.000
 6201.00    0.72026   0.62697   -2.000
 6202.00    0.22908   0.62735   -2.000
 6203.00    0.08939   0.62693   -2.000
 6204.00    0.03701   0.62607   -2.000
 6205.00    0.14259   0.62302   -2.000
 6206.00    0.27997   0.61932   -2.000
 6207.00    0.38701   0.61316   -2.000
 6208.00    0.48927   0.59923    0.010
 6209.00    0.52185   0.58449    0.010
 6210.00    0.54625   0.58002    0.009
 6211.00    0.54504   0.58627    0.009
 6212.00    0.54180   0.59793    0.009
 6213.00    0.52022   0.60328    0.009
 6214.00    0.49783   0.59473    0.009
 6215.00    0.51264   0.58565    0.009
 6216.00    0.52731   0.58893    0.009
 6217.00    0.51637   0.60063    0.009
 6218.00    0.50476   0.60805    0.009
 6219.00    0.48083   0.60667    0.009
 6220.00    0.46127   0.60549    0.009
 6221.00    0.48979   0.60888    0.009
 6222.00    0.51729   0.61121    0.009
 6223.00    0.53697   0.61020    0.009
 6224.00    0.55190   0.59829    0.009
 6225.00    0.53899   0.57549    0.009
 6226.00    0.52715   0.56244    0.009
 6227.00    0.52025   0.56990    0.009
 6228.00    0.51914   0.58452    0.009
 6229.00    0.53994   0.60217    0.009
 6230.00    0.54743   0.61682    0.009
 6231.00    0.51273   0.61750    0.009
 6232.00    0.48685   0.60539    0.009
 6233.00    0.48461   0.59165    0.009
 6234.00    0.49437   0.58247    0.009
 6235.00    0.53179   0.58008    0.009
 6236.00    0.56919   0.58771    0.009
 6237.00    0.60653   0.59254    0.009
 6238.00    0.63043   0.58227    0.009
 6239.00    0.63098   0.57448    0.009
 6240.00    0.62132   0.57406    0.009
 6241.00    0.59615   0.57048    0.009
 6242.00    0.57618   0.57398    0.009
 6243.00    0.56313   0.58928    0.009
 6244.00    0.54465   0.60266    0.009
 6245.00    0.51980   0.60598    0.009
 6246.00    0.50838   0.59836    0.009
 6247.00    0.51091   0.58114    0.009
 6248.00    0.53364   0.56893    0.009
 6249.00    0.57485   0.56963    0.009
 6250.00    0.58901   0.57493    0.009
 6251.00    0.58138   0.57485    0.009
 6252.00    0.56510   0.56928    0.009
 6253.00    0.54269   0.56425    0.009
 6254.00    0.54028   0.56836    0.009
 6255.00    0.55033   0.58206    0.009
 6256.00    0.60203   0.59156    0.009
 6257.00    0.67638   0.59892    0.009
 6258.00    0.77641   0.60813    0.009
 6259.00    0.88856   0.60614    0.010
 6260.00    0.90736   0.59427    0.010
 6261.00    0.88812   0.59217    0.011
 6262.00    0.75876   0.60103    0.012
 6263.00    0.59109   0.60408    0.012
 6264.00    0.49231   0.59856    0.012
 6265.00    0.41372   0.59444    0.011
 6266.00    0.41923   0.59684    0.011
 6267.00    0.44516   0.60279    0.010
 6268.00    0.48537   0.60748    0.010
 6269.00    0.52839   0.60748    0.009
 6270.00    0.55793   0.60634    0.009
 6271.00    0.58542   0.60685    0.009
 6272.00    0.57166   0.60595    0.009
 6273.00    0.55325   0.60268    0.009
 6274.00    0.51547   0.59662    0.009
 6275.00    0.47624   0.58776    0.009
 6276.00    0.50109   0.58619    0.009
 6277.00    0.52852   0.59223    0.009
 6278.00    0.55380   0.59989    0.009
 6279.00    0.57795   0.60608    0.009
 6280.00    0.55632   0.60570    0.000
 6281.00    0.53623   0.60432    0.000
 6282.00    0.54238   0.60812    0.000
 6283.00    0.54994   0.61381    0.000
 6284.00    0.57226   0.61599    0.000
 6285.00    0.58907   0.61048    0.000
 6286.00    0.56477   0.60236    0.000
 6287.00    0.54358   0.59857    0.000
 6288.00    0.54001   0.59850    0.000
 6289.00    0.53494   0.60197    0.000
 6290.00    0.52301   0.60407    0.000
 6291.00    0.51197   0.59631    0.000
 6292.00    0.50428   0.58618    0.000
 6293.00    0.49636   0.58399    0.000
 6294.00    0.48775   0.58840    0.000
 6295.00    0.48456   0.58767    0.000
 6296.00    0.49566   0.57778    0.000
 6297.00    0.50615   0.57164    0.000
 6298.00    0.51526   0.57997    0.000
 6299.00    0.52071   0.59184    0.000
 6300.00    0.51898   0.59455    0.000
 6301.00    0.52080   0.59538    0.000
 6302.00    0.52865   0.60287    0.000
 6303.00    0.53945   0.60933    0.000
 6304.00    0.55463   0.60676    0.000
 6305.00    0.56589   0.59803    0.000
 6306.00    0.57197   0.59061    0.000
 6307.00    0.56714   0.59020    0.000
 6308.00    0.54967   0.59304    0.000
 6309.00    0.52785   0.58706    0.000
 6310.00    0.50158   0.57642    0.000
 6311.00    0.49715   0.57492    0.000
 6312.00    0.51241   0.57345    0.000
 6313.00    0.50784   0.56359    0.000
 6314.00    0.48751   0.56371    0.000
 6315.00    0.47864   0.57744    0.000
 6316.00    0.47777   0.58740    0.000
 6317.00    0.48420   0.58873    0.000
 6318.00    0.49512   0.59135    0.000
 6319.00    0.49668   0.59907    0.000
 6320.00    0.49323   0.60404    0.000
 6321.00    0.48870   0.60334    0.009
 6322.00    0.48367   0.59949    0.009
 6323.00    0.49306   0.59973    0.009
 6324.00    0.50823   0.60249    0.009
 6325.00    0.50987   0.59918    0.009
 6326.00    0.50689   0.59542    0.008
 6327.00    0.49536   0.59876    0.008
 6328.00    0.48136   0.60263    0.008
 6329.00    0.48036   0.59534    0.008
 6330.00    0.48245   0.57540    0.008
 6331.00    0.49114   0.56225    0.008
 6332.00    0.50108   0.56780    0.009
 6333.00    0.50401   0.57927    0.009
 6334.00    0.50590   0.58390    0.009
 6335.00    0.52094   0.58943    0.009
 6336.00    0.53739   0.59549    0.009
 6337.00    0.55176   0.59168    0.009
 6338.00    0.56599   0.58049    0.009
 6339.00    0.53664   0.57302    0.009
 6340.00    0.50572   0.57478    0.009
 6341.00    0.46618   0.57573    0.009
 6342.00    0.42815   0.57449    0.009
 6343.00    0.44415   0.58174    0.009
 6344.00    0.46008   0.59215    0.009
 6345.00    0.47476   0.59640    0.009
 6346.00    0.49046   0.59736    0.009
 6347.00    0.51630   0.59837    0.009
 6348.00    0.53801   0.59481    0.009
 6349.00    0.52985   0.58492    0.009
 6350.00    0.51099   0.57805    0.009
 6351.00    0.43298   0.58129    0.009
 6352.00    0.36713   0.58341    0.009
 6353.00    0.35508   0.57498    0.008
 6354.00    0.35818   0.56580    0.008
 6355.00    0.41632   0.56389    0.008
 6356.00    0.46710   0.56061    0.008
 6357.00    0.49545   0.55472    0.008
 6358.00    0.51199   0.55594    0.008
 6359.00    0.49790   0.56481    0.008
 6360.00    0.48469   0.57370    0.009
 6361.00    0.47344   0.57978    0.009
 6362.00    0.47153   0.58468    0.009
 6363.00    0.48765   0.58882    0.009
 6364.00    0.48768   0.58608    0.009
 6365.00    0.46062   0.57767    0.009
 6366.00    0.44297   0.57489    0.009
 6367.00    0.43918   0.58466    0.009
 6368.00    0.44464   0.59668    0.009
 6369.00    0.46208   0.59935    0.009
 6370.00    0.48097   0.59683    0.009
 6371.00    0.50150   0.59698    0.009
 6372.00    0.51590   0.59638    0.009
 6373.00    0.52412   0.59076    0.009
 6374.00    0.51874   0.58601    0.009
 6375.00    0.50126   0.58419    0.009
 6376.00    0.49007   0.58457    0.009
 6377.00    0.48380   0.58792    0.009
 6378.00    0.49406   0.58926    0.008
 6379.00    0.51569   0.58569    0.008
 6380.00    0.52406   0.58550    0.008
 6381.00    0.52440   0.59163    0.008
 6382.00    0.52843   0.59658    0.008
 6383.00    0.53439   0.59686    0.008
 6384.00    0.54234   0.59733    0.008
 6385.00    0.55119   0.59818    0.009
 6386.00    0.54768   0.59415    0.009
 6387.00    0.53931   0.57991    0.009
 6388.00    0.53865   0.56190    0.009
 6389.00    0.54056   0.56068    0.009
 6390.00    0.53650   0.57871    0.009
 6391.00    0.53076   0.59438    0.009
 6392.00    0.50173   0.59887    0.009
 6393.00    0.46729   0.59157    0.009
 6394.00    0.45586   0.57084    0.009
 6395.00    0.44873   0.55329    0.009
 6396.00    0.46239   0.56354    0.009
 6397.00    0.47904   0.58677    0.009
 6398.00    0.45328   0.59689    0.009
 6399.00    0.42311   0.59717    0.009
 6400.00    0.43953   0.59378    0.009
 6401.00    0.45907   0.58489    0.009
 6402.00    0.47089   0.57230    0.009
 6403.00    0.48245   0.56648    0.009
 6404.00    0.45379   0.57584    0.009
 6405.00    0.42669   0.58239    0.009
 6406.00    0.44859   0.57405    0.009
 6407.00    0.47095   0.57081    0.009
 6408.00    0.50023   0.57801    0.009
 6409.00    0.52536   0.58118    0.009
 6410.00    0.51042   0.57967    0.008
 6411.00    0.49730   0.58011    0.008
 6412.00    0.49683   0.58070    0.008
 6413.00    0.49526   0.58029    0.008
 6414.00    0.48780   0.57338    0.009
 6415.00    0.47846   0.56139    0.009
 6416.00    0.46096   0.55864    0.009
 6417.00    0.45302   0.57305    0.009
 6418.00    0.47905   0.59211    0.009
 6419.00    0.50346   0.59731    0.009
 6420.00    0.52302   0.59394    0.009
 6421.00    0.53752   0.59475    0.009
 6422.00    0.53914   0.59932    0.009
 6423.00    0.53448   0.59982    0.009
 6424.00    0.51607   0.59033    0.009
 6425.00    0.50313   0.57081    0.009
 6426.00    0.50057   0.55592    0.009
 6427.00    0.50702   0.55937    0.009
 6428.00    0.52841   0.57329    0.009
 6429.00    0.53640   0.58602    0.009
 6430.00    0.52491   0.59302    0.009
 6431.00    0.51012   0.59295    0.009
 6432.00    0.49110   0.58361    0.009
 6433.00    0.47772   0.56404    0.009
 6434.00    0.47068   0.55225    0.009
 6435.00    0.47520   0.56572    0.009
 6436.00    0.49121   0.58735    0.008
 6437.00    0.50446   0.59598    0.008
 6438.00    0.51531   0.59518    0.008
 6439.00    0.50398   0.59384    0.008
 6440.00    0.47554   0.59534    0.009
 6441.00    0.45765   0.59825    0.009
 6442.00    0.44693   0.59764    0.009
 6443.00    0.43823   0.58326    0.009
 6444.00    0.43073   0.55473    0.009
 6445.00    0.44452   0.53883    0.009
 6446.00    0.46936   0.55264    0.009
 6447.00    0.48606   0.57453    0.009
 6448.00    0.49910   0.58567    0.009
 6449.00    0.49685   0.58175    0.009
 6450.00    0.48869   0.56346    0.009
 6451.00    0.49482   0.54976    0.009
 6452.00    0.50567   0.55903    0.009
 6453.00    0.51770   0.58039    0.009
 6454.00    0.53006   0.59411    0.009
 6455.00    0.51741   0.59435    0.009
 6456.00    0.49910   0.57864    0.008
 6457.00    0.48122   0.55326    0.008
 6458.00    0.46343   0.54503    0.009
 6459.00    0.47185   0.56230    0.008
 6460.00    0.48392   0.57926    0.008
 6461.00    0.51124   0.58621    0.008
 6462.00    0.54009   0.58892    0.008
 6463.00    0.54465   0.58762    0.008
 6464.00    0.54767   0.58170    0.008
 6465.00    0.52719   0.57525    0.008
 6466.00    0.50608   0.56969    0.008
 6467.00    0.50195   0.57097    0.008
 6468.00    0.49915   0.58068    0.009
 6469.00    0.53329   0.58475    0.009
 6470.00    0.56516   0.58081    0.009
 6471.00    0.56484   0.58054    0.009
 6472.00    0.56180   0.58499    0.009
 6473.00    0.53357   0.58583    0.009
 6474.00    0.50399   0.58429    0.009
 6475.00    0.46522   0.58112    0.009
 6476.00    0.43013   0.56995    0.009
 6477.00    0.41431   0.55731    0.009
 6478.00    0.40239   0.55756    0.009
 6479.00    0.40694   0.56843    0.008
 6480.00    0.41911   0.57706    0.008
 6481.00    0.45781   0.57996    0.009
 6482.00    0.48878   0.58191    0.009
 6483.00    0.49706   0.58262    0.009
 6484.00    0.50280   0.57846    0.008
 6485.00    0.50220   0.56929    0.008
 6486.00    0.50945   0.56006    0.008
 6487.00    0.53361   0.55085    0.008
 6488.00    0.54901   0.53192    0.008
 6489.00    0.54802   0.50433    0.008
 6490.00    0.53904   0.48981    0.008
 6491.00    0.51701   0.49553    0.008
 6492.00    0.49939   0.51209    0.008
 6493.00    0.48810   0.53026    0.008
 6494.00    0.47196   0.54069    0.009
 6495.00    0.44972   0.54991    0.009
 6496.00    0.44499   0.56112    0.009
 6497.00    0.45973   0.56772    0.009
 6498.00    0.46619   0.57122    0.009
 6499.00    0.46454   0.57378    0.009
 6500.00    0.44738   0.57566    0.009
 6501.00    0.41680   0.57741    0.009
 6502.00    0.41324   0.57641    0.009
 6503.00    0.43025   0.57165    0.009
 6504.00    0.44738   0.56991    0.009
 6505.00    0.46459   0.57363    0.009
 6506.00    0.47044   0.57659    0.009
 6507.00    0.46963   0.57621    0.008
 6508.00    0.47224   0.57560    0.008
 6509.00    0.47660   0.57183    0.008
 6510.00    0.48574   0.56139    0.008
 6511.00    0.49699   0.55291    0.008
 6512.00    0.50648   0.55278    0.008
 6513.00    0.51531   0.55394    0.008
 6514.00    0.50938   0.55704    0.008
 6515.00    0.49870   0.56650    0.008
 6516.00    0.50178   0.57389    0.008
 6517.00    0.50859   0.57423    0.008
 6518.00    0.51659   0.57255    0.008
 6519.00    0.52485   0.57323    0.008
 6520.00    0.53147   0.57201    0.009
 6521.00    0.53780   0.56405    0.009
 6522.00    0.54335   0.55688    0.009
 6523.00    0.54880   0.55852    0.009
 6524.00    0.52665   0.56513    0.009
 6525.00    0.50187   0.56852    0.009
 6526.00    0.48414   0.56490    0.009
 6527.00    0.46682   0.55742    0.009
 6528.00    0.47552   0.55349    0.000
 6529.00    0.48486   0.55693    0.000
 6530.00    0.49164   0.56428    0.000
 6531.00    0.49830   0.56642    0.000
 6532.00    0.50200   0.56189    0.000
 6533.00    0.50633   0.56053    0.000
 6534.00    0.51906   0.56506    0.000
 6535.00    0.52878   0.56777    0.000
 6536.00    0.51161   0.56444    0.000
 6537.00    0.49495   0.55858    0.000
 6538.00    0.48159   0.55438    0.000
 6539.00    0.47750   0.55008    0.000
 6540.00    0.52079   0.54029    0.000
 6541.00    0.55394   0.53005    0.000
 6542.00    0.54524   0.53149    0.000
 6543.00    0.53691   0.54132    0.000
 6544.00    0.52987   0.54800    0.000
 6545.00    0.53332   0.54647    0.000
 6546.00    0.56699   0.53992    0.000
 6547.00    0.59461   0.53375    0.000
 6548.00    0.60738   0.52737    0.000
 6549.00    0.60314   0.51744    0.000
 6550.00    0.56283   0.50737    0.000
 6551.00    0.53249   0.50251    0.000
 6552.00    0.52049   0.50057    0.000
 6553.00    0.51074   0.49316    0.000
 6554.00    0.50460   0.47812    0.000
 6555.00    0.49534   0.45421    0.000
 6556.00    0.48169   0.41066    0.000
 6557.00    0.48746   0.35230    0.000
 6558.00    0.51736   0.33218    0.000
 6559.00    0.56868   0.38119    0.000
 6560.00    0.64346   0.44708    0.000
 6561.00    0.72141   0.48659    0.000
 6562.00    0.80244   0.50496    0.000
 6563.00    0.82075   0.51037    0.000
 6564.00    0.78563   0.50836    0.000
 6565.00    0.74153   0.51104    0.000
 6566.00    0.69070   0.51809    0.000
 6567.00    0.63728   0.52004    0.000
 6568.00    0.58215   0.51712    0.000
 6569.00    0.53816   0.51481    0.000
 6570.00    0.50059   0.51900    0.000
 6571.00    0.46250   0.53198    0.000
 6572.00    0.42414   0.54568    0.000
 6573.00    0.40321   0.55249    0.000
 6574.00    0.38985   0.55139    0.000
 6575.00    0.40168   0.54559    0.000
 6576.00    0.42292   0.54094    0.000
 6577.00    0.45139   0.54284    0.000
 6578.00    0.48215   0.54799    0.000
 6579.00    0.52819   0.55005    0.000
 6580.00    0.57827   0.54819    0.000
 6581.00    0.60435   0.54509    0.000
 6582.00    0.62525   0.54718    0.000
 6583.00    0.64723   0.55338    0.000
 6584.00    0.66939   0.55760    0.000
 6585.00    0.63102   0.55793    0.000
 6586.00    0.58477   0.54926    0.000
 6587.00    0.54036   0.52933    0.000
 6588.00    0.49612   0.51420    0.000
 6589.00    0.48202   0.52216    0.000
 6590.00    0.46958   0.54043    0.000
 6591.00    0.47850   0.54904    0.000
 6592.00    0.48796   0.54801    0.000
 6593.00    0.50574   0.54570    0.000
 6594.00    0.52255   0.54843    0.000
 6595.00    0.51700   0.55621    0.000
 6596.00    0.51146   0.56225    0.000
 6597.00    0.50595   0.56214    0.000
 6598.00    0.50258   0.55707    0.000
 6599.00    0.51750   0.55031    0.000
 6600.00    0.52991   0.54540    0.000
 6601.00    0.52639   0.54387    0.000
 6602.00    0.52066   0.54247    0.000
 6603.00    0.50393   0.53823    0.000
 6604.00    0.48738   0.53565    0.000
 6605.00    0.47154   0.54292    0.000
 6606.00    0.45397   0.55434    0.000
 6607.00    0.43061   0.55710    0.000
 6608.00    0.41907   0.55242    0.000
 6609.00    0.44092   0.55178    0.008
 6610.00    0.46273   0.55776    0.008
 6611.00    0.48445   0.56111    0.008
 6612.00    0.49907   0.55905    0.008
 6613.00    0.49889   0.55792    0.008
 6614.00    0.49293   0.56049    0.008
 6615.00    0.47651   0.56313    0.008
 6616.00    0.47059   0.56342    0.009
 6617.00    0.48133   0.56080    0.009
 6618.00    0.48209   0.55414    0.009
 6619.00    0.46896   0.54588    0.009
 6620.00    0.45728   0.54361    0.009
 6621.00    0.44736   0.54926    0.009
 6622.00    0.45068   0.55385    0.009
 6623.00    0.46830   0.55434    0.009
 6624.00    0.49363   0.55304    0.009
 6625.00    0.52630   0.55023    0.009
 6626.00    0.52369   0.54567    0.009
 6627.00    0.49147   0.53822    0.009
 6628.00    0.45481   0.52939    0.009
 6629.00    0.41487   0.52795    0.008
 6630.00    0.39414   0.53755    0.008
 6631.00    0.38588   0.54889    0.008
 6632.00    0.39672   0.55421    0.008
 6633.00    0.41843   0.55332    0.008
 6634.00    0.44555   0.54956    0.008
 6635.00    0.47534   0.54919    0.008
 6636.00    0.49319   0.55203    0.008
 6637.00    0.50594   0.54816    0.008
 6638.00    0.49938   0.53833    0.009
 6639.00    0.48575   0.53667    0.009
 6640.00    0.48801   0.54491    0.009
 6641.00    0.49520   0.55011    0.009
 6642.00    0.49322   0.54919    0.009
 6643.00    0.48887   0.54918    0.009
 6644.00    0.45197   0.55212    0.009
 6645.00    0.40820   0.55350    0.009
 6646.00    0.39189   0.55253    0.009
 6647.00    0.38015   0.55121    0.009
 6648.00    0.37643   0.55030    0.009
 6649.00    0.37372   0.55019    0.009
 6650.00    0.41339   0.55092    0.009
 6651.00    0.45675   0.55037    0.009
 6652.00    0.48168   0.55032    0.009
 6653.00    0.50566   0.55139    0.009
 6654.00    0.49239   0.55012    0.009
 6655.00    0.47854   0.54663    0.008
 6656.00    0.47032   0.54227    0.008
 6657.00    0.46217   0.53469    0.008
 6658.00    0.45569   0.52711    0.008
 6659.00    0.44962   0.52894    0.008
 6660.00    0.44842   0.53608    0.008
 6661.00    0.45070   0.53837    0.008
 6662.00    0.48164   0.53757    0.008
 6663.00    0.50714   0.53936    0.009
 6664.00    0.49902   0.54433    0.009
 6665.00    0.48636   0.54940    0.009
 6666.00    0.45169   0.55087    0.009
 6667.00    0.42905   0.54979    0.009
 6668.00    0.45394   0.54976    0.009
 6669.00    0.47088   0.55086    0.009
 6670.00    0.46172   0.54970    0.009
 6671.00    0.45462   0.53979    0.009
 6672.00    0.45321   0.52097    0.009
 6673.00    0.44969   0.51066    0.009
 6674.00    0.44116   0.52076    0.009
 6675.00    0.43480   0.53688    0.009
 6676.00    0.43288   0.54380    0.009
 6677.00    0.44607   0.54510    0.009
 6678.00    0.48626   0.54650    0.009
 6679.00    0.50975   0.54858    0.008
 6680.00    0.50717   0.54997    0.008
 6681.00    0.50186   0.55001    0.008
 6682.00    0.49279   0.54873    0.008
 6683.00    0.48401   0.54772    0.008
 6684.00    0.47557   0.54890    0.008
 6685.00    0.45803   0.55047    0.008
 6686.00    0.43080   0.55066    0.008
 6687.00    0.41955   0.55010    0.009
 6688.00    0.42332   0.54952    0.009
 6689.00    0.41353   0.54705    0.009
 6690.00    0.39252   0.54031    0.009
 6691.00    0.38586   0.53287    0.009
 6692.00    0.38966   0.53133    0.009
 6693.00    0.39409   0.53516    0.009
 6694.00    0.39892   0.54124    0.009
 6695.00    0.43117   0.54701    0.009
 6696.00    0.47877   0.54854    0.000
 6697.00    0.49165   0.54508    0.000
 6698.00    0.48761   0.53859    0.000
 6699.00    0.49633   0.53457    0.000
 6700.00    0.51043   0.53652    0.000
 6701.00    0.51932   0.54025    0.000
 6702.00    0.52633   0.54083    0.000
 6703.00    0.50741   0.54031    0.000
 6704.00    0.48060   0.54030    0.000
 6705.00    0.45322   0.53900    0.000
 6706.00    0.42570   0.53795    0.000
 6707.00    0.43108   0.53691    0.000
 6708.00    0.44322   0.53438    0.000
 6709.00    0.46738   0.53106    0.000
 6710.00    0.49348   0.52592    0.000
 6711.00    0.51430   0.51777    0.000
 6712.00    0.53447   0.51249    0.000
 6713.00    0.53332   0.51865    0.000
 6714.00    0.53039   0.53228    0.000
 6715.00    0.56069   0.53885    0.000
 6716.00    0.59256   0.53710    0.000
 6717.00    0.59270   0.53670    0.000
 6718.00    0.59254   0.54090    0.000
 6719.00    0.60075   0.54287    0.000
 6720.00    0.60655   0.53851    0.000
 6721.00    0.56536   0.53361    0.000
 6722.00    0.52865   0.53391    0.000
 6723.00    0.54343   0.53712    0.000
 6724.00    0.56089   0.54039    0.000
 6725.00    0.59973   0.54263    0.000
 6726.00    0.62407   0.54261    0.000
 6727.00    0.56141   0.53973    0.000
 6728.00    0.50896   0.53713    0.000
 6729.00    0.50488   0.53792    0.000
 6730.00    0.50837   0.54044    0.000
 6731.00    0.54105   0.54067    0.000
 6732.00    0.56400   0.53633    0.000
 6733.00    0.55564   0.53089    0.000
 6734.00    0.54658   0.52955    0.000
 6735.00    0.53559   0.53254    0.000
 6736.00    0.52115   0.53347    0.000
 6737.00    0.49865   0.52946    0.000
 6738.00    0.47579   0.52598    0.000
 6739.00    0.45221   0.52808    0.000
 6740.00    0.43037   0.53118    0.000
 6741.00    0.41158   0.53081    0.000
 6742.00    0.40076   0.52808    0.000
 6743.00    0.40219   0.52470    0.000
 6744.00    0.41658   0.52273    0.000
 6745.00    0.44849   0.52372    0.000
 6746.00    0.45951   0.52700    0.000
 6747.00    0.44566   0.52756    0.000
 6748.00    0.43255   0.52691    0.000
 6749.00    0.42023   0.52924    0.000
 6750.00    0.42807   0.53118    0.000
 6751.00    0.45457   0.53215    0.000
 6752.00    0.46882   0.53465    0.000
 6753.00    0.47305   0.53894    0.010
 6754.00    0.46382   0.54200    0.010
 6755.00    0.44492   0.54243    0.010
 6756.00    0.41958   0.54056    0.010
 6757.00    0.39018   0.53858    0.010
 6758.00    0.39988   0.53876    0.010
 6759.00    0.43112   0.53852    0.010
 6760.00    0.46376   0.53507    0.011
 6761.00    0.49707   0.52797    0.011
 6762.00    0.53159   0.52202    0.011
 6763.00    0.56661   0.52369    0.011
 6764.00    0.59357   0.52857    0.011
 6765.00    0.61767   0.52827    0.011
 6766.00    0.59417   0.52514    0.011
 6767.00    0.55647   0.52668    0.011
 6768.00    0.51025   0.53307    0.011
 6769.00    0.46193   0.53910    0.010
 6770.00    0.43908   0.54185    0.010
 6771.00    0.42133   0.54144    0.010
 6772.00    0.48212   0.53944    0.010
 6773.00    0.55524   0.54007    0.009
 6774.00    0.55673   0.54243    0.009
 6775.00    0.54986   0.54201    0.009
 6776.00    0.52091   0.53752    0.009
 6777.00    0.49021   0.53025    0.009
 6778.00    0.53205   0.52203    0.010
 6779.00    0.57706   0.51746    0.010
 6780.00    0.51977   0.51827    0.010
 6781.00    0.46238   0.52247    0.010
 6782.00    0.45065   0.52824    0.010
 6783.00    0.43822   0.53229    0.010
 6784.00    0.41317   0.53273    0.010
 6785.00    0.39053   0.53261    0.010
 6786.00    0.39431   0.53347    0.010
 6787.00    0.40328   0.53162    0.010
 6788.00    0.45217   0.52639    0.010
 6789.00    0.49769   0.52280    0.010
 6790.00    0.52358   0.52306    0.010
 6791.00    0.54292   0.52522    0.010
 6792.00    0.53204   0.52765    0.010
 6793.00    0.51949   0.52890    0.010
 6794.00    0.50063   0.52929    0.010
 6795.00    0.48309   0.53066    0.010
 6796.00    0.46968   0.53236    0.010
 6797.00    0.45381   0.53178    0.010
 6798.00    0.43136   0.52908    0.009
 6799.00    0.41745   0.52752    0.009
 6800.00    0.42318   0.52817    0.010
 6801.00    0.43363   0.52790    0.010
 6802.00    0.45349   0.52719    0.010
 6803.00    0.46483   0.52689    0.010
 6804.00    0.46141   0.52480    0.010
 6805.00    0.44594   0.52343    0.010
 6806.00    0.41218   0.52537    0.010
 6807.00    0.39919   0.52698    0.010
 6808.00    0.41387   0.52508    0.010
 6809.00    0.41321   0.52159    0.010
 6810.00    0.39455   0.52195    0.010
 6811.00    0.40473   0.52749    0.010
 6812.00    0.44477   0.53180    0.010
 6813.00    0.49047   0.53019    0.011
 6814.00    0.54135   0.52525    0.011
 6815.00    0.60084   0.52280    0.010
 6816.00    0.66726   0.52590    0.010
 6817.00    0.64947   0.53129    0.010
 6818.00    0.57205   0.53470    0.010
 6819.00    0.50944   0.53499    0.010
 6820.00    0.45603   0.53342    0.009
 6821.00    0.42489   0.52961    0.009
 6822.00    0.40584   0.52275    0.009
 6823.00    0.41065   0.51804    0.009
 6824.00    0.42673   0.52054    0.010
 6825.00    0.46716   0.52654    0.010
 6826.00    0.51749   0.52944    0.010
 6827.00    0.53110   0.52830    0.010
 6828.00    0.53196   0.52734    0.010
 6829.00    0.48614   0.52881    0.010
 6830.00    0.42666   0.52979    0.010
 6831.00    0.41814   0.52706    0.010
 6832.00    0.42196   0.52215    0.010
 6833.00    0.43469   0.51659    0.010
 6834.00    0.44917   0.51020    0.010
 6835.00    0.49296   0.50379    0.010
 6836.00    0.54121   0.49907    0.011
 6837.00    0.53738   0.49953    0.011
 6838.00    0.52770   0.50637    0.011
 6839.00    0.51868   0.51585    0.011
 6840.00    0.50971   0.52255    0.011
 6841.00    0.49948   0.52484    0.011
 6842.00    0.48920   0.52497    0.010
 6843.00    0.44376   0.52529    0.010
 6844.00    0.40104   0.52566    0.010
 6845.00    0.47591   0.52551    0.010
 6846.00    0.54409   0.52592    0.010
 6847.00    0.49935   0.52700    0.010
 6848.00    0.45875   0.52374    0.010
 6849.00    0.46140   0.51391    0.010
 6850.00    0.46679   0.50652    0.010
 6851.00    0.49251   0.50763    0.010
 6852.00    0.50983   0.51167    0.010
 6853.00    0.47950   0.51488    0.010
 6854.00    0.46021   0.51605    0.010
 6855.00    0.49080   0.51170    0.010
 6856.00    0.51029   0.50631    0.010
 6857.00    0.48871   0.50941    0.010
 6858.00    0.46169   0.51919    0.010
 6859.00    0.41783   0.52537    0.010
 6860.00    0.38289   0.52321    0.010
 6861.00    0.37140   0.51551    0.010
 6862.00    0.36393   0.50848    0.010
 6863.00    0.36554   0.50800    0.010
 6864.00    0.37953   0.51299    0.010
 6865.00    0.41778   0.51668    0.010
 6866.00    0.43215   0.51472    0.010
 6867.00    0.40580   0.51112    0.010
 6868.00    0.38998   0.51120    0.011
 6869.00    0.38991   0.51228    0.011
 6870.00    0.39310   0.51240    0.011
 6871.00    0.40057   0.51491    0.011
 6872.00    0.40583   0.51959    0.011
 6873.00    0.40854   0.52153    0.011
 6874.00    0.40918   0.51959    0.011
 6875.00    0.40772   0.51487    0.010
 6876.00    0.37857   0.50837    0.010
 6877.00    0.32450   0.50486    0.010
 6878.00    0.32664   0.50836    0.010
 6879.00    0.37337   0.51440    0.010
 6880.00    0.41357   0.51544    0.010
 6881.00    0.44921   0.51404    0.010
 6882.00    0.45986   0.51632    0.010
 6883.00    0.45521   0.52037    0.010
 6884.00    0.44685   0.52315    0.010
 6885.00    0.43651   0.52433    0.010
 6886.00    0.41708   0.52345    0.010
 6887.00    0.39344   0.52154    0.010
 6888.00    0.39697   0.52006    0.010
 6889.00    0.41135   0.51785    0.010
 6890.00    0.38940   0.51536    0.010
 6891.00    0.35506   0.51653    0.010
 6892.00    0.37125   0.52008    0.011
 6893.00    0.40193   0.52065    0.011
 6894.00    0.40848   0.51821    0.011
 6895.00    0.40933   0.51768    0.011
 6896.00    0.47087   0.52000    0.011
 6897.00    0.54398   0.52155    0.011
 6898.00    0.52541   0.52099    0.011
 6899.00    0.49329   0.51960    0.011
 6900.00    0.49821   0.51853    0.011
 6901.00    0.50712   0.51951    0.011
 6902.00    0.43607   0.52203    0.011
 6903.00    0.35936   0.52373    0.011
 6904.00    0.42048   0.52393    0.011
 6905.00    0.48656   0.52161    0.011
 6906.00    0.43639   0.51819    0.011
 6907.00    0.38756   0.51472    0.010
 6908.00    0.39806   0.50991    0.010
 6909.00    0.40740   0.50698    0.010
 6910.00    0.39829   0.50824    0.010
 6911.00    0.39232   0.50946    0.010
 6912.00    0.41789   0.51046    0.010
 6913.00    0.44027   0.51484    0.011
 6914.00    0.43971   0.52026    0.011
 6915.00    0.43277   0.52386    0.011
 6916.00    0.39073   0.52536    0.011
 6917.00    0.36233   0.52340    0.011
 6918.00    0.39408   0.51662    0.011
 6919.00    0.42091   0.50766    0.011
 6920.00    0.42992   0.50288    0.011
 6921.00    0.44166   0.50562    0.011
 6922.00    0.46169   0.51198    0.011
 6923.00    0.48014   0.51583    0.011
 6924.00    0.49454   0.51672    0.011
 6925.00    0.49810   0.51631    0.011
 6926.00    0.47759   0.51422    0.011
 6927.00    0.45542   0.51015    0.011
 6928.00    0.43002   0.50835    0.011
 6929.00    0.40411   0.51173    0.011
 6930.00    0.37734   0.51513    0.011
 6931.00    0.37113   0.51469    0.011
 6932.00    0.39522   0.51327    0.011
 6933.00    0.42088   0.51444    0.011
 6934.00    0.44858   0.51767    0.011
 6935.00    0.45893   0.52044    0.011
 6936.00    0.44948   0.52007    0.011
 6937.00    0.41687   0.51528    0.011
 6938.00    0.36096   0.50767    0.011
 6939.00    0.33456   0.49993    0.011
 6940.00    0.33435   0.49776    0.011
 6941.00    0.34548   0.50338    0.011
 6942.00    0.36549   0.51058    0.011
 6943.00    0.42070   0.51473    0.011
 6944.00    0.50011   0.51484    0.011
 6945.00    0.46457   0.50979    0.011
 6946.00    0.35974   0.50389    0.011
 6947.00    0.36486   0.50244    0.011
 6948.00    0.42782   0.50325    0.011
 6949.00    0.42020   0.50432    0.011
 6950.00    0.38038   0.50767    0.011
 6951.00    0.40990   0.51210    0.011
 6952.00    0.46666   0.51389    0.011
 6953.00    0.46071   0.51299    0.011
 6954.00    0.43379   0.51152    0.011
 6955.00    0.43936   0.51172    0.011
 6956.00    0.45405   0.51355    0.011
 6957.00    0.42159   0.51455    0.011
 6958.00    0.37822   0.51476    0.011
 6959.00    0.36843   0.51362    0.011
 6960.00    0.36488   0.50985    0.011
 6961.00    0.35656   0.50869    0.011
 6962.00    0.34756   0.51314    0.011
 6963.00    0.33968   0.51739    0.011
 6964.00    0.33192   0.51668    0.011
 6965.00    0.37399   0.51190    0.012
 6966.00    0.41938   0.50957    0.012
 6967.00    0.40561   0.51300    0.012
 6968.00    0.38995   0.51438    0.012
 6969.00    0.41263   0.50841    0.011
 6970.00    0.43313   0.50024    0.011
 6971.00    0.38671   0.49255    0.011
 6972.00    0.34356   0.48186    0.011
 6973.00    0.34901   0.47284    0.011
 6974.00    0.35729   0.47708    0.011
 6975.00    0.39271   0.49165    0.011
 6976.00    0.42832   0.50344    0.011
 6977.00    0.46519   0.50987    0.011
 6978.00    0.48989   0.51310    0.011
 6979.00    0.44926   0.51249    0.011
 6980.00    0.40947   0.51038    0.011
 6981.00    0.37328   0.51005    0.011
 6982.00    0.35545   0.51026    0.012
 6983.00    0.40281   0.50797    0.012
 6984.00    0.42758   0.50544    0.012
 6985.00    0.38493   0.50703    0.012
 6986.00    0.35848   0.51119    0.011
 6987.00    0.37316   0.51292    0.011
 6988.00    0.39699   0.51114    0.011
 6989.00    0.44079   0.50900    0.012
 6990.00    0.42517   0.50928    0.012
 6991.00    0.29683   0.51036    0.011
 6992.00    0.26776   0.50821    0.011
 6993.00    0.40303   0.50124    0.011
 6994.00    0.47225   0.49374    0.011
 6995.00    0.44564   0.49338    0.011
 6996.00    0.41249   0.49998    0.011
 6997.00    0.37099   0.50370    0.011
 6998.00    0.31961   0.49957    0.011
 6999.00    0.25713   0.49346    0.011
 7000.00    0.27281   0.49184    0.011
 7001.00    0.36603   0.49513    0.011
 7002.00    0.40619   0.50042    0.011
 7003.00    0.39992   0.50493    0.011
 7004.00    0.37319   0.50669    0.011
 7005.00    0.33070   0.50462    0.011
 7006.00    0.31307   0.50182    0.011
 7007.00    0.31228   0.50250    0.011
 7008.00    0.32365   0.50392    0.012
 7009.00    0.34224   0.49829    0.012
 7010.00    0.35288   0.48407    0.012
 7011.00    0.35941   0.47450    0.012
 7012.00    0.36387   0.48158    0.012
 7013.00    0.36742   0.49716    0.011
 7014.00    0.34493   0.50683    0.012
 7015.00    0.31240   0.50871    0.012
 7016.00    0.33832   0.50533    0.011
 7017.00    0.38342   0.49666    0.011
 7018.00    0.38946   0.48709    0.011
 7019.00    0.38476   0.48448    0.011
 7020.00    0.33658   0.49032    0.011
 7021.00    0.27858   0.49815    0.011
 7022.00    0.27473   0.50247    0.011
 7023.00    0.28066   0.50426    0.011
 7024.00    0.33509   0.50528    0.011
 7025.00    0.39623   0.50526    0.011
 7026.00    0.39956   0.50358    0.011
 7027.00    0.39714   0.50165    0.012
 7028.00    0.37636   0.50031    0.012
 7029.00    0.35443   0.50041    0.012
 7030.00    0.37517   0.50370    0.012
 7031.00    0.39687   0.50449    0.012
 7032.00    0.35259   0.49587    0.012
 7033.00    0.30996   0.48854    0.012
 7034.00    0.31267   0.49547    0.012
 7035.00    0.31604   0.51016    0.012
 7036.00    0.32878   0.51973    0.012
 7037.00    0.34502   0.52121    0.012
 7038.00    0.39357   0.51600    0.012
 7039.00    0.43401   0.50736    0.012
 7040.00    0.41976   0.50321    0.011
 7041.00    0.40067   0.50697    0.011
 7042.00    0.35635   0.51365    0.011
 7043.00    0.32715   0.51797    0.011
 7044.00    0.36163   0.51863    0.011
 7045.00    0.38853   0.51542    0.011
 7046.00    0.38907   0.50657    0.011
 7047.00    0.38399   0.49494    0.012
 7048.00    0.36245   0.48936    0.012
 7049.00    0.34641   0.49241    0.012
 7050.00    0.34411   0.49934   -2.000
 7051.00    0.34399   0.50540   -2.000
 7052.00    0.34852   0.50727   -2.000
 7053.00    0.35015   0.50267   -2.000
 7054.00    0.34639   0.49412   -2.000
 7055.00    0.31811   0.49015   -2.000
 7056.00    0.24985   0.49303   -2.000
 7057.00    0.24230   0.49797   -2.000
 7058.00    0.32160   0.50329   -2.000
 7059.00    0.37815   0.50737   -2.000
 7060.00    0.40609   0.50400   -2.000
 7061.00    0.42224   0.49332   -2.000
 7062.00    0.42531   0.48225   -2.000
 7063.00    0.43023   0.47900   -2.000
 7064.00    0.43696   0.48689   -2.000
 7065.00    0.38938   0.49799   -2.000
 7066.00    0.29495   0.50306   -2.000
 7067.00    0.25518   0.50334   -2.000
 7068.00    0.25694   0.50311   -2.000
 7069.00    0.33586   0.50209   -2.000
 7070.00    0.46630   0.49997   -2.000
 7071.00    0.51890   0.49935   -2.000
 7072.00    0.52597   0.50109   -2.000
 7073.00    0.51069   0.50303   -2.000
 7074.00    0.48402   0.50509   -2.000
 7075.00    0.50526   0.50707   -2.000
 7076.00    0.54764   0.50518   -2.000
 7077.00    0.51356   0.49620   -2.000
 7078.00    0.45048   0.48247   -2.000
 7079.00    0.44056   0.47323   -2.000
 7080.00    0.44776   0.47539   -2.000
 7081.00    0.42305   0.48206   -2.000
 7082.00    0.38974   0.48466   -2.000
 7083.00    0.38823   0.48340   -2.000
 7084.00    0.39375   0.48027   -2.000
 7085.00    0.42158   0.47854   -2.000
 7086.00    0.45334   0.48036   -2.000
 7087.00    0.46275   0.48156   -2.000
 7088.00    0.46918   0.48197   -2.000
 7089.00    0.44600   0.48299   -2.000
 7090.00    0.42001   0.48361   -2.000
 7091.00    0.36873   0.48437   -2.000
 7092.00    0.31597   0.48648   -2.000
 7093.00    0.29447   0.48971   -2.000
 7094.00    0.27483   0.49218   -2.000
 7095.00    0.40285   0.49161   -2.000
 7096.00    0.52417   0.48826   -2.000
 7097.00    0.47896   0.48573   -2.000
 7098.00    0.43261   0.48774   -2.000
 7099.00    0.37117   0.49193   -2.000
 7100.00    0.31005   0.49230   -2.000
 7101.00    0.25184   0.48708   -2.000
 7102.00    0.21968   0.48266   -2.000
 7103.00    0.35779   0.48296   -2.000
 7104.00    0.46288   0.48212   -2.000
 7105.00    0.39971   0.47662   -2.000
 7106.00    0.34994   0.47225   -2.000
 7107.00    0.35536   0.47369   -2.000
 7108.00    0.36937   0.47831   -2.000
 7109.00    0.41262   0.48119   -2.000
 7110.00    0.44407   0.48218   -2.000
 7111.00    0.44159   0.48161   -2.000
 7112.00    0.43967   0.48049   -2.000
 7113.00    0.43913   0.47904   -2.000
 7114.00    0.43348   0.47755   -2.000
 7115.00    0.41704   0.47575   -2.000
 7116.00    0.41354   0.47291   -2.000
 7117.00    0.43384   0.47332   -2.000
 7118.00    0.45511   0.47901   -2.000
 7119.00    0.47794   0.48260   -2.000
 7120.00    0.54287   0.48076   -2.000
 7121.00    0.66714   0.47847   -2.000
 7122.00    0.65268   0.47971   -2.000
 7123.00    0.46615   0.47973   -2.000
 7124.00    0.34068   0.47221   -2.000
 7125.00    0.28197   0.46410   -2.000
 7126.00    0.30856   0.46552   -2.000
 7127.00    0.41741   0.47390   -2.000
 7128.00    0.43761   0.48197   -2.000
 7129.00    0.38244   0.48597   -2.000
 7130.00    0.38419   0.48681   -2.000
 7131.00    0.42856   0.48917   -2.000
 7132.00    0.42293   0.49090   -2.000
 7133.00    0.38439   0.48660   -2.000
 7134.00    0.45553   0.48123   -2.000
 7135.00    0.58986   0.48266   -2.000
 7136.00    0.51699   0.48614   -2.000
 7137.00    0.34014   0.48581   -2.000
 7138.00    0.24305   0.48398   -2.000
 7139.00    0.18060   0.48275   -2.000
 7140.00    0.22318   0.48186   -2.000
 7141.00    0.30488   0.47649   -2.000
 7142.00    0.38746   0.46498   -2.000
 7143.00    0.47032   0.46027   -2.000
 7144.00    0.49490   0.46737   -2.000
 7145.00    0.50410   0.47619   -2.000
 7146.00    0.44434   0.48290   -2.000
 7147.00    0.36972   0.48875   -2.000
 7148.00    0.36524   0.49010   -2.000
 7149.00    0.37276   0.48484   -2.000
 7150.00    0.40909   0.48116   -2.000
 7151.00    0.44916   0.48624   -2.000
 7152.00    0.27713   0.49107   -2.000
 7153.00    0.08583   0.48895   -2.000
 7154.00    0.19950   0.48398   -2.000
 7155.00    0.32986   0.48196   -2.000
 7156.00    0.48446   0.48428   -2.000
 7157.00    0.63671   0.48335   -2.000
 7158.00    0.52937   0.47167   -2.000
 7159.00    0.41562   0.45848   -2.000
 7160.00    0.15627   0.45908   -2.000
 7161.00   -0.06760   0.47335   -2.000
 7162.00    0.15541   0.48780   -2.000
 7163.00    0.36049   0.49280   -2.000
 7164.00    0.41260   0.49019   -2.000
 7165.00    0.51285   0.48860   -2.000
 7166.00    0.91818   0.49217   -2.000
 7167.00    1.17561   0.49638   -2.000
 7168.00    0.69863   0.49651   -2.000
 7169.00    0.32067   0.49088   -2.000
 7170.00    0.34125   0.48302   -2.000
 7171.00    0.35273   0.48153   -2.000
 7172.00    0.33383   0.48809   -2.000
 7173.00    0.33144   0.49062   -2.000
 7174.00    0.37566   0.48110   -2.000
 7175.00    0.39254   0.46779   -2.000
 7176.00    0.34347   0.46530   -2.000
 7177.00    0.29953   0.47626   -2.000
 7178.00    0.26627   0.48757   -2.000
 7179.00    0.30413   0.48906   -2.000
 7180.00    0.47074   0.48125   -2.000
 7181.00    0.52486   0.46873   -2.000
 7182.00    0.40093   0.46022   -2.000
 7183.00    0.35825   0.46090   -2.000
 7184.00    0.42848   0.46725   -2.000
 7185.00    0.42735   0.47453   -2.000
 7186.00    0.33895   0.47639   -2.000
 7187.00    0.33513   0.47190   -2.000
 7188.00    0.42249   0.46995   -2.000
 7189.00    0.41112   0.47579   -2.000
 7190.00    0.30588   0.48072   -2.000
 7191.00    0.28473   0.47930   -2.000
 7192.00    0.33408   0.47857   -2.000
 7193.00    0.37663   0.48154   -2.000
 7194.00    0.41415   0.48322   -2.000
 7195.00    0.41056   0.48003   -2.000
 7196.00    0.38031   0.47406   -2.000
 7197.00    0.39353   0.47435   -2.000
 7198.00    0.43139   0.48275   -2.000
 7199.00    0.42302   0.48822   -2.000
 7200.00    0.39181   0.48054   -2.000
 7201.00    0.25343   0.46303   -2.000
 7202.00    0.06929   0.45340   -2.000
 7203.00    0.15682   0.45938   -2.000
 7204.00    0.34374   0.47250   -2.000
 7205.00    0.53941   0.48416   -2.000
 7206.00    0.73779   0.48744   -2.000
 7207.00    0.61823   0.48132   -2.000
 7208.00    0.41661   0.47298   -2.000
 7209.00    0.38805   0.46908   -2.000
 7210.00    0.39590   0.47062   -2.000
 7211.00    0.27494   0.47639   -2.000
 7212.00    0.13258   0.48258   -2.000
 7213.00    0.10625   0.48400   -2.000
 7214.00    0.09442   0.48024   -2.000
 7215.00    0.07038   0.47442   -2.000
 7216.00    0.04528   0.46963   -2.000
 7217.00    0.11251   0.46661   -2.000
 7218.00    0.18444   0.46737   -2.000
