###################################################################
## OUTPUT of StarlightChains_v04.for    [Cid@UFSC - 01/Apr/2007] ##
###################################################################

## Some input info
KUG0210-078._27_44.txt                   [arq_obs]
Base.CB07.vall.4m                        [arq_base]
Masks.EmLines.NEW.gm                     [arq_masks]
StCv04.C11.config                        [arq_config]
   66                                    [N_base]
    0                                    [N_YAV_components = # of components with extra extinction!]
    0                                    [i_FitPowerLaw (1/0 = Yes/No)]
-9.99                                    [alpha_PowerLaw]
CCM                                      [red_law_option]
 1.458241                                [q_norm = A(l_norm)/A(V)]

## (Re)Sampling Parameters
 3741.00                                 [l_ini (A)]
 7218.00                                 [l_fin (A)]
    1.00                                 [dl    (A)]     (OBS: dl_cushion =    50.00 A)

## Normalization info
 4020.00                                 [l_norm (A) - for base]
 4010.00                                 [llow_norm (A) - window for f_obs]
 4060.00                                 [lupp_norm (A) - window for f_obs]
7.023612E-18                             [fobs_norm (in input units)]

## S/N
 3691.00                                 [llow_SN (A) - window for S/N]
 7268.00                                 [lupp_SN (A) - window for S/N]
   3.008                                 [S/N in S/N window]
   3.986                                 [S/N in norm. window]
   0.006                                 [S/N_err in S/N window]
   0.008                                 [S/N_err in norm. window]
  1.0000                                 [fscale_chi2]

## etc...
    -2007364                             [idum_orig]
  2387                                   [NOl_eff]
  2297                                   [Nl_eff]
    90    NSIGMA                         [Ntot_cliped & clip_method]
  2441740                                [Nglobal_steps]
   7                                     [N_chains]
  13                                     [NEX0s_base = N_base in EX0s-fits]
 0   1   1       93   2.0   2.945E+03    [Clip-Bug, RC-Crash & Burn-In warning-flags, n_censored_weights, wei_nsig_threshold & wei_limit]
    46     46.011     45.308      0.703  [idt_all, wdt_TotTime, wdt_UsrTime & wdt_SysTime (sec)]

## Synthesis Results - Best model ##

 1.39237E-03                             [chi2/Nl_eff]
    41.44782                             [adev (%)]

   108.73627                             [sum-of-x (%)]
 2.03466E-18                             [Flux_tot (units of input spectrum!)]
 1.08286E-13                             [Mini_tot (???)]
 5.54325E-14                             [Mcor_tot (???)]

-107.64                                  [v0_min  (km/s)]
  73.86                                  [vd_min  (km/s)]
-0.9848                                  [AV_min  (mag)]
 0.0000                                  [YAV_min (mag)]

# j     x_j(%)      Mini_j(%)     Mcor_j(%)     age_j(yr)     Z_j      (L/M)_j    YAV?  Mstars   component_j        a/Fe...       SSP_chi2r SSP_adev(%)   SSP_AV   SSP_x(%)
  1      0.0000     0.0000E+00    0.0000E+00    1.000000E+06  0.00400  1.094E-02    0   1.0000   age020_m42            0.0000     2.9011E+01    38.3307   3.3185    63.8959
  2      0.0000     0.0000E+00    0.0000E+00    3.160000E+06  0.00400  4.007E-02    0   0.9999   age045_m42            0.0000     8.4816E-04    38.0895   2.4273    74.6561
  3      0.0000     0.0000E+00    0.0000E+00    5.010000E+06  0.00400  2.539E-02    0   0.9488   age055_m42            0.0000     1.2244E+00    38.2217   2.7813    71.4621
  4      0.0000     0.0000E+00    0.0000E+00    6.610000E+06  0.00400  2.620E-02    0   0.9220   age061_m42            0.0000     3.3939E+00    38.1003   2.3318    75.7124
  5      0.0000     0.0000E+00    0.0000E+00    1.000000E+07  0.00400  1.322E-02    0   0.8862   age070_m42            0.0000     1.2976E+00    36.7354   2.0783    74.5660
  6      0.0000     0.0000E+00    0.0000E+00    1.445000E+07  0.00400  7.883E-03    0   0.8571   age078_m42            0.0000     2.8280E-01    37.2083   2.4236    72.2604
  7      0.0000     0.0000E+00    0.0000E+00    2.512000E+07  0.00400  5.251E-03    0   0.8174   age090_m42            0.0000     1.1156E+00    36.5216   1.9276    75.5235
  8      0.0000     0.0000E+00    0.0000E+00    4.000000E+07  0.00400  3.649E-03    0   0.7851   age104_m42            0.0000     2.0195E+00    36.6186   1.6690    77.6258
  9      0.0000     0.0000E+00    0.0000E+00    5.500000E+07  0.00400  3.098E-03    0   0.7629   age110_m42            0.0000     7.4493E+00    37.1840   1.7855    79.9876
 10      0.0000     0.0000E+00    0.0000E+00    1.015200E+08  0.00400  2.228E-03    0   0.7207   age116_m42            0.0000     2.2460E+01    37.3371   1.7929    81.0693
 11      0.0000     0.0000E+00    0.0000E+00    2.861200E+08  0.00400  1.093E-03    0   0.6648   age125_m42            0.0000     4.4125E+01    35.0875   1.1817    82.7511
 12      0.5964     1.5622E-02    1.9424E-02    5.088000E+08  0.00400  6.597E-04    0   0.6365   age130_m42            0.0000     6.5258E+01    35.8583   1.1241    86.7430
 13      0.0000     0.0000E+00    0.0000E+00    1.434000E+09  0.00400  2.132E-04    0   0.5798   age139_m42            0.0000     2.2769E+01    36.6166   0.0272    94.6188
 14      0.0000     0.0000E+00    0.0000E+00    4.250000E+09  0.00400  5.895E-05    0   0.5377   age158_m42            0.0000     3.9303E-02    37.9350  -0.3822    90.6695
 15      0.5769     2.8400E-01    2.8915E-01    7.500000E+09  0.00400  3.510E-05    0   0.5212   age171_m42            0.0000     1.7010E+00    38.7190  -0.6216    92.8753
 16     18.5099     1.5953E+01    1.5688E+01    1.300000E+10  0.00400  2.005E-05    0   0.5034   age193_m42            0.0000     7.0036E+00    39.3377  -0.8273    94.6084
 17      0.0000     0.0000E+00    0.0000E+00    1.800000E+10  0.00400  1.525E-05    0   0.4967   age213_m42            0.0000     7.6060E+00    38.7353  -0.8309    92.7762
 18      0.0000     0.0000E+00    0.0000E+00    1.000000E+06  0.00800  1.238E-02    0   1.0000   age020_m52            0.0000     2.8373E+01    38.3405   3.3148    64.0229
 19      0.0000     0.0000E+00    0.0000E+00    3.160000E+06  0.00800  3.074E-02    0   0.9966   age045_m52            0.0000     1.7857E+01    38.5267   3.1953    66.1924
 20      0.0000     0.0000E+00    0.0000E+00    5.010000E+06  0.00800  2.668E-02    0   0.9443   age055_m52            0.0000     3.5844E+00    38.4351   2.8781    70.3193
 21      0.0000     0.0000E+00    0.0000E+00    6.610000E+06  0.00800  2.136E-02    0   0.9177   age061_m52            0.0000     2.2981E+00    36.8260   1.5845    75.1366
 22      0.0000     0.0000E+00    0.0000E+00    1.000000E+07  0.00800  1.215E-02    0   0.8827   age070_m52            0.0000     1.1201E-03    36.1383   2.2770    72.6662
 23      0.0000     0.0000E+00    0.0000E+00    1.445000E+07  0.00800  8.717E-03    0   0.8552   age078_m52            0.0000     7.6587E-03    36.7739   2.3739    73.3954
 24      0.0000     0.0000E+00    0.0000E+00    2.512000E+07  0.00800  5.592E-03    0   0.8162   age090_m52            0.0000     1.5620E+00    35.8722   1.9727    76.3800
 25      0.0000     0.0000E+00    0.0000E+00    4.000000E+07  0.00800  3.896E-03    0   0.7841   age104_m52            0.0000     4.1217E+00    36.0966   1.8449    79.0322
 26      0.0000     0.0000E+00    0.0000E+00    1.015200E+08  0.00800  2.148E-03    0   0.7226   age116_m52            0.0000     1.9322E+01    36.7204   1.7599    80.8574
 27     21.6160     3.7635E-01    4.9132E-01    2.861200E+08  0.00800  9.925E-04    0   0.6683   age125_m52            0.0000     5.9232E+01    36.2396   1.1958    87.6026
 28      0.0000     0.0000E+00    0.0000E+00    9.047900E+08  0.00800  3.141E-04    0   0.6138   age135_m52            0.0000     2.3358E+01    37.5073   0.1870   102.1766
 29      0.0000     0.0000E+00    0.0000E+00    1.434000E+09  0.00800  1.719E-04    0   0.5853   age139_m52            0.0000     5.5923E+00    36.5397  -0.3774    97.7055
 30      0.0000     0.0000E+00    0.0000E+00    2.500000E+09  0.00800  7.872E-05    0   0.5600   age150_m52            0.0000     1.7535E-02    39.0910  -0.6807    99.3424
 31      0.0000     0.0000E+00    0.0000E+00    4.250000E+09  0.00800  4.336E-05    0   0.5426   age158_m52            0.0000     9.7518E-01    39.4091  -0.6970    98.7420
 32      3.4303     1.8764E+00    1.9497E+00    6.250000E+09  0.00800  3.159E-05    0   0.5319   age166_m52            0.0000     5.6283E+00    41.2621  -0.9919   104.5983
 33      0.0000     0.0000E+00    0.0000E+00    1.300000E+10  0.00800  1.361E-05    0   0.5073   age193_m52            0.0000     1.7091E+02    48.5833  -1.0000    92.0312
 34      0.0000     0.0000E+00    0.0000E+00    1.800000E+10  0.00800  9.886E-06    0   0.4990   age213_m52            0.0000     3.1177E+02    50.2209  -1.0000    88.6606
 35      0.0000     0.0000E+00    0.0000E+00    1.000000E+06  0.02000  1.544E-02    0   1.0000   age020_m62            0.0000     2.5314E+01    38.3493   3.3089    64.2176
 36      0.0000     0.0000E+00    0.0000E+00    3.160000E+06  0.02000  3.762E-02    0   0.9858   age045_m62            0.0000     1.8222E+01    38.6250   3.2154    66.0912
 37      0.0000     0.0000E+00    0.0000E+00    5.010000E+06  0.02000  3.296E-02    0   0.9342   age055_m62            0.0000     3.3853E-01    38.4437   2.7192    73.4723
 38      0.0000     0.0000E+00    0.0000E+00    8.710000E+06  0.02000  1.154E-02    0   0.8861   age067_m62            0.0000     5.5353E+00    34.1320   1.7960    68.0915
 39      0.0000     0.0000E+00    0.0000E+00    1.445000E+07  0.02000  7.663E-03    0   0.8472   age078_m62            0.0000     1.4527E+00    34.7876   1.9010    73.2239
 40      0.0000     0.0000E+00    0.0000E+00    2.512000E+07  0.02000  4.532E-03    0   0.8099   age090_m62            0.0000     6.0288E-03    34.5691   1.8632    73.8777
 41      0.0000     0.0000E+00    0.0000E+00    5.500000E+07  0.02000  2.733E-03    0   0.7595   age110_m62            0.0000     8.4514E+00    35.9034   1.8375    77.8577
 42      0.0000     0.0000E+00    0.0000E+00    1.609000E+08  0.02000  1.369E-03    0   0.6985   age120_m62            0.0000     5.7087E+01    36.2687   1.6320    83.0055
 43      0.9467     1.8151E-02    2.3806E-02    2.861200E+08  0.02000  9.013E-04    0   0.6714   age125_m62            0.0000     8.2349E+01    36.4432   1.3045    89.2778
 44      0.0000     0.0000E+00    0.0000E+00    5.088000E+08  0.02000  5.028E-04    0   0.6449   age130_m62            0.0000     5.3983E+01    38.4173   0.7619   101.4285
 45      0.0000     0.0000E+00    0.0000E+00    9.047900E+08  0.02000  2.428E-04    0   0.6179   age135_m62            0.0000     1.3237E+01    38.8331   0.1378   102.5848
 46      2.0199     2.7635E-01    3.1895E-01    1.434000E+09  0.02000  1.263E-04    0   0.5908   age139_m62            0.0000     1.9292E+00    38.8382  -0.2858    99.8817
 47      0.0000     0.0000E+00    0.0000E+00    2.500000E+09  0.02000  5.985E-05    0   0.5673   age150_m62            0.0000     5.9925E-01    41.0032  -0.7362   104.2366
 48      3.7684     1.9907E+00    2.1264E+00    4.250000E+09  0.02000  3.271E-05    0   0.5468   age158_m62            0.0000     2.9069E+01    47.2415  -1.0000   108.2610
 49     39.0662     4.9637E+01    5.0102E+01    1.000000E+10  0.02000  1.360E-05    0   0.5167   age181_m62            0.0000     2.9291E+02    52.8107  -1.0000    97.8558
 50     11.4315     2.7728E+01    2.7154E+01    1.800000E+10  0.02000  7.124E-06    0   0.5013   age213_m62            0.0000     5.6766E+02    52.3759  -1.0000    88.2144
 51      0.0000     0.0000E+00    0.0000E+00    1.000000E+06  0.05000  2.592E-02    0   0.9998   age020_m72            0.0000     2.7571E+01    38.4065   3.3171    63.6632
 52      0.0000     0.0000E+00    0.0000E+00    3.160000E+06  0.05000  4.845E-02    0   0.9577   age045_m72            0.0000     4.2492E+00    38.7405   3.0289    69.6475
 53      0.0000     0.0000E+00    0.0000E+00    5.010000E+06  0.05000  3.072E-02    0   0.9147   age055_m72            0.0000     2.2868E+00    35.5144   2.5100    70.3949
 54      0.0000     0.0000E+00    0.0000E+00    6.610000E+06  0.05000  1.455E-02    0   0.8877   age061_m72            0.0000     7.4438E+00    33.5497   1.7960    66.1230
 55      0.0000     0.0000E+00    0.0000E+00    1.000000E+07  0.05000  9.074E-03    0   0.8524   age070_m72            0.0000     3.4317E+00    35.4932   2.6712    70.4411
 56      0.0000     0.0000E+00    0.0000E+00    2.512000E+07  0.05000  4.250E-03    0   0.7902   age090_m72            0.0000     1.3832E+00    35.0161   2.2980    74.6336
 57      0.0000     0.0000E+00    0.0000E+00    4.000000E+07  0.05000  3.087E-03    0   0.7618   age104_m72            0.0000     8.7692E+00    34.2185   2.0532    75.6688
 58      0.0000     0.0000E+00    0.0000E+00    1.015200E+08  0.05000  1.700E-03    0   0.7096   age116_m72            0.0000     4.7421E+01    35.2354   1.7773    81.0199
 59      6.2770     1.4689E-01    1.9034E-01    2.861200E+08  0.05000  7.384E-04    0   0.6633   age125_m72            0.0000     7.0149E+01    36.6649   1.0908    94.5081
 60      0.0000     0.0000E+00    0.0000E+00    5.088000E+08  0.05000  3.819E-04    0   0.6372   age130_m72            0.0000     3.2747E+01    38.5580   0.5024   102.4626
 61      0.0000     0.0000E+00    0.0000E+00    9.047900E+08  0.05000  1.676E-04    0   0.6110   age135_m72            0.0000     3.2136E+00    40.8258  -0.2435   104.8984
 62      0.0000     0.0000E+00    0.0000E+00    1.434000E+09  0.05000  8.837E-05    0   0.5874   age139_m72            0.0000     9.9173E-01    40.9639  -0.7740   107.4376
 63      0.0000     0.0000E+00    0.0000E+00    2.500000E+09  0.05000  4.233E-05    0   0.5598   age150_m72            0.0000     5.0748E+01    48.5425  -1.0000   110.5397
 64      0.0000     0.0000E+00    0.0000E+00    6.250000E+09  0.05000  1.435E-05    0   0.5249   age166_m72            0.0000     3.9297E+02    51.7408  -1.0000    92.6280
 65      0.1721     4.5654E-01    4.4913E-01    1.300000E+10  0.05000  6.513E-06    0   0.5036   age193_m72            0.0000     7.6902E+02    49.4399  -1.0000    80.6112
 66      0.3251     1.2410E+00    1.1988E+00    1.800000E+10  0.05000  4.527E-06    0   0.4945   age213_m72            0.0000     9.4741E+02    47.0350  -1.0000    72.9063


## Synthesis Results - Average & Chains ##

# j      x_j: min, <> & last-chain-values for 1 ...  7 chains
  1      0.0000      0.0054      0.0268      0.0000      0.0000      0.0008      0.0000      0.0000      0.0000
  2      0.0000      0.0185      0.0000      0.0000      0.0000      0.0056      0.0000      0.0335      0.0000
  3      0.0000      0.0098      0.0681      0.0000      0.0000      0.0000      0.0000      0.0000      0.0000
  4      0.0000      0.0257      0.0000      0.0000      0.0000      0.0000      0.0000      0.0000      0.0000
  5      0.0000      0.0276      0.0000      0.0000      0.0000      0.0220      0.0000      0.0000      0.0000
  6      0.0000      0.0075      0.0000      0.0000      0.0000      0.0000      0.0000      0.0000      0.0000
  7      0.0000      0.0247      0.1219      0.0000      0.0000      0.0000      0.0000      0.0000      0.0000
  8      0.0000      0.0287      0.0000      0.0000      0.0000      0.0000      0.0000      0.0000      0.1870
  9      0.0000      0.0298      0.0199      0.0271      0.0000      0.0208      0.0000      0.2040      0.0288
 10      0.0000      0.0153      0.0000      0.0000      0.0000      0.0272      0.0000      0.0000      0.0000
 11      0.0000      0.0684      0.0000      0.0000      0.0076      0.0000      0.1284      0.0739      0.0000
 12      0.5964      0.6982      0.7927      0.3798      0.6031      0.3365      0.7596      0.7103      0.7014
 13      0.0000      0.2117      0.3960      0.2224      0.0000      0.0000      0.2528      0.1232      0.1222
 14      0.0000      0.2151      0.0000      0.4015      0.0000      0.5375      0.0667      0.0000      0.0000
 15      0.5769      0.2183      0.0000      0.0000      0.9712      0.0000      0.0000      0.2035      0.0000
 16     18.5099     17.7307     17.9622     17.2769     18.7471     17.4166     18.0373     16.5036     17.9928
 17      0.0000      0.1611      0.5818      0.1493      0.0000      0.0000      0.1547      0.0000      0.2888
 18      0.0000      0.0059      0.0000      0.0000      0.0000      0.0000      0.0000      0.0000      0.0000
 19      0.0000      0.0053      0.0000      0.0004      0.0306      0.0000      0.0000      0.0000      0.0000
 20      0.0000      0.0112      0.0000      0.0487      0.0000      0.0000      0.0000      0.0000      0.0361
 21      0.0000      0.0254      0.0000      0.0000      0.0000      0.0000      0.0000      0.1375      0.0000
 22      0.0000      0.0070      0.0000      0.0000      0.0000      0.0000      0.0000      0.0922      0.0000
 23      0.0000      0.0141      0.0000      0.0000      0.0000      0.1938      0.0000      0.0000      0.0000
 24      0.0000      0.0370      0.0000      0.1584      0.0000      0.0000      0.0000      0.0000      0.2311
 25      0.0000      0.0159      0.0000      0.0000      0.0000      0.0000      0.0000      0.0000      0.0000
 26      0.0000      0.0679      0.0000      0.0000      0.0000      0.2947      0.0000      0.0216      0.0764
 27     21.6160     21.2475     20.8001     20.9364     22.1589     21.0444     21.7709     21.6282     21.5740
 28      0.0000      0.2402      0.3273      0.4475      0.2796      0.1424      0.1621      0.2142      0.0000
 29      0.0000      0.4440      0.0000      0.1361      0.1704      0.6880      0.0000      0.3951      0.5738
 30      0.0000      0.2838      0.2622      1.0156      0.0000      0.0000      1.1821      0.3003      0.2988
 31      0.0000      0.4215      0.4901      0.7407      0.1041      1.4414      0.5961      0.1587      0.3467
 32      3.4303      0.4376      0.6541      0.1371      0.5963      1.5103      0.3497      0.5017      0.8634
 33      0.0000      0.3736      0.1053      0.4967      0.0000      0.0000      0.0000      0.5326      0.4460
 34      0.0000      0.3033      0.5455      0.7994      0.2068      0.0000      1.3883      0.0107      0.6813
 35      0.0000      0.0039      0.0281      0.0000      0.0000      0.0000      0.0000      0.0000      0.0724
 36      0.0000      0.0123      0.0000      0.0105      0.0000      0.0000      0.1111      0.1426      0.0000
 37      0.0000      0.0099      0.0000      0.0000      0.0000      0.0000      0.0000      0.0000      0.0000
 38      0.0000      0.0085      0.0000      0.0000      0.0000      0.0000      0.0000      0.0736      0.0000
 39      0.0000      0.0165      0.0000      0.0000      0.0000      0.0000      0.0976      0.0000      0.0000
 40      0.0000      0.0109      0.0000      0.0000      0.1859      0.0000      0.0000      0.1124      0.0131
 41      0.0000      0.0358      0.0223      0.0000      0.0000      0.0000      0.0000      0.0000      0.0000
 42      0.0000      0.0905      0.0000      0.3007      0.0283      0.3828      0.2193      0.0643      0.0000
 43      0.9467      0.5808      0.9708      0.6678      0.5635      0.7904      0.3359      0.5797      0.5030
 44      0.0000      0.3085      0.6716      0.1042      0.0000      0.5064      0.0186      0.3404      0.5209
 45      0.0000      0.0955      0.3511      0.0000      0.0000      0.1804      0.1480      0.3886      0.0000
 46      2.0199      0.2118      0.3857      0.0000      0.5403      0.0000      0.0000      0.6988      0.2237
 47      0.0000      0.4082      0.0610      0.5248      0.0334      0.0000      0.3404      1.0056      0.0412
 48      3.7684      5.6615      6.0085      4.8464      6.2822      5.2849      5.8054      5.8591      3.8381
 49     39.0662     38.1526     38.2863     38.0392     37.7340     38.5840     37.6891     39.3239     38.6779
 50     11.4315     11.1519     10.9829     11.0819     11.3282     11.1574     10.8882     11.3955     11.4158
 51      0.0000      0.0050      0.0000      0.0000      0.0000      0.0000      0.0000      0.0000      0.0000
 52      0.0000      0.0180      0.0000      0.0000      0.0000      0.0000      0.0000      0.0000      0.0000
 53      0.0000      0.0092      0.0000      0.0000      0.0000      0.0000      0.0000      0.0000      0.0066
 54      0.0000      0.0105      0.0000      0.0000      0.0000      0.0000      0.0000      0.0000      0.0000
 55      0.0000      0.0085      0.0103      0.0000      0.0000      0.0000      0.0000      0.0000      0.0000
 56      0.0000      0.0131      0.0000      0.1450      0.0000      0.0000      0.0000      0.0000      0.0000
 57      0.0000      0.0085      0.0132      0.0000      0.0204      0.0000      0.0040      0.0000      0.0000
 58      0.0000      0.0410      0.0073      0.0000      0.1538      0.0000      0.0000      0.2035      0.0000
 59      6.2770      6.0540      6.0386      5.9730      6.2467      6.1177      6.1260      5.7760      6.3925
 60      0.0000      0.1204      0.0957      0.3909      0.0000      0.1316      0.6896      0.0000      0.2018
 61      0.0000      0.3964      0.6927      2.1403      0.0778      0.2643      0.0000      0.1365      0.1583
 62      0.0000      0.2934      0.0000      0.1288      0.0000      0.1917      0.0000      0.0000      0.8739
 63      0.0000      0.4400      0.0000      0.0881      0.4419      0.2908      0.0000      0.0000      0.2432
 64      0.0000      0.2867      0.0000      0.0000      0.0000      0.2653      0.6698      0.0000      0.2795
 65      0.1721      0.4733      0.5919      0.7349      0.4879      0.5519      0.3543      0.5041      0.4651
 66      0.3251      0.5196      0.6146      0.4408      0.7756      0.5436      0.4857      0.5420      0.5141

# j      m_j: min, <> & last-chain-values for 1 ...  7 chains
  1  0.0000E+00  1.6554E-05  8.1802E-05  0.0000E+00  0.0000E+00  2.5277E-06  0.0000E+00  0.0000E+00  0.0000E+00
  2  0.0000E+00  1.5548E-05  0.0000E+00  0.0000E+00  0.0000E+00  4.7452E-06  0.0000E+00  2.8076E-05  0.0000E+00
  3  0.0000E+00  1.2292E-05  8.5135E-05  0.0000E+00  0.0000E+00  0.0000E+00  0.0000E+00  0.0000E+00  0.0000E+00
  4  0.0000E+00  3.0403E-05  0.0000E+00  0.0000E+00  0.0000E+00  0.0000E+00  0.0000E+00  0.0000E+00  0.0000E+00
  5  0.0000E+00  6.2357E-05  0.0000E+00  0.0000E+00  0.0000E+00  4.9587E-05  0.0000E+00  0.0000E+00  0.0000E+00
  6  0.0000E+00  2.7316E-05  0.0000E+00  0.0000E+00  0.0000E+00  0.0000E+00  0.0000E+00  0.0000E+00  0.0000E+00
  7  0.0000E+00  1.2955E-04  6.3450E-04  0.0000E+00  0.0000E+00  0.0000E+00  0.0000E+00  0.0000E+00  0.0000E+00
  8  0.0000E+00  2.0799E-04  0.0000E+00  0.0000E+00  0.0000E+00  0.0000E+00  0.0000E+00  0.0000E+00  1.3376E-03
  9  0.0000E+00  2.4704E-04  1.6359E-04  2.2445E-04  0.0000E+00  1.7235E-04  0.0000E+00  1.6858E-03  2.3553E-04
 10  0.0000E+00  1.6628E-04  0.0000E+00  0.0000E+00  0.0000E+00  2.9667E-04  0.0000E+00  0.0000E+00  0.0000E+00
 11  0.0000E+00  1.4000E-03  0.0000E+00  0.0000E+00  1.5337E-04  0.0000E+00  2.6228E-03  1.5087E-03  0.0000E+00
 12  1.9424E-02  2.2675E-02  2.5574E-02  1.2342E-02  1.9416E-02  1.0941E-02  2.4614E-02  2.2994E-02  2.2498E-02
 13  0.0000E+00  1.9376E-02  3.6005E-02  2.0368E-02  0.0000E+00  0.0000E+00  2.3088E-02  1.1241E-02  1.1051E-02
 14  0.0000E+00  6.6042E-02  0.0000E+00  1.2336E-01  0.0000E+00  1.6520E-01  2.0448E-02  0.0000E+00  0.0000E+00
 15  2.8915E-01  1.0912E-01  0.0000E+00  0.0000E+00  4.8121E-01  0.0000E+00  0.0000E+00  1.0140E-01  0.0000E+00
 16  1.5688E+01  1.4985E+01  1.5080E+01  1.4610E+01  1.5706E+01  1.4735E+01  1.5209E+01  1.3903E+01  1.5017E+01
 17  0.0000E+00  1.7665E-01  6.3363E-01  1.6380E-01  0.0000E+00  0.0000E+00  1.6919E-01  0.0000E+00  3.1268E-01
 18  0.0000E+00  1.6064E-05  0.0000E+00  0.0000E+00  0.0000E+00  0.0000E+00  0.0000E+00  0.0000E+00  0.0000E+00
 19  0.0000E+00  5.8057E-06  0.0000E+00  4.1100E-07  3.3111E-05  0.0000E+00  0.0000E+00  0.0000E+00  0.0000E+00
 20  0.0000E+00  1.3391E-05  0.0000E+00  5.8035E-05  0.0000E+00  0.0000E+00  0.0000E+00  0.0000E+00  4.2507E-05
 21  0.0000E+00  3.6757E-05  0.0000E+00  0.0000E+00  0.0000E+00  0.0000E+00  0.0000E+00  1.9822E-04  0.0000E+00
 22  0.0000E+00  1.7218E-05  0.0000E+00  0.0000E+00  0.0000E+00  0.0000E+00  0.0000E+00  2.2473E-04  0.0000E+00
 23  0.0000E+00  4.6712E-05  0.0000E+00  0.0000E+00  0.0000E+00  6.4073E-04  0.0000E+00  0.0000E+00  0.0000E+00
 24  0.0000E+00  1.8199E-04  0.0000E+00  7.7848E-04  0.0000E+00  0.0000E+00  0.0000E+00  0.0000E+00  1.1211E-03
 25  0.0000E+00  1.0769E-04  0.0000E+00  0.0000E+00  0.0000E+00  0.0000E+00  0.0000E+00  0.0000E+00  0.0000E+00
 26  0.0000E+00  7.6937E-04  0.0000E+00  0.0000E+00  0.0000E+00  3.3401E-03  0.0000E+00  2.4433E-04  8.5400E-04
 27  4.9132E-01  4.8159E-01  4.6831E-01  4.7482E-01  4.9788E-01  4.7748E-01  4.9233E-01  4.8865E-01  4.8291E-01
 28  0.0000E+00  1.5801E-02  2.1385E-02  2.9452E-02  1.8229E-02  9.3743E-03  1.0640E-02  1.4048E-02  0.0000E+00
 29  0.0000E+00  5.0886E-02  0.0000E+00  1.5603E-02  1.9358E-02  7.8935E-02  0.0000E+00  4.5138E-02  6.4949E-02
 30  0.0000E+00  6.7959E-02  6.2373E-02  2.4333E-01  0.0000E+00  0.0000E+00  2.8241E-01  7.1669E-02  7.0660E-02
 31  0.0000E+00  1.7757E-01  2.0506E-01  3.1220E-01  4.3480E-02  6.0778E-01  2.5053E-01  6.6654E-02  1.4420E-01
 32  1.9497E+00  2.4803E-01  3.6825E-01  7.7771E-02  3.3502E-01  8.5691E-01  1.9773E-01  2.8342E-01  4.8326E-01
 33  0.0000E+00  4.6879E-01  1.3122E-01  6.2351E-01  0.0000E+00  0.0000E+00  0.0000E+00  6.6616E-01  5.5258E-01
 34  0.0000E+00  5.1525E-01  9.2067E-01  1.3590E+00  3.4837E-01  0.0000E+00  2.3535E+00  1.8131E-02  1.1432E+00
 35  0.0000E+00  8.5077E-06  6.0908E-05  0.0000E+00  0.0000E+00  0.0000E+00  0.0000E+00  0.0000E+00  1.5586E-04
 36  0.0000E+00  1.0865E-05  0.0000E+00  9.2323E-06  0.0000E+00  0.0000E+00  9.7817E-05  1.2540E-04  0.0000E+00
 37  0.0000E+00  9.4332E-06  0.0000E+00  0.0000E+00  0.0000E+00  0.0000E+00  0.0000E+00  0.0000E+00  0.0000E+00
 38  0.0000E+00  2.1907E-05  0.0000E+00  0.0000E+00  0.0000E+00  0.0000E+00  0.0000E+00  1.8955E-04  0.0000E+00
 39  0.0000E+00  6.1301E-05  0.0000E+00  0.0000E+00  0.0000E+00  0.0000E+00  3.6235E-04  0.0000E+00  0.0000E+00
 40  0.0000E+00  6.5606E-05  0.0000E+00  0.0000E+00  1.1086E-03  0.0000E+00  0.0000E+00  6.7416E-04  7.7883E-05
 41  0.0000E+00  3.3525E-04  2.0753E-04  0.0000E+00  0.0000E+00  0.0000E+00  0.0000E+00  0.0000E+00  0.0000E+00
 42  0.0000E+00  1.5551E-03  0.0000E+00  5.1673E-03  4.8121E-04  6.5819E-03  3.7571E-03  1.1010E-03  0.0000E+00
 43  2.3806E-02  1.4565E-02  2.4181E-02  1.6754E-02  1.4006E-02  1.9839E-02  8.4044E-03  1.4489E-02  1.2455E-02
 44  0.0000E+00  1.3321E-02  2.8801E-02  4.5002E-03  0.0000E+00  2.1888E-02  8.0238E-04  1.4649E-02  2.2210E-02
 45  0.0000E+00  8.1776E-03  2.9874E-02  0.0000E+00  0.0000E+00  1.5472E-02  1.2653E-02  3.3184E-02  0.0000E+00
 46  3.1895E-01  3.3357E-02  6.0334E-02  0.0000E+00  8.4340E-02  0.0000E+00  0.0000E+00  1.0968E-01  3.4781E-02
 47  0.0000E+00  1.3025E-01  1.9344E-02  1.6755E-01  1.0561E-02  0.0000E+00  1.0837E-01  3.1982E-01  1.2993E-02
 48  2.1264E+00  3.1858E+00  3.3585E+00  2.7287E+00  3.5043E+00  2.9769E+00  3.2593E+00  3.2864E+00  2.1328E+00
 49  5.0102E+01  4.8793E+01  4.8638E+01  4.8676E+01  4.7837E+01  4.9395E+01  4.8090E+01  5.0129E+01  4.8849E+01
 50  2.7154E+01  2.6415E+01  2.5842E+01  2.6265E+01  2.6599E+01  2.6455E+01  2.5732E+01  2.6906E+01  2.6704E+01
 51  0.0000E+00  6.5567E-06  0.0000E+00  0.0000E+00  0.0000E+00  0.0000E+00  0.0000E+00  0.0000E+00  0.0000E+00
 52  0.0000E+00  1.1973E-05  0.0000E+00  0.0000E+00  0.0000E+00  0.0000E+00  0.0000E+00  0.0000E+00  0.0000E+00
 53  0.0000E+00  9.2351E-06  0.0000E+00  0.0000E+00  0.0000E+00  0.0000E+00  0.0000E+00  0.0000E+00  6.5572E-06
 54  0.0000E+00  2.1656E-05  0.0000E+00  0.0000E+00  0.0000E+00  0.0000E+00  0.0000E+00  0.0000E+00  0.0000E+00
 55  0.0000E+00  2.6954E-05  3.2462E-05  0.0000E+00  0.0000E+00  0.0000E+00  0.0000E+00  0.0000E+00  0.0000E+00
 56  0.0000E+00  8.2033E-05  0.0000E+00  9.0804E-04  0.0000E+00  0.0000E+00  0.0000E+00  0.0000E+00  0.0000E+00
 57  0.0000E+00  7.0499E-05  1.0888E-04  0.0000E+00  1.6763E-04  0.0000E+00  3.2862E-05  0.0000E+00  0.0000E+00
 58  0.0000E+00  5.7612E-04  1.0258E-04  0.0000E+00  2.1422E-03  0.0000E+00  0.0000E+00  2.8495E-03  0.0000E+00
 59  1.9034E-01  1.8306E-01  1.8138E-01  1.8071E-01  1.8724E-01  1.8518E-01  1.8481E-01  1.7409E-01  1.9089E-01
 60  0.0000E+00  6.7608E-03  5.3412E-03  2.1966E-02  0.0000E+00  7.3974E-03  3.8643E-02  0.0000E+00  1.1192E-02
 61  0.0000E+00  4.8648E-02  8.4443E-02  2.6280E-01  9.4588E-03  3.2470E-02  0.0000E+00  1.6694E-02  1.9183E-02
 62  0.0000E+00  6.5645E-02  0.0000E+00  2.8831E-02  0.0000E+00  4.2934E-02  0.0000E+00  0.0000E+00  1.9309E-01
 63  0.0000E+00  1.9586E-01  0.0000E+00  3.9256E-02  1.9498E-01  1.2959E-01  0.0000E+00  0.0000E+00  1.0692E-01
 64  0.0000E+00  3.5305E-01  0.0000E+00  0.0000E+00  0.0000E+00  3.2701E-01  8.2283E-01  0.0000E+00  3.3988E-01
 65  4.4913E-01  1.2320E+00  1.5303E+00  1.9140E+00  1.2588E+00  1.4379E+00  9.2003E-01  1.3080E+00  1.1956E+00
 66  1.1988E+00  1.9104E+00  2.2448E+00  1.6217E+00  2.8269E+00  2.0007E+00  1.7819E+00  1.9866E+00  1.8667E+00

# AV, chi2 & Mass for <> & i_chain = 1 ...  7 solutions
AV      -0.9848     -0.9872     -0.9879     -0.9868     -0.9867     -0.9862     -0.9882     -0.9858     -0.9891
chi2 1.3924E-03  1.2449E-03  1.0888E-03  1.0649E-03  1.0638E-03  1.1410E-03  9.7296E-04  1.0496E-03  1.0290E-03
Mass 5.5433E-14  5.5410E-14  5.5731E-14  5.5408E-14  5.5938E-14  5.5430E-14  5.5464E-14  5.5692E-14  5.5966E-14
-107.64                                  [v0_min (km/s) before EX0s...]
  73.86                                  [vd_min (km/s) before EX0s...]


## Synthetic spectrum (Best Model) ##l_obs f_obs f_syn wei
 3478    [Nl_obs]
 3741.00   -0.55040   0.61560    0.000
 3742.00   -0.59936   0.56201    0.000
 3743.00   -0.84208   0.51478    0.000
 3744.00   -1.04696   0.47781    0.000
 3745.00   -1.22980   0.44663    0.000
 3746.00   -0.76207   0.41066    0.000
 3747.00    0.03603   0.37310   -1.000
 3748.00    0.33778   0.36778   -1.000
 3749.00    0.42128   0.41817   -1.000
 3750.00    0.33636   0.50174   -1.000
 3751.00    0.18786   0.58310   -1.000
 3752.00    0.19857   0.65309   -1.000
 3753.00    0.26030   0.70801   -1.000
 3754.00    0.47137   0.72296   -1.000
 3755.00    0.72247   0.67900   -1.000
 3756.00    0.50649   0.60328   -1.000
 3757.00    0.18799   0.55605   -1.000
 3758.00    0.46231   0.56615   -1.000
 3759.00    0.84011   0.60383   -1.000
 3760.00    1.02016   0.62807   -1.000
 3761.00    1.17395   0.62771   -1.000
 3762.00    1.06542   0.61785   -1.000
 3763.00    0.93225   0.61294   -1.000
 3764.00    0.47137   0.60307   -1.000
 3765.00   -0.00842   0.57923    0.000
 3766.00    0.49738   0.56335   -1.000
 3767.00    1.02418   0.56865   -1.000
 3768.00    1.26159   0.57640   -1.000
 3769.00    1.48142   0.58292   -1.000
 3770.00    1.27447   0.60888   -1.000
 3771.00    1.04105   0.65134   -1.000
 3772.00    0.46087   0.68335   -1.000
 3773.00   -0.05122   0.69665    0.000
 3774.00    0.03436   0.70633   -1.000
 3775.00    0.07679   0.72259   -1.000
 3776.00   -0.16056   0.74313    0.000
 3777.00   -0.41489   0.76878    0.000
 3778.00   -0.75518   0.80053    0.000
 3779.00   -0.93650   0.82662    0.000
 3780.00   -0.46708   0.83831    0.000
 3781.00   -0.13832   0.84383    0.000
 3782.00   -0.28658   0.84686    0.000
 3783.00   -0.39336   0.82910    0.000
 3784.00   -0.38148   0.77682    0.000
 3785.00   -0.26555   0.71140    0.000
 3786.00    0.10459   0.66393   -1.000
 3787.00    0.37168   0.64000   -1.000
 3788.00    0.42155   0.63422   -1.000
 3789.00    0.47896   0.64366   -1.000
 3790.00    0.55015   0.65224   -1.000
 3791.00    0.49099   0.63628   -1.000
 3792.00    0.22317   0.59583   -1.000
 3793.00   -0.04608   0.55325    0.000
 3794.00   -0.31733   0.52084    0.000
 3795.00   -0.45475   0.48999    0.000
 3796.00   -0.42677   0.45814    0.000
 3797.00   -0.29713   0.45021    0.000
 3798.00   -0.05675   0.48867    0.000
 3799.00    0.08571   0.55949   -1.000
 3800.00    0.13407   0.63180   -1.000
 3801.00    0.32242   0.69117   -1.000
 3802.00    0.62939   0.73344   -1.000
 3803.00    0.95445   0.74995   -1.000
 3804.00    1.29302   0.73896   -1.000
 3805.00    1.46088   0.71888   -1.000
 3806.00    1.51685   0.71951   -1.000
 3807.00    1.46846   0.75090   -1.000
 3808.00    1.36018   0.79037   -1.000
 3809.00    1.19736   0.80920   -1.000
 3810.00    1.00727   0.79454   -1.000
 3811.00    0.69260   0.75045   -1.000
 3812.00    0.32406   0.69509   -1.000
 3813.00    0.49651   0.65019   -1.000
 3814.00    0.86959   0.63153   -1.000
 3815.00    0.83145   0.64365   -1.000
 3816.00    0.66405   0.66382 2945.389
 3817.00    0.57281   0.65421   -1.000
 3818.00    0.50157   0.61314   -1.000
 3819.00    0.38022   0.58318   -1.000
 3820.00    0.24814   0.59180   -1.000
 3821.00    0.06651   0.61071   -1.000
 3822.00   -0.12353   0.59718    0.000
 3823.00    0.00766   0.55288   -1.000
 3824.00    0.18006   0.51308   -1.000
 3825.00    0.25011   0.49655   -1.000
 3826.00    0.31097   0.49530   -1.000
 3827.00    0.35988   0.49780   -1.000
 3828.00    0.40815   0.49786   -1.000
 3829.00    0.47276   0.48488   -1.000
 3830.00    0.53467   0.44991   -1.000
 3831.00    0.34018   0.40495   -1.000
 3832.00    0.15918   0.37475   -1.000
 3833.00    0.27779   0.37115   -1.000
 3834.00    0.38651   0.38638 2945.389
 3835.00    0.37227   0.40186   -1.000
 3836.00    0.32429   0.40576   -1.000
 3837.00   -0.00897   0.40715    0.000
 3838.00   -0.17939   0.42317    0.000
 3839.00    0.67460   0.46279    0.036
 3840.00    1.30730   0.52534    0.021
 3841.00    0.84807   0.59414    0.019
 3842.00    0.35605   0.64510    0.019
 3843.00   -0.26729   0.67133    0.000
 3844.00   -0.57769   0.68397    0.000
 3845.00    0.15229   0.69544    0.019
 3846.00    0.61084   0.70332    0.019
 3847.00    0.30720   0.69511    0.000
 3848.00    0.21905   0.67778    0.000
 3849.00    0.64849   0.67789    0.000
 3850.00    1.01593   0.69999    0.000
 3851.00    1.25481   0.71696    0.000
 3852.00    1.20212   0.71089    0.000
 3853.00    0.62356   0.69006    0.000
 3854.00    0.40242   0.66840    0.000
 3855.00    0.74497   0.65266    0.000
 3856.00    0.84923   0.63708    0.000
 3857.00    0.62362   0.61251    0.000
 3858.00    0.29725   0.59407    0.000
 3859.00   -0.15190   0.61037    0.000
 3860.00   -0.12344   0.66125    0.000
 3861.00    0.41807   0.71361    0.000
 3862.00    0.73260   0.73803    0.000
 3863.00    0.83205   0.73430    0.000
 3864.00    0.98123   0.72167    0.000
 3865.00    1.17193   0.71473    0.000
 3866.00    0.92459   0.71132    0.000
 3867.00    0.35507   0.70088    0.000
 3868.00   -0.10125   0.67715    0.000
 3869.00   -0.48445   0.64397    0.000
 3870.00   -0.18081   0.61717    0.000
 3871.00    0.51099   0.61701    0.000
 3872.00    0.79803   0.65001    0.000
 3873.00    0.88598   0.69371    0.000
 3874.00    0.54823   0.71107    0.000
 3875.00    0.02946   0.68540    0.000
 3876.00    0.13320   0.63728    0.000
 3877.00    0.46368   0.60561    0.000
 3878.00    0.26516   0.60361    0.000
 3879.00   -0.09644   0.60520    0.000
 3880.00   -0.43553   0.59399    0.000
 3881.00   -0.76884   0.58896    0.000
 3882.00   -0.15068   0.59665    0.000
 3883.00    0.66640   0.58542    0.017
 3884.00    0.56744   0.53838    0.017
 3885.00    0.31742   0.48670    0.017
 3886.00   -0.07340   0.46228    0.000
 3887.00   -0.48167   0.46749    0.000
 3888.00   -0.26279   0.50097    0.000
 3889.00    0.00975   0.56055    0.017
 3890.00   -0.10868   0.62518    0.000
 3891.00   -0.24659   0.66886    0.000
 3892.00    0.20978   0.68324    0.017
 3893.00    0.66326   0.68150    0.017
 3894.00    0.30121   0.68656    0.017
 3895.00   -0.05137   0.70674    0.000
 3896.00   -0.21020   0.72385    0.000
 3897.00   -0.31477   0.72508    0.000
 3898.00    0.22227   0.72680    0.016
 3899.00    0.70908   0.74313    0.015
 3900.00    0.78677   0.75959    0.015
 3901.00    0.82434   0.75834    0.015
 3902.00    0.61685   0.74480    0.015
 3903.00    0.43338   0.72884    0.014
 3904.00    0.36551   0.71905    0.014
 3905.00    0.31453   0.73550    0.014
 3906.00    0.32974   0.78152    0.014
 3907.00    0.39852   0.83022    0.014
 3908.00    0.64189   0.86037    0.015
 3909.00    0.77284   0.87575    0.015
 3910.00    0.59378   0.88543    0.015
 3911.00    0.53532   0.88686    0.015
 3912.00    0.76164   0.87784    0.016
 3913.00    0.79634   0.86511    0.017
 3914.00    0.43996   0.85201    0.017
 3915.00    0.33269   0.83711    0.017
 3916.00    0.66788   0.81927    0.017
 3917.00    0.80098   0.79296    0.017
 3918.00    0.62006   0.75723    0.017
 3919.00    0.68374   0.72566    0.017
 3920.00    1.08118   0.71399    0.017
 3921.00    1.17575   0.72257    0.017
 3922.00    0.90650   0.73653    0.017
 3923.00    0.79836   0.73738    0.017
 3924.00    0.86086   0.71429    0.017
 3925.00    0.99567   0.67031    0.017
 3926.00    1.19802   0.61499    0.017
 3927.00    1.12787   0.55764    0.017
 3928.00    0.83330   0.50450    0.017
 3929.00    0.57496   0.45477    0.017
 3930.00    0.34289   0.40587    0.017
 3931.00    0.35640   0.36209    0.017
 3932.00    0.52620   0.33796    0.017
 3933.00    0.90580   0.34834    0.017
 3934.00    1.40215   0.39174    0.017
 3935.00    1.26475   0.45241    0.017
 3936.00    0.82056   0.51642    0.017
 3937.00    0.78497   0.57695    0.017
 3938.00    0.92020   0.62722    0.017
 3939.00    0.54214   0.65887    0.016
 3940.00   -0.01953   0.66993    0.000
 3941.00   -0.08832   0.66730    0.000
 3942.00   -0.00812   0.66671    0.000
 3943.00    0.52040   0.68967    0.016
 3944.00    1.16151   0.73671    0.017
 3945.00    1.52359   0.77669    0.029
 3946.00    1.82877   0.79056    0.239
 3947.00    1.44393   0.79783   -1.000
 3948.00    0.94860   0.81818   -1.000
 3949.00    0.52805   0.83851   -1.000
 3950.00    0.11643   0.83889   -1.000
 3951.00    0.60146   0.83022   -1.000
 3952.00    1.15951   0.83523   -1.000
 3953.00    1.56599   0.84314   -1.000
 3954.00    1.96551   0.82830   -1.000
 3955.00    0.98047   0.80031   -1.000
 3956.00    0.00707   0.78642    1.777
 3957.00    0.56344   0.78181    0.033
 3958.00    1.10834   0.75362    0.017
 3959.00    1.43619   0.68653    0.017
 3960.00    1.72467   0.60658    0.000
 3961.00    1.56947   0.54846    0.000
 3962.00    1.38548   0.51166    0.000
 3963.00    0.97526   0.47012    0.000
 3964.00    0.62799   0.40939    0.000
 3965.00    0.65431   0.33768    0.000
 3966.00    0.61003   0.27502    0.000
 3967.00    0.23425   0.24050    0.000
 3968.00   -0.03703   0.24451    0.000
 3969.00    0.09219   0.28425    0.000
 3970.00    0.33420   0.34606    0.000
 3971.00    0.93672   0.41528    0.000
 3972.00    1.30465   0.48523    0.000
 3973.00    1.03721   0.55458    0.000
 3974.00    0.94623   0.61954    0.000
 3975.00    1.26498   0.67759    0.000
 3976.00    1.43460   0.73348    0.000
 3977.00    1.30470   0.78920    0.000
 3978.00    0.99800   0.83509    0.000
 3979.00    0.38203   0.85802    0.000
 3980.00    0.19862   0.85792    0.000
 3981.00    0.67744   0.85230    0.017
 3982.00    0.96066   0.85873    0.017
 3983.00    0.98084   0.87795    0.017
 3984.00    0.74605   0.90035    0.017
 3985.00    0.20930   0.92158    0.017
 3986.00    0.23844   0.94189    0.017
 3987.00    0.85847   0.95368    0.017
 3988.00    1.20463   0.95256    0.017
 3989.00    1.29854   0.95397    0.016
 3990.00    1.21202   0.96892    0.016
 3991.00    0.97903   0.98522    0.016
 3992.00    0.95076   0.98730    0.016
 3993.00    1.06876   0.97313    0.016
 3994.00    1.19017   0.95047    0.016
 3995.00    1.31372   0.92961    0.016
 3996.00    1.52487   0.92616    0.016
 3997.00    1.78402   0.95144    0.016
 3998.00    1.29638   0.99242    0.016
 3999.00    0.45301   1.02365    0.016
 4000.00    0.49716   1.03860    0.016
 4001.00    0.90609   1.03923    0.016
 4002.00    1.23668   1.01150    0.016
 4003.00    1.53975   0.95409    0.016
 4004.00    1.31882   0.90868    0.016
 4005.00    0.94263   0.91582    0.016
 4006.00    0.99363   0.96183    0.016
 4007.00    1.14956   1.00506    0.016
 4008.00    1.16721   1.02690    0.016
 4009.00    1.15737   1.03402    0.016
 4010.00    1.08375   1.03614    0.016
 4011.00    1.00022   1.03848    0.016
 4012.00    0.92532   1.04460    0.016
 4013.00    0.85140   1.05404    0.016
 4014.00    0.95745   1.05923    0.016
 4015.00    1.07741   1.05348    0.016
 4016.00    1.00000   1.04775    0.016
 4017.00    0.91428   1.05683    0.016
 4018.00    1.07152   1.07031    0.016
 4019.00    1.22227   1.06986    0.016
 4020.00    0.99176   1.05837    0.016
 4021.00    0.78543   1.04524    0.016
 4022.00    1.00548   1.03135    0.016
 4023.00    1.21714   1.02348    0.016
 4024.00    1.33849   1.03562    0.016
 4025.00    1.42446   1.06537    0.016
 4026.00    1.24170   1.08897    0.016
 4027.00    1.06128   1.07919    0.016
 4028.00    0.89425   1.02586    0.016
 4029.00    0.73025   0.95290    0.016
 4030.00    0.58007   0.89950    0.016
 4031.00    0.59989   0.88002    0.016
 4032.00    1.25741   0.88860    0.016
 4033.00    1.65123   0.92415    0.016
 4034.00    1.21837   0.98413    0.015
 4035.00    0.89923   1.05160    0.015
 4036.00    0.88264   1.09956    0.015
 4037.00    0.82716   1.11070    0.015
 4038.00    0.68290   1.09245    0.015
 4039.00    0.83417   1.07009    0.016
 4040.00    1.56971   1.05872    0.016
 4041.00    1.80924   1.03789    0.016
 4042.00    1.19429   0.97419    0.016
 4043.00    0.63894   0.87978    0.016
 4044.00    0.17349   0.82054    0.016
 4045.00    0.11830   0.84601    0.016
 4046.00    0.60695   0.93044    0.016
 4047.00    0.87103   1.01051    0.016
 4048.00    0.87292   1.05733    0.016
 4049.00    1.05648   1.07541    0.016
 4050.00    1.42706   1.06967    0.016
 4051.00    1.56835   1.04620    0.016
 4052.00    1.50141   1.01711    0.016
 4053.00    1.15183   0.99256    0.016
 4054.00    0.57602   0.97530    0.016
 4055.00    0.61752   0.95979    0.016
 4056.00    1.09369   0.94726    0.016
 4057.00    1.19633   0.95500    0.016
 4058.00    1.06823   0.98520    0.016
 4059.00    0.93124   1.00388    0.016
 4060.00    0.78945   0.97429    0.016
 4061.00    0.77173   0.90623    0.016
 4062.00    0.81215   0.85732    0.016
 4063.00    0.35245   0.86749    0.016
 4064.00   -0.30929   0.91103    0.000
 4065.00   -0.07127   0.94710    0.000
 4066.00    0.47699   0.97759    0.015
 4067.00    0.79768   1.00993    0.015
 4068.00    1.05227   1.01603    0.015
 4069.00    1.35262   0.97800    0.015
 4070.00    1.66396   0.93670    0.016
 4071.00    1.37420   0.94233    0.016
 4072.00    0.96797   0.97864    0.016
 4073.00    0.98074   0.98696    0.015
 4074.00    1.05665   0.94526    0.015
 4075.00    1.14961   0.88688    0.015
 4076.00    1.24445   0.86207    0.015
 4077.00    1.37339   0.89395    0.015
 4078.00    1.50483   0.96318    0.015
 4079.00    1.27831   1.02864    0.015
 4080.00    1.03809   1.05646    0.015
 4081.00    0.86231   1.04126    0.015
 4082.00    0.69580   1.00844    0.015
 4083.00    0.86519   0.98918    0.015
 4084.00    1.02752   0.99857    0.015
 4085.00    1.07349   1.03351    0.015
 4086.00    1.12371   1.07525    0.015
 4087.00    1.21776   1.09884    0.015
 4088.00    1.29877   1.09285    0.015
 4089.00    1.28401   1.06667    0.015
 4090.00    1.25568   1.03809    0.015
 4091.00    1.15120   1.01868    0.015
 4092.00    1.10614   1.00214    0.000
 4093.00    1.32705   0.96890    0.000
 4094.00    1.40985   0.91788    0.000
 4095.00    0.98544   0.87315    0.000
 4096.00    0.68678   0.84637    0.000
 4097.00    0.77489   0.82000    0.000
 4098.00    0.91109   0.77247    0.000
 4099.00    1.17299   0.71096    0.000
 4100.00    1.24819   0.67483    0.000
 4101.00    0.90411   0.69354    0.000
 4102.00    0.72169   0.75303    0.000
 4103.00    0.85386   0.82170    0.000
 4104.00    0.91423   0.88130    0.000
 4105.00    0.85278   0.92207    0.000
 4106.00    0.84807   0.93888    0.000
 4107.00    0.92769   0.93634    0.000
 4108.00    0.92226   0.92584    0.000
 4109.00    0.80568   0.92068    0.000
 4110.00    0.86327   0.93093    0.000
 4111.00    1.12133   0.95749    0.000
 4112.00    0.91655   0.99054    0.000
 4113.00    0.24193   1.01758    0.015
 4114.00    0.38166   1.03202    0.015
 4115.00    1.25050   1.02892    0.015
 4116.00    1.35475   1.00581    0.015
 4117.00    0.85575   0.97821    0.015
 4118.00    0.95812   0.96996    0.015
 4119.00    1.47782   0.98002    0.015
 4120.00    1.57237   0.98872    0.015
 4121.00    1.40823   0.99325    0.015
 4122.00    1.26026   1.00540    0.015
 4123.00    1.12088   1.02288    0.015
 4124.00    1.36871   1.02767    0.015
 4125.00    1.79507   1.01204    0.015
 4126.00    1.91245   0.98832    0.015
 4127.00    1.90714   0.97054    0.015
 4128.00    1.83283   0.95715    0.015
 4129.00    1.73516   0.93623    0.015
 4130.00    1.58376   0.90684    0.015
 4131.00    1.41708   0.88743    0.015
 4132.00    1.28043   0.89670    0.015
 4133.00    1.15084   0.93473    0.014
 4134.00    0.98710   0.98369    0.014
 4135.00    0.81691   1.02084    0.014
 4136.00    0.56363   1.04050    0.014
 4137.00    0.29823   1.05177    0.015
 4138.00    0.54535   1.05332    0.014
 4139.00    0.84694   1.03017    0.014
 4140.00    1.38566   0.97194    0.014
 4141.00    1.94077   0.89780    0.015
 4142.00    1.34953   0.85639    0.014
 4143.00    0.71875   0.87669    0.014
 4144.00    1.10453   0.93266    0.014
 4145.00    1.48448   0.97838    0.015
 4146.00    1.60557   0.99365    0.014
 4147.00    1.69141   0.98433    0.014
 4148.00    1.23223   0.96727    0.014
 4149.00    0.79468   0.95748    0.014
 4150.00    0.57030   0.95511    0.014
 4151.00    0.40835   0.95039    0.014
 4152.00    0.68965   0.94035    0.014
 4153.00    0.91536   0.93156    0.014
 4154.00    0.83761   0.93063    0.014
 4155.00    0.79494   0.94074    0.014
 4156.00    0.90565   0.96394    0.014
 4157.00    1.05044   0.99354    0.014
 4158.00    1.31777   1.01583    0.014
 4159.00    1.45295   1.02805    0.014
 4160.00    1.18936   1.03945    0.014
 4161.00    1.01306   1.04996    0.013
 4162.00    1.06094   1.04767    0.013
 4163.00    1.09142   1.03072    0.013
 4164.00    1.08351   1.00785    0.013
 4165.00    0.93321   0.98636    0.014
 4166.00    0.51016   0.97674    0.013
 4167.00    0.32309   0.98452    0.013
 4168.00    0.53041   0.99148    0.013
 4169.00    0.75601   0.97070    0.013
 4170.00    1.00838   0.92161    0.013
 4171.00    1.12041   0.87637    0.014
 4172.00    1.05168   0.86599    0.014
 4173.00    1.00486   0.88657    0.014
 4174.00    0.98289   0.91040    0.014
 4175.00    0.95948   0.91994    0.014
 4176.00    0.93463   0.92214    0.014
 4177.00    0.92139   0.93233    0.014
 4178.00    0.91840   0.94837    0.014
 4179.00    1.04212   0.95405    0.014
 4180.00    1.26439   0.94824    0.014
 4181.00    1.21154   0.94924    0.014
 4182.00    0.97053   0.96701    0.014
 4183.00    0.96552   0.98696    0.014
 4184.00    1.10197   0.98366    0.014
 4185.00    0.89684   0.95440    0.014
 4186.00    0.51306   0.93240    0.013
 4187.00    0.65108   0.94269    0.014
 4188.00    1.02579   0.96690    0.014
 4189.00    1.34297   0.98078    0.014
 4190.00    1.63770   0.99211    0.014
 4191.00    1.46571   1.01188    0.014
 4192.00    1.13870   1.02054    0.014
 4193.00    1.05153   0.99655    0.014
 4194.00    1.03120   0.95146    0.014
 4195.00    0.71524   0.91055    0.014
 4196.00    0.33145   0.88447    0.014
 4197.00    0.53074   0.87524    0.014
 4198.00    0.83718   0.88011    0.014
 4199.00    0.83493   0.88560    0.014
 4200.00    0.78904   0.88715    0.014
 4201.00    1.17967   0.89858    0.014
 4202.00    1.61480   0.92423    0.013
 4203.00    1.28361   0.95309    0.013
 4204.00    0.90250   0.98034    0.013
 4205.00    0.59049   1.00641    0.013
 4206.00    0.28099   1.02506    0.013
 4207.00    0.22350   1.02794    0.013
 4208.00    0.19068   1.01901    0.013
 4209.00    0.88246   1.01464    0.013
 4210.00    1.52212   1.02010    0.014
 4211.00    1.40293   1.01784    0.013
 4212.00    1.27990   0.99042    0.013
 4213.00    1.12068   0.94740    0.013
 4214.00    0.98023   0.92533    0.013
 4215.00    0.96877   0.95099    0.013
 4216.00    1.02994   1.00638    0.013
 4217.00    1.47709   1.05375    0.013
 4218.00    1.77595   1.07826    0.013
 4219.00    1.44144   1.08084    0.013
 4220.00    1.13902   1.05658    0.013
 4221.00    0.94968   1.00231    0.013
 4222.00    0.75286   0.92414    0.013
 4223.00    0.53387   0.83012    0.012
 4224.00    0.40255   0.73995    0.012
 4225.00    0.49248   0.69921    0.012
 4226.00    0.67733   0.74445    0.013
 4227.00    1.06847   0.85049    0.013
 4228.00    1.19893   0.95273    0.012
 4229.00    0.83777   1.01035    0.012
 4230.00    0.54179   1.01808    0.012
 4231.00    0.35314   0.99330    0.012
 4232.00    0.32401   0.96526    0.012
 4233.00    0.52518   0.94674    0.012
 4234.00    0.62358   0.93258    0.012
 4235.00    0.59152   0.92703    0.012
 4236.00    0.55433   0.93569    0.012
 4237.00    0.51142   0.95161    0.012
 4238.00    0.67389   0.97147    0.012
 4239.00    1.03902   0.99695    0.012
 4240.00    1.24405   1.02115    0.012
 4241.00    1.30973   1.04102    0.012
 4242.00    1.15610   1.06393    0.012
 4243.00    0.83431   1.08148    0.012
 4244.00    0.69544   1.07072    0.012
 4245.00    0.67984   1.02972    0.012
 4246.00    0.82215   0.98063    0.012
 4247.00    1.05769   0.93996    0.012
 4248.00    0.98451   0.91272    0.013
 4249.00    0.75236   0.90925    0.013
 4250.00    0.79561   0.93000    0.013
 4251.00    0.96173   0.94575    0.013
 4252.00    1.28794   0.93597    0.013
 4253.00    1.67554   0.92580    0.013
 4254.00    1.78430   0.94768    0.013
 4255.00    1.80219   0.98651    0.012
 4256.00    1.44473   0.99514    0.012
 4257.00    0.98480   0.95644    0.012
 4258.00    0.76722   0.90339    0.012
 4259.00    0.60394   0.88455    0.012
 4260.00    0.75005   0.92184    0.012
 4261.00    0.95149   0.99203    0.013
 4262.00    0.96269   1.05360    0.013
 4263.00    0.94786   1.08709    0.013
 4264.00    0.84110   1.09370    0.013
 4265.00    0.72535   1.07449    0.013
 4266.00    0.74622   1.03446    0.013
 4267.00    0.77544   0.98292    0.013
 4268.00    0.95901   0.91964    0.013
 4269.00    1.14652   0.84865    0.013
 4270.00    1.29088   0.79822    0.013
 4271.00    1.41523   0.79060    0.013
 4272.00    1.01052   0.81124    0.013
 4273.00    0.64450   0.84418    0.012
 4274.00    0.81030   0.89675    0.012
 4275.00    0.94224   0.96449    0.012
 4276.00    0.76649   1.01651    0.013
 4277.00    0.60972   1.02564    0.013
 4278.00    0.57929   0.99778    0.013
 4279.00    0.59309   0.96776    0.013
 4280.00    0.83581   0.96034    0.013
 4281.00    0.96889   0.96927    0.013
 4282.00    0.64423   0.97416   -2.000
 4283.00    0.44712   0.96267   -2.000
 4284.00    0.69030   0.94308   -2.000
 4285.00    0.95020   0.92786   -2.000
 4286.00    1.25865   0.90727   -2.000
 4287.00    1.39322   0.86756   -2.000
 4288.00    1.09650   0.82848   -2.000
 4289.00    0.91951   0.82728   -2.000
 4290.00    0.99852   0.86852   -2.000
 4291.00    1.07496   0.91596   -2.000
 4292.00    1.14665   0.93547   -2.000
 4293.00    1.26404   0.92936   -2.000
 4294.00    1.45554   0.91359   -2.000
 4295.00    1.58861   0.88563   -2.000
 4296.00    1.63854   0.83611   -2.000
 4297.00    1.53723   0.77227   -2.000
 4298.00    1.24663   0.72223    0.013
 4299.00    1.09598   0.70814    0.013
 4300.00    1.09971   0.71961    0.013
 4301.00    1.11336   0.73525    0.013
 4302.00    1.13666   0.74788    0.013
 4303.00    1.04521   0.75236    0.013
 4304.00    0.85530   0.73973    0.013
 4305.00    0.69615   0.70889    0.013
 4306.00    0.56025   0.67494    0.013
 4307.00    0.57789   0.66364    0.013
 4308.00    0.69749   0.68714    0.013
 4309.00    0.96124   0.73387    0.013
 4310.00    1.30884   0.78632    0.013
 4311.00    1.33475   0.83654    0.012
 4312.00    1.19763   0.88869    0.012
 4313.00    1.26973   0.95690    0.012
 4314.00    1.43363   1.04410    0.012
 4315.00    1.26017   1.12110    0.012
 4316.00    0.95962   1.15639    0.012
 4317.00    0.72517   1.15106    0.012
 4318.00    0.51185   1.12458    0.012
 4319.00    0.69624   1.08901    0.012
 4320.00    0.98693   1.04297    0.012
 4321.00    1.05975   0.97393    0.012
 4322.00    1.08490   0.88176    0.012
 4323.00    1.08713   0.79917    0.012
 4324.00    1.08538   0.77555    0.012
 4325.00    0.99907   0.83374    0.012
 4326.00    0.90158   0.93806    0.012
 4327.00    1.12657   1.02232    0.012
 4328.00    1.38168   1.05289    0.012
 4329.00    1.42892   1.04992    0.012
 4330.00    1.46428   1.04708    0.000
 4331.00    1.38392   1.05371    0.000
 4332.00    1.29979   1.06231    0.000
 4333.00    1.09190   1.05999    0.000
 4334.00    0.89644   1.02479    0.000
 4335.00    0.99978   0.94427    0.000
 4336.00    1.07842   0.84160    0.000
 4337.00    0.83551   0.75366    0.000
 4338.00    0.64219   0.70306    0.000
 4339.00    0.88206   0.70668    0.000
 4340.00    1.10777   0.76358    0.000
 4341.00    1.24204   0.83785    0.000
 4342.00    1.31062   0.89721    0.000
 4343.00    1.04786   0.94183    0.000
 4344.00    0.83529   0.97714    0.000
 4345.00    0.82756   1.00396    0.000
 4346.00    0.80945   1.03100    0.000
 4347.00    0.75620   1.05416    0.000
 4348.00    0.72097   1.04161    0.000
 4349.00    0.73721   0.97972    0.000
 4350.00    0.85436   0.91359    0.000
 4351.00    1.21757   0.89908    0.012
 4352.00    1.31640   0.93522    0.012
 4353.00    0.85911   0.98401    0.012
 4354.00    0.59250   1.02444    0.012
 4355.00    0.67446   1.05013    0.012
 4356.00    0.83302   1.05144    0.012
 4357.00    1.11395   1.03552    0.012
 4358.00    1.25186   1.03273    0.012
 4359.00    1.18924   1.05758    0.012
 4360.00    1.18228   1.09026    0.012
 4361.00    1.24398   1.11209    0.012
 4362.00    1.36295   1.12877    0.012
 4363.00    1.54421   1.14204    0.012
 4364.00    1.62521   1.13333    0.012
 4365.00    1.61001   1.09681    0.012
 4366.00    1.57115   1.05792    0.012
 4367.00    1.51226   1.04123    0.012
 4368.00    1.35098   1.04337    0.012
 4369.00    1.11343   1.04874    0.012
 4370.00    1.04768   1.04484    0.012
 4371.00    1.09435   1.02045    0.012
 4372.00    1.11374   0.97773    0.012
 4373.00    1.11752   0.94443    0.012
 4374.00    0.80163   0.95166    0.012
 4375.00    0.32630   0.99792    0.012
 4376.00    0.32574   1.04814    0.012
 4377.00    0.53007   1.06976    0.012
 4378.00    0.70957   1.05650    0.012
 4379.00    0.87988   1.01268    0.012
 4380.00    0.85414   0.93315    0.012
 4381.00    0.76692   0.82831    0.012
 4382.00    0.91378   0.75274    0.012
 4383.00    1.12189   0.76002    0.012
 4384.00    1.04096   0.83702    0.012
 4385.00    0.89829   0.91919    0.012
 4386.00    0.91567   0.96173    0.012
 4387.00    0.96013   0.96792    0.012
 4388.00    1.01410   0.96212    0.012
 4389.00    1.06929   0.96535    0.012
 4390.00    1.00900   0.98271    0.012
 4391.00    0.93840   0.99936    0.012
 4392.00    0.91162   1.00115    0.012
 4393.00    0.88717   1.00063    0.012
 4394.00    0.75155   1.02273    0.012
 4395.00    0.61651   1.06325    0.012
 4396.00    0.70538   1.08697    0.012
 4397.00    0.79898   1.07162    0.012
 4398.00    0.99667   1.03356    0.012
 4399.00    1.17765   1.00920    0.012
 4400.00    1.15206   1.00794    0.012
 4401.00    1.12513   0.99339    0.012
 4402.00    1.08695   0.94120    0.012
 4403.00    1.04874   0.88916    0.012
 4404.00    1.01038   0.88303    0.012
 4405.00    0.99013   0.91118    0.012
 4406.00    1.05895   0.94157    0.012
 4407.00    1.06094   0.97631    0.012
 4408.00    0.79610   1.02783    0.012
 4409.00    0.63319   1.08305    0.012
 4410.00    0.80830   1.11714    0.012
 4411.00    0.92681   1.11183    0.012
 4412.00    0.88675   1.06297    0.012
 4413.00    0.87848   0.99875    0.012
 4414.00    0.94644   0.96738    0.012
 4415.00    0.99830   0.98746    0.012
 4416.00    1.01683   1.03845    0.012
 4417.00    0.97710   1.09030    0.012
 4418.00    0.83247   1.11752    0.012
 4419.00    0.75684   1.10695    0.012
 4420.00    0.78979   1.07145    0.012
 4421.00    0.86334   1.04305    0.012
 4422.00    0.99300   1.03948    0.012
 4423.00    1.03942   1.04866    0.012
 4424.00    0.98459   1.05425    0.012
 4425.00    0.94374   1.05710    0.012
 4426.00    0.91787   1.06241    0.012
 4427.00    0.95946   1.06257    0.012
 4428.00    1.06486   1.05215    0.012
 4429.00    1.09697   1.04544    0.012
 4430.00    1.06797   1.04890    0.012
 4431.00    0.82698   1.04132    0.012
 4432.00    0.43035   1.00848    0.012
 4433.00    0.36586   0.97327    0.012
 4434.00    0.51550   0.97381    0.012
 4435.00    0.56327   1.02017    0.012
 4436.00    0.55359   1.08417    0.012
 4437.00    0.91250   1.12703    0.012
 4438.00    1.45237   1.12611    0.012
 4439.00    1.48692   1.08566    0.012
 4440.00    1.30705   1.03354    0.012
 4441.00    1.19260   1.00460    0.012
 4442.00    1.10194   1.01870    0.012
 4443.00    1.06566   1.06489    0.012
 4444.00    1.04610   1.10892    0.012
 4445.00    1.16587   1.12814    0.012
 4446.00    1.32131   1.12960    0.012
 4447.00    1.24212   1.12486    0.012
 4448.00    1.11403   1.11508    0.012
 4449.00    0.88535   1.10436    0.012
 4450.00    0.64014   1.09358    0.012
 4451.00    0.91796   1.06966    0.012
 4452.00    1.26026   1.02520    0.012
 4453.00    1.11128   0.97852    0.012
 4454.00    0.92051   0.95645    0.012
 4455.00    0.76428   0.96035    0.012
 4456.00    0.60976   0.96846    0.011
 4457.00    0.91709   0.96688    0.011
 4458.00    1.22992   0.95802    0.011
 4459.00    1.42661   0.94968    0.011
 4460.00    1.60098   0.95609    0.011
 4461.00    1.32300   0.98787    0.000
 4462.00    1.07112   1.02936    0.000
 4463.00    1.12592   1.05462    0.000
 4464.00    1.18109   1.05966    0.000
 4465.00    1.23929   1.05551    0.000
 4466.00    1.20112   1.04681    0.000
 4467.00    0.57647   1.03602    0.000
 4468.00    0.11777   1.03437    0.000
 4469.00    0.45519   1.05127    0.000
 4470.00    0.74201   1.08308    0.000
 4471.00    0.83121   1.11755    0.000
 4472.00    0.85911   1.14215    0.000
 4473.00    0.68767   1.15385    0.000
 4474.00    0.62617   1.16342    0.000
 4475.00    0.86713   1.17727    0.000
 4476.00    1.02480   1.17968    0.000
 4477.00    0.98619   1.14948    0.000
 4478.00    0.95332   1.09073    0.000
 4479.00    0.93213   1.03540    0.000
 4480.00    0.95771   1.01715    0.000
 4481.00    1.06624   1.04550    0.000
 4482.00    1.17966   1.10054    0.011
 4483.00    1.30067   1.15131    0.011
 4484.00    1.34804   1.17652    0.011
 4485.00    1.29509   1.16801    0.011
 4486.00    1.24016   1.13040    0.011
 4487.00    1.18286   1.08483    0.011
 4488.00    1.03410   1.06030    0.011
 4489.00    0.78864   1.06938    0.011
 4490.00    0.84025   1.09380    0.011
 4491.00    1.16888   1.10097    0.011
 4492.00    1.32174   1.07870    0.011
 4493.00    1.33011   1.04883    0.011
 4494.00    1.30081   1.04120    0.011
 4495.00    1.24424   1.06428    0.011
 4496.00    1.18891   1.10310    0.011
 4497.00    1.13438   1.13413    0.011
 4498.00    0.95001   1.14229    0.011
 4499.00    0.69351   1.13547    0.011
 4500.00    0.65936   1.14092    0.011
 4501.00    0.73262   1.17296    0.011
 4502.00    0.89794   1.21229    0.011
 4503.00    1.10166   1.23104    0.011
 4504.00    1.08765   1.22336    0.011
 4505.00    0.99592   1.20357    0.011
 4506.00    1.00874   1.18904    0.011
 4507.00    1.05308   1.18812    0.011
 4508.00    0.82833   1.19514    0.011
 4509.00    0.53619   1.19509    0.011
 4510.00    0.87524   1.17848    0.011
 4511.00    1.34259   1.15141    0.011
 4512.00    0.85871   1.12857    0.011
 4513.00    0.22309   1.11954    0.011
 4514.00    0.49138   1.12079    0.011
 4515.00    0.86710   1.12138    0.011
 4516.00    0.99796   1.12045    0.011
 4517.00    1.10900   1.12886    0.011
 4518.00    1.06605   1.14815    0.011
 4519.00    1.01609   1.16158    0.011
 4520.00    0.85978   1.15319    0.011
 4521.00    0.70684   1.12825    0.011
 4522.00    0.79179   1.10205    0.011
 4523.00    0.87745   1.07572    0.011
 4524.00    0.97651   1.04141    0.011
 4525.00    1.08284   1.00180    0.011
 4526.00    1.27066   0.97024    0.011
 4527.00    1.45367   0.95841    0.011
 4528.00    1.59913   0.96837    0.011
 4529.00    1.69160   0.99208    0.011
 4530.00    1.47080   1.01399    0.011
 4531.00    1.28571   1.01705    0.011
 4532.00    1.26784   1.00016    0.011
 4533.00    1.23192   0.98876    0.011
 4534.00    1.12704   1.01297    0.011
 4535.00    1.04259   1.07001    0.011
 4536.00    1.02334   1.12127    0.011
 4537.00    1.01623   1.13489    0.011
 4538.00    1.04193   1.11718    0.011
 4539.00    1.05851   1.09800    0.011
 4540.00    1.05393   1.09672    0.011
 4541.00    1.02531   1.10509    0.011
 4542.00    0.94848   1.10376    0.011
 4543.00    0.98248   1.09126    0.011
 4544.00    1.20999   1.08188    0.011
 4545.00    1.27066   1.07865    0.011
 4546.00    1.07636   1.07004    0.011
 4547.00    0.91601   1.05479    0.011
 4548.00    0.80124   1.04912    0.011
 4549.00    0.75798   1.05936    0.011
 4550.00    0.79924   1.06882    0.000
 4551.00    0.86265   1.06257    0.000
 4552.00    0.94912   1.04703    0.000
 4553.00    0.91541   1.04160    0.000
 4554.00    0.77120   1.06051    0.000
 4555.00    0.69814   1.09925    0.000
 4556.00    0.68277   1.13772    0.000
 4557.00    0.74000   1.16028    0.000
 4558.00    0.84901   1.16752    0.000
 4559.00    0.93585   1.16663    0.000
 4560.00    1.00883   1.15620    0.000
 4561.00    1.02596   1.12975    0.000
 4562.00    1.01254   1.09407    0.000
 4563.00    1.09342   1.07232    0.000
 4564.00    1.21913   1.08270    0.000
 4565.00    1.03578   1.11828    0.000
 4566.00    0.72566   1.15241    0.000
 4567.00    0.73258   1.16251    0.000
 4568.00    0.85061   1.14437    0.000
 4569.00    0.92127   1.11391    0.000
 4570.00    0.97793   1.09971    0.000
 4571.00    1.13335   1.11488    0.000
 4572.00    1.31297   1.14053    0.000
 4573.00    1.40612   1.15382    0.000
 4574.00    1.48215   1.15360    0.000
 4575.00    1.53949   1.14575    0.000
 4576.00    1.59395   1.12693    0.000
 4577.00    1.32553   1.09476    0.000
 4578.00    1.02017   1.06102    0.000
 4579.00    0.92244   1.04420    0.000
 4580.00    0.84067   1.04883    0.000
 4581.00    0.77255   1.06077    0.000
 4582.00    0.70501   1.06549    0.000
 4583.00    0.59117   1.06328    0.000
 4584.00    0.48709   1.06608    0.000
 4585.00    0.81859   1.08424    0.000
 4586.00    1.12412   1.11418    0.000
 4587.00    0.97553   1.13844    0.000
 4588.00    0.86606   1.14083    0.000
 4589.00    1.17508   1.12119    0.000
 4590.00    1.43293   1.09471    0.000
 4591.00    1.30402   1.07625    0.000
 4592.00    1.16821   1.06769    0.000
 4593.00    0.99274   1.06378    0.000
 4594.00    0.85678   1.06330    0.000
 4595.00    0.90133   1.06792    0.000
 4596.00    0.91682   1.07597    0.000
 4597.00    0.82357   1.08096    0.000
 4598.00    0.79319   1.07836    0.000
 4599.00    0.95948   1.07363    0.000
 4600.00    1.10018   1.07493    0.000
 4601.00    1.17296   1.08024    0.000
 4602.00    1.20987   1.08228    0.000
 4603.00    1.16505   1.08223    0.000
 4604.00    1.14628   1.09069    0.000
 4605.00    1.17892   1.11586    0.000
 4606.00    1.17360   1.15193    0.000
 4607.00    1.10301   1.18032    0.000
 4608.00    0.92145   1.18529    0.000
 4609.00    0.57282   1.16871    0.000
 4610.00    0.52902   1.14621    0.000
 4611.00    0.88858   1.13259    0.000
 4612.00    1.09071   1.13332    0.000
 4613.00    1.10938   1.14305    0.000
 4614.00    1.11359   1.15198    0.000
 4615.00    1.10294   1.15485    0.000
 4616.00    1.05617   1.15093    0.000
 4617.00    0.97667   1.14377    0.000
 4618.00    0.98704   1.14254    0.000
 4619.00    1.06920   1.15011    0.000
 4620.00    1.07809   1.15771    0.000
 4621.00    1.03546   1.15899    0.000
 4622.00    1.02866   1.15530    0.000
 4623.00    1.04393   1.14869    0.000
 4624.00    0.95974   1.14264    0.000
 4625.00    0.82198   1.14061    0.000
 4626.00    0.98230   1.13939    0.000
 4627.00    1.28205   1.13626    0.000
 4628.00    1.14272   1.13745    0.000
 4629.00    0.82639   1.14450    0.000
 4630.00    0.90100   1.14478    0.000
 4631.00    1.11011   1.13068    0.000
 4632.00    1.25315   1.11280    0.000
 4633.00    1.37706   1.10235    0.000
 4634.00    1.16509   1.09561    0.000
 4635.00    0.87268   1.08405    0.000
 4636.00    0.83957   1.06830    0.000
 4637.00    0.85654   1.05690    0.000
 4638.00    0.74944   1.05840    0.000
 4639.00    0.62372   1.07414    0.000
 4640.00    0.55956   1.09279    0.000
 4641.00    0.50218   1.09802    0.000
 4642.00    0.88671   1.08344    0.000
 4643.00    1.30338   1.05341    0.000
 4644.00    1.23251   1.01795    0.000
 4645.00    1.14320   0.99301    0.000
 4646.00    1.16107   0.99254    0.000
 4647.00    1.17715   1.01591    0.000
 4648.00    1.10680   1.04955    0.000
 4649.00    1.04859   1.07918    0.000
 4650.00    1.18872   1.09651    0.000
 4651.00    1.30374   1.09709    0.000
 4652.00    1.16190   1.08090    0.000
 4653.00    1.02737   1.05895    0.000
 4654.00    0.94636   1.05024    0.000
 4655.00    0.87649   1.06749    0.000
 4656.00    0.86892   1.10685    0.000
 4657.00    0.85464   1.14888    0.000
 4658.00    0.81040   1.17074    0.000
 4659.00    0.75599   1.16244    0.000
 4660.00    0.66431   1.13257    0.000
 4661.00    0.63890   1.09927    0.000
 4662.00    0.81678   1.07318    0.000
 4663.00    0.93473   1.04686    0.000
 4664.00    0.89637   1.00743    0.000
 4665.00    0.86033   0.96302    0.000
 4666.00    0.82947   0.94276    0.000
 4667.00    0.87060   0.96356    0.000
 4668.00    1.05152   1.01073    0.000
 4669.00    1.09182   1.05482    0.000
 4670.00    0.89395   1.07709    0.000
 4671.00    0.78197   1.07936    0.000
 4672.00    0.79741   1.07727    0.000
 4673.00    0.81126   1.08434    0.000
 4674.00    0.82302   1.09855    0.000
 4675.00    0.90556   1.10467    0.000
 4676.00    1.06942   1.09223    0.000
 4677.00    1.10694   1.06726    0.000
 4678.00    1.01644   1.04374    0.000
 4679.00    0.91095   1.03187    0.000
 4680.00    0.79206   1.03602    0.000
 4681.00    0.89166   1.05341    0.000
 4682.00    1.16332   1.07308    0.000
 4683.00    1.08107   1.08408    0.000
 4684.00    0.75367   1.08392    0.000
 4685.00    0.76131   1.07693    0.000
 4686.00    0.97244   1.06949    0.000
 4687.00    0.98101   1.06521    0.000
 4688.00    0.88218   1.06209    0.000
 4689.00    0.74927   1.05846    0.000
 4690.00    0.60069   1.05863    0.000
 4691.00    0.67108   1.06722    0.000
 4692.00    0.82823   1.08327    0.000
 4693.00    0.89247   1.10053    0.000
 4694.00    0.92534   1.10804    0.000
 4695.00    0.85896   1.09554    0.000
 4696.00    0.76440   1.06619    0.000
 4697.00    0.58805   1.03789    0.000
 4698.00    0.39256   1.02372    0.000
 4699.00    0.41914   1.01819    0.000
 4700.00    0.48750   1.01166    0.000
 4701.00    0.64855   1.00797    0.000
 4702.00    0.82308   1.01618    0.000
 4703.00    0.91223   1.03149    0.000
 4704.00    0.99235   1.03797    0.000
 4705.00    0.97165   1.02909    0.000
 4706.00    0.94402   1.01534    0.000
 4707.00    0.98018   1.01226    0.000
 4708.00    1.01851   1.02690    0.000
 4709.00    0.93323   1.05146    0.000
 4710.00    0.85283   1.06770    0.000
 4711.00    0.93739   1.06401    0.000
 4712.00    1.00850   1.04925    0.000
 4713.00    0.87338   1.04477    0.000
 4714.00    0.73032   1.06166    0.000
 4715.00    0.50932   1.09046    0.000
 4716.00    0.35902   1.11637    0.000
 4717.00    0.70866   1.13401    0.000
 4718.00    0.97897   1.14263    0.000
 4719.00    0.81773   1.14066    0.000
 4720.00    0.69338   1.13192    0.000
 4721.00    0.72981   1.12717    0.000
 4722.00    0.77890   1.13147    0.000
 4723.00    0.87339   1.13357    0.000
 4724.00    0.97124   1.11550    0.000
 4725.00    1.07920   1.07437    0.000
 4726.00    1.09453   1.02936    0.000
 4727.00    0.87252   1.00284    0.000
 4728.00    0.75623   1.00037    0.000
 4729.00    0.87300   1.01395    0.000
 4730.00    0.97670   1.03439    0.000
 4731.00    1.05541   1.05462    0.000
 4732.00    1.11024   1.06890    0.000
 4733.00    1.12525   1.07318    0.000
 4734.00    1.12938   1.06837    0.000
 4735.00    1.11760   1.06513    0.000
 4736.00    1.04036   1.07343    0.000
 4737.00    0.87897   1.08606    0.000
 4738.00    0.84099   1.08944    0.000
 4739.00    0.94283   1.08527    0.000
 4740.00    0.96759   1.08530    0.000
 4741.00    0.91534   1.09192    0.000
 4742.00    0.92264   1.09797    0.000
 4743.00    0.98242   1.10135    0.000
 4744.00    0.96956   1.10696    0.000
 4745.00    0.90031   1.11498    0.000
 4746.00    0.88571   1.11979    0.000
 4747.00    0.90842   1.11992    0.000
 4748.00    0.88891   1.11734    0.000
 4749.00    0.84416   1.11059    0.000
 4750.00    0.83103   1.09748    0.000
 4751.00    0.83441   1.08106    0.000
 4752.00    0.75071   1.06707    0.000
 4753.00    0.62758   1.05900    0.000
 4754.00    0.65883   1.05732    0.000
 4755.00    0.75019   1.06123    0.000
 4756.00    0.75443   1.06950    0.000
 4757.00    0.72981   1.07869    0.000
 4758.00    0.87517   1.08112    0.000
 4759.00    1.06778   1.06934    0.000
 4760.00    1.19206   1.04592    0.000
 4761.00    1.30072   1.02203    0.010
 4762.00    1.14667   1.00404    0.009
 4763.00    0.94450   0.99158    0.009
 4764.00    0.91773   0.98774    0.010
 4765.00    0.91567   0.99897    0.010
 4766.00    0.96759   1.02434    0.010
 4767.00    1.02499   1.05240    0.009
 4768.00    0.89158   1.06868    0.009
 4769.00    0.74584   1.06808    0.009
 4770.00    0.84647   1.06190    0.009
 4771.00    0.95443   1.06651    0.009
 4772.00    0.99722   1.08372    0.010
 4773.00    1.03458   1.10073    0.010
 4774.00    0.91478   1.10886    0.010
 4775.00    0.80639   1.11095    0.009
 4776.00    0.86275   1.10994    0.009
 4777.00    0.92231   1.10423    0.009
 4778.00    1.01187   1.09437    0.009
 4779.00    1.05371   1.08219    0.009
 4780.00    0.76882   1.06726    0.009
 4781.00    0.54768   1.05237    0.009
 4782.00    0.66425   1.04382    0.009
 4783.00    0.77728   1.04084    0.009
 4784.00    0.87519   1.03713    0.009
 4785.00    0.94764   1.03325    0.009
 4786.00    0.93062   1.03281    0.009
 4787.00    0.89910   1.03446    0.009
 4788.00    0.82476   1.03816    0.009
 4789.00    0.75709   1.04810    0.009
 4790.00    0.70623   1.06672    0.009
 4791.00    0.73353   1.09255    0.009
 4792.00    0.93033   1.11899    0.009
 4793.00    1.04908   1.13470    0.009
 4794.00    1.02096   1.13165    0.009
 4795.00    0.98133   1.11172    0.009
 4796.00    0.92279   1.08430    0.009
 4797.00    0.87563   1.06174    0.009
 4798.00    0.84490   1.05562    0.009
 4799.00    0.82570   1.06916    0.009
 4800.00    0.82112   1.09153    0.009
 4801.00    0.88591   1.10480    0.009
 4802.00    1.02818   1.09945    0.010
 4803.00    1.02137   1.08155    0.010
 4804.00    0.86771   1.06326    0.010
 4805.00    0.82119   1.05087    0.010
 4806.00    0.86775   1.04621    0.009
 4807.00    0.78042   1.05081    0.009
 4808.00    0.59061   1.06178    0.009
 4809.00    0.64144   1.07154    0.009
 4810.00    0.85412   1.07585    0.009
 4811.00    0.95746   1.07703    0.009
 4812.00    0.99637   1.07957    0.009
 4813.00    0.92266   1.08599    0.009
 4814.00    0.79110   1.09602    0.009
 4815.00    0.76106   1.10731    0.009
 4816.00    0.77623   1.11705    0.009
 4817.00    0.89220   1.12255    0.010
 4818.00    1.04673   1.12058    0.010
 4819.00    1.03512   1.10753    0.010
 4820.00    0.96951   1.08228    0.010
 4821.00    1.01529   1.05251    0.010
 4822.00    1.09141   1.03549    0.010
 4823.00    0.89498   1.04128    0.010
 4824.00    0.63765   1.05858    0.010
 4825.00    0.64510   1.06827    0.010
 4826.00    0.69973   1.06512    0.010
 4827.00    0.83535   1.05719    0.010
 4828.00    0.98201   1.04975    0.010
 4829.00    1.10202   1.04098    0.010
 4830.00    1.21945   1.03351    0.010
 4831.00    1.05945   1.03608    0.010
 4832.00    0.88262   1.04899    0.010
 4833.00    0.88420   1.06146    0.010
 4834.00    0.88973   1.06557    0.010
 4835.00    0.75618   1.06111    0.010
 4836.00    0.63244   1.04896    0.009
 4837.00    0.76464   1.03168    0.009
 4838.00    0.89375   1.01758    0.009
 4839.00    0.98063   1.01306    0.009
 4840.00    1.04982   1.01477    0.009
 4841.00    0.95911   1.01824    0.009
 4842.00    0.87382   1.02675    0.009
 4843.00    0.82447   1.04140    0.009
 4844.00    0.78513   1.05148    0.009
 4845.00    0.79739   1.04587    0.009
 4846.00    0.79713   1.02888    0.009
 4847.00    0.74468   1.01663    0.010
 4848.00    0.70537   1.01753    0.000
 4849.00    0.71129   1.02358    0.000
 4850.00    0.74437   1.02260    0.000
 4851.00    0.85620   1.00833    0.000
 4852.00    0.81942   0.98032    0.000
 4853.00    0.41481   0.94796    0.000
 4854.00    0.21832   0.92756    0.000
 4855.00    0.46584   0.92096    0.000
 4856.00    0.70829   0.90655    0.000
 4857.00    0.94134   0.86304    0.000
 4858.00    1.02213   0.79711    0.000
 4859.00    0.85643   0.74429    0.000
 4860.00    0.74952   0.73910    0.000
 4861.00    0.72608   0.78095    0.000
 4862.00    0.64307   0.83911    0.000
 4863.00    0.48563   0.88862    0.000
 4864.00    0.47625   0.92402    0.000
 4865.00    0.62993   0.94664    0.000
 4866.00    0.75602   0.95684    0.000
 4867.00    0.85534   0.95266    0.000
 4868.00    0.86864   0.93163    0.000
 4869.00    0.80827   0.90309    0.000
 4870.00    0.81207   0.89059    0.000
 4871.00    0.86428   0.90674    0.000
 4872.00    0.79063   0.93752    0.000
 4873.00    0.63355   0.96327    0.000
 4874.00    0.64989   0.98064    0.000
 4875.00    0.76688   0.99642    0.009
 4876.00    0.79371   1.01455    0.009
 4877.00    0.77494   1.03147    0.009
 4878.00    0.84108   1.03718    0.009
 4879.00    0.94440   1.02779    0.009
 4880.00    0.88229   1.01428    0.009
 4881.00    0.75800   1.00608    0.009
 4882.00    0.77836   0.99684    0.009
 4883.00    0.84484   0.97984    0.009
 4884.00    0.83783   0.96309    0.010
 4885.00    0.81122   0.95730    0.010
 4886.00    0.72471   0.95857    0.010
 4887.00    0.62513   0.95271    0.010
 4888.00    0.57037   0.93551    0.010
 4889.00    0.52339   0.92484    0.009
 4890.00    0.76104   0.94490    0.009
 4891.00    1.03617   0.99660    0.009
 4892.00    0.97809   1.05529    0.009
 4893.00    0.88904   1.09746    0.009
 4894.00    0.65562   1.11666    0.009
 4895.00    0.41402   1.11744    0.009
 4896.00    0.58145   1.10521    0.009
 4897.00    0.75755   1.08492    0.009
 4898.00    0.86189   1.06515    0.009
 4899.00    0.96447   1.05307    0.009
 4900.00    1.02547   1.04627    0.009
 4901.00    1.07544   1.04111    0.009
 4902.00    0.98278   1.04373    0.009
 4903.00    0.88520   1.05909    0.009
 4904.00    0.74474   1.07631    0.009
 4905.00    0.63780   1.07743    0.010
 4906.00    0.74655   1.05659    0.009
 4907.00    0.82108   1.02436    0.009
 4908.00    0.72349   0.99828    0.009
 4909.00    0.66057   0.99161    0.010
 4910.00    0.73872   1.00497    0.009
 4911.00    0.83854   1.02829    0.009
 4912.00    1.01150   1.05149    0.009
 4913.00    1.07628   1.06729    0.009
 4914.00    0.83305   1.06527    0.009
 4915.00    0.71241   1.03465    0.009
 4916.00    0.89001   0.97751    0.009
 4917.00    1.03597   0.91516    0.009
 4918.00    1.11552   0.87721    0.009
 4919.00    1.01818   0.88013    0.009
 4920.00    0.59805   0.91300    0.009
 4921.00    0.36791   0.94830    0.009
 4922.00    0.44073   0.97049    0.009
 4923.00    0.41630   0.98759    0.009
 4924.00    0.25575   1.01155    0.009
 4925.00    0.24238   1.04061    0.009
 4926.00    0.41028   1.06653    0.009
 4927.00    0.50632   1.08491    0.009
 4928.00    0.52434   1.09299    0.009
 4929.00    0.57412   1.08688    0.009
 4930.00    0.65430   1.06463    0.009
 4931.00    0.75785   1.03353    0.009
 4932.00    0.88113   1.01109    0.009
 4933.00    0.92770   1.00612    0.009
 4934.00    0.91725   1.00389    0.009
 4935.00    0.91315   0.98606    0.009
 4936.00    0.91319   0.95884    0.009
 4937.00    0.82769   0.94794    0.009
 4938.00    0.69329   0.96844    0.009
 4939.00    0.57805   1.00872    0.009
 4940.00    0.47236   1.04624    0.000
 4941.00    0.56451   1.06927    0.000
 4942.00    0.74187   1.07716    0.000
 4943.00    0.84259   1.07353    0.000
 4944.00    0.91501   1.06756    0.000
 4945.00    0.78209   1.06925    0.000
 4946.00    0.58495   1.07879    0.000
 4947.00    0.61573   1.08904    0.000
 4948.00    0.70598   1.09543    0.000
 4949.00    0.80758   1.09639    0.000
 4950.00    0.91159   1.09013    0.000
 4951.00    0.91080   1.07710    0.000
 4952.00    0.89234   1.05869    0.000
 4953.00    0.92967   1.02971    0.000
 4954.00    0.97409   0.98389    0.000
 4955.00    0.94265   0.93527    0.000
 4956.00    0.90449   0.91834    0.000
 4957.00    0.92818   0.94909    0.000
 4958.00    0.95513   1.00184    0.000
 4959.00    0.93444   1.04059    0.000
 4960.00    0.91230   1.05462    0.000
 4961.00    0.84779   1.05160    0.000
 4962.00    0.78209   1.03679    0.000
 4963.00    0.69044   1.01380    0.000
 4964.00    0.60657   0.99249    0.000
 4965.00    0.61818   0.98211    0.000
 4966.00    0.63403   0.98276    0.000
 4967.00    0.68524   0.98975    0.000
 4968.00    0.71267   1.00067    0.000
 4969.00    0.59159   1.01522    0.000
 4970.00    0.51384   1.03179    0.000
 4971.00    0.64853   1.04646    0.000
 4972.00    0.75748   1.05517    0.000
 4973.00    0.76399   1.05519    0.000
 4974.00    0.77101   1.04572    0.000
 4975.00    0.77973   1.02834    0.000
 4976.00    0.81319   1.00719    0.000
 4977.00    0.91579   0.98696    0.000
 4978.00    0.93641   0.96683    0.000
 4979.00    0.76093   0.94025    0.000
 4980.00    0.66094   0.90801    0.000
 4981.00    0.71690   0.88474    0.000
 4982.00    0.78306   0.88463    0.000
 4983.00    0.86752   0.90737    0.000
 4984.00    0.87398   0.94208    0.000
 4985.00    0.75788   0.97582    0.000
 4986.00    0.66300   0.99690    0.000
 4987.00    0.59740   1.00052    0.000
 4988.00    0.61483   0.99313    0.000
 4989.00    0.73309   0.98661    0.000
 4990.00    0.87380   0.98685    0.000
 4991.00    1.03856   0.99059    0.000
 4992.00    0.94054   0.99451    0.000
 4993.00    0.59441   0.99986    0.000
 4994.00    0.54994   1.00511    0.000
 4995.00    0.75658   1.00360    0.000
 4996.00    0.93822   0.99045    0.000
 4997.00    1.10152   0.96776    0.000
 4998.00    1.04660   0.94458    0.000
 4999.00    0.85125   0.93051    0.000
 5000.00    0.69119   0.92711    0.000
 5001.00    0.55100   0.92666    0.000
 5002.00    0.58103   0.91897    0.000
 5003.00    0.69447   0.90245    0.000
 5004.00    0.69874   0.89034    0.000
 5005.00    0.65678   0.89900    0.000
 5006.00    0.77365   0.92688    0.000
 5007.00    0.94811   0.95347    0.000
 5008.00    0.89113   0.95990    0.000
 5009.00    0.76317   0.94285    0.000
 5010.00    0.65076   0.91161    0.000
 5011.00    0.54232   0.88138    0.000
 5012.00    0.49473   0.86651    0.000
 5013.00    0.45977   0.87119    0.000
 5014.00    0.63788   0.88549    0.000
 5015.00    0.85085   0.89607    0.000
 5016.00    0.82198   0.90124    0.000
 5017.00    0.76343   0.90791    0.000
 5018.00    0.76688   0.91632    0.000
 5019.00    0.77556   0.92014    0.000
 5020.00    0.77416   0.92027    0.000
 5021.00    0.77228   0.92569    0.000
 5022.00    0.92798   0.93862    0.000
 5023.00    1.08247   0.94947    0.000
 5024.00    1.01495   0.94940    0.000
 5025.00    0.94723   0.94218    0.000
 5026.00    0.87534   0.94098    0.000
 5027.00    0.80925   0.95324    0.000
 5028.00    0.81102   0.97372    0.000
 5029.00    0.79966   0.99461    0.009
 5030.00    0.68226   1.01240    0.009
 5031.00    0.61490   1.02090    0.009
 5032.00    0.85094   1.01060    0.009
 5033.00    1.03027   0.98209    0.009
 5034.00    0.93838   0.95147    0.009
 5035.00    0.87047   0.93185    0.009
 5036.00    0.89594   0.91574    0.009
 5037.00    0.87318   0.88798    0.009
 5038.00    0.69401   0.85172    0.009
 5039.00    0.57644   0.83155    0.009
 5040.00    0.62793   0.84921    0.009
 5041.00    0.64909   0.89957    0.009
 5042.00    0.59892   0.95706    0.009
 5043.00    0.57110   0.99986    0.009
 5044.00    0.58870   1.01770    0.009
 5045.00    0.56150   1.00744    0.009
 5046.00    0.45505   0.97626    0.009
 5047.00    0.47260   0.94259    0.009
 5048.00    0.68208   0.92267    0.009
 5049.00    0.74344   0.91999    0.009
 5050.00    0.60343   0.93067    0.008
 5051.00    0.53606   0.95051    0.008
 5052.00    0.55563   0.97350    0.009
 5053.00    0.66787   0.99187    0.009
 5054.00    0.87790   1.00212    0.008
 5055.00    0.83962   1.00734    0.008
 5056.00    0.57018   1.01190    0.008
 5057.00    0.49237   1.01749    0.008
 5058.00    0.57181   1.02420    0.008
 5059.00    0.64768   1.02934    0.008
 5060.00    0.72097   1.02474    0.008
 5061.00    0.76119   1.00260    0.008
 5062.00    0.78045   0.96767    0.008
 5063.00    0.73346   0.93805    0.008
 5064.00    0.64976   0.92702    0.008
 5065.00    0.59531   0.93005    0.008
 5066.00    0.55497   0.93681    0.008
 5067.00    0.72544   0.94477    0.008
 5068.00    0.98368   0.95228    0.008
 5069.00    0.91481   0.95340    0.008
 5070.00    0.72948   0.94844    0.008
 5071.00    0.75205   0.94607    0.009
 5072.00    0.83715   0.94945    0.009
 5073.00    0.72972   0.95309    0.009
 5074.00    0.57418   0.95279    0.009
 5075.00    0.48971   0.94520    0.008
 5076.00    0.41964   0.92371    0.008
 5077.00    0.58310   0.89027    0.008
 5078.00    0.78368   0.86341    0.009
 5079.00    0.98946   0.85930    0.009
 5080.00    1.19586   0.87350    0.009
 5081.00    1.16474   0.89243    0.008
 5082.00    1.11453   0.91111    0.008
 5083.00    1.04727   0.92994    0.009
 5084.00    0.97924   0.94563    0.010
 5085.00    0.63123   0.95491    0.010
 5086.00    0.28904   0.95995    0.011
 5087.00    0.40172   0.96467    0.011
 5088.00    0.52097   0.97031    0.011
 5089.00    0.76228   0.97756    0.010
 5090.00    0.96964   0.98708    0.009
 5091.00    0.79890   0.99524    0.009
 5092.00    0.66166   0.99450    0.008
 5093.00    0.78538   0.98056    0.009
 5094.00    0.86756   0.95555    0.009
 5095.00    0.70493   0.92497    0.009
 5096.00    0.58837   0.89715    0.009
 5097.00    0.68676   0.88437    0.009
 5098.00    0.75477   0.89459    0.009
 5099.00    0.70702   0.91998    0.009
 5100.00    0.70433   0.94187    0.008
 5101.00    0.84498   0.94873    0.008
 5102.00    0.88543   0.94311    0.008
 5103.00    0.65572   0.93231    0.008
 5104.00    0.50135   0.91961    0.009
 5105.00    0.52120   0.90652    0.009
 5106.00    0.53560   0.89664    0.009
 5107.00    0.53908   0.89316    0.009
 5108.00    0.56814   0.89735    0.009
 5109.00    0.64177   0.90962    0.009
 5110.00    0.63518   0.92690    0.009
 5111.00    0.50625   0.94328    0.009
 5112.00    0.56099   0.95585    0.009
 5113.00    0.86185   0.96620    0.009
 5114.00    0.86879   0.97671    0.009
 5115.00    0.52888   0.98671    0.009
 5116.00    0.35732   0.99139    0.009
 5117.00    0.36093   0.98572    0.009
 5118.00    0.45991   0.96919    0.009
 5119.00    0.64642   0.94500    0.009
 5120.00    0.80809   0.91677    0.009
 5121.00    0.94965   0.88938    0.009
 5122.00    0.95177   0.87050    0.009
 5123.00    0.85463   0.86501    0.009
 5124.00    0.82616   0.86873    0.009
 5125.00    0.84060   0.87322    0.009
 5126.00    0.75010   0.87513    0.009
 5127.00    0.60234   0.87788    0.008
 5128.00    0.57221   0.88613    0.008
 5129.00    0.59789   0.89985    0.009
 5130.00    0.62156   0.91421    0.009
 5131.00    0.64441   0.92584    0.009
 5132.00    0.77515   0.93518    0.009
 5133.00    0.94360   0.94021    0.008
 5134.00    0.91548   0.93458    0.008
 5135.00    0.82941   0.91665    0.008
 5136.00    0.67564   0.89508    0.008
 5137.00    0.50534   0.88190    0.008
 5138.00    0.64695   0.88085    0.008
 5139.00    0.85018   0.88322    0.009
 5140.00    0.83969   0.88095    0.008
 5141.00    0.79623   0.87850    0.008
 5142.00    0.86084   0.88129    0.008
 5143.00    0.93775   0.88363    0.008
 5144.00    0.76585   0.87984    0.008
 5145.00    0.57497   0.87487    0.008
 5146.00    0.58260   0.87589    0.008
 5147.00    0.59839   0.88104    0.008
 5148.00    0.67754   0.88215    0.008
 5149.00    0.75303   0.87600    0.008
 5150.00    0.65249   0.86798    0.008
 5151.00    0.55734   0.86544    0.008
 5152.00    0.55562   0.87259    0.008
 5153.00    0.56416   0.88997    0.008
 5154.00    0.68181   0.91379    0.008
 5155.00    0.79464   0.93651    0.009
 5156.00    0.87123   0.95144    0.008
 5157.00    0.92697   0.95711    0.008
 5158.00    0.86324   0.95540    0.008
 5159.00    0.80055   0.94666    0.008
 5160.00    0.74256   0.93044    0.008
 5161.00    0.70478   0.90670    0.008
 5162.00    0.74243   0.87120    0.008
 5163.00    0.76240   0.81753    0.008
 5164.00    0.72721   0.75118    0.008
 5165.00    0.66500   0.69593    0.008
 5166.00    0.53123   0.67694    0.008
 5167.00    0.46287   0.69340    0.008
 5168.00    0.54326   0.71302    0.008
 5169.00    0.54755   0.70511    0.008
 5170.00    0.40201   0.67933    0.008
 5171.00    0.37467   0.67721    0.008
 5172.00    0.55020   0.72130    0.009
 5173.00    0.69924   0.79014    0.009
 5174.00    0.80847   0.84826    0.009
 5175.00    0.87202   0.88105    0.009
 5176.00    0.87525   0.89289    0.009
 5177.00    0.88462   0.88822    0.009
 5178.00    0.90115   0.86436    0.009
 5179.00    0.81638   0.81634    0.009
 5180.00    0.62769   0.74918    0.009
 5181.00    0.54852   0.68995    0.008
 5182.00    0.56846   0.67673    0.008
 5183.00    0.56487   0.72189    0.008
 5184.00    0.54252   0.79610    0.008
 5185.00    0.48619   0.85879    0.008
 5186.00    0.40601   0.89362    0.008
 5187.00    0.39491   0.90614    0.008
 5188.00    0.42632   0.90031    0.008
 5189.00    0.42421   0.87673    0.008
 5190.00    0.40409   0.84862    0.000
 5191.00    0.41218   0.83599    0.000
 5192.00    0.43343   0.84281    0.000
 5193.00    0.65614   0.85805    0.000
 5194.00    0.95989   0.87474    0.000
 5195.00    0.94808   0.89334    0.000
 5196.00    0.82797   0.91286    0.000
 5197.00    0.70192   0.92885    0.000
 5198.00    0.57415   0.93668    0.000
 5199.00    0.50125   0.93394    0.000
 5200.00    0.44145   0.92043    0.000
 5201.00    0.56017   0.89597    0.000
 5202.00    0.71324   0.86176    0.000
 5203.00    0.61120   0.82595    0.000
 5204.00    0.47101   0.79976    0.000
 5205.00    0.47055   0.78670    0.000
 5206.00    0.48538   0.78465    0.000
 5207.00    0.55772   0.79612    0.000
 5208.00    0.63422   0.82496    0.000
 5209.00    0.63795   0.86620    0.000
 5210.00    0.63896   0.90627    0.000
 5211.00    0.82726   0.93068    0.008
 5212.00    1.00528   0.93229    0.008
 5213.00    0.77725   0.91757    0.008
 5214.00    0.56428   0.90357    0.008
 5215.00    0.59537   0.90462    0.008
 5216.00    0.61992   0.92136    0.008
 5217.00    0.57806   0.94330    0.008
 5218.00    0.54519   0.95963    0.008
 5219.00    0.57781   0.96459    0.008
 5220.00    0.61456   0.95508    0.008
 5221.00    0.67432   0.92921    0.008
 5222.00    0.69507   0.88892    0.008
 5223.00    0.54230   0.84295    0.008
 5224.00    0.43478   0.80790    0.008
 5225.00    0.49254   0.80242    0.008
 5226.00    0.52380   0.83154    0.008
 5227.00    0.47390   0.87760    0.008
 5228.00    0.50918   0.91438    0.008
 5229.00    0.76611   0.92697    0.008
 5230.00    0.92317   0.91730    0.008
 5231.00    0.85690   0.90018    0.008
 5232.00    0.76258   0.89347    0.008
 5233.00    0.61387   0.90527    0.008
 5234.00    0.51771   0.92973    0.008
 5235.00    0.51034   0.95403    0.008
 5236.00    0.50794   0.96856    0.008
 5237.00    0.51288   0.97270    0.008
 5238.00    0.50333   0.97186    0.008
 5239.00    0.47490   0.97049    0.008
 5240.00    0.54750   0.97018    0.008
 5241.00    0.73597   0.97190    0.008
 5242.00    0.80704   0.97318    0.008
 5243.00    0.75935   0.96539    0.008
 5244.00    0.63302   0.94363    0.008
 5245.00    0.43653   0.91711    0.008
 5246.00    0.47482   0.89902    0.008
 5247.00    0.69769   0.89082    0.009
 5248.00    0.70284   0.88760    0.009
 5249.00    0.55747   0.88999    0.008
 5250.00    0.48093   0.89875    0.008
 5251.00    0.44612   0.90711    0.008
 5252.00    0.54671   0.91009    0.009
 5253.00    0.71896   0.91493    0.009
 5254.00    0.70803   0.93226    0.009
 5255.00    0.61298   0.95949    0.009
 5256.00    0.68494   0.98127    0.008
 5257.00    0.82292   0.98403    0.008
 5258.00    0.80052   0.96417    0.008
 5259.00    0.72409   0.92602    0.008
 5260.00    0.90659   0.87832    0.008
 5261.00    1.16239   0.83145    0.009
 5262.00    0.90886   0.79459    0.009
 5263.00    0.53643   0.77443    0.009
 5264.00    0.49579   0.77281    0.009
 5265.00    0.51735   0.77926    0.009
 5266.00    0.46745   0.77492    0.009
 5267.00    0.40719   0.75786    0.009
 5268.00    0.29569   0.75314    0.009
 5269.00    0.17879   0.78035    0.009
 5270.00    0.41316   0.82570    0.009
 5271.00    0.67147   0.86116    0.009
 5272.00    0.59686   0.87687    0.009
 5273.00    0.51108   0.88515    0.009
 5274.00    0.44513   0.90266    0.008
 5275.00    0.38496   0.93182    0.008
 5276.00    0.50962   0.95809    0.008
 5277.00    0.63062   0.96554    0.008
 5278.00    0.69603   0.95192    0.008
 5279.00    0.75285   0.92729    0.008
 5280.00    0.72602   0.90424    0.008
 5281.00    0.69991   0.89372    0.008
 5282.00    0.67893   0.90397    0.008
 5283.00    0.66339   0.93393    0.008
 5284.00    0.67740   0.96903    0.008
 5285.00    0.68072   0.99254    0.008
 5286.00    0.63758   1.00117    0.008
 5287.00    0.59221   1.00361    0.008
 5288.00    0.53884   1.00627    0.008
 5289.00    0.55041   1.00689    0.008
 5290.00    0.75702   1.00169    0.008
 5291.00    0.91337   0.99131    0.008
 5292.00    0.94120   0.97656    0.008
 5293.00    0.91618   0.95339    0.008
 5294.00    0.77489   0.91941    0.009
 5295.00    0.65799   0.88472    0.009
 5296.00    0.58762   0.86751    0.009
 5297.00    0.59421   0.87473    0.009
 5298.00    0.72894   0.89455    0.008
 5299.00    0.78820   0.91330    0.008
 5300.00    0.73733   0.93084    0.008
 5301.00    0.70746   0.95307    0.008
 5302.00    0.70453   0.97740    0.009
 5303.00    0.64788   0.99375    0.009
 5304.00    0.53046   0.99698    0.008
 5305.00    0.44244   0.99322    0.008
 5306.00    0.38376   0.99258    0.008
 5307.00    0.41688   0.99809    0.008
 5308.00    0.53076   1.00412    0.008
 5309.00    0.54711   1.00453    0.008
 5310.00    0.48789   0.99879    0.008
 5311.00    0.57416   0.99017    0.008
 5312.00    0.75957   0.98095    0.008
 5313.00    0.85623   0.97109    0.008
 5314.00    0.89988   0.96181    0.008
 5315.00    0.80730   0.95685    0.008
 5316.00    0.64375   0.95763    0.008
 5317.00    0.59088   0.96064    0.008
 5318.00    0.58800   0.96119    0.008
 5319.00    0.63807   0.95624    0.008
 5320.00    0.70870   0.94394    0.008
 5321.00    0.72142   0.92563    0.008
 5322.00    0.71498   0.90708    0.008
 5323.00    0.75786   0.88992    0.008
 5324.00    0.81440   0.86475    0.008
 5325.00    0.82181   0.82670    0.008
 5326.00    0.81803   0.79482    0.008
 5327.00    0.71882   0.79700    0.008
 5328.00    0.60219   0.83505    0.008
 5329.00    0.65298   0.88242    0.008
 5330.00    0.72725   0.91633    0.008
 5331.00    0.64850   0.93649    0.008
 5332.00    0.55432   0.95179    0.008
 5333.00    0.62579   0.96345    0.008
 5334.00    0.70789   0.96706    0.008
 5335.00    0.74940   0.96073    0.008
 5336.00    0.78930   0.94449    0.008
 5337.00    0.66723   0.92018    0.008
 5338.00    0.55187   0.89776    0.008
 5339.00    0.62826   0.89195    0.008
 5340.00    0.69415   0.90598    0.008
 5341.00    0.60937   0.92657    0.008
 5342.00    0.53515   0.93848    0.008
 5343.00    0.55979   0.93827    0.008
 5344.00    0.60687   0.93202    0.008
 5345.00    0.80707   0.92462    0.008
 5346.00    0.95360   0.91780    0.008
 5347.00    0.81674   0.91630    0.008
 5348.00    0.71315   0.92607    0.008
 5349.00    0.75081   0.94521    0.008
 5350.00    0.75751   0.96507    0.008
 5351.00    0.65564   0.98100    0.008
 5352.00    0.60876   0.99477    0.008
 5353.00    0.72397   1.00732    0.008
 5354.00    0.81090   1.01630    0.008
 5355.00    0.82675   1.02022    0.008
 5356.00    0.78781   1.01967    0.008
 5357.00    0.63032   1.01459    0.008
 5358.00    0.53465   1.00364    0.008
 5359.00    0.55510   0.98754    0.008
 5360.00    0.58690   0.97054    0.008
 5361.00    0.63731   0.95632    0.008
 5362.00    0.66271   0.94520    0.008
 5363.00    0.65212   0.93685    0.008
 5364.00    0.65701   0.93126    0.008
 5365.00    0.68145   0.92546    0.008
 5366.00    0.77488   0.91273    0.008
 5367.00    0.94521   0.88890    0.008
 5368.00    0.86143   0.86152   -2.000
 5369.00    0.52778   0.84919   -2.000
 5370.00    0.33627   0.86545   -2.000
 5371.00    0.26801   0.90366   -2.000
 5372.00    0.18507   0.94318   -2.000
 5373.00    0.09091   0.96782   -2.000
 5374.00    0.19513   0.97569   -2.000
 5375.00    0.43254   0.97493   -2.000
 5376.00    0.71635   0.97296   -2.000
 5377.00    1.02745   0.97042   -2.000
 5378.00    1.16019   0.96482   -2.000
 5379.00    1.20145   0.95619   -2.000
 5380.00    1.07607   0.94768   -2.000
 5381.00    0.87665   0.94379   -2.000
 5382.00    0.84717   0.94698   -2.000
 5383.00    0.88258   0.95411    0.008
 5384.00    0.86138   0.95857    0.008
 5385.00    0.82183   0.95589    0.008
 5386.00    0.83653   0.94572    0.008
 5387.00    0.86596   0.93098    0.008
 5388.00    0.81150   0.91646    0.008
 5389.00    0.73837   0.90616    0.008
 5390.00    0.81308   0.90064    0.008
 5391.00    0.91406   0.89751    0.008
 5392.00    0.74339   0.89270    0.008
 5393.00    0.53586   0.88184    0.008
 5394.00    0.46497   0.86635    0.008
 5395.00    0.40727   0.85762    0.008
 5396.00    0.59001   0.86543    0.008
 5397.00    0.78721   0.88483    0.008
 5398.00    0.69951   0.90305    0.008
 5399.00    0.60527   0.91236    0.008
 5400.00    0.65703   0.90862    0.008
 5401.00    0.70973   0.88819    0.008
 5402.00    0.78647   0.85577    0.008
 5403.00    0.85327   0.82814    0.008
 5404.00    0.78532   0.82126    0.008
 5405.00    0.71795   0.83375    0.008
 5406.00    0.65575   0.84951    0.008
 5407.00    0.60679   0.85809    0.008
 5408.00    0.64531   0.86580    0.008
 5409.00    0.67442   0.88254    0.008
 5410.00    0.65508   0.90569    0.008
 5411.00    0.64456   0.92430    0.008
 5412.00    0.67065   0.93407    0.008
 5413.00    0.66406   0.94077    0.008
 5414.00    0.54527   0.94963    0.008
 5415.00    0.51558   0.95754    0.008
 5416.00    0.74368   0.95819    0.008
 5417.00    0.88838   0.95081    0.008
 5418.00    0.82715   0.94151    0.008
 5419.00    0.79618   0.93583    0.008
 5420.00    0.82962   0.93188    0.008
 5421.00    0.85785   0.92551    0.008
 5422.00    0.87646   0.92097    0.008
 5423.00    0.91243   0.92642    0.008
 5424.00    0.97648   0.93883    0.008
 5425.00    0.99034   0.94214    0.008
 5426.00    0.93308   0.92495    0.008
 5427.00    0.91819   0.89718    0.008
 5428.00    0.95615   0.88006    0.008
 5429.00    0.90433   0.87935    0.008
 5430.00    0.75383   0.88143    0.008
 5431.00    0.72357   0.87548    0.008
 5432.00    0.80988   0.86605    0.008
 5433.00    0.87203   0.86478    0.008
 5434.00    0.91350   0.87831    0.008
 5435.00    0.93363   0.90457    0.008
 5436.00    0.93768   0.93540    0.008
 5437.00    0.90109   0.96148    0.008
 5438.00    0.83761   0.97752    0.008
 5439.00    0.78306   0.98372    0.008
 5440.00    0.73368   0.98184    0.008
 5441.00    0.75402   0.97031    0.008
 5442.00    0.80956   0.94542    0.008
 5443.00    0.73236   0.90923    0.008
 5444.00    0.59714   0.87562    0.008
 5445.00    0.64185   0.86333    0.008
 5446.00    0.75404   0.87817    0.008
 5447.00    0.79542   0.90649    0.008
 5448.00    0.81426   0.92938    0.008
 5449.00    0.71643   0.93744    0.008
 5450.00    0.58759   0.93063    0.008
 5451.00    0.67806   0.91156    0.008
 5452.00    0.81625   0.88551    0.008
 5453.00    0.74561   0.86542    0.008
 5454.00    0.63890   0.86616    0.008
 5455.00    0.61777   0.88864    0.008
 5456.00    0.60787   0.91668    0.008
 5457.00    0.73634   0.93261    0.008
 5458.00    0.87759   0.93070    0.008
 5459.00    0.81857   0.91632    0.008
 5460.00    0.74829   0.89927    0.008
 5461.00    0.69121   0.88984    0.008
 5462.00    0.63441   0.89310    0.008
 5463.00    0.57546   0.90424    0.008
 5464.00    0.51934   0.91486    0.008
 5465.00    0.52966   0.92139    0.008
 5466.00    0.54091   0.92336    0.008
 5467.00    0.56424   0.92022    0.008
 5468.00    0.59407   0.91360    0.008
 5469.00    0.68027   0.90661    0.008
 5470.00    0.74710   0.89942    0.008
 5471.00    0.68973   0.89011    0.008
 5472.00    0.62705   0.87756    0.008
 5473.00    0.53777   0.86121    0.008
 5474.00    0.46828   0.84568    0.008
 5475.00    0.47913   0.84268    0.008
 5476.00    0.46683   0.85633    0.008
 5477.00    0.37667   0.87328    0.008
 5478.00    0.34826   0.87840   -2.000
 5479.00    0.49525   0.87389   -2.000
 5480.00    0.60633   0.87416   -2.000
 5481.00    0.63021   0.88697   -2.000
 5482.00    0.62150   0.90622   -2.000
 5483.00    0.54447   0.91921   -2.000
 5484.00    0.11003   0.91820   -2.000
 5485.00   -0.97532   0.90764   -2.000
 5486.00   -2.07520   0.89916   -2.000
 5487.00   -3.19820   0.89906   -2.000
 5488.00   -3.88937   0.90473   -2.000
 5489.00   -3.97726   0.91086   -2.000
 5490.00   -2.37349   0.91344   -2.000
 5491.00    1.31001   0.91210   -2.000
 5492.00    3.31377   0.91021   -2.000
 5493.00    3.49720   0.90905   -2.000
 5494.00    3.08897   0.90666   -2.000
 5495.00    2.11516   0.90464   -2.000
 5496.00    1.36295   0.90765   -2.000
 5497.00    0.79751   0.91318   -2.000
 5498.00    0.59202   0.91234   -2.000
 5499.00    0.65367   0.90321   -2.000
 5500.00    0.68784   0.89353   -2.000
 5501.00    0.70411   0.88909   -2.000
 5502.00    0.73374   0.88713    0.008
 5503.00    0.77100   0.88279    0.008
 5504.00    0.75518   0.87823    0.008
 5505.00    0.71298   0.88037    0.008
 5506.00    0.70951   0.88923    0.008
 5507.00    0.72269   0.89576    0.008
 5508.00    0.72606   0.89245    0.008
 5509.00    0.72582   0.87967    0.008
 5510.00    0.67117   0.86452    0.008
 5511.00    0.59954   0.85598    0.008
 5512.00    0.63984   0.85825    0.008
 5513.00    0.70927   0.86932    0.008
 5514.00    0.65720   0.88510    0.008
 5515.00    0.57933   0.90271    0.008
 5516.00    0.75611   0.91921    0.008
 5517.00    0.97565   0.93026    0.008
 5518.00    0.85592   0.93375    0.008
 5519.00    0.69323   0.93221    0.008
 5520.00    0.68446   0.92936    0.008
 5521.00    0.68927   0.92611    0.008
 5522.00    0.68918   0.92021    0.008
 5523.00    0.68884   0.90875    0.008
 5524.00    0.71092   0.89140    0.008
 5525.00    0.73196   0.87296    0.008
 5526.00    0.64372   0.86302    0.008
 5527.00    0.55615   0.86868    0.008
 5528.00    0.48319   0.88534    0.008
 5529.00    0.42297   0.90049    0.008
 5530.00    0.51806   0.90638    0.008
 5531.00    0.60457   0.90410    0.008
 5532.00    0.61954   0.89860    0.007
 5533.00    0.63549   0.89484    0.007
 5534.00    0.65755   0.89574    0.007
 5535.00    0.68597   0.90042    0.007
 5536.00    0.74553   0.90717    0.007
 5537.00    0.77552   0.91583    0.007
 5538.00    0.68814   0.92438    0.008
 5539.00    0.64646   0.92802    0.008
 5540.00    0.75557   0.92415    0.008
 5541.00    0.81789   0.91618    0.008
 5542.00    0.74972   0.91011    0.008
 5543.00    0.67561   0.90857    0.009
 5544.00    0.58731   0.91144    0.022
 5545.00    0.54991   0.91896   -1.000
 5546.00    0.61742   0.92948   -1.000
 5547.00    0.67550   0.93837   -1.000
 5548.00    0.71665   0.94196   -1.000
 5549.00    0.76613   0.93937   -1.000
 5550.00    0.82866   0.93130   -1.000
 5551.00    0.83631   0.92054    0.036
 5552.00    0.76840   0.91199    0.011
 5553.00    0.71270   0.90898    0.008
 5554.00    0.67182   0.91003    0.008
 5555.00    0.63496   0.91145    0.008
 5556.00    0.60238   0.91205    0.008
 5557.00    0.58745   0.91201    0.008
 5558.00    0.58916   0.91002    0.008
 5559.00    0.68157   0.90469    0.008
 5560.00    0.84933   0.89693    0.008
 5561.00    0.82340   0.88972    0.008
 5562.00    0.65577   0.88488    0.008
 5563.00    0.57832   0.88116    0.008
 5564.00    0.55881   0.87789    0.008
 5565.00    0.62401   0.87612    0.008
 5566.00    0.73681   0.87585    0.008
 5567.00    0.71389   0.87665    0.008
 5568.00    0.62462   0.87882    0.008
 5569.00    0.62003   0.88048    0.008
 5570.00    0.65123   0.87933    0.007
 5571.00    0.62146   0.87944    0.007
 5572.00    0.56964   0.88521    0.007
 5573.00    0.54669   0.89306    0.007
 5574.00    0.53259   0.89850    0.007
 5575.00    0.55935   0.90198    0.008
 5576.00    0.59652   0.90441    0.008
 5577.00    0.66110   0.90584    0.008
 5578.00    0.73137   0.90603    0.007
 5579.00    0.67944   0.90393    0.007
 5580.00    0.60759   0.89976    0.007
 5581.00    0.55663   0.89389    0.007
 5582.00    0.50822   0.88330    0.007
 5583.00    0.63230   0.86469    0.008
 5584.00    0.77086   0.84002    0.008
 5585.00    0.73684   0.81742    0.008
 5586.00    0.69446   0.80607    0.008
 5587.00    0.71160   0.80917    0.008
 5588.00    0.72798   0.82239    0.008
 5589.00    0.64609   0.83739    0.008
 5590.00    0.56532   0.84768    0.008
 5591.00    0.50696   0.85353    0.008
 5592.00    0.46331   0.86032    0.008
 5593.00    0.59037   0.87142    0.008
 5594.00    0.70107   0.88157    0.008
 5595.00    0.68031   0.88141    0.008
 5596.00    0.67326   0.87028    0.008
 5597.00    0.74899   0.85618    0.008
 5598.00    0.81132   0.84448    0.008
 5599.00    0.80977   0.83636    0.008
 5600.00    0.78898   0.83533    0.008
 5601.00    0.69348   0.84642    0.008
 5602.00    0.61129   0.86932    0.008
 5603.00    0.57214   0.89558    0.008
 5604.00    0.59544   0.91559    0.008
 5605.00    0.78978   0.92560    0.008
 5606.00    0.91109   0.92795    0.008
 5607.00    0.86103   0.92732    0.008
 5608.00    0.80151   0.92703    0.008
 5609.00    0.72280   0.92668    0.008
 5610.00    0.65396   0.92104    0.008
 5611.00    0.60256   0.90337    0.008
 5612.00    0.58921   0.87383    0.008
 5613.00    0.63463   0.84538    0.007
 5614.00    0.68322   0.83472    0.007
 5615.00    0.73609   0.84362    0.007
 5616.00    0.75173   0.85880    0.007
 5617.00    0.72286   0.86995    0.007
 5618.00    0.65323   0.87716    0.007
 5619.00    0.54064   0.88204    0.007
 5620.00    0.53133   0.88085    0.007
 5621.00    0.61801   0.86981    0.007
 5622.00    0.64089   0.85418    0.007
 5623.00    0.61150   0.84611    0.007
 5624.00    0.60584   0.85182    0.007
 5625.00    0.61727   0.86642    0.007
 5626.00    0.67266   0.88270    0.007
 5627.00    0.75585   0.89706    0.007
 5628.00    0.78752   0.90723    0.007
 5629.00    0.79067   0.91130    0.007
 5630.00    0.80968   0.90917    0.007
 5631.00    0.83632   0.90238    0.007
 5632.00    0.78644   0.89289    0.007
 5633.00    0.70477   0.88243    0.008
 5634.00    0.65606   0.87285    0.007
 5635.00    0.61906   0.86659    0.007
 5636.00    0.65204   0.86513    0.007
 5637.00    0.70602   0.86622    0.007
 5638.00    0.73844   0.86575    0.007
 5639.00    0.76549   0.86341    0.007
 5640.00    0.76387   0.86298    0.007
 5641.00    0.75645   0.86630    0.007
 5642.00    0.79065   0.87163    0.007
 5643.00    0.83144   0.87715    0.008
 5644.00    0.83841   0.88173    0.008
 5645.00    0.84140   0.88435    0.008
 5646.00    0.74896   0.88449    0.007
 5647.00    0.64890   0.88362    0.007
 5648.00    0.73622   0.88484    0.007
 5649.00    0.83188   0.88907    0.007
 5650.00    0.75810   0.89262    0.007
 5651.00    0.68351   0.89074    0.007
 5652.00    0.66336   0.88303    0.007
 5653.00    0.64394   0.87283    0.007
 5654.00    0.63804   0.86092    0.007
 5655.00    0.62644   0.84516    0.007
 5656.00    0.55184   0.82963    0.007
 5657.00    0.50649   0.82458    0.007
 5658.00    0.68807   0.83153    0.007
 5659.00    0.84278   0.84073    0.007
 5660.00    0.83970   0.84668    0.007
 5661.00    0.82314   0.85356    0.007
 5662.00    0.74387   0.86401    0.007
 5663.00    0.68855   0.87318    0.007
 5664.00    0.72427   0.87550    0.007
 5665.00    0.72829   0.87181    0.007
 5666.00    0.63172   0.86792    0.007
 5667.00    0.59752   0.86820    0.007
 5668.00    0.73110   0.87318    0.007
 5669.00    0.83597   0.88191    0.007
 5670.00    0.87458   0.89278    0.007
 5671.00    0.87607   0.90231    0.007
 5672.00    0.80343   0.90710    0.007
 5673.00    0.69946   0.90770    0.007
 5674.00    0.54102   0.90731    0.007
 5675.00    0.45595   0.90656    0.007
 5676.00    0.48258   0.90350    0.007
 5677.00    0.54450   0.89774    0.008
 5678.00    0.65363   0.89011    0.008
 5679.00    0.70245   0.88063    0.008
 5680.00    0.68024   0.87077    0.008
 5681.00    0.65106   0.86483    0.008
 5682.00    0.61465   0.86440    0.008
 5683.00    0.57532   0.86507    0.007
 5684.00    0.53332   0.86232    0.007
 5685.00    0.51947   0.85780    0.007
 5686.00    0.52835   0.85732    0.007
 5687.00    0.53422   0.86417    0.007
 5688.00    0.53795   0.87627    0.007
 5689.00    0.59115   0.88870    0.007
 5690.00    0.67521   0.89756    0.007
 5691.00    0.67977   0.90122    0.007
 5692.00    0.64101   0.90043    0.007
 5693.00    0.62003   0.89739    0.007
 5694.00    0.60745   0.89275    0.007
 5695.00    0.63076   0.88511    0.007
 5696.00    0.66872   0.87445    0.007
 5697.00    0.59813   0.86346    0.007
 5698.00    0.48967   0.85431    0.007
 5699.00    0.49753   0.84813    0.007
 5700.00    0.53960   0.84696    0.007
 5701.00    0.64337   0.85073    0.007
 5702.00    0.76218   0.85425    0.007
 5703.00    0.85328   0.85120    0.007
 5704.00    0.93893   0.84030    0.007
 5705.00    0.82500   0.82573    0.007
 5706.00    0.68041   0.81267    0.007
 5707.00    0.60918   0.80503    0.007
 5708.00    0.54627   0.80501    0.007
 5709.00    0.59814   0.81231    0.007
 5710.00    0.65871   0.82598    0.007
 5711.00    0.70214   0.84444    0.007
 5712.00    0.74487   0.86278    0.007
 5713.00    0.70331   0.87615    0.007
 5714.00    0.66150   0.88401    0.007
 5715.00    0.63654   0.88844    0.007
 5716.00    0.61051   0.89202    0.007
 5717.00    0.56612   0.89670    0.007
 5718.00    0.53450   0.90254    0.007
 5719.00    0.63785   0.90853    0.007
 5720.00    0.73281   0.91345    0.007
 5721.00    0.76488   0.91536    0.007
 5722.00    0.77611   0.91257    0.007
 5723.00    0.66839   0.90504    0.007
 5724.00    0.58018   0.89524    0.007
 5725.00    0.58056   0.88793    0.007
 5726.00    0.61241   0.88658    0.007
 5727.00    0.76138   0.88852    0.007
 5728.00    0.86190   0.88809    0.007
 5729.00    0.81162   0.88511    0.007
 5730.00    0.75735   0.88519    0.007
 5731.00    0.69252   0.89109    0.007
 5732.00    0.66989   0.89867    0.007
 5733.00    0.74302   0.90267    0.007
 5734.00    0.76183   0.90192    0.007
 5735.00    0.67388   0.89877    0.007
 5736.00    0.59552   0.89595    0.007
 5737.00    0.53357   0.89433    0.007
 5738.00    0.55193   0.89321    0.007
 5739.00    0.69076   0.89185    0.007
 5740.00    0.72895   0.89080    0.000
 5741.00    0.63446   0.89193    0.000
 5742.00    0.59563   0.89592    0.000
 5743.00    0.62146   0.89956    0.000
 5744.00    0.65275   0.89810    0.000
 5745.00    0.68962   0.89133    0.000
 5746.00    0.77048   0.88515    0.000
 5747.00    0.89108   0.88475    0.000
 5748.00    0.92671   0.88702    0.000
 5749.00    0.89472   0.88379    0.000
 5750.00    0.92670   0.87231    0.000
 5751.00    1.00348   0.85946    0.000
 5752.00    0.95365   0.85555    0.000
 5753.00    0.82604   0.86472    0.000
 5754.00    0.74665   0.88110    0.000
 5755.00    0.69311   0.89437    0.000
 5756.00    0.71808   0.89772    0.000
 5757.00    0.77962   0.89033    0.000
 5758.00    0.78261   0.87599    0.000
 5759.00    0.76210   0.86145    0.000
 5760.00    0.76636   0.85421    0.000
 5761.00    0.77909   0.85898    0.000
 5762.00    0.72140   0.87401    0.000
 5763.00    0.64342   0.89127    0.000
 5764.00    0.65089   0.90322    0.000
 5765.00    0.67871   0.90819    0.000
 5766.00    0.71307   0.90817    0.000
 5767.00    0.74868   0.90515    0.000
 5768.00    0.76712   0.90044    0.000
 5769.00    0.78299   0.89491    0.000
 5770.00    0.73430   0.88949    0.000
 5771.00    0.67856   0.88549    0.000
 5772.00    0.60737   0.88381    0.000
 5773.00    0.53508   0.88475    0.000
 5774.00    0.50262   0.88736    0.000
 5775.00    0.47162   0.88813    0.000
 5776.00    0.63342   0.88236    0.000
 5777.00    0.79093   0.86774    0.000
 5778.00    0.76543   0.84702    0.000
 5779.00    0.74133   0.82755    0.000
 5780.00    0.73989   0.81611    0.000
 5781.00    0.73508   0.81294    0.000
 5782.00    0.69624   0.81407    0.000
 5783.00    0.65538   0.81857    0.000
 5784.00    0.59988   0.82893    0.000
 5785.00    0.56752   0.84406    0.000
 5786.00    0.66365   0.85760    0.000
 5787.00    0.73322   0.86439    0.000
 5788.00    0.68498   0.86496    0.000
 5789.00    0.64760   0.86464    0.000
 5790.00    0.64976   0.86888    0.000
 5791.00    0.64192   0.87768   -2.000
 5792.00    0.60352   0.88611   -2.000
 5793.00    0.57480   0.88922   -2.000
 5794.00    0.57119   0.88562   -2.000
 5795.00    0.58548   0.87939   -2.000
 5796.00    0.63973   0.87818   -2.000
 5797.00    0.69338   0.88597   -2.000
 5798.00    0.74585   0.89835   -2.000
 5799.00    0.79678   0.90703   -2.000
 5800.00    0.84512   0.90718   -2.000
 5801.00    0.90051   0.89934   -2.000
 5802.00    0.96632   0.88806   -2.000
 5803.00    0.97488   0.87949   -2.000
 5804.00    0.90902   0.87695   -2.000
 5805.00    0.85738   0.87927   -2.000
 5806.00    0.82201   0.88360   -2.000
 5807.00    0.78401   0.88812   -2.000
 5808.00    0.74335   0.89223   -2.000
 5809.00    0.68780   0.89501   -2.000
 5810.00    0.61899   0.89488   -2.000
 5811.00    0.58210   0.89070    0.000
 5812.00    0.57025   0.88297    0.000
 5813.00    0.55300   0.87483    0.000
 5814.00    0.53201   0.87149    0.000
 5815.00    0.54324   0.87643    0.000
 5816.00    0.57395   0.88756    0.000
 5817.00    0.64353   0.89862    0.000
 5818.00    0.73363   0.90481    0.000
 5819.00    0.69889   0.90564    0.000
 5820.00    0.60693   0.90333    0.000
 5821.00    0.62601   0.90071    0.000
 5822.00    0.68889   0.89965    0.000
 5823.00    0.70248   0.90014    0.000
 5824.00    0.69950   0.90096    0.000
 5825.00    0.74099   0.90156    0.000
 5826.00    0.79503   0.90237    0.000
 5827.00    0.77059   0.90327    0.000
 5828.00    0.72788   0.90326    0.000
 5829.00    0.66001   0.90157    0.000
 5830.00    0.58742   0.89845    0.000
 5831.00    0.64336   0.89465    0.000
 5832.00    0.71784   0.89109    0.000
 5833.00    0.73487   0.88900    0.000
 5834.00    0.74588   0.88870    0.000
 5835.00    0.72975   0.88895    0.000
 5836.00    0.71179   0.88939    0.000
 5837.00    0.66624   0.89185    0.000
 5838.00    0.61978   0.89721    0.000
 5839.00    0.71735   0.90313    0.000
 5840.00    0.80868   0.90644    0.000
 5841.00    0.70010   0.90563    0.000
 5842.00    0.60192   0.90081    0.000
 5843.00    0.66099   0.89310    0.000
 5844.00    0.71628   0.88460    0.000
 5845.00    0.73496   0.87791    0.000
 5846.00    0.76273   0.87476    0.000
 5847.00    0.85425   0.87414    0.000
 5848.00    0.93788   0.87250    0.000
 5849.00    0.97893   0.86695    0.000
 5850.00    0.99149   0.85824    0.000
 5851.00    0.88062   0.85007    0.000
 5852.00    0.77463   0.84487    0.000
 5853.00    0.68605   0.84055    0.000
 5854.00    0.61816   0.83369    0.000
 5855.00    0.61223   0.82585    0.000
 5856.00    0.62888   0.82345    0.000
 5857.00    0.70312   0.82974    0.000
 5858.00    0.76181   0.84060    0.000
 5859.00    0.78640   0.84968    0.000
 5860.00    0.78852   0.85454    0.000
 5861.00    0.74784   0.85677    0.000
 5862.00    0.70893   0.85789    0.000
 5863.00    0.67296   0.85745    0.000
 5864.00    0.64426   0.85588    0.000
 5865.00    0.62614   0.85653    0.000
 5866.00    0.60730   0.86199    0.000
 5867.00    0.58752   0.87010    0.000
 5868.00    0.59621   0.87617    0.000
 5869.00    0.63701   0.87776    0.000
 5870.00    0.63837   0.87602    0.000
 5871.00    0.60047   0.87373    0.000
 5872.00    0.58738   0.87258    0.000
 5873.00    0.59608   0.87171    0.000
 5874.00    0.62045   0.86896    0.000
 5875.00    0.65694   0.86347    0.000
 5876.00    0.69223   0.85621    0.000
 5877.00    0.72670   0.84903    0.000
 5878.00    0.72140   0.84409    0.000
 5879.00    0.69240   0.84251    0.000
 5880.00    0.65731   0.84293    0.000
 5881.00    0.61907   0.84261    0.000
 5882.00    0.65939   0.84020    0.000
 5883.00    0.73513   0.83421    0.000
 5884.00    0.71535   0.81836    0.000
 5885.00    0.65853   0.78406    0.000
 5886.00    0.62955   0.73160    0.000
 5887.00    0.60974   0.67770    0.000
 5888.00    0.59556   0.64772    0.000
 5889.00    0.58294   0.65450    0.000
 5890.00    0.63854   0.68331    0.000
 5891.00    0.70965   0.70498    0.000
 5892.00    0.76031   0.70424    0.000
 5893.00    0.80726   0.69005    0.000
 5894.00    0.75902   0.68429    0.000
 5895.00    0.69749   0.70222    0.000
 5896.00    0.66357   0.73832    0.000
 5897.00    0.63242   0.77507    0.000
 5898.00    0.62734   0.80251    0.000
 5899.00    0.62393   0.82066    0.000
 5900.00    0.61806   0.83150    0.000
 5901.00    0.61234   0.83671    0.006
 5902.00    0.67970   0.83836    0.006
 5903.00    0.74121   0.83860    0.006
 5904.00    0.63800   0.83950    0.006
 5905.00    0.54071   0.84223    0.006
 5906.00    0.52776   0.84601    0.006
 5907.00    0.51721   0.84920    0.006
 5908.00    0.52897   0.85088    0.006
 5909.00    0.53876   0.85003    0.006
 5910.00    0.53522   0.84490    0.006
 5911.00    0.54161   0.83533    0.006
 5912.00    0.60030   0.82506    0.006
 5913.00    0.65376   0.81963    0.006
 5914.00    0.68506   0.82144    0.006
 5915.00    0.70941   0.82847    0.006
 5916.00    0.70949   0.83693    0.006
 5917.00    0.68526   0.84349    0.006
 5918.00    0.58955   0.84668    0.006
 5919.00    0.53665   0.84698    0.006
 5920.00    0.59109   0.84625    0.006
 5921.00    0.64658   0.84683    0.006
 5922.00    0.70436   0.84939    0.006
 5923.00    0.73038   0.85207    0.006
 5924.00    0.69688   0.85232    0.006
 5925.00    0.68821   0.84866    0.006
 5926.00    0.72021   0.84194    0.006
 5927.00    0.74305   0.83589    0.006
 5928.00    0.75274   0.83435    0.006
 5929.00    0.74323   0.83765    0.006
 5930.00    0.70949   0.84167    0.006
 5931.00    0.69859   0.84197    0.006
 5932.00    0.71313   0.83924    0.006
 5933.00    0.72747   0.83819    0.006
 5934.00    0.74161   0.84166    0.006
 5935.00    0.76212   0.84748    0.006
 5936.00    0.78814   0.85115    0.006
 5937.00    0.76704   0.85011    0.006
 5938.00    0.71002   0.84488    0.006
 5939.00    0.64668   0.83864    0.006
 5940.00    0.57911   0.83595    0.006
 5941.00    0.58710   0.83884    0.006
 5942.00    0.63944   0.84499    0.006
 5943.00    0.63823   0.84999    0.006
 5944.00    0.60961   0.85026    0.006
 5945.00    0.63520   0.84509    0.006
 5946.00    0.68483   0.83771    0.006
 5947.00    0.71196   0.83279    0.006
 5948.00    0.73053   0.83192    0.006
 5949.00    0.74747   0.83248    0.006
 5950.00    0.76389   0.83177    0.006
 5951.00    0.69525   0.83065    0.006
 5952.00    0.60357   0.83102    0.006
 5953.00    0.59591   0.83175    0.006
 5954.00    0.60692   0.83077    0.006
 5955.00    0.63421   0.82965    0.006
 5956.00    0.66438   0.83200    0.006
 5957.00    0.64133   0.83868    0.006
 5958.00    0.61109   0.84710    0.006
 5959.00    0.57059   0.85392    0.006
 5960.00    0.52910   0.85709    0.006
 5961.00    0.58967   0.85633    0.006
 5962.00    0.65634   0.85299    0.006
 5963.00    0.65949   0.84951    0.006
 5964.00    0.66105   0.84827    0.006
 5965.00    0.66885   0.85041    0.006
 5966.00    0.67730   0.85488    0.006
 5967.00    0.70223   0.85946    0.006
 5968.00    0.72043   0.86282    0.006
 5969.00    0.64807   0.86443    0.006
 5970.00    0.58590   0.86354    0.006
 5971.00    0.61495   0.85924    0.006
 5972.00    0.63645   0.85124    0.006
 5973.00    0.60826   0.84085    0.006
 5974.00    0.58684   0.83130    0.006
 5975.00    0.60015   0.82641    0.006
 5976.00    0.62180   0.82787    0.006
 5977.00    0.67800   0.83379    0.006
 5978.00    0.72352   0.83967    0.006
 5979.00    0.73246   0.84048    0.006
 5980.00    0.74214   0.83409    0.006
 5981.00    0.75394   0.82375    0.006
 5982.00    0.75742   0.81586    0.006
 5983.00    0.74040   0.81507    0.006
 5984.00    0.70618   0.82097    0.006
 5985.00    0.63543   0.82910    0.006
 5986.00    0.61651   0.83566    0.006
 5987.00    0.69324   0.83953    0.006
 5988.00    0.75398   0.84108    0.006
 5989.00    0.78893   0.84189    0.006
 5990.00    0.79118   0.84415    0.006
 5991.00    0.74718   0.84823    0.006
 5992.00    0.72558   0.85105    0.006
 5993.00    0.73188   0.84894    0.006
 5994.00    0.72431   0.84208    0.006
 5995.00    0.70152   0.83441    0.006
 5996.00    0.72159   0.83013    0.006
 5997.00    0.78313   0.83038    0.006
 5998.00    0.76649   0.83239    0.006
 5999.00    0.68313   0.83271    0.006
 6000.00    0.62816   0.83087    0.006
 6001.00    0.59454   0.82873    0.006
 6002.00    0.59678   0.82740    0.006
 6003.00    0.62270   0.82494    0.006
 6004.00    0.62032   0.81908    0.006
 6005.00    0.60159   0.81242    0.006
 6006.00    0.61156   0.81056    0.006
 6007.00    0.63599   0.81585    0.006
 6008.00    0.65391   0.82429    0.006
 6009.00    0.66899   0.82878    0.006
 6010.00    0.72055   0.82678    0.006
 6011.00    0.78576   0.82210    0.006
 6012.00    0.75766   0.81894    0.006
 6013.00    0.69993   0.81803    0.006
 6014.00    0.66098   0.81761    0.006
 6015.00    0.62701   0.81643    0.006
 6016.00    0.61047   0.81461    0.006
 6017.00    0.59770   0.81211    0.006
 6018.00    0.61017   0.80944    0.006
 6019.00    0.62698   0.80869    0.006
 6020.00    0.66946   0.81110    0.006
 6021.00    0.71529   0.81593    0.006
 6022.00    0.73116   0.82166    0.006
 6023.00    0.74427   0.82722    0.006
 6024.00    0.81191   0.83235    0.006
 6025.00    0.88259   0.83691    0.006
 6026.00    0.85765   0.84116    0.006
 6027.00    0.83018   0.84517    0.006
 6028.00    0.75843   0.84825    0.006
 6029.00    0.68931   0.85046    0.006
 6030.00    0.68096   0.85260    0.006
 6031.00    0.67823   0.85470    0.006
 6032.00    0.74711   0.85599    0.006
 6033.00    0.81330   0.85625    0.006
 6034.00    0.85628   0.85583    0.006
 6035.00    0.88770   0.85463    0.006
 6036.00    0.84534   0.85229    0.006
 6037.00    0.80675   0.84909    0.006
 6038.00    0.78694   0.84617    0.006
 6039.00    0.77574   0.84526    0.006
 6040.00    0.79935   0.84713    0.006
 6041.00    0.84020   0.85096    0.006
 6042.00    0.93889   0.85533    0.006
 6043.00    1.02946   0.85862    0.007
 6044.00    1.09704   0.86013    0.007
 6045.00    1.13594   0.86037    0.007
 6046.00    1.10536   0.86014    0.007
 6047.00    1.05220   0.85986    0.007
 6048.00    0.95182   0.85923    0.006
 6049.00    0.85056   0.85722    0.006
 6050.00    0.74773   0.85299    0.006
 6051.00    0.69023   0.84696    0.006
 6052.00    0.70476   0.84054    0.006
 6053.00    0.74375   0.83540    0.006
 6054.00    0.81683   0.83288    0.006
 6055.00    0.83087   0.83391    0.006
 6056.00    0.77247   0.83816    0.006
 6057.00    0.72140   0.84328    0.006
 6058.00    0.67828   0.84608    0.006
 6059.00    0.66260   0.84437    0.006
 6060.00    0.67309   0.83782    0.006
 6061.00    0.67634   0.82796    0.006
 6062.00    0.67349   0.81908    0.006
 6063.00    0.65355   0.81643    0.006
 6064.00    0.62095   0.82255    0.006
 6065.00    0.65988   0.83544    0.006
 6066.00    0.74535   0.84889    0.006
 6067.00    0.77895   0.85785    0.006
 6068.00    0.78301   0.86209    0.006
 6069.00    0.74946   0.86373    0.006
 6070.00    0.69725   0.86426    0.006
 6071.00    0.70720   0.86389    0.006
 6072.00    0.74379   0.86196    0.006
 6073.00    0.74576   0.85759    0.006
 6074.00    0.73499   0.85021    0.006
 6075.00    0.71636   0.84089    0.006
 6076.00    0.69529   0.83223    0.006
 6077.00    0.67455   0.82596    0.006
 6078.00    0.65390   0.82216    0.006
 6079.00    0.65630   0.81981    0.006
 6080.00    0.66358   0.81818    0.006
 6081.00    0.67835   0.81783    0.006
 6082.00    0.69436   0.81907    0.006
 6083.00    0.70371   0.82101    0.006
 6084.00    0.71222   0.82303    0.006
 6085.00    0.73552   0.82446    0.006
 6086.00    0.76011   0.82364    0.006
 6087.00    0.78325   0.81995    0.006
 6088.00    0.80631   0.81514    0.006
 6089.00    0.69877   0.81235    0.006
 6090.00    0.59022   0.81376    0.006
 6091.00    0.58139   0.81883    0.006
 6092.00    0.57266   0.82528    0.006
 6093.00    0.56577   0.83074    0.006
 6094.00    0.56151   0.83364    0.006
 6095.00    0.58910   0.83432    0.006
 6096.00    0.61802   0.83416    0.006
 6097.00    0.65800   0.83171    0.006
 6098.00    0.68714   0.82254    0.006
 6099.00    0.64903   0.80635    0.006
 6100.00    0.60840   0.79077    0.006
 6101.00    0.55545   0.78532    0.006
 6102.00    0.52035   0.79335    0.006
 6103.00    0.55590   0.80809    0.006
 6104.00    0.58578   0.81945    0.006
 6105.00    0.59701   0.82474    0.006
 6106.00    0.60796   0.82700    0.006
 6107.00    0.61810   0.82847    0.006
 6108.00    0.63925   0.82962    0.006
 6109.00    0.68662   0.83049    0.006
 6110.00    0.71609   0.83208    0.006
 6111.00    0.70873   0.83492    0.006
 6112.00    0.69940   0.83677    0.006
 6113.00    0.68656   0.83566    0.006
 6114.00    0.69854   0.83236    0.006
 6115.00    0.74940   0.82800    0.006
 6116.00    0.76556   0.82206    0.006
 6117.00    0.73405   0.81221    0.006
 6118.00    0.69989   0.79828    0.006
 6119.00    0.66255   0.78607    0.006
 6120.00    0.65040   0.78237    0.006
 6121.00    0.66515   0.78853    0.006
 6122.00    0.68101   0.80002    0.006
 6123.00    0.69793   0.80908    0.006
 6124.00    0.71918   0.81162    0.006
 6125.00    0.74403   0.81069    0.006
 6126.00    0.78472   0.81111    0.006
 6127.00    0.83697   0.81501    0.006
 6128.00    0.83804   0.82141    0.006
 6129.00    0.80631   0.82709    0.006
 6130.00    0.74639   0.82788    0.006
 6131.00    0.67066   0.82029    0.006
 6132.00    0.67976   0.80259    0.006
 6133.00    0.73024   0.77730    0.006
 6134.00    0.74882   0.75433    0.006
 6135.00    0.75394   0.74559    0.006
 6136.00    0.73938   0.75507    0.006
 6137.00    0.71772   0.77484    0.006
 6138.00    0.74256   0.79188    0.006
 6139.00    0.78158   0.80072    0.006
 6140.00    0.80750   0.80596    0.006
 6141.00    0.83008   0.81328    0.006
 6142.00    0.82069   0.82214    0.006
 6143.00    0.80469   0.82764    0.006
 6144.00    0.77686   0.82695    0.006
 6145.00    0.74710   0.82128    0.006
 6146.00    0.76596   0.81368    0.006
 6147.00    0.79073   0.80751    0.006
 6148.00    0.83406   0.80536    0.006
 6149.00    0.87894   0.80717    0.006
 6150.00    0.84262   0.80995    0.006
 6151.00    0.80242   0.81040    0.006
 6152.00    0.75153   0.80799    0.006
 6153.00    0.70124   0.80447    0.006
 6154.00    0.69508   0.80184    0.006
 6155.00    0.68820   0.79933    0.006
 6156.00    0.66730   0.79247    0.006
 6157.00    0.64574   0.77683    0.006
 6158.00    0.61666   0.75268    0.006
 6159.00    0.59280   0.72706    0.006
 6160.00    0.61075   0.71096    0.006
 6161.00    0.62849   0.71153    0.006
 6162.00    0.64491   0.72596    0.006
 6163.00    0.65165   0.74443    0.006
 6164.00    0.61238   0.75742    0.006
 6165.00    0.57864   0.75996    0.006
 6166.00    0.56627   0.75394    0.006
 6167.00    0.56054   0.74667    0.006
 6168.00    0.57620   0.74590    0.006
 6169.00    0.57560   0.75426    0.006
 6170.00    0.53057   0.76694    0.006
 6171.00    0.49501   0.77676    0.006
 6172.00    0.48162   0.78128    0.006
 6173.00    0.49640   0.78290    0.006
 6174.00    0.56822   0.78429    0.006
 6175.00    0.63660   0.78659    0.006
 6176.00    0.69889   0.78977    0.006
 6177.00    0.76520   0.79334    0.006
 6178.00    0.83770   0.79662    0.006
 6179.00    0.86859   0.79958    0.006
 6180.00    0.84311   0.80219    0.006
 6181.00    0.78705   0.80284    0.006
 6182.00    0.69449   0.79983    0.006
 6183.00    0.59690   0.79328    0.006
 6184.00    0.49400   0.78467    0.006
 6185.00    0.45042   0.77571    0.006
 6186.00    0.46186   0.76715    0.006
 6187.00    0.50248   0.75790    0.006
 6188.00    0.56696   0.74871    0.006
 6189.00    0.61989   0.74419    0.006
 6190.00    0.66448   0.74856    0.006
 6191.00    0.71151   0.76163    0.006
 6192.00    0.76006   0.77756    0.006
 6193.00    0.77212   0.78945    0.006
 6194.00    0.76403   0.79465    0.006
 6195.00    0.61283   0.79300    0.006
 6196.00    0.39292   0.78604   -2.000
 6197.00   -0.18517   0.77827   -2.000
 6198.00   -0.91174   0.77521   -2.000
 6199.00   -1.15486   0.77925   -2.000
 6200.00   -1.22662   0.78752   -2.000
 6201.00   -0.58841   0.79494   -2.000
 6202.00    0.26227   0.79917   -2.000
 6203.00    1.04442   0.80105   -2.000
 6204.00    1.80955   0.80197   -2.000
 6205.00    1.81573   0.80212   -2.000
 6206.00    1.66908   0.80066   -2.000
 6207.00    1.33310   0.79688   -2.000
 6208.00    0.96725   0.79032    0.006
 6209.00    0.84102   0.78013    0.006
 6210.00    0.74287   0.76651    0.006
 6211.00    0.72632   0.75198    0.006
 6212.00    0.71624   0.74068    0.006
 6213.00    0.72851   0.73667    0.006
 6214.00    0.74177   0.73977    0.006
 6215.00    0.77544   0.74508    0.006
 6216.00    0.80845   0.74793    0.006
 6217.00    0.79901   0.74740    0.006
 6218.00    0.78780   0.74659    0.006
 6219.00    0.74436   0.74883    0.006
 6220.00    0.70360   0.75370    0.006
 6221.00    0.69233   0.75863    0.006
 6222.00    0.68731   0.76218    0.006
 6223.00    0.73051   0.76429    0.006
 6224.00    0.76420   0.76476    0.006
 6225.00    0.74231   0.76143    0.006
 6226.00    0.71587   0.75203    0.006
 6227.00    0.66836   0.73820    0.006
 6228.00    0.62628   0.72576    0.006
 6229.00    0.60474   0.72136    0.006
 6230.00    0.60207   0.72826    0.006
 6231.00    0.65908   0.74353    0.006
 6232.00    0.72144   0.75978    0.006
 6233.00    0.79818   0.77076    0.006
 6234.00    0.85446   0.77322    0.006
 6235.00    0.86364   0.76778    0.006
 6236.00    0.84824   0.75810    0.006
 6237.00    0.78388   0.74850    0.006
 6238.00    0.71947   0.74133    0.006
 6239.00    0.65497   0.73607    0.006
 6240.00    0.64514   0.73180    0.006
 6241.00    0.71838   0.72847    0.006
 6242.00    0.76196   0.72730    0.006
 6243.00    0.76593   0.73048    0.006
 6244.00    0.77427   0.73817    0.006
 6245.00    0.78773   0.74822    0.006
 6246.00    0.78773   0.75745    0.006
 6247.00    0.77379   0.76150    0.006
 6248.00    0.72587   0.75737    0.006
 6249.00    0.64688   0.74659    0.006
 6250.00    0.57887   0.73398    0.006
 6251.00    0.51973   0.72409    0.006
 6252.00    0.52893   0.71837    0.006
 6253.00    0.58660   0.71442    0.006
 6254.00    0.65005   0.70984    0.006
 6255.00    0.71709   0.70584    0.006
 6256.00    0.74308   0.70653    0.006
 6257.00    0.74676   0.71430    0.006
 6258.00    0.64817   0.72764    0.006
 6259.00    0.50126   0.74262    0.006
 6260.00    0.27279   0.75441    0.006
 6261.00    0.01109   0.76030    0.007
 6262.00    0.02333   0.76065    0.007
 6263.00    0.13090   0.75849    0.007
 6264.00    0.41831   0.75731    0.007
 6265.00    0.75847   0.75805    0.007
 6266.00    0.92334   0.75896    0.007
 6267.00    1.04563   0.75898    0.006
 6268.00    0.98141   0.75947    0.006
 6269.00    0.88058   0.76176    0.006
 6270.00    0.85416   0.76510    0.006
 6271.00    0.83913   0.76792    0.006
 6272.00    0.84241   0.76942    0.006
 6273.00    0.84776   0.76964    0.006
 6274.00    0.78739   0.76886    0.006
 6275.00    0.72207   0.76658    0.006
 6276.00    0.68466   0.76206    0.006
 6277.00    0.64836   0.75620    0.006
 6278.00    0.61845   0.75175    0.006
 6279.00    0.59064   0.75136    0.006
 6280.00    0.64634   0.75569    0.000
 6281.00    0.70196   0.76253    0.000
 6282.00    0.75640   0.76894    0.000
 6283.00    0.80557   0.77427    0.000
 6284.00    0.79942   0.77900    0.000
 6285.00    0.78733   0.78333    0.000
 6286.00    0.73092   0.78569    0.000
 6287.00    0.67739   0.78413    0.000
 6288.00    0.64026   0.77900    0.000
 6289.00    0.61612   0.77279    0.000
 6290.00    0.65083   0.76822    0.000
 6291.00    0.67949   0.76585    0.000
 6292.00    0.68567   0.76341    0.000
 6293.00    0.69018   0.75877    0.000
 6294.00    0.68954   0.75262    0.000
 6295.00    0.69616   0.74775    0.000
 6296.00    0.72195   0.74592    0.000
 6297.00    0.74040   0.74552    0.000
 6298.00    0.74220   0.74399    0.000
 6299.00    0.72548   0.74181    0.000
 6300.00    0.67245   0.74202    0.000
 6301.00    0.63232   0.74638    0.000
 6302.00    0.61423   0.75374    0.000
 6303.00    0.60553   0.76192    0.000
 6304.00    0.61087   0.76961    0.000
 6305.00    0.61669   0.77569    0.000
 6306.00    0.62314   0.77845    0.000
 6307.00    0.64516   0.77655    0.000
 6308.00    0.68523   0.77120    0.000
 6309.00    0.71562   0.76522    0.000
 6310.00    0.73613   0.76004    0.000
 6311.00    0.73466   0.75491    0.000
 6312.00    0.71338   0.74912    0.000
 6313.00    0.68653   0.74322    0.000
 6314.00    0.65525   0.73793    0.000
 6315.00    0.64281   0.73446    0.000
 6316.00    0.64353   0.73422    0.000
 6317.00    0.64602   0.73809    0.000
 6318.00    0.64959   0.74541    0.000
 6319.00    0.67975   0.75348    0.000
 6320.00    0.72415   0.76041    0.000
 6321.00    0.72194   0.76637    0.006
 6322.00    0.69806   0.77157    0.006
 6323.00    0.68354   0.77525    0.006
 6324.00    0.67276   0.77667    0.006
 6325.00    0.66649   0.77674    0.006
 6326.00    0.66176   0.77629    0.006
 6327.00    0.63752   0.77587    0.006
 6328.00    0.60767   0.77615    0.005
 6329.00    0.60962   0.77698    0.005
 6330.00    0.61911   0.77673    0.005
 6331.00    0.60801   0.77212    0.005
 6332.00    0.59298   0.76193    0.005
 6333.00    0.59169   0.75017    0.005
 6334.00    0.59245   0.74307    0.006
 6335.00    0.62708   0.74380    0.006
 6336.00    0.66539   0.75059    0.005
 6337.00    0.63740   0.75908    0.005
 6338.00    0.60468   0.76501    0.005
 6339.00    0.56001   0.76595    0.005
 6340.00    0.51491   0.76160    0.005
 6341.00    0.56310   0.75492    0.006
 6342.00    0.61052   0.75083    0.006
 6343.00    0.61839   0.75182    0.006
 6344.00    0.62608   0.75706    0.006
 6345.00    0.63087   0.76381    0.006
 6346.00    0.63602   0.76980    0.006
 6347.00    0.64480   0.77416    0.006
 6348.00    0.65734   0.77637    0.006
 6349.00    0.69696   0.77574    0.006
 6350.00    0.73330   0.77185    0.006
 6351.00    0.75141   0.76515    0.006
 6352.00    0.75807   0.75760    0.006
 6353.00    0.71401   0.75126    0.006
 6354.00    0.68270   0.74584    0.005
 6355.00    0.69777   0.73968    0.005
 6356.00    0.71058   0.73224    0.005
 6357.00    0.71655   0.72486    0.006
 6358.00    0.71726   0.71923    0.006
 6359.00    0.70436   0.71617    0.006
 6360.00    0.69883   0.71618    0.006
 6361.00    0.70972   0.72012    0.006
 6362.00    0.70563   0.72802    0.006
 6363.00    0.67261   0.73832    0.006
 6364.00    0.65746   0.74891    0.006
 6365.00    0.67240   0.75796    0.006
 6366.00    0.67133   0.76416    0.006
 6367.00    0.64666   0.76758    0.006
 6368.00    0.63683   0.76978    0.006
 6369.00    0.64625   0.77269    0.006
 6370.00    0.66383   0.77659    0.006
 6371.00    0.69076   0.77994    0.006
 6372.00    0.71131   0.78137    0.006
 6373.00    0.72544   0.78058    0.006
 6374.00    0.73621   0.77782    0.006
 6375.00    0.74399   0.77337    0.006
 6376.00    0.74673   0.76826    0.006
 6377.00    0.74553   0.76416    0.006
 6378.00    0.73465   0.76254    0.006
 6379.00    0.71712   0.76355    0.005
 6380.00    0.72737   0.76555    0.006
 6381.00    0.75440   0.76715    0.006
 6382.00    0.77557   0.76829    0.006
 6383.00    0.79364   0.76970    0.005
 6384.00    0.81482   0.77178    0.005
 6385.00    0.83743   0.77373    0.006
 6386.00    0.81853   0.77437    0.006
 6387.00    0.78329   0.77258    0.006
 6388.00    0.72163   0.76728    0.005
 6389.00    0.65111   0.75810    0.005
 6390.00    0.64053   0.74750    0.005
 6391.00    0.64684   0.74118    0.005
 6392.00    0.64030   0.74316    0.006
 6393.00    0.63078   0.75182    0.006
 6394.00    0.65294   0.76040    0.006
 6395.00    0.68100   0.76175    0.006
 6396.00    0.72067   0.75428    0.006
 6397.00    0.76202   0.74395    0.006
 6398.00    0.81616   0.74002    0.006
 6399.00    0.87163   0.74639    0.006
 6400.00    0.84777   0.75935    0.006
 6401.00    0.81859   0.77100    0.006
 6402.00    0.79572   0.77561    0.006
 6403.00    0.77305   0.77301    0.006
 6404.00    0.77435   0.76606    0.006
 6405.00    0.77331   0.75898    0.006
 6406.00    0.69960   0.75502    0.006
 6407.00    0.62685   0.75364    0.005
 6408.00    0.56844   0.75251    0.005
 6409.00    0.51718   0.75102    0.005
 6410.00    0.53484   0.75059    0.005
 6411.00    0.55423   0.75267    0.005
 6412.00    0.58567   0.75678    0.006
 6413.00    0.61313   0.76070    0.006
 6414.00    0.61918   0.76232    0.006
 6415.00    0.63089   0.76022    0.006
 6416.00    0.66705   0.75397    0.006
 6417.00    0.68248   0.74582    0.006
 6418.00    0.62411   0.74061    0.006
 6419.00    0.58351   0.74249    0.006
 6420.00    0.59608   0.75132    0.006
 6421.00    0.60039   0.76243    0.006
 6422.00    0.58367   0.77128    0.006
 6423.00    0.57906   0.77631    0.006
 6424.00    0.60096   0.77818    0.006
 6425.00    0.62691   0.77665    0.006
 6426.00    0.66054   0.77028    0.006
 6427.00    0.67256   0.75955    0.006
 6428.00    0.64874   0.74905    0.006
 6429.00    0.62889   0.74453    0.006
 6430.00    0.61480   0.74797    0.006
 6431.00    0.61598   0.75653    0.006
 6432.00    0.63669   0.76488    0.006
 6433.00    0.67852   0.76864    0.006
 6434.00    0.74414   0.76608    0.006
 6435.00    0.76122   0.75841    0.006
 6436.00    0.73007   0.75082    0.005
 6437.00    0.69718   0.74956    0.006
 6438.00    0.66278   0.75645    0.006
 6439.00    0.66147   0.76785    0.006
 6440.00    0.68572   0.77820    0.006
 6441.00    0.72031   0.78445    0.006
 6442.00    0.76193   0.78697    0.006
 6443.00    0.75618   0.78610    0.006
 6444.00    0.72226   0.78010    0.006
 6445.00    0.68897   0.76694    0.006
 6446.00    0.65601   0.74791    0.006
 6447.00    0.63099   0.73042    0.006
 6448.00    0.60952   0.72340    0.006
 6449.00    0.62181   0.72908    0.006
 6450.00    0.64715   0.74181    0.006
 6451.00    0.64687   0.75246    0.006
 6452.00    0.63817   0.75646    0.006
 6453.00    0.64076   0.75663    0.006
 6454.00    0.64646   0.75841    0.006
 6455.00    0.63960   0.76410    0.006
 6456.00    0.62988   0.77083    0.006
 6457.00    0.65008   0.77295    0.006
 6458.00    0.67569   0.76660    0.006
 6459.00    0.70688   0.75358    0.006
 6460.00    0.73885   0.74156    0.006
 6461.00    0.71930   0.73807    0.006
 6462.00    0.69461   0.74429    0.006
 6463.00    0.66491   0.75560    0.011
 6464.00    0.63490   0.76538    0.391
 6465.00    0.70073   0.76997   -1.000
 6466.00    0.76942   0.76916 2945.389
 6467.00    0.86823   0.76500   -1.000
 6468.00    0.96241   0.76010   -1.000
 6469.00    0.92764   0.75704   -1.000
 6470.00    0.89111   0.75656   -1.000
 6471.00    0.82957   0.75704   -1.000
 6472.00    0.77328   0.75726    0.116
 6473.00    0.76567   0.75758    0.010
 6474.00    0.75623   0.75908    0.006
 6475.00    0.73449   0.76123    0.006
 6476.00    0.71292   0.76189    0.006
 6477.00    0.69228   0.75859    0.006
 6478.00    0.68112   0.75087    0.006
 6479.00    0.70999   0.74153    0.006
 6480.00    0.73533   0.73530    0.006
 6481.00    0.74839   0.73532    0.006
 6482.00    0.75542   0.74088    0.006
 6483.00    0.74476   0.74839    0.006
 6484.00    0.73542   0.75433    0.006
 6485.00    0.72942   0.75693    0.006
 6486.00    0.71245   0.75571    0.006
 6487.00    0.67183   0.75068    0.006
 6488.00    0.61944   0.74183    0.006
 6489.00    0.54505   0.72842    0.006
 6490.00    0.50571   0.70955    0.006
 6491.00    0.52362   0.68679    0.006
 6492.00    0.56164   0.66629    0.006
 6493.00    0.62849   0.65481    0.005
 6494.00    0.67897   0.65521    0.005
 6495.00    0.70884   0.66499    0.006
 6496.00    0.73333   0.67874    0.006
 6497.00    0.75187   0.69343    0.006
 6498.00    0.77993   0.70760    0.006
 6499.00    0.81732   0.72053    0.006
 6500.00    0.84648   0.73151    0.006
 6501.00    0.86854   0.73984    0.006
 6502.00    0.85380   0.74573    0.006
 6503.00    0.81105   0.74917    0.006
 6504.00    0.76734   0.75011    0.006
 6505.00    0.72299   0.74899    0.006
 6506.00    0.70091   0.74755    0.006
 6507.00    0.69188   0.74748    0.006
 6508.00    0.67971   0.74905    0.006
 6509.00    0.66593   0.75091    0.006
 6510.00    0.65312   0.75144    0.006
 6511.00    0.64074   0.74948    0.006
 6512.00    0.65626   0.74499    0.006
 6513.00    0.68239   0.73890    0.006
 6514.00    0.72176   0.73296    0.006
 6515.00    0.76540   0.72896    0.006
 6516.00    0.76811   0.72869    0.006
 6517.00    0.75977   0.73265    0.006
 6518.00    0.76495   0.73914    0.006
 6519.00    0.77313   0.74554    0.006
 6520.00    0.73769   0.74979    0.006
 6521.00    0.69456   0.75130    0.006
 6522.00    0.68287   0.75026    0.006
 6523.00    0.67541   0.74704    0.006
 6524.00    0.66001   0.74323    0.006
 6525.00    0.64385   0.74113    0.006
 6526.00    0.64648   0.74158    0.006
 6527.00    0.65021   0.74307    0.006
 6528.00    0.70646   0.74309    0.000
 6529.00    0.76354   0.74093    0.000
 6530.00    0.75050   0.73846    0.000
 6531.00    0.73613   0.73822    0.000
 6532.00    0.68824   0.74088    0.000
 6533.00    0.64467   0.74476    0.000
 6534.00    0.65897   0.74789    0.000
 6535.00    0.67562   0.74995    0.000
 6536.00    0.71315   0.75169    0.000
 6537.00    0.74360   0.75302    0.000
 6538.00    0.72756   0.75262    0.000
 6539.00    0.71740   0.74938    0.000
 6540.00    0.73730   0.74335    0.000
 6541.00    0.74262   0.73547    0.000
 6542.00    0.68776   0.72685    0.000
 6543.00    0.64886   0.71917    0.000
 6544.00    0.66455   0.71522    0.000
 6545.00    0.69291   0.71595    0.000
 6546.00    0.75775   0.71943    0.000
 6547.00    0.80825   0.72226    0.000
 6548.00    0.82347   0.72183    0.000
 6549.00    0.82092   0.71811    0.000
 6550.00    0.78068   0.71191    0.000
 6551.00    0.74239   0.70428    0.000
 6552.00    0.70766   0.69676    0.000
 6553.00    0.68870   0.69131    0.000
 6554.00    0.69513   0.68866    0.000
 6555.00    0.69883   0.68638    0.000
 6556.00    0.69866   0.67892    0.000
 6557.00    0.72098   0.65996    0.000
 6558.00    0.77123   0.62675    0.000
 6559.00    0.81847   0.58567    0.000
 6560.00    0.86241   0.55491    0.000
 6561.00    0.85184   0.55277    0.000
 6562.00    0.78862   0.58031    0.000
 6563.00    0.72418   0.62259    0.000
 6564.00    0.65872   0.66083    0.000
 6565.00    0.65794   0.68460    0.000
 6566.00    0.70567   0.69477    0.000
 6567.00    0.73536   0.69731    0.000
 6568.00    0.75316   0.69674    0.000
 6569.00    0.73917   0.69456    0.000
 6570.00    0.70684   0.69135    0.000
 6571.00    0.68398   0.68896    0.000
 6572.00    0.66588   0.69029    0.000
 6573.00    0.64094   0.69717    0.000
 6574.00    0.61302   0.70766    0.000
 6575.00    0.67421   0.71750    0.000
 6576.00    0.76867   0.72299    0.000
 6577.00    0.81411   0.72342    0.000
 6578.00    0.84403   0.72124    0.000
 6579.00    0.78108   0.72001    0.000
 6580.00    0.69358   0.72108    0.000
 6581.00    0.73057   0.72343    0.000
 6582.00    0.79447   0.72538    0.000
 6583.00    0.83226   0.72650    0.000
 6584.00    0.86557   0.72812    0.000
 6585.00    0.82101   0.73080    0.000
 6586.00    0.76632   0.73300    0.000
 6587.00    0.74614   0.73185    0.000
 6588.00    0.72911   0.72483    0.000
 6589.00    0.71802   0.71247    0.000
 6590.00    0.70726   0.69951    0.000
 6591.00    0.66221   0.69263    0.000
 6592.00    0.61730   0.69468    0.000
 6593.00    0.65468   0.70243    0.000
 6594.00    0.69214   0.71031    0.000
 6595.00    0.73146   0.71524    0.000
 6596.00    0.76836   0.71857    0.000
 6597.00    0.77457   0.72276    0.000
 6598.00    0.77647   0.72792    0.000
 6599.00    0.74131   0.73193    0.000
 6600.00    0.70005   0.73265    0.000
 6601.00    0.61998   0.72972    0.000
 6602.00    0.56223   0.72444    0.000
 6603.00    0.61565   0.71839    0.000
 6604.00    0.66521   0.71242    0.000
 6605.00    0.69915   0.70729    0.000
 6606.00    0.73037   0.70455    0.000
 6607.00    0.75246   0.70624    0.000
 6608.00    0.75705   0.71217    0.000
 6609.00    0.71219   0.71942    0.006
 6610.00    0.69166   0.72500    0.006
 6611.00    0.72995   0.72822    0.006
 6612.00    0.75824   0.73050    0.006
 6613.00    0.76566   0.73258    0.006
 6614.00    0.74751   0.73422    0.006
 6615.00    0.68296   0.73521    0.006
 6616.00    0.66052   0.73602    0.006
 6617.00    0.70486   0.73682    0.006
 6618.00    0.74080   0.73678    0.006
 6619.00    0.76506   0.73448    0.006
 6620.00    0.77703   0.72936    0.006
 6621.00    0.77397   0.72269    0.006
 6622.00    0.76616   0.71713    0.006
 6623.00    0.75323   0.71500    0.006
 6624.00    0.73596   0.71604    0.006
 6625.00    0.71454   0.71820    0.006
 6626.00    0.67723   0.71925    0.006
 6627.00    0.62657   0.71794    0.006
 6628.00    0.62470   0.71413    0.006
 6629.00    0.65892   0.70826    0.006
 6630.00    0.67421   0.70186    0.006
 6631.00    0.67719   0.69767    0.006
 6632.00    0.70141   0.69822    0.006
 6633.00    0.73772   0.70336    0.006
 6634.00    0.73021   0.71031    0.006
 6635.00    0.70103   0.71568    0.006
 6636.00    0.66784   0.71800    0.006
 6637.00    0.63294   0.71798    0.006
 6638.00    0.59556   0.71676    0.006
 6639.00    0.55729   0.71434    0.006
 6640.00    0.56504   0.71069    0.006
 6641.00    0.58708   0.70744    0.006
 6642.00    0.59840   0.70666    0.006
 6643.00    0.60693   0.70859    0.006
 6644.00    0.63570   0.71162    0.006
 6645.00    0.66873   0.71415    0.006
 6646.00    0.69930   0.71579    0.006
 6647.00    0.72945   0.71664    0.006
 6648.00    0.69363   0.71666    0.006
 6649.00    0.64953   0.71600    0.006
 6650.00    0.64749   0.71516    0.006
 6651.00    0.64912   0.71465    0.006
 6652.00    0.64439   0.71462    0.006
 6653.00    0.63934   0.71474    0.006
 6654.00    0.66437   0.71474    0.006
 6655.00    0.68913   0.71445    0.006
 6656.00    0.65702   0.71337    0.006
 6657.00    0.62353   0.71086    0.006
 6658.00    0.56096   0.70635    0.006
 6659.00    0.50455   0.70021    0.006
 6660.00    0.52241   0.69386    0.006
 6661.00    0.54393   0.68972    0.006
 6662.00    0.59563   0.68904    0.006
 6663.00    0.63643   0.69106    0.006
 6664.00    0.60997   0.69440    0.006
 6665.00    0.59397   0.69825    0.006
 6666.00    0.62881   0.70287    0.006
 6667.00    0.67242   0.70800    0.006
 6668.00    0.75061   0.71261    0.006
 6669.00    0.79332   0.71558    0.006
 6670.00    0.71952   0.71664    0.006
 6671.00    0.65871   0.71574    0.006
 6672.00    0.63400   0.71230    0.006
 6673.00    0.61505   0.70543    0.006
 6674.00    0.60979   0.69565    0.006
 6675.00    0.59977   0.68628    0.006
 6676.00    0.58000   0.68196    0.006
 6677.00    0.57730   0.68424    0.006
 6678.00    0.60508   0.69075    0.006
 6679.00    0.65418   0.69785    0.006
 6680.00    0.73659   0.70329    0.006
 6681.00    0.75604   0.70690    0.006
 6682.00    0.68911   0.70899    0.006
 6683.00    0.63638   0.70971    0.006
 6684.00    0.60080   0.70941    0.006
 6685.00    0.59139   0.70874    0.006
 6686.00    0.60984   0.70847    0.006
 6687.00    0.59878   0.70878    0.006
 6688.00    0.56000   0.70933    0.006
 6689.00    0.53902   0.70938    0.006
 6690.00    0.53279   0.70823    0.006
 6691.00    0.53560   0.70535    0.006
 6692.00    0.54500   0.70068    0.006
 6693.00    0.61995   0.69530    0.006
 6694.00    0.73685   0.69140    0.006
 6695.00    0.75547   0.69080    0.006
 6696.00    0.71907   0.69361    0.000
 6697.00    0.67420   0.69819    0.000
 6698.00    0.62520   0.70181    0.000
 6699.00    0.58311   0.70266    0.000
 6700.00    0.54393   0.70062    0.000
 6701.00    0.63067   0.69748    0.000
 6702.00    0.76276   0.69562    0.000
 6703.00    0.77417   0.69611    0.000
 6704.00    0.74882   0.69812    0.000
 6705.00    0.73194   0.69984    0.000
 6706.00    0.71720   0.70004    0.000
 6707.00    0.67288   0.69865    0.000
 6708.00    0.62247   0.69641    0.000
 6709.00    0.62688   0.69362    0.000
 6710.00    0.64017   0.68991    0.000
 6711.00    0.63324   0.68488    0.000
 6712.00    0.62386   0.67851    0.000
 6713.00    0.62923   0.67181    0.000
 6714.00    0.63581   0.66678    0.000
 6715.00    0.62427   0.66574    0.000
 6716.00    0.61186   0.66955    0.000
 6717.00    0.63945   0.67630    0.000
 6718.00    0.66454   0.68308    0.000
 6719.00    0.51665   0.68800    0.000
 6720.00    0.37182   0.69098    0.000
 6721.00    0.28645   0.69234    0.000
 6722.00    0.21890   0.69216    0.000
 6723.00    0.35568   0.69101    0.000
 6724.00    0.48710   0.69027    0.000
 6725.00    0.57575   0.69105    0.000
 6726.00    0.66014   0.69324    0.000
 6727.00    0.71906   0.69567    0.000
 6728.00    0.76799   0.69711    0.000
 6729.00    0.76956   0.69709    0.000
 6730.00    0.74984   0.69605    0.000
 6731.00    0.64783   0.69491    0.000
 6732.00    0.55957   0.69413    0.000
 6733.00    0.51555   0.69323    0.000
 6734.00    0.50783   0.69123    0.000
 6735.00    0.59909   0.68799    0.000
 6736.00    0.65112   0.68467    0.000
 6737.00    0.61148   0.68262    0.000
 6738.00    0.62257   0.68205    0.000
 6739.00    0.73619   0.68194    0.000
 6740.00    0.77978   0.68164    0.000
 6741.00    0.70021   0.68138    0.000
 6742.00    0.65929   0.68143    0.000
 6743.00    0.67788   0.68141    0.000
 6744.00    0.69137   0.68067    0.000
 6745.00    0.69797   0.67897    0.000
 6746.00    0.67550   0.67683    0.000
 6747.00    0.61843   0.67495    0.000
 6748.00    0.60437   0.67399    0.000
 6749.00    0.63546   0.67406    0.000
 6750.00    0.58560   0.67517    0.000
 6751.00    0.46080   0.67763    0.000
 6752.00    0.23636   0.68133    0.000
 6753.00   -0.06940   0.68597    0.000
 6754.00   -0.06318   0.69076    0.000
 6755.00    0.16716   0.69498    0.010
 6756.00    0.49242   0.69814    0.010
 6757.00    0.87753   0.69987    0.011
 6758.00    0.89915   0.70015    0.010
 6759.00    0.72041   0.69935    0.009
 6760.00    0.60099   0.69796    0.008
 6761.00    0.50999   0.69594    0.008
 6762.00    0.59858   0.69277    0.008
 6763.00    0.76145   0.68824    0.008
 6764.00    0.82597   0.68326    0.008
 6765.00    0.85570   0.67951    0.008
 6766.00    0.80657   0.67791    0.008
 6767.00    0.73391   0.67798    0.008
 6768.00    0.86043   0.67901    0.008
 6769.00    1.03628   0.68114    0.008
 6770.00    0.86682   0.68489    0.007
 6771.00    0.62804   0.69004    0.007
 6772.00    0.55687   0.69520    0.007
 6773.00    0.51204   0.69903    0.007
 6774.00    0.51299   0.70118    0.007
 6775.00    0.51928   0.70213    0.007
 6776.00    0.69046   0.70220    0.007
 6777.00    0.87465   0.70075    0.007
 6778.00    0.74060   0.69688    0.007
 6779.00    0.59269   0.69027    0.007
 6780.00    0.62076   0.68215    0.007
 6781.00    0.65426   0.67484    0.007
 6782.00    0.85489   0.67065    0.007
 6783.00    1.03649   0.67048    0.007
 6784.00    0.87376   0.67367    0.007
 6785.00    0.71734   0.67833    0.007
 6786.00    0.63004   0.68251    0.007
 6787.00    0.55652   0.68512    0.007
 6788.00    0.58887   0.68591    0.007
 6789.00    0.61548   0.68508    0.007
 6790.00    0.60855   0.68312    0.007
 6791.00    0.62973   0.68092    0.007
 6792.00    0.78093   0.67948    0.007
 6793.00    0.87268   0.67939    0.008
 6794.00    0.73964   0.68053    0.007
 6795.00    0.63657   0.68229    0.007
 6796.00    0.62815   0.68430    0.007
 6797.00    0.62887   0.68631    0.007
 6798.00    0.65408   0.68795    0.007
 6799.00    0.66080   0.68873    0.007
 6800.00    0.62504   0.68830    0.007
 6801.00    0.57044   0.68692    0.007
 6802.00    0.47835   0.68536    0.007
 6803.00    0.44373   0.68410    0.007
 6804.00    0.50867   0.68333    0.007
 6805.00    0.56611   0.68296    0.007
 6806.00    0.61220   0.68266    0.007
 6807.00    0.64033   0.68245    0.007
 6808.00    0.64454   0.68237    0.007
 6809.00    0.67824   0.68227    0.007
 6810.00    0.74655   0.68180    0.007
 6811.00    0.69845   0.68080    0.007
 6812.00    0.52988   0.68011    0.007
 6813.00    0.51551   0.68080    0.007
 6814.00    0.64191   0.68270    0.007
 6815.00    0.70672   0.68444    0.007
 6816.00    0.72196   0.68480    0.007
 6817.00    0.72479   0.68422    0.007
 6818.00    0.71884   0.68433    0.007
 6819.00    0.69828   0.68613    0.007
 6820.00    0.66865   0.68901    0.007
 6821.00    0.66056   0.69146    0.007
 6822.00    0.66416   0.69212    0.007
 6823.00    0.65440   0.69053    0.007
 6824.00    0.63833   0.68711    0.007
 6825.00    0.64579   0.68328    0.007
 6826.00    0.66282   0.68090    0.007
 6827.00    0.61007   0.68099    0.007
 6828.00    0.53310   0.68291    0.007
 6829.00    0.64023   0.68514    0.007
 6830.00    0.80122   0.68675    0.007
 6831.00    0.80474   0.68779    0.007
 6832.00    0.77013   0.68831    0.007
 6833.00    0.77348   0.68767    0.007
 6834.00    0.78425   0.68498    0.007
 6835.00    0.76679   0.67985    0.007
 6836.00    0.74502   0.67283    0.007
 6837.00    0.61443   0.66522    0.007
 6838.00    0.47164   0.65892    0.008
 6839.00    0.43566   0.65598    0.008
 6840.00    0.40767   0.65757    0.007
 6841.00    0.57027   0.66315    0.007
 6842.00    0.74045   0.67054    0.007
 6843.00    0.75009   0.67713    0.007
 6844.00    0.75913   0.68140    0.007
 6845.00    0.78863   0.68322    0.007
 6846.00    0.81126   0.68335    0.007
 6847.00    0.71785   0.68270    0.007
 6848.00    0.63881   0.68172    0.007
 6849.00    0.71016   0.68022    0.007
 6850.00    0.76656   0.67744    0.007
 6851.00    0.71182   0.67290    0.007
 6852.00    0.67493   0.66758    0.007
 6853.00    0.73925   0.66349    0.007
 6854.00    0.78753   0.66198    0.007
 6855.00    0.76341   0.66262    0.007
 6856.00    0.72575   0.66360    0.007
 6857.00    0.63802   0.66346    0.007
 6858.00    0.58204   0.66266    0.007
 6859.00    0.62441   0.66315    0.007
 6860.00    0.66709   0.66629    0.007
 6861.00    0.71060   0.67109    0.007
 6862.00    0.74594   0.67457    0.007
 6863.00    0.76280   0.67436    0.007
 6864.00    0.75043   0.67076    0.007
 6865.00    0.68085   0.66649    0.007
 6866.00    0.62968   0.66416    0.007
 6867.00    0.60992   0.66418    0.007
 6868.00    0.64449   0.66503    0.007
 6869.00    0.76027   0.66536    0.007
 6870.00    0.81319   0.66526    0.007
 6871.00    0.78353   0.66565    0.007
 6872.00    0.71463   0.66715    0.007
 6873.00    0.60034   0.66974    0.007
 6874.00    0.52109   0.67301    0.007
 6875.00    0.47763   0.67604    0.007
 6876.00    0.52905   0.67748    0.007
 6877.00    0.66589   0.67626    0.007
 6878.00    0.68876   0.67256    0.007
 6879.00    0.62122   0.66810    0.007
 6880.00    0.63580   0.66511    0.007
 6881.00    0.70769   0.66492    0.007
 6882.00    0.72749   0.66710    0.007
 6883.00    0.71541   0.67045    0.007
 6884.00    0.65759   0.67417    0.007
 6885.00    0.57533   0.67797    0.007
 6886.00    0.63130   0.68168    0.007
 6887.00    0.75140   0.68470    0.007
 6888.00    0.76960   0.68644    0.007
 6889.00    0.74707   0.68665    0.007
 6890.00    0.72539   0.68555    0.007
 6891.00    0.70399   0.68359    0.007
 6892.00    0.72311   0.68146    0.007
 6893.00    0.75386   0.67994    0.007
 6894.00    0.68518   0.67939    0.007
 6895.00    0.59296   0.67956    0.007
 6896.00    0.64872   0.67984    0.007
 6897.00    0.73268   0.68009    0.007
 6898.00    0.67622   0.68075    0.007
 6899.00    0.59902   0.68203    0.007
 6900.00    0.60499   0.68341    0.007
 6901.00    0.61994   0.68431    0.007
 6902.00    0.56289   0.68484    0.007
 6903.00    0.50074   0.68567    0.007
 6904.00    0.67513   0.68701    0.007
 6905.00    0.85802   0.68830    0.007
 6906.00    0.69261   0.68874    0.007
 6907.00    0.53110   0.68772    0.007
 6908.00    0.54439   0.68507    0.007
 6909.00    0.55496   0.68098    0.007
 6910.00    0.52254   0.67610    0.007
 6911.00    0.49887   0.67170    0.007
 6912.00    0.56283   0.66901    0.007
 6913.00    0.62310   0.66845    0.007
 6914.00    0.65673   0.66983    0.007
 6915.00    0.66622   0.67257    0.007
 6916.00    0.54257   0.67608    0.007
 6917.00    0.46763   0.67964    0.007
 6918.00    0.60752   0.68199    0.007
 6919.00    0.68858   0.68182    0.007
 6920.00    0.55641   0.67851    0.007
 6921.00    0.47801   0.67303    0.007
 6922.00    0.56307   0.66782    0.007
 6923.00    0.61423   0.66541    0.007
 6924.00    0.57780   0.66676    0.007
 6925.00    0.56097   0.67056    0.007
 6926.00    0.58771   0.67446    0.007
 6927.00    0.60868   0.67657    0.007
 6928.00    0.61857   0.67637    0.007
 6929.00    0.59564   0.67451    0.007
 6930.00    0.51755   0.67250    0.007
 6931.00    0.49269   0.67180    0.007
 6932.00    0.54623   0.67283    0.007
 6933.00    0.54095   0.67487    0.007
 6934.00    0.45952   0.67683    0.007
 6935.00    0.43993   0.67833    0.007
 6936.00    0.49090   0.67963    0.007
 6937.00    0.57200   0.68066    0.007
 6938.00    0.68341   0.68063    0.007
 6939.00    0.73030   0.67856    0.007
 6940.00    0.71992   0.67427    0.007
 6941.00    0.72896   0.66893    0.007
 6942.00    0.75317   0.66485    0.007
 6943.00    0.68153   0.66397    0.007
 6944.00    0.54397   0.66641    0.007
 6945.00    0.50599   0.67037    0.007
 6946.00    0.52802   0.67325    0.007
 6947.00    0.56231   0.67334    0.007
 6948.00    0.60305   0.67095    0.007
 6949.00    0.63419   0.66763    0.007
 6950.00    0.66097   0.66518    0.007
 6951.00    0.58542   0.66479    0.007
 6952.00    0.46968   0.66655    0.007
 6953.00    0.51307   0.66972    0.007
 6954.00    0.60970   0.67318    0.007
 6955.00    0.66990   0.67595    0.007
 6956.00    0.71987   0.67768    0.007
 6957.00    0.71613   0.67870    0.007
 6958.00    0.69997   0.67955    0.007
 6959.00    0.69740   0.68034    0.007
 6960.00    0.69737   0.68090    0.007
 6961.00    0.67137   0.68089    0.007
 6962.00    0.64167   0.68040    0.007
 6963.00    0.66611   0.68015    0.007
 6964.00    0.69616   0.68081    0.007
 6965.00    0.65156   0.68215    0.007
 6966.00    0.60199   0.68315    0.007
 6967.00    0.52476   0.68287    0.007
 6968.00    0.44665   0.68161    0.007
 6969.00    0.38469   0.68035    0.007
 6970.00    0.32670   0.67912    0.007
 6971.00    0.39048   0.67674    0.007
 6972.00    0.45344   0.67161    0.007
 6973.00    0.50423   0.66318    0.007
 6974.00    0.55705   0.65272    0.007
 6975.00    0.62940   0.64336    0.007
 6976.00    0.69582   0.63900    0.007
 6977.00    0.72097   0.64188    0.007
 6978.00    0.74082   0.65101    0.007
 6979.00    0.73218   0.66275    0.007
 6980.00    0.70822   0.67302    0.007
 6981.00    0.61832   0.67980    0.007
 6982.00    0.54169   0.68298    0.007
 6983.00    0.51219   0.68323    0.007
 6984.00    0.46558   0.68142    0.007
 6985.00    0.36791   0.67848    0.007
 6986.00    0.35880   0.67572    0.007
 6987.00    0.57462   0.67449    0.007
 6988.00    0.70476   0.67531    0.007
 6989.00    0.64757   0.67738    0.007
 6990.00    0.61101   0.67917    0.007
 6991.00    0.61361   0.67973    0.007
 6992.00    0.59822   0.67929    0.007
 6993.00    0.55307   0.67833    0.007
 6994.00    0.54608   0.67679    0.007
 6995.00    0.59448   0.67407    0.007
 6996.00    0.58935   0.67025    0.007
 6997.00    0.51589   0.66676    0.007
 6998.00    0.49597   0.66513    0.007
 6999.00    0.53625   0.66542    0.007
 7000.00    0.61315   0.66601    0.007
 7001.00    0.72636   0.66543    0.007
 7002.00    0.74061   0.66383    0.007
 7003.00    0.66829   0.66269    0.007
 7004.00    0.61606   0.66328    0.007
 7005.00    0.57930   0.66550    0.007
 7006.00    0.56379   0.66816    0.007
 7007.00    0.56268   0.67002    0.007
 7008.00    0.56132   0.67059    0.007
 7009.00    0.55982   0.66992    0.007
 7010.00    0.59022   0.66772    0.007
 7011.00    0.63715   0.66323    0.007
 7012.00    0.70578   0.65643    0.007
 7013.00    0.78415   0.64986    0.007
 7014.00    0.82604   0.64749    0.007
 7015.00    0.85386   0.65137    0.007
 7016.00    0.79432   0.65979    0.007
 7017.00    0.70610   0.66814    0.007
 7018.00    0.65198   0.67219    0.008
 7019.00    0.60725   0.67065    0.008
 7020.00    0.15500   0.66532    0.007
 7021.00   -0.38939   0.65973    0.000
 7022.00    0.07988   0.65702    0.007
 7023.00    0.73229   0.65808    0.007
 7024.00    0.76410   0.66158    0.007
 7025.00    0.70994   0.66548    0.007
 7026.00    0.74540   0.66854    0.007
 7027.00    0.78976   0.67054    0.007
 7028.00    0.68294   0.67155    0.007
 7029.00    0.56664   0.67176    0.007
 7030.00    0.58772   0.67147    0.007
 7031.00    0.61247   0.67099    0.008
 7032.00    0.57537   0.67034    0.008
 7033.00    0.54477   0.66880    0.008
 7034.00    0.69294   0.66601    0.008
 7035.00    0.82861   0.66346    0.008
 7036.00    0.78886   0.66397    0.008
 7037.00    0.75126   0.66925    0.008
 7038.00    0.73357   0.67809    0.008
 7039.00    0.71421   0.68665    0.008
 7040.00    0.68367   0.69145    0.008
 7041.00    0.65627   0.69202    0.008
 7042.00    0.64537   0.69053    0.008
 7043.00    0.65234   0.68980    0.008
 7044.00    0.73452   0.69119    0.008
 7045.00    0.75608   0.69378    0.008
 7046.00    0.56677   0.69508    0.008
 7047.00    0.22696   0.69283    0.008
 7048.00   -0.55332   0.68598    0.000
 7049.00   -0.85853   0.67536    0.000
 7050.00    0.02221   0.66367   -2.000
 7051.00    0.63009   0.65417   -2.000
 7052.00    0.65108   0.64918   -2.000
 7053.00    0.71184   0.64861   -2.000
 7054.00    0.84685   0.64999   -2.000
 7055.00    0.92625   0.65034   -2.000
 7056.00    0.91494   0.64817   -2.000
 7057.00    0.93428   0.64447   -2.000
 7058.00    0.99744   0.64149   -2.000
 7059.00    0.95825   0.64074   -2.000
 7060.00    0.79026   0.64208   -2.000
 7061.00    0.78622   0.64371   -2.000
 7062.00    0.96399   0.64359   -2.000
 7063.00    1.05693   0.64087   -2.000
 7064.00    1.06690   0.63625   -2.000
 7065.00    1.01957   0.63224   -2.000
 7066.00    0.92281   0.63162   -2.000
 7067.00    0.85419   0.63518   -2.000
 7068.00    0.80696   0.64145   -2.000
 7069.00    0.79675   0.64786   -2.000
 7070.00    0.81126   0.65242   -2.000
 7071.00    0.90273   0.65478   -2.000
 7072.00    1.03921   0.65565   -2.000
 7073.00    0.96651   0.65592   -2.000
 7074.00    0.78719   0.65629   -2.000
 7075.00    0.90910   0.65703   -2.000
 7076.00    1.16403   0.65788   -2.000
 7077.00    1.15475   0.65799   -2.000
 7078.00    1.04529   0.65591   -2.000
 7079.00    0.88969   0.65049   -2.000
 7080.00    0.71923   0.64165   -2.000
 7081.00    0.69360   0.63132   -2.000
 7082.00    0.70699   0.62243   -2.000
 7083.00    0.77898   0.61661   -2.000
 7084.00    0.86392   0.61362   -2.000
 7085.00    1.01016   0.61184   -2.000
 7086.00    1.16718   0.60993   -2.000
 7087.00    1.20035   0.60802   -2.000
 7088.00    1.21692   0.60674   -2.000
 7089.00    1.04226   0.60625   -2.000
 7090.00    0.84943   0.60647   -2.000
 7091.00    0.96695   0.60693   -2.000
 7092.00    1.10268   0.60749   -2.000
 7093.00    0.98742   0.60867   -2.000
 7094.00    0.86709   0.61085   -2.000
 7095.00    0.89903   0.61455   -2.000
 7096.00    0.92983   0.61875   -2.000
 7097.00    0.93243   0.62227   -2.000
 7098.00    0.93130   0.62398   -2.000
 7099.00    0.88058   0.62408   -2.000
 7100.00    0.82719   0.62399   -2.000
 7101.00    0.75027   0.62471   -2.000
 7102.00    0.69774   0.62593   -2.000
 7103.00    0.80456   0.62662   -2.000
 7104.00    0.88372   0.62613   -2.000
 7105.00    0.82199   0.62452   -2.000
 7106.00    0.75666   0.62218   -2.000
 7107.00    0.67652   0.61948   -2.000
 7108.00    0.64575   0.61716   -2.000
 7109.00    0.78331   0.61628   -2.000
 7110.00    0.90869   0.61755   -2.000
 7111.00    0.99908   0.62058   -2.000
 7112.00    1.03507   0.62416   -2.000
 7113.00    0.93759   0.62703   -2.000
 7114.00    0.88539   0.62858   -2.000
 7115.00    0.92902   0.62879   -2.000
 7116.00    0.96972   0.62780   -2.000
 7117.00    1.00507   0.62604   -2.000
 7118.00    1.05396   0.62389   -2.000
 7119.00    1.12460   0.62212   -2.000
 7120.00    1.08603   0.62097   -2.000
 7121.00    0.89353   0.61982   -2.000
 7122.00    0.82300   0.61805   -2.000
 7123.00    0.90377   0.61532   -2.000
 7124.00    1.06672   0.61206   -2.000
 7125.00    1.31951   0.60869   -2.000
 7126.00    1.47094   0.60509   -2.000
 7127.00    1.52463   0.60164   -2.000
 7128.00    1.43169   0.59968   -2.000
 7129.00    1.21407   0.60058   -2.000
 7130.00    1.13184   0.60469   -2.000
 7131.00    1.15102   0.61055   -2.000
 7132.00    1.23774   0.61608   -2.000
 7133.00    1.36891   0.62005   -2.000
 7134.00    1.20617   0.62185   -2.000
 7135.00    0.87415   0.62183   -2.000
 7136.00    0.81786   0.62110   -2.000
 7137.00    0.89994   0.62073   -2.000
 7138.00    0.97467   0.62122   -2.000
 7139.00    1.04622   0.62236   -2.000
 7140.00    1.07273   0.62329   -2.000
 7141.00    1.08247   0.62319   -2.000
 7142.00    1.02916   0.62180   -2.000
 7143.00    0.95595   0.61874   -2.000
 7144.00    1.01675   0.61429   -2.000
 7145.00    1.11289   0.61025   -2.000
 7146.00    0.99309   0.60855   -2.000
 7147.00    0.82675   0.61035   -2.000
 7148.00    0.82581   0.61542   -2.000
 7149.00    0.85314   0.62174   -2.000
 7150.00    0.81184   0.62714   -2.000
 7151.00    0.76166   0.63059   -2.000
 7152.00    0.88494   0.63244   -2.000
 7153.00    1.02398   0.63374   -2.000
 7154.00    1.07404   0.63476   -2.000
 7155.00    1.11923   0.63520   -2.000
 7156.00    0.97534   0.63437   -2.000
 7157.00    0.82711   0.63231   -2.000
 7158.00    0.64404   0.62936   -2.000
 7159.00    0.49299   0.62458   -2.000
 7160.00    1.06864   0.61770   -2.000
 7161.00    1.60358   0.60967   -2.000
 7162.00    1.62580   0.60368   -2.000
 7163.00    1.64842   0.60251   -2.000
 7164.00    1.67452   0.60626   -2.000
 7165.00    1.59787   0.61246   -2.000
 7166.00    0.87001   0.61819   -2.000
 7167.00    0.33666   0.62231   -2.000
 7168.00    0.76903   0.62516   -2.000
 7169.00    1.13137   0.62722   -2.000
 7170.00    1.21181   0.62819   -2.000
 7171.00    1.22753   0.62741   -2.000
 7172.00    1.02699   0.62493   -2.000
 7173.00    0.88377   0.62209   -2.000
 7174.00    0.90227   0.61988   -2.000
 7175.00    0.87130   0.61785   -2.000
 7176.00    0.72103   0.61488   -2.000
 7177.00    0.68588   0.61074   -2.000
 7178.00    0.89043   0.60729   -2.000
 7179.00    1.06427   0.60693   -2.000
 7180.00    1.18251   0.60984   -2.000
 7181.00    1.17626   0.61364   -2.000
 7182.00    0.97295   0.61492   -2.000
 7183.00    0.89515   0.61176   -2.000
 7184.00    0.99174   0.60567   -2.000
 7185.00    0.93430   0.59973   -2.000
 7186.00    0.68851   0.59665   -2.000
 7187.00    0.68175   0.59740   -2.000
 7188.00    0.93266   0.60031   -2.000
 7189.00    1.04526   0.60342   -2.000
 7190.00    1.02634   0.60585   -2.000
 7191.00    1.03200   0.60765   -2.000
 7192.00    1.05828   0.60899   -2.000
 7193.00    0.98895   0.60983   -2.000
 7194.00    0.84906   0.61044   -2.000
 7195.00    0.76496   0.61109   -2.000
 7196.00    0.71702   0.61207   -2.000
 7197.00    0.56606   0.61311   -2.000
 7198.00    0.35666   0.61374   -2.000
 7199.00    0.62681   0.61440   -2.000
 7200.00    1.13380   0.61540   -2.000
 7201.00    1.25594   0.61592   -2.000
 7202.00    1.21375   0.61411   -2.000
 7203.00    1.30676   0.60893   -2.000
 7204.00    1.44923   0.60233   -2.000
 7205.00    1.11548   0.59775   -2.000
 7206.00    0.63420   0.59798   -2.000
 7207.00    0.59573   0.60296   -2.000
 7208.00    0.67155   0.60938   -2.000
 7209.00    0.67961   0.61406   -2.000
 7210.00    0.67342   0.61561   -2.000
 7211.00    0.60212   0.61489   -2.000
 7212.00    0.52001   0.61408   -2.000
 7213.00    0.80228   0.61487   -2.000
 7214.00    1.13009   0.61731   -2.000
 7215.00    1.28329   0.62011   -2.000
 7216.00    1.42137   0.62189   -2.000
 7217.00    1.11794   0.62190   -2.000
 7218.00    0.79209   0.62063   -2.000
