###################################################################
## OUTPUT of StarlightChains_v04.for    [Cid@UFSC - 01/Apr/2007] ##
###################################################################

## Some input info
KUG0210-078._21_20.txt                   [arq_obs]
Base.CB07.vall.4m                        [arq_base]
Masks.EmLines.NEW.gm                     [arq_masks]
StCv04.C11.config                        [arq_config]
   66                                    [N_base]
    0                                    [N_YAV_components = # of components with extra extinction!]
    0                                    [i_FitPowerLaw (1/0 = Yes/No)]
-9.99                                    [alpha_PowerLaw]
CCM                                      [red_law_option]
 1.458241                                [q_norm = A(l_norm)/A(V)]

## (Re)Sampling Parameters
 3741.00                                 [l_ini (A)]
 7218.00                                 [l_fin (A)]
    1.00                                 [dl    (A)]     (OBS: dl_cushion =    50.00 A)

## Normalization info
 4020.00                                 [l_norm (A) - for base]
 4010.00                                 [llow_norm (A) - window for f_obs]
 4060.00                                 [lupp_norm (A) - window for f_obs]
9.849475E-18                             [fobs_norm (in input units)]

## S/N
 3691.00                                 [llow_SN (A) - window for S/N]
 7268.00                                 [lupp_SN (A) - window for S/N]
   2.808                                 [S/N in S/N window]
   5.092                                 [S/N in norm. window]
   0.006                                 [S/N_err in S/N window]
   0.012                                 [S/N_err in norm. window]
  1.0000                                 [fscale_chi2]

## etc...
    -2007222                             [idum_orig]
  2421                                   [NOl_eff]
  2394                                   [Nl_eff]
    27    NSIGMA                         [Ntot_cliped & clip_method]
   768740                                [Nglobal_steps]
   7                                     [N_chains]
  35                                     [NEX0s_base = N_base in EX0s-fits]
 0   0   1       27   2.0   2.145E+03    [Clip-Bug, RC-Crash & Burn-In warning-flags, n_censored_weights, wei_nsig_threshold & wei_limit]
    19     18.822     18.415      0.407  [idt_all, wdt_TotTime, wdt_UsrTime & wdt_SysTime (sec)]

## Synthesis Results - Best model ##

 1.65890E-05                             [chi2/Nl_eff]
    50.36670                             [adev (%)]

   108.43141                             [sum-of-x (%)]
 2.78787E-18                             [Flux_tot (units of input spectrum!)]
 1.30192E-14                             [Mini_tot (???)]
 7.42567E-15                             [Mcor_tot (???)]

 149.62                                  [v0_min  (km/s)]
   0.00                                  [vd_min  (km/s)]
-1.0000                                  [AV_min  (mag)]
 0.0000                                  [YAV_min (mag)]

# j     x_j(%)      Mini_j(%)     Mcor_j(%)     age_j(yr)     Z_j      (L/M)_j    YAV?  Mstars   component_j        a/Fe...       SSP_chi2r SSP_adev(%)   SSP_AV   SSP_x(%)
  1      0.0000     0.0000E+00    0.0000E+00    1.000000E+06  0.00400  1.094E-02    0   1.0000   age020_m42            0.0000     2.3487E-05    70.3638   1.1168   100.4516
  2      0.0000     0.0000E+00    0.0000E+00    3.160000E+06  0.00400  4.007E-02    0   0.9999   age045_m42            0.0000     1.9246E-05    61.2623   0.4070   103.5943
  3      0.0000     0.0000E+00    0.0000E+00    5.010000E+06  0.00400  2.539E-02    0   0.9488   age055_m42            0.0000     2.1169E-05    63.8937   0.7294   102.5089
  4      0.0000     0.0000E+00    0.0000E+00    6.610000E+06  0.00400  2.620E-02    0   0.9220   age061_m42            0.0000     1.9323E-05    59.4878   0.3466   103.5862
  5      0.0000     0.0000E+00    0.0000E+00    1.000000E+07  0.00400  1.322E-02    0   0.8862   age070_m42            0.0000     1.9323E-05    58.4764   0.1945   103.3751
  6      0.0000     0.0000E+00    0.0000E+00    1.445000E+07  0.00400  7.883E-03    0   0.8571   age078_m42            0.0000     2.0829E-05    60.9275   0.4886   102.4878
  7      1.3335     5.0152E-02    7.1874E-02    2.512000E+07  0.00400  5.251E-03    0   0.8174   age090_m42            0.0000     1.9384E-05    58.5356  -0.0000   103.7721
  8      0.0000     0.0000E+00    0.0000E+00    4.000000E+07  0.00400  3.649E-03    0   0.7851   age104_m42            0.0000     1.8801E-05    56.7964  -0.1525   103.9174
  9      0.0000     0.0000E+00    0.0000E+00    5.500000E+07  0.00400  3.098E-03    0   0.7629   age110_m42            0.0000     1.8183E-05    55.5650  -0.0502   104.3107
 10      0.2700     2.3936E-02    3.0246E-02    1.015200E+08  0.00400  2.228E-03    0   0.7207   age116_m42            0.0000     1.7636E-05    54.2467  -0.0663   104.6895
 11      0.0000     0.0000E+00    0.0000E+00    2.861200E+08  0.00400  1.093E-03    0   0.6648   age125_m42            0.0000     1.6754E-05    52.3391  -0.5778   105.7836
 12      1.8105     5.4199E-01    6.0483E-01    5.088000E+08  0.00400  6.597E-04    0   0.6365   age130_m42            0.0000     1.6440E-05    51.4003  -0.6350   106.8163
 13      0.0000     0.0000E+00    0.0000E+00    1.434000E+09  0.00400  2.132E-04    0   0.5798   age139_m42            0.0000     1.8171E-05    51.1562  -1.0000   105.5504
 14      9.2839     3.1101E+01    2.9320E+01    4.250000E+09  0.00400  5.895E-05    0   0.5377   age158_m42            0.0000     2.5089E-05    68.4760  -1.0000   102.0786
 15      4.6702     2.6276E+01    2.4011E+01    7.500000E+09  0.00400  3.510E-05    0   0.5212   age171_m42            0.0000     2.8935E-05    76.8810  -1.0000   100.2918
 16      0.0000     0.0000E+00    0.0000E+00    1.300000E+10  0.00400  2.005E-05    0   0.5034   age193_m42            0.0000     3.3186E-05    85.5591  -1.0000    98.6357
 17      0.0000     0.0000E+00    0.0000E+00    1.800000E+10  0.00400  1.525E-05    0   0.4967   age213_m42            0.0000     3.4050E-05    87.0171  -1.0000    98.3005
 18      0.0000     0.0000E+00    0.0000E+00    1.000000E+06  0.00800  1.238E-02    0   1.0000   age020_m52            0.0000     2.3374E-05    70.2141   1.1190   100.4998
 19      0.0000     0.0000E+00    0.0000E+00    3.160000E+06  0.00800  3.074E-02    0   0.9966   age045_m52            0.0000     2.3077E-05    68.3466   1.0428   101.0425
 20      0.0000     0.0000E+00    0.0000E+00    5.010000E+06  0.00800  2.668E-02    0   0.9443   age055_m52            0.0000     2.1830E-05    64.4081   0.8153   101.9386
 21      0.0000     0.0000E+00    0.0000E+00    6.610000E+06  0.00800  2.136E-02    0   0.9177   age061_m52            0.0000     1.9750E-05    61.0261  -0.2936   104.1441
 22      0.0000     0.0000E+00    0.0000E+00    1.000000E+07  0.00800  1.215E-02    0   0.8827   age070_m52            0.0000     2.0068E-05    59.1736   0.4037   102.9985
 23      1.9333     4.3799E-02    6.5671E-02    1.445000E+07  0.00800  8.717E-03    0   0.8552   age078_m52            0.0000     2.0275E-05    59.6730   0.4717   103.0222
 24      0.0000     0.0000E+00    0.0000E+00    2.512000E+07  0.00800  5.592E-03    0   0.8162   age090_m52            0.0000     1.9094E-05    56.7016   0.1646   103.9992
 25      0.7029     3.5628E-02    4.8979E-02    4.000000E+07  0.00800  3.896E-03    0   0.7841   age104_m52            0.0000     1.8626E-05    55.9380  -0.0001   104.7330
 26      0.0000     0.0000E+00    0.0000E+00    1.015200E+08  0.00800  2.148E-03    0   0.7226   age116_m52            0.0000     1.8048E-05    53.9739  -0.0640   105.0570
 27     12.1839     2.4243E+00    2.8406E+00    2.861200E+08  0.00800  9.925E-04    0   0.6683   age125_m52            0.0000     1.6159E-05    50.0088  -0.5403   106.6533
 28      0.0000     0.0000E+00    0.0000E+00    9.047900E+08  0.00800  3.141E-04    0   0.6138   age135_m52            0.0000     1.7546E-05    48.5416  -1.0000   108.5128
 29      0.0000     0.0000E+00    0.0000E+00    1.434000E+09  0.00800  1.719E-04    0   0.5853   age139_m52            0.0000     2.2019E-05    58.7951  -1.0000   104.7220
 30      0.0000     0.0000E+00    0.0000E+00    2.500000E+09  0.00800  7.872E-05    0   0.5600   age150_m52            0.0000     2.7689E-05    72.0599  -1.0000   101.9308
 31      0.0000     0.0000E+00    0.0000E+00    4.250000E+09  0.00800  4.336E-05    0   0.5426   age158_m52            0.0000     2.9392E-05    75.2336  -1.0000   101.8094
 32      0.0000     0.0000E+00    0.0000E+00    6.250000E+09  0.00800  3.159E-05    0   0.5319   age166_m52            0.0000     3.4727E-05    84.1864  -1.0000   100.3360
 33      0.0000     0.0000E+00    0.0000E+00    1.300000E+10  0.00800  1.361E-05    0   0.5073   age193_m52            0.0000     4.8557E-05   102.9503  -1.0000    93.7842
 34      0.0226     4.5047E-01    3.9411E-01    1.800000E+10  0.00800  9.886E-06    0   0.4990   age213_m52            0.0000     5.4213E-05   108.0527  -1.0000    92.1254
 35      0.0000     0.0000E+00    0.0000E+00    1.000000E+06  0.02000  1.544E-02    0   1.0000   age020_m62            0.0000     2.3264E-05    69.9260   1.1204   100.5293
 36      0.1798     9.4407E-04    1.6317E-03    3.160000E+06  0.02000  3.762E-02    0   0.9858   age045_m62            0.0000     2.3195E-05    68.3425   1.0651   101.0140
 37      0.0000     0.0000E+00    0.0000E+00    5.010000E+06  0.02000  3.296E-02    0   0.9342   age055_m62            0.0000     2.0144E-05    61.2902   0.6910   102.9180
 38      0.0000     0.0000E+00    0.0000E+00    8.710000E+06  0.02000  1.154E-02    0   0.8861   age067_m62            0.0000     2.1172E-05    60.1044  -0.0000   102.6831
 39      0.2400     6.1860E-03    9.1885E-03    1.445000E+07  0.02000  7.663E-03    0   0.8472   age078_m62            0.0000     2.0060E-05    58.6899   0.1350   103.4588
 40      0.0000     0.0000E+00    0.0000E+00    2.512000E+07  0.02000  4.532E-03    0   0.8099   age090_m62            0.0000     2.0082E-05    57.5303   0.1267   103.2817
 41      4.2600     3.0783E-01    4.0990E-01    5.500000E+07  0.02000  2.733E-03    0   0.7595   age110_m62            0.0000     1.8778E-05    55.9026  -0.0002   104.2581
 42      0.0000     0.0000E+00    0.0000E+00    1.609000E+08  0.02000  1.369E-03    0   0.6985   age120_m62            0.0000     1.6747E-05    50.7871  -0.1622   105.6485
 43      0.0000     0.0000E+00    0.0000E+00    2.861200E+08  0.02000  9.013E-04    0   0.6714   age125_m62            0.0000     1.5945E-05    48.0592  -0.4152   107.1185
 44     64.8102     2.5456E+01    2.8782E+01    5.088000E+08  0.02000  5.028E-04    0   0.6449   age130_m62            0.0000     1.6416E-05    48.0427  -0.8374   109.1500
 45      1.2012     9.7703E-01    1.0585E+00    9.047900E+08  0.02000  2.428E-04    0   0.6179   age135_m62            0.0000     1.8659E-05    49.4869  -1.0000   108.0294
 46      0.0000     0.0000E+00    0.0000E+00    1.434000E+09  0.02000  1.263E-04    0   0.5908   age139_m62            0.0000     2.2725E-05    57.4015  -1.0000   105.5707
 47      0.0000     0.0000E+00    0.0000E+00    2.500000E+09  0.02000  5.985E-05    0   0.5673   age150_m62            0.0000     2.8818E-05    71.9705  -1.0000   102.4405
 48      0.0000     0.0000E+00    0.0000E+00    4.250000E+09  0.02000  3.271E-05    0   0.5468   age158_m62            0.0000     3.7251E-05    86.0100  -1.0000    99.4519
 49      0.0000     0.0000E+00    0.0000E+00    1.000000E+10  0.02000  1.360E-05    0   0.5167   age181_m62            0.0000     4.9430E-05   100.0581  -1.0000    94.7978
 50      0.0000     0.0000E+00    0.0000E+00    1.800000E+10  0.02000  7.124E-06    0   0.5013   age213_m62            0.0000     5.8863E-05   108.4657  -1.0000    91.1237
 51      0.0000     0.0000E+00    0.0000E+00    1.000000E+06  0.05000  2.592E-02    0   0.9998   age020_m72            0.0000     2.3473E-05    70.2235   1.1199   100.5660
 52      0.0000     0.0000E+00    0.0000E+00    3.160000E+06  0.05000  4.845E-02    0   0.9577   age045_m72            0.0000     2.2213E-05    65.2055   0.9409   101.7315
 53      0.0000     0.0000E+00    0.0000E+00    5.010000E+06  0.05000  3.072E-02    0   0.9147   age055_m72            0.0000     2.1348E-05    61.8612   0.6218   102.3291
 54      0.6599     8.9564E-03    1.3940E-02    6.610000E+06  0.05000  1.455E-02    0   0.8877   age061_m72            0.0000     2.1587E-05    59.6022   0.1939   101.9845
 55      0.3358     7.3080E-03    1.0922E-02    1.000000E+07  0.05000  9.074E-03    0   0.8524   age070_m72            0.0000     2.1494E-05    62.2501   0.7952   102.2151
 56      0.0000     0.0000E+00    0.0000E+00    2.512000E+07  0.05000  4.250E-03    0   0.7902   age090_m72            0.0000     2.0054E-05    57.7986   0.4996   103.0951
 57      0.0298     1.9060E-03    2.5458E-03    4.000000E+07  0.05000  3.087E-03    0   0.7618   age104_m72            0.0000     1.9117E-05    55.4612   0.3000   103.6074
 58      0.0000     0.0000E+00    0.0000E+00    1.015200E+08  0.05000  1.700E-03    0   0.7096   age116_m72            0.0000     1.6900E-05    50.9599  -0.0008   105.3120
 59      0.0000     0.0000E+00    0.0000E+00    2.861200E+08  0.05000  7.384E-04    0   0.6633   age125_m72            0.0000     1.5935E-05    48.0493  -0.5855   108.6610
 60      0.0000     0.0000E+00    0.0000E+00    5.088000E+08  0.05000  3.819E-04    0   0.6372   age130_m72            0.0000     1.7376E-05    49.0766  -1.0000   110.1556
 61      2.5023     2.9485E+00    3.1586E+00    9.047900E+08  0.05000  1.676E-04    0   0.6110   age135_m72            0.0000     2.3155E-05    56.5746  -1.0000   107.2491
 62      0.0000     0.0000E+00    0.0000E+00    1.434000E+09  0.05000  8.837E-05    0   0.5874   age139_m72            0.0000     2.9872E-05    71.4955  -1.0000   103.7767
 63      2.0016     9.3383E+00    9.1653E+00    2.500000E+09  0.05000  4.233E-05    0   0.5598   age150_m72            0.0000     3.8137E-05    85.5871  -1.0000   100.2099
 64      0.0000     0.0000E+00    0.0000E+00    6.250000E+09  0.05000  1.435E-05    0   0.5249   age166_m72            0.0000     5.3757E-05   104.5212  -1.0000    93.3629
 65      0.0000     0.0000E+00    0.0000E+00    1.300000E+10  0.05000  6.513E-06    0   0.5036   age193_m72            0.0000     6.7747E-05   114.7190  -1.0000    89.5891
 66      0.0000     0.0000E+00    0.0000E+00    1.800000E+10  0.05000  4.527E-06    0   0.4945   age213_m72            0.0000     7.6279E-05   120.0198  -1.0000    86.3752


## Synthesis Results - Average & Chains ##

# j      x_j: min, <> & last-chain-values for 1 ...  7 chains
  1      0.0000      0.3586      0.1618      0.3682      0.0000      0.0179      0.7588      0.8856      0.0000
  2      0.0000      0.2235      0.0763      0.1996      0.0010      0.0250      0.6411      0.1428      1.2375
  3      0.0000      0.2437      0.0000      0.0000      0.0000      0.0606      1.5402      0.0671      0.1322
  4      0.0000      0.2309      0.1360      0.1458      0.0024      0.0845      0.1429      0.0000      0.0000
  5      0.0000      0.2413      0.0000      0.0414      0.0000      0.1060      0.2614      0.2097      0.0000
  6      0.0000      0.1957      0.0028      0.0000      0.0985      0.1282      0.4254      0.1540      0.0411
  7      1.3335      0.2927      0.1238      0.2643      0.0000      0.1650      1.1830      0.1448      0.3195
  8      0.0000      0.3598      0.0000      0.9701      0.0000      0.1730      0.7365      0.2327      2.6123
  9      0.0000      0.2283      0.1303      0.1876      0.0000      0.0462      0.5590      0.1922      0.1138
 10      0.2700      0.2597      0.0341      0.2494      0.0000      0.1528      0.0000      0.2599      1.5333
 11      0.0000      0.2974      0.0000      0.3114      0.1169      0.1210      0.5457      0.1129      0.9698
 12      1.8105      0.2468      0.0721      0.0000      0.0000      0.0000      0.2542      0.1275      0.1886
 13      0.0000      0.1901      0.0093      0.2386      0.0000      0.0215      0.0437      0.0000      0.0000
 14      9.2839      0.2298      0.0000      0.0444      0.0000      0.0000      0.0259      0.8255      0.2525
 15      4.6702      0.2479      0.0000      0.0000      0.0674      0.0728      0.0203      0.0184      0.8212
 16      0.0000      0.2078      0.0000      0.1921      0.0000      0.0000      0.3784      0.0579      0.6068
 17      0.0000      0.2432      0.0000      0.3563      0.0000      0.0540      0.0000      0.0000      0.1584
 18      0.0000      0.1825      0.0529      0.3270      0.0000      0.2260      0.0000      0.1182      0.7913
 19      0.0000      0.2032      0.0581      0.0000      0.0000      0.0823      0.0718      0.0000      0.2292
 20      0.0000      0.2481      0.0970      0.0992      0.1727      0.0235      0.3022      0.3396      0.1596
 21      0.0000      0.2741      0.1938      0.0957      0.0080      0.2527      0.9367      0.3212      0.0000
 22      0.0000      0.2352      0.2167      0.3389      0.0020      0.0591      0.5007      0.0277      0.1805
 23      1.9333      0.2822      0.0166      0.4858      0.0000      0.0193      0.0113      0.1346      0.4814
 24      0.0000      0.2449      0.0086      0.2117      0.0000      0.0000      0.0000      0.0000      1.3455
 25      0.7029      0.2500      0.0000      0.1879      0.0000      0.3580      0.0868      0.1834      1.1190
 26      0.0000      0.3211      0.0412      0.3622      0.0000      0.0000      0.8006      0.2912      0.5264
 27     12.1839      0.2743      0.0534      0.0000      0.0140      0.0005      0.3083      0.0295      2.1792
 28      0.0000      0.2239      0.0000      0.1801      0.0000      0.0000      0.3327      0.0510      0.1389
 29      0.0000      0.2509      0.1334      0.2060      0.0772      0.1130      0.1814      0.1214      0.0823
 30      0.0000      0.2705      0.0284      0.1902      0.0000      0.0000      0.8096      0.0000      0.0989
 31      0.0000      0.2580      0.0000      0.2805      0.0000      0.2083      0.1086      0.1026      0.0000
 32      0.0000      0.1659      0.0552      0.0516      0.0000      0.0359      0.0000      0.2652      0.0000
 33      0.0000      0.2725      0.0000      0.0000      0.0000      0.0000      0.1985      0.1450      0.0000
 34      0.0226      0.2289      0.1680      0.0604      0.1441      0.1862      0.0000      0.0000      0.4392
 35      0.0000      0.2088      0.0065      0.2486      0.0001      0.0000      0.6592      0.1175      0.0536
 36      0.1798      0.3108      0.0000      0.0442      0.0047      0.0085      0.7969      0.0000      1.3649
 37      0.0000      0.2027      0.0443      0.0000      0.0216      0.0000      0.0004      0.2995      0.2014
 38      0.0000      0.2827      0.0483      0.1337      0.0033      0.1896      0.0000      0.4733      0.1592
 39      0.2400      0.2942      0.0504      0.2964      0.0000      0.0000      0.2450      0.4293      0.8865
 40      0.0000      0.2413      0.0000      0.1156      0.0081      0.0000      0.0000      0.0000      0.7225
 41      4.2600      0.3655      0.0053      0.8476      0.0037      0.0458      0.0000      0.0000      0.7182
 42      0.0000      0.3452      0.0808      0.4927      0.0000      0.0036      0.9432      0.0000      0.1312
 43      0.0000      0.2546      0.0000      0.2672      0.0000      0.0000      0.2368      0.0000      0.0000
 44     64.8102      0.3082      0.1073      0.0271      0.0104      0.1105      1.1058      0.3159      0.3942
 45      1.2012      0.1645      0.0000      0.0457      0.0000      0.0094      0.1509      0.1220      0.6666
 46      0.0000      0.2199      0.0219      0.0867      0.0011      0.0069      1.3951      0.0677      0.0000
 47      0.0000      0.1769      0.1367      0.0000      0.0000      0.1147      0.0000      0.0000      0.0000
 48      0.0000      0.3115      0.0062      0.0000      0.0000      0.0420      0.0726      0.0023      0.8750
 49      0.0000      0.2695      0.0000      0.1422      0.0000      0.2087      0.0000      0.0471      0.1187
 50      0.0000      0.2815      0.0243      0.0150      0.0000      0.0398      0.1416      0.0000      0.1005
 51      0.0000      0.2172      0.1279      0.3641      0.0000      0.0486      0.1538      0.1335      0.2271
 52      0.0000      0.1993      0.0779      0.0904      0.0228      0.1220      0.4447      0.1312      0.5761
 53      0.0000      0.1817      0.0100      0.2590      0.0092      0.0954      0.2418      0.1093      0.5715
 54      0.6599     82.8152     96.2330     87.2708     98.4416     94.9563     74.6447     90.7283     71.5698
 55      0.3358      0.2038      0.1888      0.0357      0.0808      0.1255      0.1746      0.2497      0.2073
 56      0.0000      0.3214      0.0125      0.2800      0.0058      0.2095      2.4204      0.3083      0.9551
 57      0.0298      0.2971      0.0440      0.1271      0.0000      0.0000      0.0066      0.0000      0.6889
 58      0.0000      0.3312      0.0474      0.7667      0.0439      0.0423      0.7632      0.0000      0.0000
 59      0.0000      0.2086      0.1627      0.2703      0.0387      0.0106      0.1499      0.0679      0.1093
 60      0.0000      0.3722      0.0204      0.1258      0.0059      0.0000      0.5537      0.1039      0.0000
 61      2.5023      0.2542      0.0154      0.0000      0.0000      0.2340      0.5016      0.0000      0.3506
 62      0.0000      0.2451      0.0153      0.2176      0.0000      0.0698      0.8572      0.0000      0.0000
 63      2.0016      0.2284      0.0366      0.0000      0.0000      0.0000      0.0000      0.1058      0.2893
 64      0.0000      0.2733      0.0492      0.0000      0.0000      0.0000      0.0000      0.0995      0.1709
 65      0.0000      0.2892      0.0000      0.0235      0.0361      0.0000      0.0000      0.0000      0.3284
 66      0.0000      0.2926      0.0921      0.1484      0.1451      0.0680      0.3729      0.1026      0.0000

# j      m_j: min, <> & last-chain-values for 1 ...  7 chains
  1  0.0000E+00  1.9623E-02  4.5715E-02  5.4556E-02  0.0000E+00  3.7527E-03  6.7523E-02  1.7329E-01  0.0000E+00
  2  0.0000E+00  3.3384E-03  5.8897E-03  8.0753E-03  7.4012E-05  1.4284E-03  1.5574E-02  7.6276E-03  2.3211E-02
  3  0.0000E+00  5.4512E-03  0.0000E+00  0.0000E+00  0.0000E+00  5.1980E-03  5.6029E-02  5.3683E-03  3.7137E-03
  4  0.0000E+00  4.8635E-03  1.4800E-02  8.3158E-03  2.5731E-04  6.8167E-03  4.8957E-03  0.0000E+00  0.0000E+00
  5  0.0000E+00  9.6832E-03  0.0000E+00  4.4996E-03  0.0000E+00  1.6301E-02  1.7059E-02  3.0093E-02  0.0000E+00
  6  0.0000E+00  1.2740E-02  9.4689E-04  0.0000E+00  3.2083E-02  3.1959E-02  4.5021E-02  3.5843E-02  3.3554E-03
  7  7.1874E-02  2.7273E-02  5.9566E-02  6.6700E-02  0.0000E+00  5.8927E-02  1.7927E-01  4.8247E-02  3.7380E-02
  8  0.0000E+00  4.6344E-02  0.0000E+00  3.3834E-01  0.0000E+00  8.5381E-02  1.5427E-01  1.0716E-01  4.2246E-01
  9  0.0000E+00  3.3657E-02  9.9176E-02  7.4869E-02  0.0000E+00  2.6120E-02  1.3401E-01  1.0133E-01  2.1073E-02
 10  3.0246E-02  5.0292E-02  3.4135E-02  1.3077E-01  0.0000E+00  1.1339E-01  0.0000E+00  1.7995E-01  3.7280E-01
 11  0.0000E+00  1.0829E-01  0.0000E+00  3.0706E-01  2.1303E-01  1.6880E-01  3.2312E-01  1.4706E-01  4.4336E-01
 12  6.0483E-01  1.4254E-01  2.1497E-01  0.0000E+00  4.0205E-05  0.0000E+00  2.3879E-01  2.6330E-01  1.3676E-01
 13  0.0000E+00  3.0952E-01  7.8001E-02  1.0521E+00  0.0000E+00  1.3428E-01  1.1575E-01  0.0000E+00  0.0000E+00
 14  2.9320E+01  1.2547E+00  0.0000E+00  6.5659E-01  0.0000E+00  0.0000E+00  2.2990E-01  1.6118E+01  1.7310E+00
 15  2.4011E+01  2.2033E+00  0.0000E+00  0.0000E+00  3.0001E+00  2.4804E+00  2.9284E-01  5.8531E-01  9.1650E+00
 16  0.0000E+00  3.1230E+00  0.0000E+00  7.8198E+00  0.0000E+00  0.0000E+00  9.2473E+00  3.1107E+00  1.1451E+01
 17  0.0000E+00  4.7421E+00  0.0000E+00  1.8813E+01  0.0000E+00  4.0323E+00  0.0000E+00  0.0000E+00  3.8788E+00
 18  0.0000E+00  8.8222E-03  1.3215E-02  4.2822E-02  0.0000E+00  4.1878E-02  0.0000E+00  2.0445E-02  4.8044E-02
 19  0.0000E+00  3.9440E-03  5.8219E-03  0.0000E+00  0.0000E+00  6.1232E-03  2.2651E-03  0.0000E+00  5.5859E-03
 20  0.0000E+00  5.2562E-03  1.0613E-02  5.6909E-03  1.8309E-02  1.9103E-03  1.0412E-02  2.5731E-02  4.2466E-03
 21  0.0000E+00  7.0492E-03  2.5747E-02  6.6676E-03  1.0269E-03  2.4905E-02  3.9178E-02  2.9544E-02  0.0000E+00
 22  0.0000E+00  1.0230E-02  4.8671E-02  3.9912E-02  4.2862E-04  9.8409E-03  3.5412E-02  4.3147E-03  9.8546E-03
 23  6.5671E-02  1.6571E-02  5.0463E-03  7.7257E-02  0.0000E+00  4.3367E-03  1.0806E-03  2.8269E-02  3.5501E-02
 24  0.0000E+00  2.1396E-02  3.8601E-03  5.0097E-02  0.0000E+00  0.0000E+00  0.0000E+00  0.0000E+00  1.4761E-01
 25  4.8979E-02  3.0119E-02  0.0000E+00  6.1290E-02  0.0000E+00  1.6525E-01  1.6996E-02  7.9003E-02  1.6928E-01
 26  0.0000E+00  6.4662E-02  4.2852E-02  1.9752E-01  0.0000E+00  0.0000E+00  2.6217E-01  2.0971E-01  1.3309E-01
 27  2.8406E+00  1.1056E-01  1.1124E-01  0.0000E+00  2.8230E-02  7.5248E-04  2.0210E-01  4.2481E-02  1.1029E+00
 28  0.0000E+00  2.6195E-01  0.0000E+00  5.7042E-01  0.0000E+00  0.0000E+00  6.3282E-01  2.1345E-01  2.0405E-01
 29  0.0000E+00  5.1141E-01  1.4039E+00  1.1370E+00  7.8799E-01  8.8258E-01  6.0131E-01  8.8502E-01  2.1057E-01
 30  0.0000E+00  1.1517E+00  6.2440E-01  2.1939E+00  0.0000E+00  0.0000E+00  5.6062E+00  0.0000E+00  5.2855E-01
 31  0.0000E+00  1.9325E+00  0.0000E+00  5.6900E+00  0.0000E+00  5.9800E+00  1.3235E+00  2.7495E+00  0.0000E+00
 32  0.0000E+00  1.6724E+00  2.8722E+00  1.4088E+00  0.0000E+00  1.3854E+00  0.0000E+00  9.5601E+00  0.0000E+00
 33  0.0000E+00  6.0807E+00  0.0000E+00  0.0000E+00  0.0000E+00  0.0000E+00  7.2016E+00  1.1574E+01  0.0000E+00
 34  3.9411E-01  6.9155E+00  2.6223E+01  4.9426E+00  2.1797E+01  2.1552E+01  0.0000E+00  0.0000E+00  1.6661E+01
 35  0.0000E+00  8.0933E-03  1.2949E-03  2.6102E-02  2.4074E-05  0.0000E+00  4.1559E-02  1.6296E-02  2.6090E-03
 36  1.6317E-03  4.8752E-03  0.0000E+00  1.8763E-03  3.7155E-04  5.0923E-04  2.0329E-02  0.0000E+00  2.6884E-02
 37  0.0000E+00  3.4393E-03  3.8842E-03  0.0000E+00  1.8317E-03  0.0000E+00  1.1358E-05  1.8173E-02  4.2910E-03
 38  0.0000E+00  1.2996E-02  1.1477E-02  1.6647E-02  7.5355E-04  3.3387E-02  0.0000E+00  7.7804E-02  9.1881E-03
 39  9.1885E-03  1.9470E-02  1.7228E-02  5.3124E-02  0.0000E+00  0.0000E+00  2.6366E-02  1.0160E-01  7.3668E-02
 40  0.0000E+00  2.5812E-02  0.0000E+00  3.3501E-02  4.3562E-03  0.0000E+00  0.0000E+00  0.0000E+00  9.7048E-02
 41  4.0990E-01  6.0806E-02  4.5869E-03  3.8182E-01  3.0779E-03  2.9182E-02  0.0000E+00  0.0000E+00  1.5002E-01
 42  0.0000E+00  1.0544E-01  1.2739E-01  4.0751E-01  0.0000E+00  4.1860E-03  4.6845E-01  0.0000E+00  5.0323E-02
 43  0.0000E+00  1.1353E-01  0.0000E+00  3.2262E-01  0.0000E+00  0.0000E+00  1.7170E-01  0.0000E+00  0.0000E+00
 44  2.8782E+01  2.3667E-01  4.2548E-01  5.6258E-02  3.9852E-02  3.2497E-01  1.3807E+00  8.6747E-01  3.8002E-01
 45  1.0585E+00  2.5056E-01  0.0000E+00  1.8872E-01  0.0000E+00  5.4899E-02  3.7381E-01  6.6462E-01  1.2751E+00
 46  0.0000E+00  6.1563E-01  3.1696E-01  6.5772E-01  1.6103E-02  7.4340E-02  6.3526E+00  6.7753E-01  0.0000E+00
 47  0.0000E+00  1.0039E+00  4.0068E+00  0.0000E+00  0.0000E+00  2.4938E+00  0.0000E+00  0.0000E+00  0.0000E+00
 48  0.0000E+00  3.1169E+00  3.2174E-01  0.0000E+00  0.0000E+00  1.6093E+00  1.1814E+00  8.3066E-02  1.0994E+01
 49  0.0000E+00  6.1290E+00  0.0000E+00  8.7549E+00  0.0000E+00  1.8183E+01  0.0000E+00  3.8329E+00  3.3910E+00
 50  0.0000E+00  1.1856E+01  5.2821E+00  1.7059E+00  0.0000E+00  6.4304E+00  9.6998E+00  0.0000E+00  5.3172E+00
 51  0.0000E+00  5.0162E-03  1.5253E-02  2.2769E-02  0.0000E+00  4.2959E-03  5.7747E-03  1.1023E-02  6.5848E-03
 52  0.0000E+00  2.3579E-03  4.7634E-03  2.8961E-03  1.3497E-03  5.5295E-03  8.5562E-03  5.5503E-03  8.5596E-03
 53  0.0000E+00  3.2395E-03  9.2471E-04  1.2501E-02  8.2298E-04  6.5161E-03  7.0090E-03  6.9684E-03  1.2791E-02
 54  1.3940E-02  3.0245E+00  1.8152E+01  8.6312E+00  1.7995E+01  1.3288E+01  4.4332E+00  1.1850E+01  3.2820E+00
 55  1.0922E-02  1.1462E-02  5.4826E-02  5.4403E-03  2.2743E-02  2.7045E-02  1.5969E-02  5.0210E-02  1.4638E-02
 56  0.0000E+00  3.5772E-02  7.2094E-03  8.4400E-02  3.2564E-03  8.9356E-02  4.3807E-01  1.2273E-01  1.3348E-01
 57  2.5458E-03  4.3891E-02  3.3575E-02  5.0846E-02  0.0000E+00  0.0000E+00  1.5791E-03  0.0000E+00  1.2777E-01
 58  0.0000E+00  8.2755E-02  6.1165E-02  5.1881E-01  5.4892E-02  4.0479E-02  3.1012E-01  0.0000E+00  0.0000E+00
 59  0.0000E+00  1.1216E-01  4.5189E-01  3.9364E-01  1.0413E-01  2.1920E-02  1.3107E-01  1.3058E-01  7.3805E-02
 60  0.0000E+00  3.7171E-01  1.0517E-01  3.4013E-01  2.9702E-02  0.0000E+00  8.9935E-01  3.7121E-01  0.0000E+00
 61  3.1586E+00  5.5484E-01  1.7331E-01  0.0000E+00  0.0000E+00  1.9565E+00  1.7802E+00  0.0000E+00  9.6070E-01
 62  0.0000E+00  9.7523E-01  3.1507E-01  2.3451E+00  0.0000E+00  1.0636E+00  5.5468E+00  0.0000E+00  0.0000E+00
 63  9.1653E+00  1.8082E+00  1.4952E+00  0.0000E+00  0.0000E+00  0.0000E+00  0.0000E+00  2.9940E+00  2.8754E+00
 64  0.0000E+00  5.9839E+00  5.5696E+00  0.0000E+00  0.0000E+00  0.0000E+00  0.0000E+00  7.7878E+00  4.6990E+00
 65  0.0000E+00  1.3385E+01  0.0000E+00  2.9442E+00  8.3619E+00  0.0000E+00  0.0000E+00  0.0000E+00  1.9084E+01
 66  0.0000E+00  1.9134E+01  3.1097E+01  2.6283E+01  4.7481E+01  1.7039E+01  3.9649E+01  2.3996E+01  0.0000E+00

# AV, chi2 & Mass for <> & i_chain = 1 ...  7 solutions
AV      -1.0000      0.5454      0.4483      0.4333      0.4440      0.4378      0.4399      0.4269      0.3964
chi2 1.6589E-05  2.2901E-05  2.1986E-05  2.1804E-05  2.2016E-05  2.1990E-05  2.1795E-05  2.1892E-05  2.1662E-05
Mass 7.4257E-15  3.4231E-14  5.8171E-15  1.0874E-14  5.9679E-15  7.7313E-15  1.8269E-14  8.1635E-15  2.2318E-14
 149.62                                  [v0_min (km/s) before EX0s...]
   0.00                                  [vd_min (km/s) before EX0s...]


## Synthetic spectrum (Best Model) ##l_obs f_obs f_syn wei
 3478    [Nl_obs]
 3741.00   -0.00027   0.64513    0.000
 3742.00    0.06355   0.69206    0.000
 3743.00    0.03651   0.70374    0.000
 3744.00    0.07625   0.68433    0.000
 3745.00    0.15490   0.65553    0.027
 3746.00    0.37414   0.62740    0.027
 3747.00    0.66477   0.58830    0.027
 3748.00    0.29127   0.54468    0.028
 3749.00   -0.37427   0.49969    0.000
 3750.00   -0.25259   0.43210    0.000
 3751.00    0.16630   0.37151    0.028
 3752.00    0.17496   0.37343    0.027
 3753.00    0.05214   0.43994    0.027
 3754.00   -0.11012   0.52209    0.000
 3755.00   -0.28296   0.59196    0.000
 3756.00   -0.19893   0.65776    0.000
 3757.00   -0.05852   0.70767    0.000
 3758.00    0.01784   0.71611    0.025
 3759.00    0.08302   0.68022    0.025
 3760.00    0.13231   0.64672    0.031
 3761.00    0.17948   0.65550    0.043
 3762.00    0.30396   0.68427    0.032
 3763.00    0.43571   0.70285    0.024
 3764.00    0.39702   0.70973    0.024
 3765.00    0.34850   0.70019    0.024
 3766.00    0.65450   0.68376    0.026
 3767.00    0.96716   0.66542    0.029
 3768.00    1.06755   0.62169    0.028
 3769.00    1.14043   0.56718    0.027
 3770.00    0.54522   0.52602    0.025
 3771.00    0.00163   0.48019    0.022
 3772.00    0.13440   0.43566    0.022
 3773.00    0.28018   0.44569    0.022
 3774.00    0.54015   0.51193    0.022
 3775.00    0.75159   0.57933    0.022
 3776.00    0.64839   0.62249    0.022
 3777.00    0.53256   0.65697    0.023
 3778.00    0.35273   0.70035    0.022
 3779.00    0.19910   0.74626    0.022
 3780.00    0.15262   0.78265    0.022
 3781.00    0.09254   0.81918    0.022
 3782.00   -0.01373   0.85374    0.000
 3783.00   -0.05971   0.86950    0.000
 3784.00    0.06674   0.87126    0.023
 3785.00    0.14406   0.87829    0.024
 3786.00    0.10138   0.88756    0.024
 3787.00    0.10391   0.86526    0.024
 3788.00    0.20176   0.81491    0.024
 3789.00    0.34104   0.77922    0.024
 3790.00    0.55621   0.76044    0.024
 3791.00    0.67779   0.74300    0.023
 3792.00    0.64956   0.73057    0.023
 3793.00    0.59822   0.72115    0.023
 3794.00    0.51442   0.69353    0.023
 3795.00    0.73841   0.64056    0.023
 3796.00    1.34283   0.57738    0.023
 3797.00    1.34435   0.51978    0.023
 3798.00    0.68902   0.46317    0.023
 3799.00    0.23770   0.40350    0.022
 3800.00   -0.01755   0.37837    0.000
 3801.00   -0.01869   0.42108    0.000
 3802.00    0.19552   0.50534    0.023
 3803.00    0.55131   0.58484    0.024
 3804.00    1.01275   0.65102    0.024
 3805.00    1.12255   0.70998    0.024
 3806.00    1.00183   0.74815    0.023
 3807.00    0.67862   0.76294    0.022
 3808.00    0.23920   0.76542    0.021
 3809.00    0.12994   0.77992    0.021
 3810.00    0.18571   0.82303    0.021
 3811.00    0.32379   0.87412    0.023
 3812.00    0.49746   0.90786    0.025
 3813.00    0.76202   0.91419    0.024
 3814.00    1.06027   0.88866    0.023
 3815.00    1.04671   0.84782    0.022
 3816.00    0.93513   0.82284    0.022
 3817.00    0.80557   0.82042    0.024
 3818.00    0.67130   0.84050    0.026
 3819.00    0.71539   0.87648    0.024
 3820.00    0.79769   0.88707    0.023
 3821.00    0.66585   0.84827    0.023
 3822.00    0.49765   0.80150    0.023
 3823.00    0.32129   0.80370    0.022
 3824.00    0.14388   0.83538    0.022
 3825.00    0.03213   0.82791    0.021
 3826.00   -0.07373   0.77286    0.000
 3827.00    0.21240   0.72499    0.022
 3828.00    0.51961   0.70479    0.023
 3829.00    0.76926   0.68943    0.024
 3830.00    1.01377   0.66502    0.024
 3831.00    0.92155   0.63963    0.024
 3832.00    0.84835   0.61536    0.023
 3833.00    1.19757   0.56982    0.024
 3834.00    1.50458   0.49863    0.024
 3835.00    1.28691   0.43163    0.024
 3836.00    1.04401   0.38053    0.023
 3837.00    0.58785   0.35774    0.024
 3838.00    0.23559   0.37968    0.024
 3839.00    0.53689   0.42340    0.023
 3840.00    0.75949   0.46616    0.022
 3841.00    0.59379   0.51147    0.022
 3842.00    0.43713   0.55783    0.022
 3843.00    0.31666   0.61484    0.021
 3844.00    0.23235   0.68472    0.021
 3845.00    0.26829   0.74065    0.022
 3846.00    0.30921   0.77435    0.022
 3847.00    0.36413   0.79263    0.000
 3848.00    0.46691   0.81178    0.000
 3849.00    0.68465   0.84349    0.000
 3850.00    0.89777   0.86466    0.000
 3851.00    1.10132   0.85706    0.000
 3852.00    1.08777   0.85457    0.000
 3853.00    0.68266   0.88791    0.000
 3854.00    0.35992   0.92223    0.000
 3855.00    0.16706   0.93063    0.000
 3856.00    0.33608   0.92314    0.000
 3857.00    1.00604   0.90430    0.000
 3858.00    1.29718   0.89255    0.000
 3859.00    1.12672   0.90761    0.000
 3860.00    1.00192   0.90903    0.000
 3861.00    0.92616   0.88640    0.000
 3862.00    0.96944   0.89163    0.000
 3863.00    1.12552   0.93095    0.000
 3864.00    0.99393   0.96002    0.000
 3865.00    0.62202   0.96768    0.000
 3866.00    0.57291   0.96615    0.000
 3867.00    0.76123   0.95423    0.000
 3868.00    0.84795   0.94478    0.000
 3869.00    0.86904   0.94962    0.000
 3870.00    0.69125   0.95830    0.000
 3871.00    0.40108   0.95724    0.000
 3872.00    0.60396   0.93669    0.000
 3873.00    1.04938   0.89586    0.000
 3874.00    0.95819   0.85222    0.000
 3875.00    0.63882   0.84444    0.000
 3876.00    0.41547   0.87237    0.000
 3877.00    0.22710   0.89459    0.000
 3878.00    0.35770   0.87990    0.000
 3879.00    0.58662   0.82408    0.000
 3880.00    0.71461   0.76257    0.000
 3881.00    0.81668   0.75226    0.023
 3882.00    0.77088   0.76966    0.022
 3883.00    0.69416   0.75037    0.021
 3884.00    0.46082   0.70673    0.021
 3885.00    0.20166   0.67948    0.021
 3886.00    0.30701   0.65427    0.021
 3887.00    0.45750   0.59268    0.021
 3888.00    0.31690   0.51320    0.021
 3889.00    0.15138   0.45107    0.021
 3890.00    0.15767   0.40268    0.021
 3891.00    0.17253   0.38370    0.021
 3892.00    0.54519   0.42795    0.021
 3893.00    0.91359   0.50803    0.021
 3894.00    0.62908   0.57942    0.021
 3895.00    0.36274   0.62634    0.020
 3896.00    0.46816   0.65648    0.020
 3897.00    0.59174   0.68105    0.020
 3898.00    0.93006   0.71841    0.020
 3899.00    1.18527   0.76035    0.020
 3900.00    0.76347   0.77682    0.019
 3901.00    0.38710   0.77874    0.019
 3902.00    0.28825   0.79851    0.018
 3903.00    0.24138   0.84329    0.018
 3904.00    0.44460   0.86842    0.018
 3905.00    0.60344   0.86671    0.017
 3906.00    0.58842   0.87102    0.018
 3907.00    0.59440   0.86474    0.018
 3908.00    0.66881   0.86392    0.018
 3909.00    0.71958   0.90428    0.018
 3910.00    0.70512   0.95618    0.019
 3911.00    0.76108   0.98714    0.019
 3912.00    0.98333   1.00041    0.020
 3913.00    1.21027   1.00940    0.020
 3914.00    1.44682   1.00593    0.021
 3915.00    1.46976   0.98149    0.022
 3916.00    1.11331   0.97001    0.022
 3917.00    1.01290   0.98164    0.022
 3918.00    1.31031   0.98019    0.023
 3919.00    1.56997   0.97107    0.023
 3920.00    1.77810   0.96244    0.023
 3921.00    1.61861   0.94811    0.023
 3922.00    1.01750   0.93614    0.022
 3923.00    0.73271   0.93800    0.022
 3924.00    0.78293   0.95073    0.021
 3925.00    0.73325   0.96172    0.022
 3926.00    0.59025   0.96933    0.022
 3927.00    0.52848   0.95737    0.022
 3928.00    0.53363   0.92757    0.022
 3929.00    0.62192   0.89626    0.022
 3930.00    0.77048   0.86143    0.022
 3931.00    0.71135   0.82281    0.022
 3932.00    0.52005   0.77634    0.021
 3933.00    0.46784   0.71002    0.021
 3934.00    0.49304   0.60818    0.021
 3935.00    0.67599   0.50386    0.021
 3936.00    0.93530   0.48795    0.021
 3937.00    1.13347   0.58002    0.021
 3938.00    1.30607   0.70123    0.021
 3939.00    1.11232   0.78744    0.021
 3940.00    0.78752   0.83902    0.021
 3941.00    0.85274   0.88107    0.021
 3942.00    1.03585   0.91352    0.021
 3943.00    1.21040   0.92355    0.021
 3944.00    1.38281   0.91767    0.021
 3945.00    1.29449   0.89970    0.021
 3946.00    1.15299   0.88715    0.021
 3947.00    1.03558   0.91202    0.021
 3948.00    0.92203   0.94819    0.021
 3949.00    0.76190   0.94614    0.021
 3950.00    0.59621   0.92187    0.021
 3951.00    0.83987   0.91519    0.021
 3952.00    1.11687   0.92746    0.022
 3953.00    1.24113   0.92772    0.022
 3954.00    1.35836   0.90773    0.022
 3955.00    1.06551   0.90142    0.022
 3956.00    0.77241   0.91781    0.022
 3957.00    0.73898   0.90559    0.022
 3958.00    0.71906   0.85832    0.022
 3959.00    0.95523   0.82894    0.022
 3960.00    1.16105   0.83298    0.000
 3961.00    1.02478   0.83531    0.000
 3962.00    0.91958   0.80005    0.000
 3963.00    1.05858   0.73198    0.000
 3964.00    1.15434   0.67719    0.000
 3965.00    0.99355   0.64641    0.000
 3966.00    0.76462   0.61064    0.000
 3967.00    0.21580   0.55508    0.000
 3968.00   -0.14905   0.47931    0.000
 3969.00    0.19112   0.39005    0.000
 3970.00    0.42160   0.30750    0.000
 3971.00    0.30151   0.26391    0.000
 3972.00    0.20117   0.27718    0.000
 3973.00    0.15430   0.33740    0.000
 3974.00    0.12899   0.41422    0.000
 3975.00    0.15372   0.48326    0.000
 3976.00    0.23639   0.54688    0.000
 3977.00    0.43541   0.60948    0.000
 3978.00    0.55719   0.65804    0.000
 3979.00    0.54388   0.69838    0.000
 3980.00    0.49976   0.74411    0.000
 3981.00    0.40850   0.79080    0.021
 3982.00    0.50841   0.82677    0.021
 3983.00    0.86541   0.83838    0.021
 3984.00    1.00404   0.83564    0.021
 3985.00    0.88405   0.84623    0.021
 3986.00    0.78347   0.87153    0.021
 3987.00    0.70317   0.89877    0.021
 3988.00    0.76694   0.91405    0.021
 3989.00    0.96341   0.92829    0.020
 3990.00    1.12017   0.95402    0.020
 3991.00    1.24471   0.96413    0.020
 3992.00    1.14591   0.96133    0.020
 3993.00    0.88754   0.97308    0.020
 3994.00    0.69400   0.99596    0.020
 3995.00    0.54111   1.01261    0.020
 3996.00    0.68581   1.00975    0.020
 3997.00    0.99359   0.99642    0.020
 3998.00    1.03874   0.97981    0.020
 3999.00    0.95880   0.96143    0.020
 4000.00    0.88307   0.96245    0.020
 4001.00    0.80907   0.99956    0.020
 4002.00    0.91198   1.03486    0.020
 4003.00    1.07703   1.03895    0.020
 4004.00    1.01804   1.03588    0.020
 4005.00    0.89268   1.03690    0.020
 4006.00    0.86291   1.01086    0.020
 4007.00    0.85663   0.95940    0.020
 4008.00    1.07823   0.94868    0.035
 4009.00    1.34515   0.99196    0.296
 4010.00    1.11666   1.03062   -1.000
 4011.00    0.81119   1.03920   -1.000
 4012.00    0.84150   1.03916   -1.000
 4013.00    0.91042   1.04015   -1.000
 4014.00    1.00000   1.03292   -1.000
 4015.00    1.09118   1.03157   -1.000
 4016.00    1.05187   1.03854   -1.000
 4017.00    1.00706   1.05036   -1.000
 4018.00    0.98140   1.05598   -1.000
 4019.00    0.95768   1.04615   -1.000
 4020.00    1.01117   1.04937   -1.000
 4021.00    1.06259   1.07413    0.765
 4022.00    1.07753   1.08425    0.039
 4023.00    1.11233   1.06931    0.021
 4024.00    1.36093   1.05299    0.021
 4025.00    1.56861   1.04301    0.021
 4026.00    1.46571   1.02161    0.021
 4027.00    1.38109   1.00962    0.021
 4028.00    1.40192   1.03297    0.021
 4029.00    1.33611   1.06191    0.022
 4030.00    0.87319   1.07007    0.021
 4031.00    0.60455   1.05010    0.021
 4032.00    1.06462   1.00313    0.021
 4033.00    1.35320   0.96831    0.021
 4034.00    1.10412   0.96507    0.020
 4035.00    0.84998   0.97198    0.020
 4036.00    0.58235   0.98756    0.020
 4037.00    0.42605   1.01343    0.019
 4038.00    0.52396   1.04831    0.020
 4039.00    0.68335   1.08134    0.020
 4040.00    0.96426   1.09459    0.020
 4041.00    1.07862   1.08549    0.020
 4042.00    0.90607   1.06361    0.020
 4043.00    0.90020   1.05230    0.021
 4044.00    1.14576   1.06352    0.021
 4045.00    1.20748   1.06116    0.020
 4046.00    1.02553   1.01070    0.020
 4047.00    0.94760   0.93863    0.020
 4048.00    0.99111   0.92237    0.020
 4049.00    1.04810   0.98492    0.020
 4050.00    1.11898   1.04115    0.020
 4051.00    1.03837   1.05180    0.020
 4052.00    0.82020   1.05591    0.020
 4053.00    0.77919   1.05747    0.020
 4054.00    0.87998   1.04179    0.020
 4055.00    0.80605   1.01971    0.020
 4056.00    0.60911   1.00206    0.020
 4057.00    0.58676   0.99777    0.020
 4058.00    0.67227   1.00318    0.020
 4059.00    0.83313   0.99294    0.020
 4060.00    1.03466   0.98214    0.020
 4061.00    1.06180   1.00040    0.020
 4062.00    1.00723   1.03051    0.020
 4063.00    0.90288   1.03589    0.020
 4064.00    0.77844   0.99469    0.020
 4065.00    0.74517   0.93146    0.020
 4066.00    0.74335   0.91985    0.020
 4067.00    0.65926   0.96545    0.020
 4068.00    0.55128   0.98523    0.020
 4069.00    0.56862   0.96997    0.020
 4070.00    0.61606   0.98127    0.020
 4071.00    0.71324   1.01425    0.020
 4072.00    0.82005   1.00587    0.020
 4073.00    0.89575   0.95175    0.020
 4074.00    0.96677   0.92828    0.020
 4075.00    0.73013   0.96313    0.020
 4076.00    0.45947   0.99081    0.020
 4077.00    0.67546   0.97254    0.020
 4078.00    0.92709   0.91982    0.020
 4079.00    0.99316   0.86555    0.020
 4080.00    1.05212   0.85975    0.020
 4081.00    0.93578   0.90419    0.020
 4082.00    0.82285   0.95107    0.020
 4083.00    0.87492   0.97565    0.020
 4084.00    0.91888   0.96918    0.020
 4085.00    0.82934   0.93956    0.020
 4086.00    0.71866   0.91068    0.020
 4087.00    0.39057   0.89378    0.020
 4088.00    0.16955   0.89316    0.020
 4089.00    0.73425   0.90796    0.020
 4090.00    1.19757   0.91978    0.020
 4091.00    1.09218   0.91178    0.020
 4092.00    1.03053   0.88898    0.000
 4093.00    1.16463   0.86359    0.000
 4094.00    1.22145   0.83644    0.000
 4095.00    0.99442   0.81738    0.000
 4096.00    0.87724   0.79948    0.000
 4097.00    1.09787   0.75681    0.000
 4098.00    1.19460   0.70483    0.000
 4099.00    0.96755   0.66574    0.000
 4100.00    0.81889   0.63104    0.000
 4101.00    0.84628   0.58571    0.000
 4102.00    0.90847   0.51642    0.000
 4103.00    1.03839   0.43719    0.000
 4104.00    1.08352   0.41225    0.000
 4105.00    0.98476   0.46356    0.000
 4106.00    0.80155   0.53827    0.000
 4107.00    0.49280   0.60376    0.000
 4108.00    0.36299   0.65842    0.000
 4109.00    0.46697   0.69640    0.000
 4110.00    0.57308   0.72103    0.000
 4111.00    0.68165   0.73755    0.000
 4112.00    0.74774   0.75095    0.000
 4113.00    0.77070   0.77122    0.019
 4114.00    0.86635   0.79801    0.019
 4115.00    1.02709   0.82798    0.019
 4116.00    1.04493   0.85445    0.019
 4117.00    0.95004   0.87683    0.019
 4118.00    0.92358   0.89668    0.019
 4119.00    0.94461   0.90099    0.019
 4120.00    0.96283   0.88194    0.019
 4121.00    0.97935   0.86947    0.019
 4122.00    1.00436   0.88562    0.019
 4123.00    1.03389   0.90215    0.019
 4124.00    1.11558   0.90218    0.019
 4125.00    1.22133   0.90540    0.019
 4126.00    1.30704   0.92510    0.019
 4127.00    1.38479   0.94504    0.019
 4128.00    1.21510   0.94348    0.019
 4129.00    0.96166   0.92226    0.019
 4130.00    0.62929   0.90273    0.019
 4131.00    0.27446   0.90481    0.018
 4132.00    0.52785   0.91000    0.019
 4133.00    0.92403   0.89684    0.019
 4134.00    1.01540   0.87727    0.019
 4135.00    1.04924   0.88124    0.019
 4136.00    0.64797   0.90462    0.019
 4137.00    0.18316   0.93701    0.018
 4138.00    0.63027   0.96518    0.019
 4139.00    1.17428   0.97127    0.019
 4140.00    1.06922   0.97726    0.019
 4141.00    0.91926   0.99124    0.019
 4142.00    1.00864   0.99752    0.019
 4143.00    1.10627   0.98705    0.019
 4144.00    0.93428   0.94456    0.019
 4145.00    0.76419   0.88524    0.019
 4146.00    0.67479   0.86988    0.019
 4147.00    0.59521   0.91243    0.019
 4148.00    0.66740   0.95445    0.019
 4149.00    0.72860   0.96956    0.019
 4150.00    0.68145   0.96696    0.019
 4151.00    0.64168   0.95190    0.019
 4152.00    0.65427   0.94253    0.019
 4153.00    0.66224   0.94942    0.019
 4154.00    0.64499   0.95467    0.019
 4155.00    0.63066   0.94647    0.018
 4156.00    0.62907   0.92817    0.018
 4157.00    0.63362   0.92109    0.018
 4158.00    0.66022   0.92399    0.018
 4159.00    0.69390   0.92895    0.018
 4160.00    0.74891   0.94473    0.018
 4161.00    0.82802   0.96365    0.018
 4162.00    0.96902   0.96975    0.018
 4163.00    1.06800   0.96344    0.019
 4164.00    1.07415   0.96658    0.019
 4165.00    0.92575   0.97448    0.018
 4166.00    0.48130   0.97394    0.018
 4167.00    0.25795   0.97536    0.018
 4168.00    0.40416   0.96980    0.018
 4169.00    0.52453   0.95112    0.018
 4170.00    0.60707   0.94748    0.018
 4171.00    0.61737   0.96521    0.018
 4172.00    0.53464   0.96701    0.018
 4173.00    0.41594   0.93240    0.018
 4174.00    0.25643   0.88109    0.018
 4175.00    0.39411   0.85558    0.018
 4176.00    0.82923   0.87448    0.018
 4177.00    0.93541   0.90793    0.018
 4178.00    0.75123   0.92144    0.018
 4179.00    0.74292   0.90656    0.018
 4180.00    0.87140   0.88728    0.018
 4181.00    0.93501   0.89661    0.018
 4182.00    0.95426   0.92603    0.018
 4183.00    0.70006   0.93561    0.018
 4184.00    0.28195   0.92466    0.018
 4185.00    0.25524   0.92427    0.018
 4186.00    0.43323   0.93692    0.018
 4187.00    0.64728   0.95248    0.018
 4188.00    0.87767   0.94613    0.018
 4189.00    0.90614   0.91179    0.018
 4190.00    0.85581   0.90132    0.018
 4191.00    0.83288   0.92979    0.018
 4192.00    0.81904   0.94995    0.018
 4193.00    0.84215   0.94369    0.018
 4194.00    0.87556   0.94798    0.018
 4195.00    0.84645   0.97459    0.018
 4196.00    0.80300   0.98016    0.018
 4197.00    0.88637   0.95099    0.018
 4198.00    0.99305   0.92305    0.018
 4199.00    0.94142   0.90729    0.018
 4200.00    0.86740   0.88374    0.018
 4201.00    0.71003   0.87571    0.018
 4202.00    0.54415   0.89697    0.017
 4203.00    0.61033   0.90325    0.017
 4204.00    0.69163   0.89152    0.017
 4205.00    0.79383   0.89877    0.018
 4206.00    0.89626   0.91446    0.018
 4207.00    0.72987   0.92246    0.018
 4208.00    0.57886   0.93481    0.018
 4209.00    0.87946   0.94963    0.018
 4210.00    1.15181   0.95613    0.018
 4211.00    1.01282   0.94873    0.018
 4212.00    0.87810   0.93769    0.018
 4213.00    0.78363   0.94303    0.018
 4214.00    0.67756   0.95890    0.018
 4215.00    0.49173   0.96280    0.018
 4216.00    0.35666   0.94018    0.018
 4217.00    0.49138   0.89484    0.017
 4218.00    0.61552   0.87547    0.017
 4219.00    0.69448   0.91032    0.017
 4220.00    0.73513   0.94943    0.017
 4221.00    0.64083   0.96075    0.017
 4222.00    0.55898   0.96374    0.017
 4223.00    0.51396   0.96877    0.017
 4224.00    0.54743   0.95805    0.017
 4225.00    0.77897   0.93342    0.017
 4226.00    0.91053   0.90155    0.017
 4227.00    0.82487   0.85387    0.017
 4228.00    0.76231   0.79539    0.017
 4229.00    0.74333   0.77556    0.017
 4230.00    0.74902   0.83350    0.016
 4231.00    0.79535   0.91187    0.016
 4232.00    0.77731   0.95328    0.016
 4233.00    0.66638   0.96294    0.016
 4234.00    0.60844   0.93777    0.016
 4235.00    0.61777   0.89349    0.016
 4236.00    0.58140   0.88288    0.016
 4237.00    0.49390   0.89318    0.016
 4238.00    0.59292   0.88966    0.016
 4239.00    0.87600   0.89429    0.016
 4240.00    0.94118   0.90295    0.016
 4241.00    0.81672   0.90176    0.016
 4242.00    0.67064   0.90945    0.016
 4243.00    0.50798   0.92828    0.016
 4244.00    0.52061   0.93395    0.016
 4245.00    0.65138   0.93420    0.017
 4246.00    0.77227   0.95029    0.017
 4247.00    0.88732   0.95499    0.017
 4248.00    0.89969   0.92612    0.017
 4249.00    0.85919   0.89256    0.017
 4250.00    0.78159   0.88693    0.017
 4251.00    0.68745   0.88912    0.017
 4252.00    0.49744   0.87132    0.017
 4253.00    0.27067   0.86806    0.017
 4254.00    0.42309   0.89685    0.017
 4255.00    0.69909   0.90933    0.017
 4256.00    0.85030   0.89106    0.017
 4257.00    0.96746   0.88456    0.017
 4258.00    0.94730   0.90965    0.017
 4259.00    0.89636   0.93312    0.017
 4260.00    0.87945   0.92194    0.017
 4261.00    0.86862   0.88800    0.017
 4262.00    0.69120   0.85460    0.017
 4263.00    0.49100   0.84702    0.017
 4264.00    0.68552   0.87975    0.017
 4265.00    0.91861   0.92238    0.017
 4266.00    1.03042   0.94448    0.017
 4267.00    1.13481   0.95270    0.017
 4268.00    0.89484   0.95327    0.017
 4269.00    0.64688   0.93605    0.016
 4270.00    0.65366   0.91401    0.016
 4271.00    0.65757   0.89915    0.016
 4272.00    0.58554   0.87140    0.016
 4273.00    0.51750   0.82246    0.016
 4274.00    0.50428   0.79820    0.016
 4275.00    0.52455   0.81948    0.017
 4276.00    0.84896   0.83554    0.017
 4277.00    1.10428   0.83999    0.017
 4278.00    0.89942   0.86707    0.017
 4279.00    0.73312   0.90350    0.017
 4280.00    0.76653   0.92207    0.017
 4281.00    0.80739   0.91696    0.017
 4282.00    0.87936   0.89668   -2.000
 4283.00    0.89536   0.88221   -2.000
 4284.00    0.71812   0.87478   -2.000
 4285.00    0.57842   0.87290   -2.000
 4286.00    0.54783   0.87752   -2.000
 4287.00    0.52624   0.87363   -2.000
 4288.00    0.52698   0.86755   -2.000
 4289.00    0.60814   0.86646   -2.000
 4290.00    0.86123   0.85229   -2.000
 4291.00    1.00253   0.81090   -2.000
 4292.00    0.93626   0.77785   -2.000
 4293.00    0.84388   0.79788   -2.000
 4294.00    0.70917   0.84634   -2.000
 4295.00    0.60417   0.86824   -2.000
 4296.00    0.54142   0.85255   -2.000
 4297.00    0.47180   0.83942   -2.000
 4298.00    0.39358   0.83883    0.017
 4299.00    0.31129   0.83218    0.017
 4300.00    0.22453   0.80892    0.017
 4301.00    0.29382   0.76288    0.017
 4302.00    0.51492   0.73051    0.017
 4303.00    0.58256   0.73607    0.017
 4304.00    0.51851   0.74345    0.017
 4305.00    0.46303   0.74668    0.017
 4306.00    0.41403   0.76669    0.017
 4307.00    0.37542   0.78201    0.017
 4308.00    0.34373   0.77711    0.017
 4309.00    0.34862   0.75359    0.017
 4310.00    0.37480   0.72525    0.017
 4311.00    0.51674   0.72427    0.017
 4312.00    0.71734   0.75223    0.016
 4313.00    0.82971   0.78156    0.016
 4314.00    0.90337   0.79238    0.016
 4315.00    0.90632   0.78481    0.016
 4316.00    0.88264   0.77280    0.016
 4317.00    0.78979   0.78686    0.016
 4318.00    0.67482   0.83681    0.016
 4319.00    0.60275   0.87587    0.016
 4320.00    0.54216   0.87916    0.016
 4321.00    0.52708   0.86559    0.016
 4322.00    0.52196   0.84528    0.017
 4323.00    0.68226   0.82446    0.017
 4324.00    0.87133   0.81691    0.017
 4325.00    0.80018   0.79943    0.017
 4326.00    0.69462   0.75262    0.016
 4327.00    0.76194   0.69516    0.016
 4328.00    0.84541   0.67235    0.016
 4329.00    0.82328   0.70853    0.016
 4330.00    0.79510   0.76083    0.000
 4331.00    0.85223   0.77846    0.000
 4332.00    0.91018   0.75842    0.000
 4333.00    0.83386   0.73383    0.000
 4334.00    0.75935   0.72389    0.000
 4335.00    0.72814   0.71383    0.000
 4336.00    0.70874   0.69917    0.000
 4337.00    0.84309   0.68419    0.000
 4338.00    0.94430   0.65013    0.000
 4339.00    0.75605   0.58154    0.000
 4340.00    0.58737   0.50793    0.000
 4341.00    0.54512   0.44724    0.000
 4342.00    0.53635   0.39453    0.000
 4343.00    0.69648   0.38989    0.000
 4344.00    0.84277   0.45065    0.000
 4345.00    0.93249   0.51733    0.000
 4346.00    0.96363   0.55965    0.000
 4347.00    0.79656   0.60115    0.000
 4348.00    0.64770   0.63963    0.000
 4349.00    0.55076   0.66388    0.000
 4350.00    0.49859   0.69105    0.000
 4351.00    0.55555   0.72365    0.017
 4352.00    0.63168   0.72836    0.017
 4353.00    0.74815   0.69019    0.017
 4354.00    0.79370   0.66092    0.017
 4355.00    0.70959   0.68646    0.016
 4356.00    0.68856   0.73315    0.016
 4357.00    0.76831   0.76264    0.016
 4358.00    0.89710   0.78533    0.016
 4359.00    1.09466   0.80408    0.016
 4360.00    1.17146   0.80208    0.016
 4361.00    1.09929   0.78844    0.016
 4362.00    1.05344   0.79449    0.016
 4363.00    1.03623   0.82055    0.016
 4364.00    0.82526   0.83968    0.016
 4365.00    0.42843   0.84508    0.016
 4366.00    0.31679   0.85526    0.016
 4367.00    0.44640   0.87061    0.016
 4368.00    0.54758   0.86688    0.016
 4369.00    0.62760   0.83992    0.016
 4370.00    0.56714   0.81795    0.016
 4371.00    0.41476   0.81836    0.016
 4372.00    0.48333   0.82688    0.016
 4373.00    0.67845   0.83620    0.016
 4374.00    0.79096   0.84590    0.016
 4375.00    0.86226   0.83755    0.016
 4376.00    0.89951   0.80179    0.016
 4377.00    0.92206   0.77509    0.016
 4378.00    0.77973   0.79237    0.016
 4379.00    0.57639   0.83714    0.016
 4380.00    0.48898   0.86837    0.016
 4381.00    0.43792   0.87145    0.016
 4382.00    0.48324   0.86279    0.016
 4383.00    0.55378   0.85459    0.016
 4384.00    0.56194   0.82401    0.016
 4385.00    0.55676   0.75555    0.016
 4386.00    0.54741   0.70229    0.016
 4387.00    0.53734   0.71445    0.016
 4388.00    0.65025   0.76886    0.016
 4389.00    0.77888   0.80948    0.016
 4390.00    0.54928   0.82111    0.016
 4391.00    0.28772   0.82211    0.016
 4392.00    0.29505   0.81750    0.016
 4393.00    0.31669   0.81731    0.016
 4394.00    0.40794   0.83248    0.016
 4395.00    0.49798   0.84255    0.016
 4396.00    0.37841   0.82409    0.016
 4397.00    0.27150   0.80114    0.016
 4398.00    0.44281   0.81686    0.016
 4399.00    0.60374   0.85648    0.016
 4400.00    0.63630   0.87059    0.016
 4401.00    0.66853   0.84917    0.016
 4402.00    0.69793   0.81519    0.016
 4403.00    0.70863   0.80679    0.016
 4404.00    0.60212   0.83470    0.016
 4405.00    0.48379   0.84620    0.016
 4406.00    0.30726   0.80937    0.016
 4407.00    0.21281   0.77940    0.016
 4408.00    0.44604   0.79845    0.016
 4409.00    0.60860   0.82240    0.016
 4410.00    0.53682   0.81944    0.016
 4411.00    0.48469   0.82200    0.016
 4412.00    0.48761   0.84553    0.016
 4413.00    0.56778   0.86632    0.016
 4414.00    0.83312   0.87867    0.016
 4415.00    0.97623   0.87962    0.016
 4416.00    0.86638   0.84846    0.016
 4417.00    0.70880   0.79967    0.016
 4418.00    0.46528   0.78025    0.016
 4419.00    0.44433   0.79072    0.016
 4420.00    0.77370   0.81367    0.016
 4421.00    0.82012   0.84747    0.016
 4422.00    0.47556   0.87299    0.016
 4423.00    0.37721   0.86850    0.016
 4424.00    0.57831   0.84256    0.016
 4425.00    0.66709   0.82782    0.016
 4426.00    0.63542   0.83637    0.016
 4427.00    0.67845   0.84540    0.016
 4428.00    0.79211   0.84283    0.016
 4429.00    0.84604   0.83841    0.016
 4430.00    0.85017   0.84313    0.016
 4431.00    0.63728   0.84759    0.016
 4432.00    0.26507   0.83546    0.017
 4433.00    0.16080   0.82915    0.017
 4434.00    0.22928   0.83946    0.017
 4435.00    0.35189   0.83696    0.017
 4436.00    0.50503   0.81194    0.017
 4437.00    0.56057   0.78766    0.017
 4438.00    0.56819   0.79237    0.017
 4439.00    0.47008   0.82613    0.017
 4440.00    0.32710   0.86003    0.017
 4441.00    0.36974   0.87703    0.017
 4442.00    0.47984   0.87181    0.016
 4443.00    0.58202   0.84486    0.016
 4444.00    0.68175   0.80809    0.017
 4445.00    0.76298   0.77975    0.017
 4446.00    0.83948   0.78216    0.017
 4447.00    0.71158   0.81790    0.017
 4448.00    0.54109   0.84982    0.017
 4449.00    0.47791   0.85310    0.017
 4450.00    0.43235   0.85047    0.017
 4451.00    0.34694   0.85086    0.016
 4452.00    0.25660   0.83935    0.016
 4453.00    0.39751   0.83123    0.016
 4454.00    0.55809   0.83852    0.016
 4455.00    0.49637   0.83737    0.016
 4456.00    0.42368   0.81015    0.016
 4457.00    0.36547   0.77742    0.016
 4458.00    0.31154   0.77378    0.016
 4459.00    0.51116   0.79094    0.016
 4460.00    0.69787   0.79840    0.016
 4461.00    0.62310   0.79398    0.000
 4462.00    0.54969   0.79119    0.000
 4463.00    0.49229   0.78438    0.000
 4464.00    0.44276   0.77960    0.000
 4465.00    0.45703   0.79740    0.000
 4466.00    0.47803   0.81812    0.000
 4467.00    0.54004   0.82049    0.000
 4468.00    0.56928   0.81519    0.000
 4469.00    0.44132   0.80924    0.000
 4470.00    0.36602   0.79694    0.000
 4471.00    0.49634   0.78217    0.000
 4472.00    0.58950   0.78150    0.000
 4473.00    0.56182   0.79482    0.000
 4474.00    0.55914   0.81267    0.000
 4475.00    0.62528   0.83301    0.000
 4476.00    0.68211   0.84874    0.000
 4477.00    0.71702   0.84925    0.000
 4478.00    0.70812   0.84555    0.000
 4479.00    0.61000   0.85485    0.000
 4480.00    0.51418   0.86316    0.000
 4481.00    0.42244   0.84522    0.000
 4482.00    0.34393   0.79495    0.015
 4483.00    0.28595   0.74171    0.015
 4484.00    0.31587   0.73248    0.015
 4485.00    0.46550   0.77371    0.016
 4486.00    0.56269   0.82156    0.016
 4487.00    0.59699   0.84860    0.016
 4488.00    0.57978   0.85870    0.016
 4489.00    0.50810   0.85295    0.016
 4490.00    0.56996   0.82788    0.016
 4491.00    0.75637   0.79782    0.016
 4492.00    0.80921   0.78596    0.016
 4493.00    0.75225   0.79755    0.016
 4494.00    0.61120   0.81919    0.016
 4495.00    0.40930   0.82918    0.015
 4496.00    0.32449   0.81598    0.016
 4497.00    0.31405   0.80045    0.016
 4498.00    0.49211   0.80115    0.016
 4499.00    0.77487   0.81417    0.016
 4500.00    0.76764   0.83267    0.016
 4501.00    0.62031   0.84449    0.015
 4502.00    0.54071   0.83678    0.016
 4503.00    0.48936   0.81459    0.016
 4504.00    0.39230   0.81187    0.016
 4505.00    0.27894   0.84073    0.015
 4506.00    0.41848   0.86875    0.015
 4507.00    0.63428   0.87541    0.015
 4508.00    0.62963   0.86681    0.015
 4509.00    0.56977   0.84932    0.015
 4510.00    0.57573   0.83260    0.015
 4511.00    0.59507   0.83224    0.015
 4512.00    0.63046   0.84681    0.015
 4513.00    0.66840   0.85608    0.015
 4514.00    0.58091   0.84998    0.015
 4515.00    0.47850   0.83689    0.015
 4516.00    0.66856   0.82084    0.015
 4517.00    0.88228   0.80790    0.016
 4518.00    1.09020   0.80979    0.016
 4519.00    1.29784   0.81694    0.015
 4520.00    0.95582   0.81623    0.015
 4521.00    0.61207   0.81537    0.015
 4522.00    0.52536   0.81921    0.015
 4523.00    0.44277   0.82309    0.015
 4524.00    0.43746   0.81249    0.015
 4525.00    0.43824   0.79622    0.015
 4526.00    0.50712   0.79561    0.015
 4527.00    0.55427   0.79657    0.015
 4528.00    0.43127   0.78680    0.015
 4529.00    0.33240   0.77189    0.015
 4530.00    0.37623   0.75629    0.015
 4531.00    0.43504   0.74838    0.015
 4532.00    0.56399   0.75500    0.015
 4533.00    0.66670   0.76936    0.015
 4534.00    0.66913   0.78203    0.015
 4535.00    0.64229   0.77414    0.016
 4536.00    0.52213   0.74908    0.015
 4537.00    0.43910   0.74020    0.015
 4538.00    0.45642   0.76399    0.015
 4539.00    0.50268   0.80638    0.015
 4540.00    0.61600   0.83231    0.015
 4541.00    0.69840   0.82837    0.015
 4542.00    0.71878   0.80917    0.015
 4543.00    0.67582   0.79379    0.015
 4544.00    0.52226   0.79660    0.015
 4545.00    0.47510   0.80933    0.015
 4546.00    0.59054   0.80835    0.015
 4547.00    0.62385   0.79650    0.015
 4548.00    0.54693   0.79380    0.015
 4549.00    0.57926   0.79718    0.015
 4550.00    0.74074   0.78453    0.000
 4551.00    0.77273   0.75063    0.000
 4552.00    0.66975   0.73558    0.000
 4553.00    0.50809   0.76123    0.000
 4554.00    0.29248   0.78500    0.000
 4555.00    0.22304   0.78021    0.000
 4556.00    0.27206   0.75980    0.000
 4557.00    0.47157   0.74377    0.000
 4558.00    0.77840   0.75013    0.000
 4559.00    0.78904   0.77713    0.000
 4560.00    0.61431   0.79679    0.000
 4561.00    0.46515   0.80232    0.000
 4562.00    0.32997   0.80846    0.000
 4563.00    0.37510   0.81743    0.000
 4564.00    0.50595   0.81852    0.000
 4565.00    0.61870   0.79999    0.000
 4566.00    0.72402   0.77374    0.000
 4567.00    0.62227   0.76396    0.000
 4568.00    0.44795   0.77598    0.000
 4569.00    0.35660   0.79972    0.000
 4570.00    0.28977   0.81744    0.000
 4571.00    0.35549   0.82154    0.000
 4572.00    0.45367   0.81263    0.000
 4573.00    0.51506   0.78583    0.000
 4574.00    0.56916   0.76542    0.000
 4575.00    0.56581   0.78097    0.000
 4576.00    0.55357   0.80539    0.000
 4577.00    0.61726   0.80828    0.000
 4578.00    0.68964   0.80150    0.000
 4579.00    0.73799   0.80015    0.000
 4580.00    0.78449   0.79910    0.000
 4581.00    0.63258   0.78708    0.000
 4582.00    0.47241   0.76877    0.000
 4583.00    0.39637   0.75934    0.000
 4584.00    0.32749   0.75890    0.000
 4585.00    0.53457   0.75336    0.000
 4586.00    0.73140   0.74700    0.000
 4587.00    0.74918   0.75302    0.000
 4588.00    0.76440   0.76368    0.000
 4589.00    0.75234   0.77188    0.000
 4590.00    0.72995   0.77895    0.000
 4591.00    0.62940   0.78543    0.000
 4592.00    0.55155   0.78711    0.000
 4593.00    0.60422   0.77900    0.000
 4594.00    0.63042   0.76706    0.000
 4595.00    0.53570   0.76472    0.000
 4596.00    0.51056   0.76992    0.000
 4597.00    0.74574   0.77054    0.000
 4598.00    0.91959   0.76914    0.000
 4599.00    0.90166   0.77130    0.000
 4600.00    0.85227   0.77604    0.000
 4601.00    0.71938   0.78041    0.000
 4602.00    0.67771   0.77576    0.000
 4603.00    0.84391   0.76817    0.000
 4604.00    0.92510   0.77027    0.000
 4605.00    0.83856   0.77524    0.000
 4606.00    0.73009   0.77601    0.000
 4607.00    0.58390   0.77278    0.000
 4608.00    0.53536   0.77275    0.000
 4609.00    0.63385   0.78156    0.000
 4610.00    0.74027   0.79658    0.000
 4611.00    0.85717   0.80949    0.000
 4612.00    0.88523   0.80983    0.000
 4613.00    0.80977   0.79887    0.000
 4614.00    0.80227   0.78882    0.000
 4615.00    0.86462   0.78350    0.000
 4616.00    0.82061   0.78417    0.000
 4617.00    0.68017   0.78871    0.000
 4618.00    0.59929   0.78668    0.000
 4619.00    0.56600   0.78294    0.000
 4620.00    0.59695   0.77855    0.000
 4621.00    0.67306   0.76792    0.000
 4622.00    0.74323   0.76554    0.000
 4623.00    0.80975   0.77843    0.000
 4624.00    0.76188   0.78909    0.000
 4625.00    0.65242   0.79200    0.000
 4626.00    0.67419   0.79272    0.000
 4627.00    0.75734   0.78814    0.000
 4628.00    0.85850   0.78207    0.000
 4629.00    0.96692   0.78155    0.000
 4630.00    0.91259   0.77785    0.000
 4631.00    0.80227   0.76493    0.000
 4632.00    0.68294   0.76118    0.000
 4633.00    0.56099   0.77612    0.000
 4634.00    0.54483   0.78580    0.000
 4635.00    0.55400   0.77496    0.000
 4636.00    0.59929   0.75974    0.000
 4637.00    0.65157   0.75651    0.000
 4638.00    0.58110   0.76092    0.000
 4639.00    0.49220   0.76043    0.000
 4640.00    0.58317   0.75495    0.000
 4641.00    0.69394   0.75203    0.000
 4642.00    0.66207   0.75304    0.000
 4643.00    0.61982   0.76068    0.000
 4644.00    0.52467   0.77058    0.000
 4645.00    0.42753   0.77153    0.000
 4646.00    0.74369   0.76506    0.000
 4647.00    1.05016   0.75520    0.000
 4648.00    0.91973   0.73834    0.000
 4649.00    0.79449   0.72260    0.000
 4650.00    0.75411   0.72028    0.000
 4651.00    0.70679   0.73112    0.000
 4652.00    0.58849   0.74723    0.000
 4653.00    0.47441   0.75882    0.000
 4654.00    0.39113   0.76438    0.000
 4655.00    0.32681   0.76602    0.000
 4656.00    0.36851   0.75736    0.000
 4657.00    0.39994   0.74236    0.000
 4658.00    0.38558   0.73353    0.000
 4659.00    0.40545   0.73666    0.000
 4660.00    0.55076   0.75477    0.000
 4661.00    0.67431   0.77821    0.000
 4662.00    0.73112   0.79003    0.000
 4663.00    0.77462   0.78433    0.000
 4664.00    0.78338   0.76837    0.000
 4665.00    0.80328   0.75247    0.000
 4666.00    0.84814   0.74581    0.000
 4667.00    0.82438   0.74379    0.000
 4668.00    0.66736   0.72668    0.000
 4669.00    0.65140   0.69650    0.000
 4670.00    0.87436   0.68277    0.000
 4671.00    0.97613   0.69575    0.000
 4672.00    0.89807   0.71859    0.000
 4673.00    0.72300   0.73807    0.000
 4674.00    0.42139   0.74740    0.000
 4675.00    0.35747   0.74595    0.000
 4676.00    0.56664   0.74338    0.000
 4677.00    0.64752   0.74783    0.000
 4678.00    0.59841   0.75813    0.000
 4679.00    0.62424   0.76238    0.000
 4680.00    0.71705   0.75245    0.000
 4681.00    0.82433   0.73794    0.000
 4682.00    0.94302   0.72975    0.000
 4683.00    0.98556   0.72676    0.000
 4684.00    0.97533   0.72853    0.000
 4685.00    0.92153   0.73739    0.000
 4686.00    0.84126   0.74698    0.000
 4687.00    0.74991   0.74973    0.000
 4688.00    0.65268   0.74844    0.000
 4689.00    0.65321   0.74523    0.000
 4690.00    0.69872   0.74173    0.000
 4691.00    0.54500   0.74122    0.000
 4692.00    0.31233   0.74036    0.000
 4693.00    0.39247   0.73547    0.000
 4694.00    0.57823   0.73321    0.000
 4695.00    0.60030   0.73709    0.000
 4696.00    0.57593   0.74244    0.000
 4697.00    0.56322   0.74880    0.000
 4698.00    0.55323   0.75487    0.000
 4699.00    0.61646   0.75153    0.000
 4700.00    0.69346   0.73491    0.000
 4701.00    0.60355   0.71954    0.000
 4702.00    0.48937   0.71807    0.000
 4703.00    0.47287   0.72026    0.000
 4704.00    0.46670   0.71204    0.000
 4705.00    0.46986   0.70019    0.000
 4706.00    0.47366   0.70375    0.000
 4707.00    0.61662   0.71993    0.000
 4708.00    0.76431   0.72759    0.000
 4709.00    0.64381   0.71983    0.000
 4710.00    0.52294   0.70854    0.000
 4711.00    0.40338   0.70431    0.000
 4712.00    0.30213   0.71109    0.000
 4713.00    0.48163   0.72671    0.000
 4714.00    0.66210   0.73693    0.000
 4715.00    0.85197   0.73196    0.000
 4716.00    1.01251   0.71782    0.000
 4717.00    0.96563   0.71134    0.000
 4718.00    0.89640   0.72219    0.000
 4719.00    0.70565   0.73828    0.000
 4720.00    0.56649   0.74604    0.000
 4721.00    0.65219   0.74992    0.000
 4722.00    0.72115   0.75393    0.000
 4723.00    0.73005   0.75302    0.000
 4724.00    0.74572   0.74642    0.000
 4725.00    0.78173   0.74236    0.000
 4726.00    0.75302   0.74725    0.000
 4727.00    0.55849   0.75478    0.000
 4728.00    0.46740   0.75188    0.000
 4729.00    0.60432   0.73230    0.000
 4730.00    0.68928   0.70917    0.000
 4731.00    0.67491   0.69966    0.000
 4732.00    0.69230   0.70023    0.000
 4733.00    0.76268   0.70117    0.000
 4734.00    0.75200   0.70663    0.000
 4735.00    0.62281   0.71732    0.000
 4736.00    0.50830   0.72576    0.000
 4737.00    0.41268   0.72930    0.000
 4738.00    0.45515   0.72236    0.000
 4739.00    0.65407   0.71185    0.000
 4740.00    0.68307   0.71684    0.000
 4741.00    0.54233   0.72956    0.000
 4742.00    0.42376   0.73078    0.000
 4743.00    0.32472   0.72447    0.000
 4744.00    0.34294   0.72416    0.000
 4745.00    0.45219   0.73026    0.000
 4746.00    0.55351   0.73316    0.000
 4747.00    0.64943   0.73018    0.000
 4748.00    0.70098   0.73058    0.000
 4749.00    0.72598   0.73528    0.000
 4750.00    0.71489   0.73530    0.000
 4751.00    0.68496   0.73281    0.000
 4752.00    0.69654   0.73395    0.000
 4753.00    0.72693   0.73463    0.000
 4754.00    0.61799   0.72880    0.000
 4755.00    0.45480   0.72054    0.000
 4756.00    0.50300   0.71427    0.000
 4757.00    0.62124   0.71024    0.000
 4758.00    0.54176   0.70803    0.000
 4759.00    0.40732   0.70902    0.000
 4760.00    0.58836   0.71400    0.000
 4761.00    0.84156   0.72050    0.015
 4762.00    0.92669   0.72461    0.015
 4763.00    0.98103   0.71867    0.015
 4764.00    0.84799   0.70204    0.015
 4765.00    0.68857   0.68830    0.015
 4766.00    0.61128   0.68345    0.015
 4767.00    0.54232   0.68003    0.015
 4768.00    0.47661   0.67764    0.015
 4769.00    0.41110   0.68278    0.015
 4770.00    0.53362   0.69434    0.015
 4771.00    0.66144   0.70702    0.015
 4772.00    0.59965   0.71456    0.015
 4773.00    0.54085   0.70940    0.014
 4774.00    0.56840   0.69904    0.014
 4775.00    0.58851   0.69962    0.014
 4776.00    0.50099   0.71185    0.014
 4777.00    0.43791   0.72136    0.014
 4778.00    0.60477   0.72109    0.014
 4779.00    0.73954   0.72058    0.015
 4780.00    0.65460   0.72213    0.014
 4781.00    0.56786   0.71743    0.014
 4782.00    0.47158   0.71017    0.014
 4783.00    0.40611   0.70906    0.014
 4784.00    0.47178   0.70806    0.014
 4785.00    0.55780   0.70044    0.014
 4786.00    0.71528   0.69654    0.014
 4787.00    0.82774   0.69960    0.014
 4788.00    0.80719   0.69527    0.014
 4789.00    0.77480   0.68828    0.014
 4790.00    0.71260   0.69011    0.014
 4791.00    0.70711   0.69147    0.014
 4792.00    0.82460   0.69037    0.014
 4793.00    0.84380   0.69338    0.014
 4794.00    0.67798   0.69844    0.014
 4795.00    0.56917   0.70628    0.014
 4796.00    0.55403   0.71815    0.014
 4797.00    0.60369   0.72676    0.015
 4798.00    0.74669   0.72584    0.014
 4799.00    0.72945   0.71738    0.014
 4800.00    0.50911   0.70489    0.014
 4801.00    0.44270   0.69194    0.014
 4802.00    0.54822   0.68606    0.014
 4803.00    0.63275   0.69215    0.014
 4804.00    0.69659   0.70461    0.014
 4805.00    0.71284   0.71149    0.015
 4806.00    0.68774   0.70560    0.015
 4807.00    0.68924   0.69197    0.015
 4808.00    0.71110   0.68485    0.014
 4809.00    0.67312   0.68530    0.014
 4810.00    0.59489   0.68492    0.014
 4811.00    0.58857   0.68573    0.014
 4812.00    0.62461   0.68935    0.014
 4813.00    0.62238   0.69099    0.014
 4814.00    0.60048   0.68985    0.014
 4815.00    0.59013   0.68943    0.014
 4816.00    0.58493   0.69150    0.014
 4817.00    0.65772   0.69482    0.015
 4818.00    0.76035   0.69835    0.015
 4819.00    0.79488   0.70173    0.015
 4820.00    0.80728   0.70400    0.015
 4821.00    0.67543   0.70573    0.015
 4822.00    0.50432   0.70581    0.015
 4823.00    0.57785   0.70290    0.014
 4824.00    0.70604   0.69393    0.014
 4825.00    0.67249   0.67314    0.014
 4826.00    0.61011   0.65393    0.014
 4827.00    0.57628   0.65741    0.014
 4828.00    0.54634   0.67504    0.014
 4829.00    0.55886   0.68454    0.014
 4830.00    0.57550   0.68100    0.014
 4831.00    0.65553   0.67400    0.014
 4832.00    0.73941   0.67192    0.014
 4833.00    0.61568   0.66979    0.014
 4834.00    0.48757   0.66230    0.014
 4835.00    0.56014   0.65957    0.014
 4836.00    0.62635   0.66569    0.014
 4837.00    0.52654   0.66962    0.014
 4838.00    0.43943   0.66655    0.014
 4839.00    0.52577   0.66313    0.014
 4840.00    0.60921   0.66000    0.014
 4841.00    0.66648   0.65090    0.014
 4842.00    0.71596   0.63971    0.014
 4843.00    0.71378   0.63613    0.014
 4844.00    0.70047   0.63743    0.014
 4845.00    0.62972   0.63372    0.014
 4846.00    0.57040   0.62962    0.014
 4847.00    0.55858   0.63309    0.014
 4848.00    0.54064   0.63641    0.000
 4849.00    0.50156   0.62791    0.000
 4850.00    0.51259   0.60838    0.000
 4851.00    0.66890   0.59270    0.000
 4852.00    0.75307   0.59155    0.000
 4853.00    0.65870   0.59411    0.000
 4854.00    0.56403   0.58863    0.000
 4855.00    0.46873   0.57762    0.000
 4856.00    0.42764   0.55896    0.000
 4857.00    0.48702   0.52982    0.000
 4858.00    0.52143   0.50606    0.000
 4859.00    0.51541   0.49894    0.000
 4860.00    0.47918   0.49149    0.000
 4861.00    0.40007   0.46289    0.000
 4862.00    0.43557   0.40985    0.000
 4863.00    0.61426   0.35350    0.000
 4864.00    0.72732   0.33821    0.000
 4865.00    0.76811   0.37680    0.000
 4866.00    0.75251   0.42749    0.000
 4867.00    0.68214   0.46323    0.000
 4868.00    0.64869   0.49098    0.000
 4869.00    0.64685   0.51372    0.000
 4870.00    0.63204   0.52991    0.000
 4871.00    0.60745   0.54246    0.000
 4872.00    0.51470   0.54588    0.000
 4873.00    0.37678   0.53442    0.000
 4874.00    0.38945   0.52653    0.000
 4875.00    0.48952   0.54137    0.014
 4876.00    0.46371   0.56592    0.014
 4877.00    0.37422   0.57981    0.014
 4878.00    0.41129   0.58479    0.013
 4879.00    0.50379   0.59051    0.013
 4880.00    0.50876   0.59898    0.013
 4881.00    0.48084   0.61336    0.014
 4882.00    0.45370   0.62820    0.014
 4883.00    0.42681   0.62828    0.014
 4884.00    0.51350   0.61937    0.014
 4885.00    0.63047   0.61708    0.014
 4886.00    0.60517   0.61754    0.014
 4887.00    0.54884   0.61240    0.013
 4888.00    0.51470   0.60656    0.014
 4889.00    0.48440   0.60834    0.014
 4890.00    0.50812   0.61595    0.014
 4891.00    0.53895   0.61962    0.014
 4892.00    0.44678   0.61030    0.014
 4893.00    0.34318   0.59276    0.014
 4894.00    0.44377   0.59351    0.014
 4895.00    0.55594   0.62134    0.014
 4896.00    0.39489   0.65154    0.014
 4897.00    0.22968   0.66906    0.014
 4898.00    0.29115   0.67593    0.014
 4899.00    0.35279   0.67633    0.014
 4900.00    0.41856   0.67342    0.014
 4901.00    0.48775   0.66415    0.014
 4902.00    0.60126   0.65094    0.014
 4903.00    0.70915   0.64739    0.013
 4904.00    0.76817   0.65143    0.014
 4905.00    0.79779   0.64897    0.014
 4906.00    0.63814   0.64496    0.014
 4907.00    0.51467   0.65287    0.014
 4908.00    0.57309   0.66795    0.014
 4909.00    0.62715   0.67429    0.014
 4910.00    0.66353   0.66717    0.014
 4911.00    0.66691   0.65228    0.014
 4912.00    0.55900   0.63512    0.014
 4913.00    0.49739   0.62591    0.014
 4914.00    0.56766   0.63226    0.014
 4915.00    0.65084   0.64537    0.014
 4916.00    0.76549   0.65567    0.014
 4917.00    0.80321   0.66489    0.014
 4918.00    0.67947   0.67109    0.014
 4919.00    0.60048   0.66449    0.014
 4920.00    0.60312   0.64026    0.014
 4921.00    0.54326   0.60721    0.014
 4922.00    0.38369   0.58240    0.014
 4923.00    0.34752   0.57919    0.014
 4924.00    0.48402   0.59618    0.014
 4925.00    0.49660   0.61097    0.014
 4926.00    0.35654   0.61021    0.014
 4927.00    0.28962   0.61225    0.014
 4928.00    0.30210   0.63129    0.014
 4929.00    0.37853   0.65215    0.014
 4930.00    0.51620   0.66205    0.014
 4931.00    0.57716   0.66803    0.014
 4932.00    0.57334   0.67231    0.014
 4933.00    0.54975   0.67130    0.014
 4934.00    0.51146   0.66381    0.014
 4935.00    0.59275   0.64452    0.014
 4936.00    0.75214   0.62399    0.014
 4937.00    0.68493   0.62555    0.014
 4938.00    0.48819   0.64064    0.014
 4939.00    0.53763   0.64071    0.014
 4940.00    0.70964   0.62258    0.000
 4941.00    0.64020   0.60746    0.000
 4942.00    0.46679   0.61446    0.000
 4943.00    0.49449   0.63826    0.000
 4944.00    0.59643   0.65617    0.000
 4945.00    0.62339   0.66258    0.000
 4946.00    0.62689   0.66574    0.000
 4947.00    0.69150   0.66319    0.000
 4948.00    0.77206   0.65493    0.000
 4949.00    0.85842   0.65276    0.000
 4950.00    0.94602   0.65860    0.000
 4951.00    0.82920   0.66310    0.000
 4952.00    0.67793   0.66441    0.000
 4953.00    0.59558   0.66567    0.000
 4954.00    0.52200   0.66387    0.000
 4955.00    0.66797   0.65730    0.000
 4956.00    0.83341   0.65241    0.000
 4957.00    0.63760   0.65072    0.000
 4958.00    0.42273   0.63828    0.000
 4959.00    0.51355   0.60446    0.000
 4960.00    0.61038   0.57889    0.000
 4961.00    0.72078   0.59633    0.000
 4962.00    0.82736   0.63406    0.000
 4963.00    0.85088   0.65324    0.000
 4964.00    0.87150   0.65361    0.000
 4965.00    0.85652   0.65232    0.000
 4966.00    0.82952   0.65126    0.000
 4967.00    0.70187   0.64188    0.000
 4968.00    0.58097   0.62870    0.000
 4969.00    0.50219   0.62321    0.000
 4970.00    0.47052   0.62404    0.000
 4971.00    0.66988   0.62566    0.000
 4972.00    0.80758   0.62755    0.000
 4973.00    0.69981   0.63164    0.000
 4974.00    0.62486   0.63875    0.000
 4975.00    0.65852   0.64458    0.000
 4976.00    0.67768   0.64809    0.000
 4977.00    0.65633   0.65053    0.000
 4978.00    0.63270   0.64925    0.000
 4979.00    0.60365   0.64412    0.000
 4980.00    0.58838   0.63573    0.000
 4981.00    0.60159   0.62649    0.000
 4982.00    0.58646   0.62114    0.000
 4983.00    0.52043   0.61365    0.000
 4984.00    0.49273   0.59490    0.000
 4985.00    0.52525   0.57431    0.000
 4986.00    0.54576   0.56932    0.000
 4987.00    0.54967   0.58017    0.000
 4988.00    0.54738   0.59721    0.000
 4989.00    0.53754   0.61626    0.000
 4990.00    0.56977   0.63012    0.000
 4991.00    0.64703   0.63141    0.000
 4992.00    0.68887   0.62370    0.000
 4993.00    0.69727   0.61549    0.000
 4994.00    0.60959   0.61468    0.000
 4995.00    0.44194   0.61807    0.000
 4996.00    0.38146   0.61782    0.000
 4997.00    0.39953   0.62043    0.000
 4998.00    0.41122   0.62799    0.000
 4999.00    0.41881   0.63122    0.000
 5000.00    0.43970   0.62793    0.000
 5001.00    0.46808   0.61816    0.000
 5002.00    0.54411   0.60355    0.000
 5003.00    0.64348   0.59180    0.000
 5004.00    0.66501   0.58811    0.000
 5005.00    0.65357   0.59264    0.000
 5006.00    0.65548   0.59745    0.000
 5007.00    0.66222   0.59009    0.000
 5008.00    0.75086   0.57376    0.000
 5009.00    0.86463   0.56981    0.000
 5010.00    0.87330   0.58752    0.000
 5011.00    0.85514   0.60863    0.000
 5012.00    0.65371   0.61536    0.000
 5013.00    0.41422   0.60886    0.000
 5014.00    0.41060   0.59464    0.000
 5015.00    0.44559   0.57831    0.000
 5016.00    0.43638   0.56761    0.000
 5017.00    0.42175   0.56849    0.000
 5018.00    0.43667   0.57811    0.000
 5019.00    0.45409   0.57995    0.000
 5020.00    0.58446   0.56739    0.000
 5021.00    0.72034   0.56000    0.000
 5022.00    0.62485   0.57092    0.000
 5023.00    0.52756   0.58495    0.000
 5024.00    0.53809   0.58708    0.000
 5025.00    0.55110   0.58644    0.000
 5026.00    0.61367   0.59468    0.000
 5027.00    0.66716   0.60471    0.000
 5028.00    0.61454   0.60668    0.000
 5029.00    0.56343   0.59888    0.014
 5030.00    0.52454   0.59054    0.014
 5031.00    0.50098   0.59460    0.014
 5032.00    0.57030   0.60431    0.014
 5033.00    0.61590   0.60841    0.014
 5034.00    0.54809   0.61309    0.014
 5035.00    0.51328   0.62272    0.014
 5036.00    0.60699   0.62662    0.014
 5037.00    0.66097   0.61390    0.014
 5038.00    0.58609   0.59354    0.014
 5039.00    0.51470   0.58679    0.014
 5040.00    0.45286   0.59152    0.014
 5041.00    0.39773   0.58686    0.014
 5042.00    0.35836   0.56648    0.014
 5043.00    0.41337   0.54211    0.014
 5044.00    0.66026   0.53851    0.014
 5045.00    0.76905   0.56532    0.014
 5046.00    0.63353   0.59682    0.013
 5047.00    0.54198   0.61469    0.013
 5048.00    0.51851   0.62428    0.014
 5049.00    0.47973   0.62451    0.014
 5050.00    0.42013   0.61032    0.014
 5051.00    0.37523   0.59109    0.014
 5052.00    0.34793   0.58109    0.014
 5053.00    0.42741   0.57987    0.014
 5054.00    0.61959   0.58078    0.013
 5055.00    0.69750   0.58696    0.013
 5056.00    0.66902   0.59908    0.013
 5057.00    0.62250   0.60733    0.013
 5058.00    0.56118   0.60723    0.013
 5059.00    0.52178   0.60607    0.013
 5060.00    0.49823   0.61009    0.013
 5061.00    0.54774   0.61507    0.013
 5062.00    0.64358   0.61729    0.013
 5063.00    0.63938   0.62026    0.013
 5064.00    0.57974   0.62388    0.013
 5065.00    0.54083   0.62151    0.013
 5066.00    0.51191   0.60638    0.013
 5067.00    0.47958   0.58561    0.013
 5068.00    0.44583   0.57893    0.013
 5069.00    0.40045   0.58572    0.013
 5070.00    0.35093   0.58797    0.013
 5071.00    0.38489   0.58666    0.013
 5072.00    0.44396   0.59229    0.013
 5073.00    0.51809   0.59702    0.013
 5074.00    0.59599   0.58994    0.013
 5075.00    0.47503   0.58275    0.013
 5076.00    0.31376   0.58596    0.013
 5077.00    0.29428   0.58889    0.013
 5078.00    0.29734   0.58743    0.013
 5079.00    0.46904   0.59001    0.013
 5080.00    0.66068   0.59097    0.013
 5081.00    0.58437   0.57512    0.013
 5082.00    0.48651   0.55211    0.013
 5083.00    0.54028   0.54722    0.013
 5084.00    0.60086   0.55964    0.013
 5085.00    0.66847   0.56918    0.013
 5086.00    0.73212   0.57266    0.013
 5087.00    0.59464   0.58014    0.013
 5088.00    0.46113   0.58900    0.013
 5089.00    0.40160   0.59048    0.012
 5090.00    0.35148   0.58835    0.012
 5091.00    0.40620   0.59029    0.012
 5092.00    0.45951   0.59363    0.012
 5093.00    0.50183   0.59424    0.013
 5094.00    0.55489   0.59617    0.013
 5095.00    0.67128   0.60191    0.013
 5096.00    0.76177   0.60623    0.013
 5097.00    0.73135   0.60398    0.013
 5098.00    0.68936   0.59526    0.013
 5099.00    0.60327   0.58225    0.013
 5100.00    0.56336   0.56695    0.013
 5101.00    0.67033   0.55354    0.013
 5102.00    0.69605   0.55180    0.013
 5103.00    0.50272   0.56541    0.013
 5104.00    0.37734   0.58187    0.013
 5105.00    0.40906   0.58859    0.013
 5106.00    0.42217   0.58660    0.013
 5107.00    0.39804   0.58328    0.013
 5108.00    0.37122   0.57998    0.013
 5109.00    0.33973   0.57291    0.013
 5110.00    0.35271   0.56555    0.013
 5111.00    0.43355   0.56417    0.013
 5112.00    0.47479   0.56408    0.014
 5113.00    0.46299   0.56544    0.014
 5114.00    0.37571   0.57419    0.014
 5115.00    0.19935   0.58319    0.014
 5116.00    0.25211   0.58683    0.014
 5117.00    0.54326   0.58828    0.014
 5118.00    0.60581   0.58959    0.014
 5119.00    0.45857   0.59355    0.014
 5120.00    0.41277   0.59873    0.014
 5121.00    0.44903   0.59917    0.014
 5122.00    0.51477   0.59378    0.014
 5123.00    0.60150   0.58533    0.014
 5124.00    0.56584   0.57598    0.014
 5125.00    0.45374   0.56461    0.013
 5126.00    0.46830   0.55250    0.013
 5127.00    0.55199   0.54795    0.013
 5128.00    0.53413   0.55191    0.013
 5129.00    0.46811   0.55589    0.013
 5130.00    0.52006   0.55548    0.013
 5131.00    0.62029   0.55285    0.013
 5132.00    0.61846   0.55308    0.013
 5133.00    0.58095   0.55918    0.013
 5134.00    0.56120   0.56590    0.013
 5135.00    0.54668   0.56717    0.013
 5136.00    0.47020   0.56745    0.013
 5137.00    0.37858   0.57379    0.013
 5138.00    0.42363   0.57894    0.013
 5139.00    0.49567   0.57166    0.013
 5140.00    0.53696   0.55822    0.013
 5141.00    0.57351   0.54723    0.013
 5142.00    0.57609   0.54499    0.013
 5143.00    0.57480   0.55420    0.013
 5144.00    0.55445   0.55637    0.013
 5145.00    0.53265   0.54756    0.013
 5146.00    0.53363   0.54910    0.012
 5147.00    0.53555   0.55804    0.012
 5148.00    0.47945   0.55691    0.012
 5149.00    0.42295   0.54967    0.013
 5150.00    0.36946   0.54710    0.013
 5151.00    0.32204   0.55168    0.013
 5152.00    0.37992   0.55734    0.013
 5153.00    0.44011   0.55551    0.013
 5154.00    0.52495   0.54932    0.013
 5155.00    0.59196   0.54506    0.013
 5156.00    0.52476   0.54277    0.013
 5157.00    0.45674   0.54523    0.013
 5158.00    0.38405   0.55493    0.013
 5159.00    0.33227   0.56700    0.013
 5160.00    0.37580   0.57553    0.013
 5161.00    0.43302   0.57799    0.013
 5162.00    0.54129   0.57718    0.013
 5163.00    0.61605   0.57540    0.013
 5164.00    0.58627   0.56864    0.012
 5165.00    0.55550   0.56072    0.012
 5166.00    0.52211   0.55773    0.013
 5167.00    0.45793   0.54871    0.013
 5168.00    0.32372   0.52184    0.013
 5169.00    0.23854   0.48279    0.013
 5170.00    0.24991   0.45281    0.013
 5171.00    0.24679   0.45382    0.013
 5172.00    0.21880   0.48140    0.013
 5173.00    0.21556   0.49975    0.013
 5174.00    0.24951   0.48169    0.013
 5175.00    0.29023   0.45546    0.013
 5176.00    0.33989   0.46886    0.013
 5177.00    0.41899   0.51341    0.013
 5178.00    0.53234   0.54562    0.013
 5179.00    0.57071   0.55452    0.013
 5180.00    0.53214   0.55681    0.013
 5181.00    0.49409   0.55887    0.013
 5182.00    0.45651   0.55667    0.013
 5183.00    0.43398   0.54861    0.013
 5184.00    0.42345   0.52846    0.013
 5185.00    0.45989   0.48904    0.013
 5186.00    0.52928   0.45330    0.013
 5187.00    0.59393   0.46077    0.013
 5188.00    0.65564   0.50327    0.013
 5189.00    0.57847   0.53716    0.013
 5190.00    0.42664   0.54525    0.000
 5191.00    0.51901   0.54277    0.000
 5192.00    0.72536   0.54712    0.000
 5193.00    0.70041   0.54644    0.000
 5194.00    0.58240   0.52693    0.000
 5195.00    0.50138   0.51285    0.000
 5196.00    0.43306   0.52130    0.000
 5197.00    0.57658   0.53129    0.000
 5198.00    0.78130   0.53080    0.000
 5199.00    0.75926   0.53149    0.000
 5200.00    0.68305   0.53691    0.000
 5201.00    0.62644   0.54496    0.000
 5202.00    0.57360   0.55384    0.000
 5203.00    0.45824   0.55733    0.000
 5204.00    0.33354   0.55445    0.000
 5205.00    0.35985   0.54952    0.000
 5206.00    0.40270   0.54068    0.000
 5207.00    0.46173   0.52306    0.000
 5208.00    0.52193   0.50712    0.000
 5209.00    0.39243   0.50523    0.000
 5210.00    0.25584   0.50699    0.000
 5211.00    0.25992   0.50498    0.013
 5212.00    0.26717   0.51154    0.013
 5213.00    0.36650   0.52732    0.013
 5214.00    0.45900   0.54317    0.012
 5215.00    0.44073   0.55623    0.013
 5216.00    0.42671   0.56064    0.013
 5217.00    0.45588   0.55156    0.013
 5218.00    0.49293   0.53573    0.013
 5219.00    0.58734   0.52846    0.013
 5220.00    0.67107   0.53575    0.013
 5221.00    0.69532   0.54980    0.013
 5222.00    0.70687   0.56031    0.012
 5223.00    0.66189   0.56491    0.013
 5224.00    0.61194   0.56590    0.013
 5225.00    0.54384   0.56162    0.013
 5226.00    0.49783   0.55037    0.013
 5227.00    0.51945   0.53221    0.012
 5228.00    0.52151   0.50671    0.012
 5229.00    0.47271   0.48283    0.013
 5230.00    0.42672   0.48390    0.013
 5231.00    0.38702   0.51311    0.013
 5232.00    0.39023   0.54057    0.012
 5233.00    0.47665   0.55137    0.012
 5234.00    0.52717   0.54917    0.012
 5235.00    0.51700   0.53455    0.013
 5236.00    0.48839   0.52000    0.013
 5237.00    0.43250   0.51900    0.013
 5238.00    0.41136   0.52956    0.013
 5239.00    0.43547   0.54385    0.013
 5240.00    0.51811   0.55358    0.013
 5241.00    0.66788   0.55682    0.013
 5242.00    0.66690   0.55719    0.013
 5243.00    0.51341   0.55796    0.013
 5244.00    0.49646   0.55823    0.013
 5245.00    0.60132   0.55557    0.013
 5246.00    0.63793   0.55582    0.013
 5247.00    0.62087   0.56173    0.013
 5248.00    0.57076   0.56060    0.013
 5249.00    0.49779   0.54595    0.013
 5250.00    0.49417   0.53368    0.013
 5251.00    0.53258   0.53398    0.013
 5252.00    0.48665   0.53365    0.013
 5253.00    0.39609   0.52858    0.013
 5254.00    0.41569   0.53106    0.013
 5255.00    0.48590   0.53945    0.013
 5256.00    0.48177   0.54122    0.013
 5257.00    0.44825   0.53447    0.013
 5258.00    0.55162   0.53232    0.013
 5259.00    0.70111   0.54446    0.013
 5260.00    0.66609   0.55990    0.013
 5261.00    0.57885   0.56621    0.014
 5262.00    0.44481   0.56219    0.014
 5263.00    0.29984   0.54974    0.014
 5264.00    0.27556   0.53146    0.013
 5265.00    0.27390   0.51133    0.013
 5266.00    0.25655   0.49403    0.013
 5267.00    0.23694   0.48114    0.013
 5268.00    0.36844   0.47492    0.013
 5269.00    0.51585   0.48277    0.014
 5270.00    0.47061   0.49855    0.014
 5271.00    0.41224   0.49281    0.014
 5272.00    0.42911   0.46688    0.014
 5273.00    0.44850   0.46471    0.014
 5274.00    0.42168   0.49463    0.013
 5275.00    0.39583   0.51882    0.013
 5276.00    0.40241   0.52185    0.013
 5277.00    0.41235   0.51398    0.013
 5278.00    0.47362   0.50637    0.013
 5279.00    0.53126   0.51566    0.013
 5280.00    0.55354   0.53958    0.013
 5281.00    0.55787   0.55345    0.012
 5282.00    0.43574   0.54934    0.012
 5283.00    0.35958   0.53799    0.012
 5284.00    0.53264   0.52822    0.012
 5285.00    0.66299   0.52005    0.013
 5286.00    0.60770   0.51331    0.013
 5287.00    0.55107   0.51848    0.013
 5288.00    0.48961   0.53963    0.013
 5289.00    0.45307   0.55857    0.013
 5290.00    0.49131   0.56242    0.013
 5291.00    0.52677   0.55886    0.013
 5292.00    0.55508   0.55897    0.013
 5293.00    0.57171   0.56231    0.013
 5294.00    0.56266   0.56190    0.013
 5295.00    0.51640   0.55683    0.013
 5296.00    0.39913   0.55256    0.013
 5297.00    0.38036   0.55082    0.013
 5298.00    0.52561   0.54440    0.013
 5299.00    0.60301   0.52785    0.013
 5300.00    0.58139   0.50955    0.013
 5301.00    0.50924   0.50663    0.013
 5302.00    0.37225   0.52048    0.013
 5303.00    0.37940   0.53115    0.013
 5304.00    0.54954   0.53028    0.013
 5305.00    0.59101   0.53115    0.013
 5306.00    0.50416   0.54140    0.013
 5307.00    0.43849   0.55305    0.013
 5308.00    0.39146   0.55553    0.013
 5309.00    0.45576   0.54910    0.013
 5310.00    0.60634   0.54342    0.013
 5311.00    0.60374   0.54585    0.013
 5312.00    0.49676   0.55264    0.013
 5313.00    0.42891   0.55596    0.013
 5314.00    0.38442   0.55429    0.013
 5315.00    0.50940   0.55014    0.013
 5316.00    0.72267   0.54578    0.013
 5317.00    0.63876   0.54190    0.013
 5318.00    0.42060   0.53305    0.013
 5319.00    0.41603   0.52097    0.013
 5320.00    0.49445   0.52063    0.013
 5321.00    0.58002   0.53191    0.013
 5322.00    0.66796   0.53962    0.013
 5323.00    0.61755   0.54057    0.013
 5324.00    0.52877   0.53914    0.013
 5325.00    0.48270   0.53381    0.013
 5326.00    0.44637   0.52216    0.013
 5327.00    0.40658   0.51241    0.012
 5328.00    0.36616   0.51357    0.012
 5329.00    0.27686   0.50933    0.012
 5330.00    0.18071   0.48364    0.012
 5331.00    0.27260   0.46071    0.012
 5332.00    0.38345   0.47353    0.012
 5333.00    0.39531   0.50739    0.012
 5334.00    0.40082   0.52785    0.012
 5335.00    0.47094   0.52962    0.012
 5336.00    0.54277   0.52917    0.012
 5337.00    0.52258   0.53464    0.012
 5338.00    0.50420   0.53752    0.012
 5339.00    0.53742   0.53344    0.012
 5340.00    0.56531   0.52877    0.012
 5341.00    0.51684   0.52476    0.012
 5342.00    0.46714   0.51375    0.012
 5343.00    0.40603   0.50172    0.012
 5344.00    0.36038   0.50560    0.012
 5345.00    0.42026   0.52222    0.012
 5346.00    0.49040   0.53348    0.012
 5347.00    0.61476   0.53365    0.012
 5348.00    0.69357   0.52731    0.012
 5349.00    0.57896   0.52325    0.012
 5350.00    0.47724   0.52324    0.012
 5351.00    0.42072   0.51948    0.013
 5352.00    0.39886   0.51613    0.013
 5353.00    0.47912   0.52310    0.013
 5354.00    0.52515   0.53467    0.013
 5355.00    0.48514   0.53943    0.013
 5356.00    0.45300   0.53985    0.013
 5357.00    0.43786   0.54472    0.012
 5358.00    0.47071   0.55118    0.012
 5359.00    0.59370   0.55315    0.013
 5360.00    0.67658   0.55244    0.013
 5361.00    0.69366   0.55198    0.013
 5362.00    0.62555   0.55088    0.013
 5363.00    0.43490   0.54594    0.013
 5364.00    0.39983   0.53575    0.013
 5365.00    0.56158   0.52538    0.013
 5366.00    0.65980   0.52047    0.013
 5367.00    0.68721   0.51816    0.013
 5368.00    0.65281   0.51636   -2.000
 5369.00    0.55764   0.51733   -2.000
 5370.00    0.50604   0.51823   -2.000
 5371.00    0.49223   0.51470   -2.000
 5372.00    0.54727   0.50262   -2.000
 5373.00    0.65489   0.48569   -2.000
 5374.00    0.65193   0.48067   -2.000
 5375.00    0.57471   0.49704   -2.000
 5376.00    0.54443   0.52113   -2.000
 5377.00    0.54176   0.53539   -2.000
 5378.00    0.52511   0.53955   -2.000
 5379.00    0.50128   0.53758   -2.000
 5380.00    0.54821   0.53434   -2.000
 5381.00    0.62658   0.53362   -2.000
 5382.00    0.57056   0.53136   -2.000
 5383.00    0.46324   0.52566    0.012
 5384.00    0.43884   0.52115    0.012
 5385.00    0.44132   0.51830    0.012
 5386.00    0.36236   0.51694    0.012
 5387.00    0.26127   0.52230    0.012
 5388.00    0.28175   0.53001    0.012
 5389.00    0.32931   0.53156    0.012
 5390.00    0.40993   0.52861    0.012
 5391.00    0.49643   0.52409    0.012
 5392.00    0.42425   0.51792    0.012
 5393.00    0.33054   0.51235    0.012
 5394.00    0.38042   0.50967    0.012
 5395.00    0.44418   0.50808    0.012
 5396.00    0.38662   0.50710    0.012
 5397.00    0.32176   0.50753    0.012
 5398.00    0.34642   0.50412    0.012
 5399.00    0.37367   0.49186    0.012
 5400.00    0.44267   0.48395    0.012
 5401.00    0.50701   0.49408    0.012
 5402.00    0.45107   0.50751    0.012
 5403.00    0.40441   0.51059    0.012
 5404.00    0.48336   0.51122    0.012
 5405.00    0.54217   0.51105    0.012
 5406.00    0.41976   0.49965    0.012
 5407.00    0.32348   0.48002    0.012
 5408.00    0.39988   0.46822    0.012
 5409.00    0.46650   0.47379    0.012
 5410.00    0.48272   0.48927    0.012
 5411.00    0.49429   0.49678    0.012
 5412.00    0.48652   0.49077    0.012
 5413.00    0.49376   0.48660    0.012
 5414.00    0.55257   0.49666    0.012
 5415.00    0.56436   0.51081    0.012
 5416.00    0.44008   0.51448    0.012
 5417.00    0.39398   0.50945    0.012
 5418.00    0.54096   0.50856    0.013
 5419.00    0.64815   0.51672    0.013
 5420.00    0.67063   0.52373    0.013
 5421.00    0.64603   0.52225    0.012
 5422.00    0.53437   0.51630    0.013
 5423.00    0.44847   0.51175    0.013
 5424.00    0.40418   0.51237    0.012
 5425.00    0.40987   0.51350    0.012
 5426.00    0.48641   0.50546    0.012
 5427.00    0.57681   0.49633    0.012
 5428.00    0.68449   0.50217    0.012
 5429.00    0.72443   0.51718    0.012
 5430.00    0.68991   0.52264    0.012
 5431.00    0.58127   0.50864    0.012
 5432.00    0.40080   0.48731    0.012
 5433.00    0.33258   0.48499    0.012
 5434.00    0.36034   0.49818    0.012
 5435.00    0.37312   0.50066    0.012
 5436.00    0.37464   0.49118    0.012
 5437.00    0.41155   0.48394    0.012
 5438.00    0.47188   0.48522    0.011
 5439.00    0.46593   0.49414    0.012
 5440.00    0.42158   0.50681    0.012
 5441.00    0.38585   0.51924    0.012
 5442.00    0.35446   0.52639    0.012
 5443.00    0.38299   0.52793    0.012
 5444.00    0.43770   0.52717    0.012
 5445.00    0.43410   0.52646    0.012
 5446.00    0.40865   0.52357    0.012
 5447.00    0.45723   0.51286    0.012
 5448.00    0.52936   0.49425    0.012
 5449.00    0.45810   0.47673    0.012
 5450.00    0.34872   0.47585    0.012
 5451.00    0.38439   0.49339    0.012
 5452.00    0.45161   0.51019    0.012
 5453.00    0.47057   0.51560    0.012
 5454.00    0.48119   0.51447    0.012
 5455.00    0.40029   0.51122    0.012
 5456.00    0.30739   0.50384    0.012
 5457.00    0.33855   0.48836    0.012
 5458.00    0.38118   0.47343    0.012
 5459.00    0.40077   0.47770    0.012
 5460.00    0.41906   0.49774    0.012
 5461.00    0.40299   0.51245    0.012
 5462.00    0.38633   0.51456    0.013
 5463.00    0.38831   0.50938    0.012
 5464.00    0.39181   0.50121    0.012
 5465.00    0.43063   0.49049    0.013
 5466.00    0.46848   0.48448    0.013
 5467.00    0.49398   0.49096    0.012
 5468.00    0.51409   0.49972    0.012
 5469.00    0.48756   0.50107    0.012
 5470.00    0.47004   0.50190    0.013
 5471.00    0.51028   0.50525    0.012
 5472.00    0.54032   0.50480    0.012
 5473.00    0.51920   0.50084    0.012
 5474.00    0.49470   0.49899    0.012
 5475.00    0.45653   0.49673    0.012
 5476.00    0.41371   0.49123    0.012
 5477.00    0.35520   0.48775    0.012
 5478.00    0.32894   0.48077   -2.000
 5479.00    0.39429   0.46564   -2.000
 5480.00    0.41606   0.46213   -2.000
 5481.00    0.33202   0.47852   -2.000
 5482.00    0.27248   0.49282   -2.000
 5483.00    0.26426   0.49012   -2.000
 5484.00    0.24867   0.48123   -2.000
 5485.00    0.21966   0.48181   -2.000
 5486.00    0.26321   0.49095   -2.000
 5487.00    0.42230   0.50102   -2.000
 5488.00    0.33369   0.50612   -2.000
 5489.00   -0.10092   0.50052   -2.000
 5490.00   -0.13427   0.48994   -2.000
 5491.00    0.32570   0.48717   -2.000
 5492.00    0.75102   0.49244   -2.000
 5493.00    1.13877   0.49605   -2.000
 5494.00    1.11045   0.49776   -2.000
 5495.00    0.68441   0.49761   -2.000
 5496.00    0.45617   0.49413   -2.000
 5497.00    0.39463   0.49373   -2.000
 5498.00    0.42132   0.49652   -2.000
 5499.00    0.51348   0.49360   -2.000
 5500.00    0.55256   0.48715   -2.000
 5501.00    0.55704   0.49011   -2.000
 5502.00    0.54425   0.49892   -1.000
 5503.00    0.52160   0.49718   -1.000
 5504.00    0.48780   0.48628   -1.000
 5505.00    0.44844   0.48038   -1.000
 5506.00    0.48320   0.48354   -1.000
 5507.00    0.54981   0.48777   -1.000
 5508.00    0.47191   0.48473    0.033
 5509.00    0.34077   0.47730    0.014
 5510.00    0.39574   0.47846    0.012
 5511.00    0.50877   0.48704    0.012
 5512.00    0.51529   0.48991    0.012
 5513.00    0.49408   0.48685    0.012
 5514.00    0.47552   0.48128    0.012
 5515.00    0.45752   0.47478    0.012
 5516.00    0.46728   0.47320    0.012
 5517.00    0.48169   0.47779    0.012
 5518.00    0.43733   0.48403    0.012
 5519.00    0.38553   0.48878    0.012
 5520.00    0.36129   0.49325    0.012
 5521.00    0.33948   0.49904    0.012
 5522.00    0.26154   0.50185    0.012
 5523.00    0.18066   0.49995    0.012
 5524.00    0.32625   0.49742    0.012
 5525.00    0.47337   0.49674    0.012
 5526.00    0.41683   0.49683    0.012
 5527.00    0.35867   0.49472    0.011
 5528.00    0.26566   0.48830    0.011
 5529.00    0.18015   0.47851    0.011
 5530.00    0.18612   0.46715    0.011
 5531.00    0.21812   0.46126    0.011
 5532.00    0.46715   0.46957    0.011
 5533.00    0.67901   0.48441    0.011
 5534.00    0.65970   0.49141    0.011
 5535.00    0.63931   0.49013    0.011
 5536.00    0.61370   0.48556    0.011
 5537.00    0.58207   0.47950    0.011
 5538.00    0.52654   0.47661    0.011
 5539.00    0.47481   0.48164    0.011
 5540.00    0.43563   0.48723    0.011
 5541.00    0.43059   0.48867    0.011
 5542.00    0.52077   0.49169    0.011
 5543.00    0.60499   0.49632    0.011
 5544.00    0.67497   0.49727    0.011
 5545.00    0.70477   0.49230    0.011
 5546.00    0.65172   0.48530    0.011
 5547.00    0.55964   0.48299    0.011
 5548.00    0.39755   0.48414    0.011
 5549.00    0.30973   0.48528    0.011
 5550.00    0.33837   0.48887    0.011
 5551.00    0.38324   0.49457    0.012
 5552.00    0.45046   0.49774    0.012
 5553.00    0.51301   0.49808    0.012
 5554.00    0.56993   0.49688    0.012
 5555.00    0.55286   0.49338    0.012
 5556.00    0.45673   0.48781    0.012
 5557.00    0.39131   0.48297    0.012
 5558.00    0.35483   0.48377    0.012
 5559.00    0.37384   0.48726    0.011
 5560.00    0.43895   0.48739    0.012
 5561.00    0.44665   0.48610    0.011
 5562.00    0.41235   0.48649    0.011
 5563.00    0.42261   0.48654    0.011
 5564.00    0.46150   0.48412    0.011
 5565.00    0.46474   0.47952    0.011
 5566.00    0.44794   0.47633    0.011
 5567.00    0.40652   0.47662    0.011
 5568.00    0.35304   0.47550    0.011
 5569.00    0.37244   0.47300    0.011
 5570.00    0.42263   0.47325    0.011
 5571.00    0.47600   0.47295    0.011
 5572.00    0.53052   0.47039    0.011
 5573.00    0.52490   0.47235    0.011
 5574.00    0.50088   0.47570    0.011
 5575.00    0.52027   0.47032    0.011
 5576.00    0.55070   0.46690    0.011
 5577.00    0.55119   0.47432    0.011
 5578.00    0.54548   0.47926    0.011
 5579.00    0.51502   0.47827    0.011
 5580.00    0.48052   0.47954    0.011
 5581.00    0.48024   0.48147    0.011
 5582.00    0.48415   0.48216    0.011
 5583.00    0.47389   0.48293    0.011
 5584.00    0.46243   0.48090    0.011
 5585.00    0.43862   0.47791    0.011
 5586.00    0.41420   0.47873    0.011
 5587.00    0.39745   0.47824    0.011
 5588.00    0.38210   0.47042    0.011
 5589.00    0.44253   0.45617    0.011
 5590.00    0.50178   0.44344    0.011
 5591.00    0.53760   0.43944    0.011
 5592.00    0.56475   0.44406    0.012
 5593.00    0.49126   0.45417    0.012
 5594.00    0.42903   0.46358    0.012
 5595.00    0.45736   0.46632    0.012
 5596.00    0.48589   0.46243    0.012
 5597.00    0.51569   0.45941    0.012
 5598.00    0.54490   0.46658    0.012
 5599.00    0.57132   0.47690    0.012
 5600.00    0.57391   0.47445    0.012
 5601.00    0.48392   0.46356    0.012
 5602.00    0.45863   0.45931    0.012
 5603.00    0.64271   0.45895    0.012
 5604.00    0.71922   0.45399    0.012
 5605.00    0.50110   0.44964    0.012
 5606.00    0.35136   0.45389    0.011
 5607.00    0.36210   0.46797    0.011
 5608.00    0.38388   0.48072    0.011
 5609.00    0.42809   0.48580    0.011
 5610.00    0.48121   0.48601    0.011
 5611.00    0.55008   0.48453    0.011
 5612.00    0.58136   0.48334    0.011
 5613.00    0.55457   0.48356    0.011
 5614.00    0.51921   0.48547    0.011
 5615.00    0.47222   0.48694    0.011
 5616.00    0.48400   0.48150    0.011
 5617.00    0.56599   0.46342    0.011
 5618.00    0.58445   0.44354    0.011
 5619.00    0.53598   0.44370    0.011
 5620.00    0.43592   0.45898    0.010
 5621.00    0.28792   0.46723    0.010
 5622.00    0.26558   0.46649    0.010
 5623.00    0.34620   0.46695    0.010
 5624.00    0.39273   0.47102    0.011
 5625.00    0.41470   0.47317    0.011
 5626.00    0.48542   0.46674    0.011
 5627.00    0.58699   0.45448    0.011
 5628.00    0.62977   0.45095    0.011
 5629.00    0.64003   0.45874    0.011
 5630.00    0.59418   0.46627    0.011
 5631.00    0.52134   0.47030    0.011
 5632.00    0.48423   0.47463    0.011
 5633.00    0.46198   0.47778    0.011
 5634.00    0.48500   0.47844    0.011
 5635.00    0.52411   0.47678    0.011
 5636.00    0.49308   0.47309    0.011
 5637.00    0.44101   0.46958    0.011
 5638.00    0.41740   0.46699    0.011
 5639.00    0.40089   0.46236    0.011
 5640.00    0.38321   0.45755    0.011
 5641.00    0.36529   0.45785    0.011
 5642.00    0.40666   0.46175    0.011
 5643.00    0.45740   0.46157    0.011
 5644.00    0.48530   0.45769    0.011
 5645.00    0.51050   0.45771    0.011
 5646.00    0.43239   0.46032    0.011
 5647.00    0.34602   0.46234    0.011
 5648.00    0.38320   0.46415    0.011
 5649.00    0.42588   0.46587    0.011
 5650.00    0.37198   0.46754    0.011
 5651.00    0.31809   0.46743    0.011
 5652.00    0.31804   0.46519    0.010
 5653.00    0.32046   0.46390    0.010
 5654.00    0.36852   0.46650    0.010
 5655.00    0.41757   0.46982    0.010
 5656.00    0.47762   0.46824    0.010
 5657.00    0.53411   0.46151    0.010
 5658.00    0.56302   0.45717    0.010
 5659.00    0.58619   0.45754    0.011
 5660.00    0.57576   0.44984    0.010
 5661.00    0.56318   0.43504    0.010
 5662.00    0.54062   0.43509    0.010
 5663.00    0.51346   0.44860    0.010
 5664.00    0.46882   0.45325    0.010
 5665.00    0.42687   0.44744    0.010
 5666.00    0.39346   0.44765    0.010
 5667.00    0.36722   0.45673    0.010
 5668.00    0.36024   0.46333    0.010
 5669.00    0.36469   0.46171    0.010
 5670.00    0.39552   0.45656    0.011
 5671.00    0.42105   0.45419    0.011
 5672.00    0.43601   0.45547    0.011
 5673.00    0.44487   0.45790    0.011
 5674.00    0.44311   0.46080    0.011
 5675.00    0.44856   0.46592    0.011
 5676.00    0.46499   0.47109    0.011
 5677.00    0.45214   0.47080    0.011
 5678.00    0.40013   0.46678    0.011
 5679.00    0.40776   0.46696    0.011
 5680.00    0.48563   0.46962    0.011
 5681.00    0.50753   0.46810    0.011
 5682.00    0.47131   0.46479    0.011
 5683.00    0.44102   0.46335    0.011
 5684.00    0.41618   0.46025    0.011
 5685.00    0.36094   0.45298    0.011
 5686.00    0.28117   0.44927    0.011
 5687.00    0.29369   0.45276    0.010
 5688.00    0.37179   0.45596    0.010
 5689.00    0.39553   0.45344    0.010
 5690.00    0.38538   0.44827    0.010
 5691.00    0.40594   0.44701    0.010
 5692.00    0.44323   0.45137    0.010
 5693.00    0.48901   0.45755    0.010
 5694.00    0.53880   0.46163    0.010
 5695.00    0.55642   0.46432    0.010
 5696.00    0.56091   0.46520    0.010
 5697.00    0.57813   0.46350    0.010
 5698.00    0.59981   0.46206    0.010
 5699.00    0.55282   0.46278    0.010
 5700.00    0.48563   0.46148    0.011
 5701.00    0.46031   0.45601    0.010
 5702.00    0.44520   0.45268    0.010
 5703.00    0.42873   0.45016    0.010
 5704.00    0.41199   0.44530    0.010
 5705.00    0.38597   0.44389    0.010
 5706.00    0.35853   0.44862    0.010
 5707.00    0.35389   0.45325    0.010
 5708.00    0.35184   0.45055    0.010
 5709.00    0.33038   0.44346    0.010
 5710.00    0.30744   0.43842    0.010
 5711.00    0.35379   0.43341    0.010
 5712.00    0.40296   0.42918    0.011
 5713.00    0.47136   0.43053    0.011
 5714.00    0.53830   0.43272    0.011
 5715.00    0.53859   0.43586    0.011
 5716.00    0.53781   0.44509    0.011
 5717.00    0.51893   0.45345    0.011
 5718.00    0.50065   0.45630    0.011
 5719.00    0.48873   0.45746    0.011
 5720.00    0.48436   0.45706    0.011
 5721.00    0.53667   0.45658    0.011
 5722.00    0.57522   0.45899    0.011
 5723.00    0.53520   0.46142    0.010
 5724.00    0.51127   0.46319    0.010
 5725.00    0.56043   0.46556    0.010
 5726.00    0.60617   0.46626    0.010
 5727.00    0.63914   0.46499    0.010
 5728.00    0.66301   0.46264    0.010
 5729.00    0.65851   0.45731    0.010
 5730.00    0.62635   0.45197    0.010
 5731.00    0.52107   0.45372    0.010
 5732.00    0.43768   0.45860    0.010
 5733.00    0.40395   0.45816    0.010
 5734.00    0.39762   0.45322    0.010
 5735.00    0.44516   0.45155    0.010
 5736.00    0.47564   0.45618    0.010
 5737.00    0.47689   0.46072    0.010
 5738.00    0.46875   0.46156    0.010
 5739.00    0.44654   0.45963    0.010
 5740.00    0.43540   0.45726    0.000
 5741.00    0.43888   0.45602    0.000
 5742.00    0.44515   0.45592    0.000
 5743.00    0.45466   0.45600    0.000
 5744.00    0.46801   0.45531    0.000
 5745.00    0.48528   0.45380    0.000
 5746.00    0.49475   0.45332    0.000
 5747.00    0.49719   0.45591    0.000
 5748.00    0.47605   0.45952    0.000
 5749.00    0.43614   0.45922    0.000
 5750.00    0.45896   0.45300    0.000
 5751.00    0.52570   0.44713    0.000
 5752.00    0.56332   0.44982    0.000
 5753.00    0.58304   0.45609    0.000
 5754.00    0.57607   0.45615    0.000
 5755.00    0.55478   0.44820    0.000
 5756.00    0.51784   0.43787    0.000
 5757.00    0.47361   0.43427    0.000
 5758.00    0.46084   0.44163    0.000
 5759.00    0.46069   0.45181    0.000
 5760.00    0.47266   0.45688    0.000
 5761.00    0.48878   0.45744    0.000
 5762.00    0.42253   0.45443    0.000
 5763.00    0.33255   0.44919    0.000
 5764.00    0.37847   0.44248    0.000
 5765.00    0.45676   0.43585    0.000
 5766.00    0.47149   0.43579    0.000
 5767.00    0.47402   0.44534    0.000
 5768.00    0.49879   0.45434    0.000
 5769.00    0.52687   0.45678    0.000
 5770.00    0.56142   0.45670    0.000
 5771.00    0.59666   0.45615    0.000
 5772.00    0.58972   0.45452    0.000
 5773.00    0.57975   0.45315    0.000
 5774.00    0.53739   0.45164    0.000
 5775.00    0.49383   0.44905    0.000
 5776.00    0.49329   0.44816    0.000
 5777.00    0.49302   0.44791    0.000
 5778.00    0.49622   0.44763    0.000
 5779.00    0.49748   0.44985    0.000
 5780.00    0.46753   0.45176    0.000
 5781.00    0.44016   0.45087    0.000
 5782.00    0.43902   0.44560    0.000
 5783.00    0.44144   0.43547    0.000
 5784.00    0.46966   0.42569    0.000
 5785.00    0.48707   0.42411    0.000
 5786.00    0.44444   0.42748    0.000
 5787.00    0.41491   0.42739    0.000
 5788.00    0.44347   0.42547    0.000
 5789.00    0.45930   0.42977    0.000
 5790.00    0.42880   0.43844    0.000
 5791.00    0.41584   0.44337   -2.000
 5792.00    0.45647   0.44418   -2.000
 5793.00    0.47393   0.44070   -2.000
 5794.00    0.43127   0.43657   -2.000
 5795.00    0.38777   0.43899   -2.000
 5796.00    0.34242   0.44379   -2.000
 5797.00    0.35219   0.44696   -2.000
 5798.00    0.46858   0.44953   -2.000
 5799.00    0.54917   0.44801   -2.000
 5800.00    0.56937   0.44182   -2.000
 5801.00    0.56860   0.43914   -2.000
 5802.00    0.53686   0.44463   -2.000
 5803.00    0.51348   0.45162   -2.000
 5804.00    0.50099   0.45484   -2.000
 5805.00    0.50339   0.45560   -2.000
 5806.00    0.52283   0.45232   -2.000
 5807.00    0.52295   0.44532   -2.000
 5808.00    0.50354   0.44095   -2.000
 5809.00    0.51824   0.44087   -2.000
 5810.00    0.56331   0.44336   -2.000
 5811.00    0.54423   0.44553    0.000
 5812.00    0.47483   0.44582    0.000
 5813.00    0.42184   0.44659    0.000
 5814.00    0.38018   0.44876    0.000
 5815.00    0.32854   0.44909    0.000
 5816.00    0.27088   0.44743    0.000
 5817.00    0.28229   0.44454    0.000
 5818.00    0.33020   0.43981    0.000
 5819.00    0.36468   0.43608    0.000
 5820.00    0.39301   0.43860    0.000
 5821.00    0.39070   0.44542    0.000
 5822.00    0.37631   0.44982    0.000
 5823.00    0.48503   0.45071    0.000
 5824.00    0.63512   0.45021    0.000
 5825.00    0.70066   0.44863    0.000
 5826.00    0.74234   0.44708    0.000
 5827.00    0.61477   0.44687    0.000
 5828.00    0.44782   0.44786    0.000
 5829.00    0.41842   0.44760    0.000
 5830.00    0.41473   0.44713    0.000
 5831.00    0.42816   0.44734    0.000
 5832.00    0.44407   0.44823    0.000
 5833.00    0.45189   0.44860    0.000
 5834.00    0.45887   0.44727    0.000
 5835.00    0.45262   0.44671    0.000
 5836.00    0.44549   0.44633    0.000
 5837.00    0.45530   0.44418    0.000
 5838.00    0.46566   0.44217    0.000
 5839.00    0.43628   0.44393    0.000
 5840.00    0.40951   0.44483    0.000
 5841.00    0.46585   0.44245    0.000
 5842.00    0.51727   0.44253    0.000
 5843.00    0.49428   0.44561    0.000
 5844.00    0.47224   0.44812    0.000
 5845.00    0.45954   0.44855    0.000
 5846.00    0.44695   0.44818    0.000
 5847.00    0.43517   0.44658    0.000
 5848.00    0.42950   0.44355    0.000
 5849.00    0.45689   0.43989    0.000
 5850.00    0.46384   0.43636    0.000
 5851.00    0.38223   0.43550    0.000
 5852.00    0.32711   0.43742    0.000
 5853.00    0.36652   0.43875    0.000
 5854.00    0.41135   0.43739    0.000
 5855.00    0.47239   0.43188    0.000
 5856.00    0.51343   0.42507    0.000
 5857.00    0.50347   0.42434    0.000
 5858.00    0.49421   0.42826    0.000
 5859.00    0.48648   0.42594    0.000
 5860.00    0.47704   0.41662    0.000
 5861.00    0.46435   0.41342    0.000
 5862.00    0.45486   0.41977    0.000
 5863.00    0.45069   0.42709    0.000
 5864.00    0.45233   0.43049    0.000
 5865.00    0.46244   0.42897    0.000
 5866.00    0.47118   0.42864    0.000
 5867.00    0.47819   0.43233    0.000
 5868.00    0.49587   0.43361    0.000
 5869.00    0.52559   0.42956    0.000
 5870.00    0.50965   0.42747    0.000
 5871.00    0.44824   0.43134    0.000
 5872.00    0.40479   0.43624    0.000
 5873.00    0.37709   0.43852    0.000
 5874.00    0.39857   0.43777    0.000
 5875.00    0.45809   0.43505    0.000
 5876.00    0.51551   0.43274    0.000
 5877.00    0.57149   0.43291    0.000
 5878.00    0.58902   0.43347    0.000
 5879.00    0.58362   0.43158    0.000
 5880.00    0.56854   0.43005    0.000
 5881.00    0.54843   0.43000    0.000
 5882.00    0.47748   0.42751    0.000
 5883.00    0.38361   0.42354    0.000
 5884.00    0.33871   0.42339    0.000
 5885.00    0.31279   0.42578    0.000
 5886.00    0.36639   0.42455    0.000
 5887.00    0.44622   0.42186    0.000
 5888.00    0.50867   0.42264    0.000
 5889.00    0.56630   0.42398    0.000
 5890.00    0.55020   0.41908    0.000
 5891.00    0.51734   0.39844    0.000
 5892.00    0.46970   0.35925    0.000
 5893.00    0.41938   0.33340    0.000
 5894.00    0.42726   0.35042    0.000
 5895.00    0.44328   0.38241    0.000
 5896.00    0.45989   0.39736    0.000
 5897.00    0.47656   0.39284    0.000
 5898.00    0.45255   0.36813    0.000
 5899.00    0.42595   0.34980    0.000
 5900.00    0.39313   0.36685    0.000
 5901.00    0.36015   0.39458    0.010
 5902.00    0.33339   0.40698    0.010
 5903.00    0.30845   0.41235    0.009
 5904.00    0.33489   0.41753    0.009
 5905.00    0.36472   0.42040    0.009
 5906.00    0.44293   0.42149    0.009
 5907.00    0.51370   0.42159    0.009
 5908.00    0.51516   0.41997    0.009
 5909.00    0.51125   0.41890    0.009
 5910.00    0.47084   0.42106    0.009
 5911.00    0.43401   0.42313    0.009
 5912.00    0.41604   0.42321    0.009
 5913.00    0.40748   0.42307    0.009
 5914.00    0.43882   0.42474    0.009
 5915.00    0.47046   0.42446    0.009
 5916.00    0.50322   0.41842    0.009
 5917.00    0.52627   0.41045    0.010
 5918.00    0.52080   0.40887    0.010
 5919.00    0.52564   0.41179    0.010
 5920.00    0.55630   0.41559    0.010
 5921.00    0.58184   0.41885    0.010
 5922.00    0.59631   0.42037    0.010
 5923.00    0.58710   0.42198    0.010
 5924.00    0.53349   0.42151    0.010
 5925.00    0.47285   0.41832    0.010
 5926.00    0.40069   0.41780    0.010
 5927.00    0.38915   0.42053    0.010
 5928.00    0.46466   0.42261    0.010
 5929.00    0.50993   0.42410    0.010
 5930.00    0.51700   0.42362    0.010
 5931.00    0.48788   0.41990    0.010
 5932.00    0.41848   0.41403    0.010
 5933.00    0.42378   0.41056    0.009
 5934.00    0.50241   0.41419    0.009
 5935.00    0.55254   0.42051    0.009
 5936.00    0.57799   0.42126    0.009
 5937.00    0.56581   0.41626    0.009
 5938.00    0.52492   0.41438    0.009
 5939.00    0.49703   0.41837    0.009
 5940.00    0.47786   0.42230    0.009
 5941.00    0.47258   0.42408    0.009
 5942.00    0.47545   0.42411    0.009
 5943.00    0.44908   0.42007    0.009
 5944.00    0.40773   0.41390    0.009
 5945.00    0.39076   0.41219    0.009
 5946.00    0.38460   0.41465    0.009
 5947.00    0.40911   0.41851    0.009
 5948.00    0.44531   0.42137    0.009
 5949.00    0.48932   0.42181    0.009
 5950.00    0.53586   0.41824    0.009
 5951.00    0.54034   0.41168    0.009
 5952.00    0.53343   0.40836    0.010
 5953.00    0.50667   0.41263    0.010
 5954.00    0.47549   0.41670    0.010
 5955.00    0.46328   0.41319    0.010
 5956.00    0.45441   0.40959    0.010
 5957.00    0.47794   0.41290    0.010
 5958.00    0.50585   0.41663    0.010
 5959.00    0.45568   0.41359    0.010
 5960.00    0.39801   0.40953    0.010
 5961.00    0.39385   0.40991    0.009
 5962.00    0.39288   0.41372    0.009
 5963.00    0.48622   0.41820    0.009
 5964.00    0.58143   0.42079    0.010
 5965.00    0.59461   0.42209    0.009
 5966.00    0.60617   0.42207    0.009
 5967.00    0.57636   0.42055    0.009
 5968.00    0.54801   0.41769    0.009
 5969.00    0.53938   0.41511    0.009
 5970.00    0.53151   0.41660    0.009
 5971.00    0.53041   0.41915    0.009
 5972.00    0.53302   0.42021    0.009
 5973.00    0.56013   0.42117    0.009
 5974.00    0.57534   0.42198    0.009
 5975.00    0.52956   0.42184    0.009
 5976.00    0.48151   0.42212    0.009
 5977.00    0.42403   0.42019    0.009
 5978.00    0.39424   0.41493    0.009
 5979.00    0.45934   0.40910    0.009
 5980.00    0.51118   0.40558    0.009
 5981.00    0.52471   0.40611    0.009
 5982.00    0.52334   0.41013    0.009
 5983.00    0.48524   0.41563    0.009
 5984.00    0.45169   0.41771    0.009
 5985.00    0.42778   0.41488    0.009
 5986.00    0.41771   0.40805    0.009
 5987.00    0.43317   0.40070    0.009
 5988.00    0.45560   0.40049    0.009
 5989.00    0.48929   0.40551    0.009
 5990.00    0.51340   0.40925    0.009
 5991.00    0.52398   0.41051    0.009
 5992.00    0.50672   0.41275    0.009
 5993.00    0.45484   0.41301    0.009
 5994.00    0.42709   0.40926    0.009
 5995.00    0.42582   0.40866    0.009
 5996.00    0.43899   0.41390    0.009
 5997.00    0.46611   0.41766    0.009
 5998.00    0.51122   0.41678    0.009
 5999.00    0.57168   0.41350    0.009
 6000.00    0.59736   0.40866    0.009
 6001.00    0.59691   0.40601    0.009
 6002.00    0.59201   0.40802    0.009
 6003.00    0.58419   0.41070    0.009
 6004.00    0.58538   0.41178    0.009
 6005.00    0.59177   0.40855    0.009
 6006.00    0.56222   0.40504    0.009
 6007.00    0.51457   0.40724    0.009
 6008.00    0.50382   0.40942    0.009
 6009.00    0.50916   0.40650    0.009
 6010.00    0.53317   0.40015    0.009
 6011.00    0.56416   0.39462    0.009
 6012.00    0.57561   0.39794    0.009
 6013.00    0.58086   0.40710    0.009
 6014.00    0.60103   0.41144    0.010
 6015.00    0.62515   0.40730    0.010
 6016.00    0.60128   0.40178    0.010
 6017.00    0.56701   0.40226    0.009
 6018.00    0.54075   0.40504    0.009
 6019.00    0.51586   0.40372    0.010
 6020.00    0.50716   0.40177    0.010
 6021.00    0.50058   0.40368    0.010
 6022.00    0.47909   0.40356    0.009
 6023.00    0.45622   0.39877    0.009
 6024.00    0.50626   0.39672    0.009
 6025.00    0.56035   0.39917    0.010
 6026.00    0.55468   0.40086    0.009
 6027.00    0.54724   0.40015    0.009
 6028.00    0.49312   0.40324    0.009
 6029.00    0.44176   0.40667    0.009
 6030.00    0.45418   0.40601    0.009
 6031.00    0.46522   0.40714    0.009
 6032.00    0.45870   0.40966    0.009
 6033.00    0.45377   0.41018    0.009
 6034.00    0.46243   0.40962    0.009
 6035.00    0.47848   0.41128    0.009
 6036.00    0.54173   0.41327    0.009
 6037.00    0.59464   0.41266    0.009
 6038.00    0.59588   0.41155    0.009
 6039.00    0.58578   0.41144    0.009
 6040.00    0.52982   0.41159    0.009
 6041.00    0.47989   0.41138    0.009
 6042.00    0.45019   0.40968    0.009
 6043.00    0.43378   0.40751    0.009
 6044.00    0.45506   0.40663    0.009
 6045.00    0.49041   0.40642    0.009
 6046.00    0.55985   0.40888    0.009
 6047.00    0.62073   0.41196    0.009
 6048.00    0.66368   0.41121    0.009
 6049.00    0.66328   0.40999    0.010
 6050.00    0.58410   0.41083    0.010
 6051.00    0.53908   0.41183    0.010
 6052.00    0.54834   0.41073    0.009
 6053.00    0.55805   0.41023    0.009
 6054.00    0.56841   0.41047    0.009
 6055.00    0.56301   0.40928    0.009
 6056.00    0.53827   0.40627    0.009
 6057.00    0.50850   0.40417    0.009
 6058.00    0.47329   0.40290    0.009
 6059.00    0.45843   0.40119    0.009
 6060.00    0.46298   0.40182    0.009
 6061.00    0.47788   0.40467    0.009
 6062.00    0.50150   0.40754    0.009
 6063.00    0.51101   0.40832    0.009
 6064.00    0.51006   0.40814    0.009
 6065.00    0.50697   0.40632    0.009
 6066.00    0.50247   0.40335    0.009
 6067.00    0.50251   0.39883    0.009
 6068.00    0.50512   0.39182    0.009
 6069.00    0.51035   0.39205    0.009
 6070.00    0.51688   0.40128    0.009
 6071.00    0.51283   0.40877    0.009
 6072.00    0.50423   0.41089    0.009
 6073.00    0.52172   0.41039    0.009
 6074.00    0.54878   0.41029    0.009
 6075.00    0.57518   0.41077    0.009
 6076.00    0.60136   0.41139    0.009
 6077.00    0.56398   0.41120    0.009
 6078.00    0.51011   0.41033    0.009
 6079.00    0.49547   0.40841    0.009
 6080.00    0.48913   0.40482    0.009
 6081.00    0.50581   0.39872    0.009
 6082.00    0.52634   0.39531    0.009
 6083.00    0.50676   0.39794    0.009
 6084.00    0.48213   0.39901    0.009
 6085.00    0.47832   0.39559    0.009
 6086.00    0.47633   0.39534    0.009
 6087.00    0.51222   0.39689    0.009
 6088.00    0.55006   0.39580    0.009
 6089.00    0.50645   0.39516    0.009
 6090.00    0.46178   0.39748    0.009
 6091.00    0.44761   0.40047    0.009
 6092.00    0.43569   0.39903    0.009
 6093.00    0.47195   0.39484    0.009
 6094.00    0.50642   0.39350    0.009
 6095.00    0.51940   0.39414    0.009
 6096.00    0.53132   0.39516    0.009
 6097.00    0.53447   0.39815    0.009
 6098.00    0.53704   0.40174    0.009
 6099.00    0.53603   0.40235    0.009
 6100.00    0.53473   0.40033    0.009
 6101.00    0.53204   0.39990    0.009
 6102.00    0.53051   0.40263    0.009
 6103.00    0.53357   0.40359    0.009
 6104.00    0.53326   0.39729    0.009
 6105.00    0.52182   0.38136    0.009
 6106.00    0.51139   0.37219    0.009
 6107.00    0.50378   0.38221    0.009
 6108.00    0.49653   0.39472    0.009
 6109.00    0.49017   0.39912    0.009
 6110.00    0.48929   0.39741    0.009
 6111.00    0.49972   0.39490    0.009
 6112.00    0.51330   0.39751    0.009
 6113.00    0.53254   0.40044    0.009
 6114.00    0.54187   0.39846    0.009
 6115.00    0.53568   0.39658    0.009
 6116.00    0.53918   0.39836    0.009
 6117.00    0.55602   0.40069    0.009
 6118.00    0.55602   0.40017    0.009
 6119.00    0.53567   0.39631    0.009
 6120.00    0.51367   0.39500    0.009
 6121.00    0.48993   0.39754    0.009
 6122.00    0.48176   0.39673    0.009
 6123.00    0.48824   0.39140    0.009
 6124.00    0.49351   0.38289    0.009
 6125.00    0.49778   0.37508    0.009
 6126.00    0.49534   0.37858    0.009
 6127.00    0.48800   0.38931    0.009
 6128.00    0.47130   0.39334    0.009
 6129.00    0.44858   0.39207    0.009
 6130.00    0.42678   0.39058    0.009
 6131.00    0.40548   0.38908    0.009
 6132.00    0.40941   0.38941    0.009
 6133.00    0.42565   0.39279    0.009
 6134.00    0.44203   0.39558    0.009
 6135.00    0.45846   0.39593    0.009
 6136.00    0.47810   0.39608    0.009
 6137.00    0.49889   0.39432    0.009
 6138.00    0.45883   0.38618    0.009
 6139.00    0.40020   0.37061    0.009
 6140.00    0.40767   0.35655    0.009
 6141.00    0.43192   0.36115    0.009
 6142.00    0.48659   0.38017    0.009
 6143.00    0.54754   0.39048    0.009
 6144.00    0.55510   0.38382    0.009
 6145.00    0.55400   0.37734    0.009
 6146.00    0.54129   0.38376    0.009
 6147.00    0.52718   0.39347    0.009
 6148.00    0.50896   0.39669    0.009
 6149.00    0.49040   0.39527    0.009
 6150.00    0.46953   0.39208    0.009
 6151.00    0.44855   0.38688    0.009
 6152.00    0.45284   0.38319    0.009
 6153.00    0.45805   0.38287    0.008
 6154.00    0.49505   0.38540    0.009
 6155.00    0.53077   0.38879    0.009
 6156.00    0.54121   0.39052    0.009
 6157.00    0.54726   0.38823    0.009
 6158.00    0.50267   0.38441    0.009
 6159.00    0.46033   0.38373    0.009
 6160.00    0.43597   0.38437    0.009
 6161.00    0.41548   0.38407    0.009
 6162.00    0.41834   0.38408    0.009
 6163.00    0.41899   0.37820    0.009
 6164.00    0.40905   0.36248    0.009
 6165.00    0.40096   0.34879    0.009
 6166.00    0.39999   0.34956    0.009
 6167.00    0.39791   0.36057    0.009
 6168.00    0.39226   0.37034    0.009
 6169.00    0.39809   0.37525    0.009
 6170.00    0.43526   0.37819    0.009
 6171.00    0.45275   0.37546    0.009
 6172.00    0.42415   0.36446    0.009
 6173.00    0.40312   0.35819    0.009
 6174.00    0.39741   0.36607    0.009
 6175.00    0.40895   0.37674    0.009
 6176.00    0.45091   0.37896    0.009
 6177.00    0.46801   0.37845    0.009
 6178.00    0.44675   0.37860    0.009
 6179.00    0.42314   0.37725    0.008
 6180.00    0.39631   0.37646    0.008
 6181.00    0.39270   0.37910    0.008
 6182.00    0.41678   0.38095    0.008
 6183.00    0.42555   0.38021    0.008
 6184.00    0.41823   0.38148    0.008
 6185.00    0.44297   0.38429    0.009
 6186.00    0.49745   0.38466    0.009
 6187.00    0.54317   0.38419    0.009
 6188.00    0.58173   0.38360    0.009
 6189.00    0.55507   0.38027    0.009
 6190.00    0.48148   0.37621    0.009
 6191.00    0.41256   0.37470    0.009
 6192.00    0.34660   0.37475    0.009
 6193.00    0.40580   0.37084    0.009
 6194.00    0.53413   0.36096    0.009
 6195.00    0.61795   0.35844    0.009
 6196.00    0.68040   0.36829   -2.000
 6197.00    0.69262   0.37702   -2.000
 6198.00    0.68402   0.37973   -2.000
 6199.00    0.54791   0.38135   -2.000
 6200.00    0.36661   0.38318   -2.000
 6201.00    0.22462   0.38177   -2.000
 6202.00    0.09438   0.37505   -2.000
 6203.00    0.08557   0.36948   -2.000
 6204.00    0.10693   0.37159   -2.000
 6205.00    0.14104   0.37754   -2.000
 6206.00    0.17771   0.38100   -2.000
 6207.00    0.19708   0.38162   -2.000
 6208.00    0.21372   0.38121    0.009
 6209.00    0.29880   0.38142    0.009
 6210.00    0.39191   0.38178    0.009
 6211.00    0.40071   0.38135    0.009
 6212.00    0.40282   0.38112    0.009
 6213.00    0.41830   0.38004    0.009
 6214.00    0.43436   0.37830    0.009
 6215.00    0.51030   0.37546    0.009
 6216.00    0.58560   0.36865    0.009
 6217.00    0.59995   0.36160    0.009
 6218.00    0.61174   0.35841    0.009
 6219.00    0.57684   0.36033    0.009
 6220.00    0.53781   0.36633    0.009
 6221.00    0.45319   0.37002    0.009
 6222.00    0.37972   0.36632    0.009
 6223.00    0.39238   0.36244    0.009
 6224.00    0.40776   0.36320    0.009
 6225.00    0.43903   0.36685    0.009
 6226.00    0.46091   0.36994    0.009
 6227.00    0.43916   0.36960    0.009
 6228.00    0.42078   0.36920    0.009
 6229.00    0.41519   0.37031    0.009
 6230.00    0.41391   0.37081    0.009
 6231.00    0.42626   0.37011    0.009
 6232.00    0.44061   0.36571    0.008
 6233.00    0.46031   0.35543    0.008
 6234.00    0.46322   0.34951    0.008
 6235.00    0.42750   0.35308    0.008
 6236.00    0.40352   0.35923    0.008
 6237.00    0.40294   0.36695    0.008
 6238.00    0.41844   0.37396    0.008
 6239.00    0.46188   0.37472    0.008
 6240.00    0.49383   0.37067    0.008
 6241.00    0.50829   0.36579    0.008
 6242.00    0.51073   0.36199    0.008
 6243.00    0.49709   0.35966    0.008
 6244.00    0.48337   0.36122    0.009
 6245.00    0.46956   0.36227    0.009
 6246.00    0.44947   0.35842    0.009
 6247.00    0.42286   0.35573    0.009
 6248.00    0.41317   0.35558    0.009
 6249.00    0.41894   0.35462    0.009
 6250.00    0.44044   0.35611    0.009
 6251.00    0.47463   0.36200    0.009
 6252.00    0.49782   0.36745    0.009
 6253.00    0.51321   0.36895    0.009
 6254.00    0.50707   0.36545    0.009
 6255.00    0.48754   0.35704    0.009
 6256.00    0.46629   0.35104    0.009
 6257.00    0.44411   0.35049    0.008
 6258.00    0.42230   0.35200    0.008
 6259.00    0.40066   0.35217    0.009
 6260.00    0.39090   0.35014    0.009
 6261.00    0.38599   0.34772    0.010
 6262.00    0.38553   0.34944    0.010
 6263.00    0.38661   0.35580    0.010
 6264.00    0.35422   0.36049    0.010
 6265.00    0.31200   0.36405    0.010
 6266.00    0.33418   0.36862    0.010
 6267.00    0.37200   0.36847    0.009
 6268.00    0.39058   0.36285    0.009
 6269.00    0.40539   0.36180    0.009
 6270.00    0.44508   0.36603    0.009
 6271.00    0.48859   0.36734    0.009
 6272.00    0.48612   0.36513    0.009
 6273.00    0.47848   0.36306    0.009
 6274.00    0.49849   0.36328    0.009
 6275.00    0.52059   0.36546    0.009
 6276.00    0.48087   0.36810    0.009
 6277.00    0.43866   0.36895    0.009
 6278.00    0.42777   0.36874    0.009
 6279.00    0.41776   0.36894    0.009
 6280.00    0.43402   0.36774    0.000
 6281.00    0.45367   0.36590    0.000
 6282.00    0.53095   0.36308    0.000
 6283.00    0.60036   0.35864    0.000
 6284.00    0.58703   0.35720    0.000
 6285.00    0.57468   0.35925    0.000
 6286.00    0.56963   0.36262    0.000
 6287.00    0.56208   0.36599    0.000
 6288.00    0.54033   0.36683    0.000
 6289.00    0.51298   0.36744    0.000
 6290.00    0.46026   0.36959    0.000
 6291.00    0.42678   0.37180    0.000
 6292.00    0.46464   0.37230    0.000
 6293.00    0.50609   0.36926    0.000
 6294.00    0.55872   0.36580    0.000
 6295.00    0.59863   0.36423    0.000
 6296.00    0.60499   0.36353    0.000
 6297.00    0.60966   0.36517    0.000
 6298.00    0.61050   0.36653    0.000
 6299.00    0.59365   0.36285    0.000
 6300.00    0.54214   0.35787    0.000
 6301.00    0.51472   0.35670    0.000
 6302.00    0.52846   0.35875    0.000
 6303.00    0.53894   0.35905    0.000
 6304.00    0.54453   0.35505    0.000
 6305.00    0.54375   0.35146    0.000
 6306.00    0.53458   0.35417    0.000
 6307.00    0.52676   0.35977    0.000
 6308.00    0.52052   0.36228    0.000
 6309.00    0.51987   0.36293    0.000
 6310.00    0.52494   0.36616    0.000
 6311.00    0.53072   0.36937    0.000
 6312.00    0.53713   0.36886    0.000
 6313.00    0.53135   0.36507    0.000
 6314.00    0.51588   0.36178    0.000
 6315.00    0.51120   0.36074    0.000
 6316.00    0.51405   0.36147    0.000
 6317.00    0.52488   0.35871    0.000
 6318.00    0.54060   0.35432    0.000
 6319.00    0.52931   0.35393    0.000
 6320.00    0.50355   0.35366    0.000
 6321.00    0.46829   0.34951    0.008
 6322.00    0.42862   0.34904    0.008
 6323.00    0.43108   0.35437    0.008
 6324.00    0.45041   0.35884    0.008
 6325.00    0.47014   0.35941    0.009
 6326.00    0.49002   0.35992    0.009
 6327.00    0.51917   0.36310    0.009
 6328.00    0.55099   0.36588    0.009
 6329.00    0.53364   0.36636    0.009
 6330.00    0.50462   0.36488    0.008
 6331.00    0.48732   0.36409    0.008
 6332.00    0.47226   0.36430    0.008
 6333.00    0.46313   0.36281    0.008
 6334.00    0.45488   0.36164    0.008
 6335.00    0.43345   0.36357    0.008
 6336.00    0.41060   0.36597    0.008
 6337.00    0.42365   0.36293    0.008
 6338.00    0.43927   0.35441    0.008
 6339.00    0.46083   0.34782    0.008
 6340.00    0.48262   0.34830    0.008
 6341.00    0.45591   0.35273    0.008
 6342.00    0.42952   0.35588    0.008
 6343.00    0.42032   0.35881    0.008
 6344.00    0.41082   0.36243    0.008
 6345.00    0.39638   0.36219    0.008
 6346.00    0.38374   0.35709    0.008
 6347.00    0.38910   0.35245    0.008
 6348.00    0.40463   0.35208    0.008
 6349.00    0.49346   0.35209    0.008
 6350.00    0.56571   0.35109    0.009
 6351.00    0.54622   0.35359    0.009
 6352.00    0.51998   0.35883    0.009
 6353.00    0.46386   0.36148    0.009
 6354.00    0.41865   0.36232    0.009
 6355.00    0.41306   0.36270    0.008
 6356.00    0.41907   0.36110    0.008
 6357.00    0.46044   0.35678    0.009
 6358.00    0.49897   0.35308    0.008
 6359.00    0.53015   0.35359    0.008
 6360.00    0.54170   0.35414    0.008
 6361.00    0.50953   0.35030    0.008
 6362.00    0.47548   0.34639    0.008
 6363.00    0.43776   0.34661    0.008
 6364.00    0.41033   0.34611    0.008
 6365.00    0.40023   0.34274    0.008
 6366.00    0.40708   0.34149    0.008
 6367.00    0.43897   0.34454    0.008
 6368.00    0.45483   0.34857    0.008
 6369.00    0.44990   0.35202    0.008
 6370.00    0.44797   0.35502    0.008
 6371.00    0.44947   0.35708    0.008
 6372.00    0.46525   0.35692    0.008
 6373.00    0.49543   0.35316    0.008
 6374.00    0.50739   0.35070    0.008
 6375.00    0.50316   0.35415    0.008
 6376.00    0.50705   0.35953    0.008
 6377.00    0.51730   0.36165    0.008
 6378.00    0.53196   0.36129    0.008
 6379.00    0.54964   0.36098    0.009
 6380.00    0.57239   0.35988    0.009
 6381.00    0.59820   0.35733    0.009
 6382.00    0.58837   0.35497    0.009
 6383.00    0.55975   0.35338    0.008
 6384.00    0.55226   0.35337    0.008
 6385.00    0.55443   0.35556    0.008
 6386.00    0.55731   0.35645    0.008
 6387.00    0.56046   0.35430    0.008
 6388.00    0.56780   0.35328    0.008
 6389.00    0.57654   0.35513    0.008
 6390.00    0.57498   0.35788    0.008
 6391.00    0.57052   0.35857    0.008
 6392.00    0.56735   0.35828    0.008
 6393.00    0.56448   0.35844    0.008
 6394.00    0.54757   0.35765    0.008
 6395.00    0.52805   0.35269    0.008
 6396.00    0.49009   0.34463    0.008
 6397.00    0.44948   0.34218    0.009
 6398.00    0.44334   0.34828    0.009
 6399.00    0.44078   0.35547    0.009
 6400.00    0.47200   0.35930    0.009
 6401.00    0.50547   0.35833    0.008
 6402.00    0.51182   0.34925    0.009
 6403.00    0.51727   0.33927    0.009
 6404.00    0.49740   0.34107    0.009
 6405.00    0.47838   0.35144    0.009
 6406.00    0.48576   0.35872    0.009
 6407.00    0.49429   0.36100    0.009
 6408.00    0.51984   0.36010    0.008
 6409.00    0.54528   0.35668    0.008
 6410.00    0.56955   0.35101    0.008
 6411.00    0.58739   0.34700    0.008
 6412.00    0.56036   0.34931    0.008
 6413.00    0.53550   0.35256    0.008
 6414.00    0.52237   0.34962    0.008
 6415.00    0.51329   0.34734    0.008
 6416.00    0.52166   0.34996    0.008
 6417.00    0.53025   0.35204    0.008
 6418.00    0.53963   0.35212    0.008
 6419.00    0.54863   0.35202    0.008
 6420.00    0.55649   0.35220    0.008
 6421.00    0.55763   0.35215    0.008
 6422.00    0.54166   0.34965    0.008
 6423.00    0.52517   0.34391    0.008
 6424.00    0.50757   0.34022    0.008
 6425.00    0.49406   0.34417    0.008
 6426.00    0.48833   0.35257    0.008
 6427.00    0.48192   0.35741    0.008
 6428.00    0.47437   0.35711    0.009
 6429.00    0.48135   0.35662    0.009
 6430.00    0.50944   0.35802    0.009
 6431.00    0.54235   0.35872    0.009
 6432.00    0.58145   0.35586    0.009
 6433.00    0.57832   0.34807    0.009
 6434.00    0.52762   0.34083    0.008
 6435.00    0.48695   0.34097    0.008
 6436.00    0.45625   0.34615    0.008
 6437.00    0.46805   0.35123    0.008
 6438.00    0.51709   0.35448    0.008
 6439.00    0.55801   0.35593    0.008
 6440.00    0.59266   0.35357    0.008
 6441.00    0.60312   0.34525    0.008
 6442.00    0.59715   0.33761    0.008
 6443.00    0.56160   0.34099    0.008
 6444.00    0.50844   0.35081    0.008
 6445.00    0.46039   0.35680    0.008
 6446.00    0.41499   0.35831    0.008
 6447.00    0.41845   0.35779    0.008
 6448.00    0.44388   0.35718    0.008
 6449.00    0.49464   0.35798    0.009
 6450.00    0.55520   0.35812    0.009
 6451.00    0.54010   0.35331    0.009
 6452.00    0.50010   0.34110    0.009
 6453.00    0.46741   0.33057    0.009
 6454.00    0.43674   0.33323    0.008
 6455.00    0.44953   0.34332    0.008
 6456.00    0.47217   0.35037    0.008
 6457.00    0.52230   0.35074    0.008
 6458.00    0.57740   0.34452    0.008
 6459.00    0.57624   0.33704    0.008
 6460.00    0.56725   0.33762    0.009
 6461.00    0.55961   0.34579    0.008
 6462.00    0.55210   0.35316    0.008
 6463.00    0.54109   0.35534    0.008
 6464.00    0.52986   0.35001    0.008
 6465.00    0.50248   0.33783    0.008
 6466.00    0.47481   0.33081    0.008
 6467.00    0.49720   0.33632    0.008
 6468.00    0.52054   0.34468    0.008
 6469.00    0.57038   0.34961    0.008
 6470.00    0.61718   0.35229    0.008
 6471.00    0.62090   0.35230    0.008
 6472.00    0.61918   0.34957    0.008
 6473.00    0.56700   0.34655    0.008
 6474.00    0.52055   0.34382    0.008
 6475.00    0.51286   0.34277    0.008
 6476.00    0.50867   0.34515    0.008
 6477.00    0.52282   0.34650    0.009
 6478.00    0.53033   0.34463    0.009
 6479.00    0.50979   0.34386    0.008
 6480.00    0.49975   0.34622    0.008
 6481.00    0.52632   0.34799    0.008
 6482.00    0.54204   0.34831    0.008
 6483.00    0.52594   0.34744    0.008
 6484.00    0.51846   0.34227    0.008
 6485.00    0.53254   0.33528    0.008
 6486.00    0.54011   0.33309    0.008
 6487.00    0.53363   0.33688    0.008
 6488.00    0.52641   0.34161    0.008
 6489.00    0.51780   0.34414    0.008
 6490.00    0.50572   0.34520    0.008
 6491.00    0.48797   0.34568    0.008
 6492.00    0.47999   0.34487    0.008
 6493.00    0.48600   0.34201    0.008
 6494.00    0.49225   0.33844    0.008
 6495.00    0.49880   0.33482    0.008
 6496.00    0.49499   0.32735    0.008
 6497.00    0.47967   0.31496    0.008
 6498.00    0.47109   0.30580    0.008
 6499.00    0.46912   0.30433    0.008
 6500.00    0.47811   0.30904    0.009
 6501.00    0.49656   0.31718    0.009
 6502.00    0.48665   0.32298    0.009
 6503.00    0.45515   0.32737    0.008
 6504.00    0.44248   0.33281    0.008
 6505.00    0.44240   0.33685    0.008
 6506.00    0.44716   0.33876    0.008
 6507.00    0.45476   0.33993    0.008
 6508.00    0.44970   0.34130    0.008
 6509.00    0.43819   0.34257    0.008
 6510.00    0.46327   0.34251    0.008
 6511.00    0.50455   0.34073    0.008
 6512.00    0.55475   0.33904    0.008
 6513.00    0.60835   0.33950    0.008
 6514.00    0.60250   0.34068    0.008
 6515.00    0.57746   0.34079    0.008
 6516.00    0.54660   0.34042    0.008
 6517.00    0.51417   0.33904    0.008
 6518.00    0.53816   0.33547    0.008
 6519.00    0.57465   0.33120    0.008
 6520.00    0.55636   0.32888    0.008
 6521.00    0.52840   0.32792    0.008
 6522.00    0.52125   0.32841    0.008
 6523.00    0.51691   0.33209    0.008
 6524.00    0.53255   0.33670    0.008
 6525.00    0.55011   0.33866    0.008
 6526.00    0.54686   0.33815    0.008
 6527.00    0.54238   0.33810    0.009
 6528.00    0.56503   0.33784    0.000
 6529.00    0.58808   0.33495    0.000
 6530.00    0.57078   0.33126    0.000
 6531.00    0.55383   0.33054    0.000
 6532.00    0.54590   0.33270    0.000
 6533.00    0.53995   0.33486    0.000
 6534.00    0.56052   0.33450    0.000
 6535.00    0.57555   0.33161    0.000
 6536.00    0.54108   0.32853    0.000
 6537.00    0.50813   0.32819    0.000
 6538.00    0.48507   0.33075    0.000
 6539.00    0.46802   0.33265    0.000
 6540.00    0.48169   0.33152    0.000
 6541.00    0.49523   0.33037    0.000
 6542.00    0.50822   0.33160    0.000
 6543.00    0.52138   0.33304    0.000
 6544.00    0.53511   0.33201    0.000
 6545.00    0.54492   0.32876    0.000
 6546.00    0.54345   0.32567    0.000
 6547.00    0.55911   0.32349    0.000
 6548.00    0.61687   0.31931    0.000
 6549.00    0.66115   0.31318    0.000
 6550.00    0.67683   0.31084    0.000
 6551.00    0.69138   0.31354    0.000
 6552.00    0.70382   0.31630    0.000
 6553.00    0.69080   0.31566    0.000
 6554.00    0.63680   0.31260    0.000
 6555.00    0.58267   0.30886    0.000
 6556.00    0.52835   0.30519    0.000
 6557.00    0.46864   0.30100    0.000
 6558.00    0.40221   0.29571    0.000
 6559.00    0.38732   0.29152    0.000
 6560.00    0.42888   0.28977    0.000
 6561.00    0.58940   0.28790    0.000
 6562.00    0.86484   0.28305    0.000
 6563.00    1.18958   0.27371    0.000
 6564.00    1.55632   0.25261    0.000
 6565.00    1.79422   0.21597    0.000
 6566.00    1.93545   0.19070    0.000
 6567.00    1.86004   0.20531    0.000
 6568.00    1.64183   0.24191    0.000
 6569.00    1.35397   0.26936    0.000
 6570.00    1.02591   0.28306    0.000
 6571.00    0.79608   0.28898    0.000
 6572.00    0.61563   0.29026    0.000
 6573.00    0.53621   0.29183    0.000
 6574.00    0.50074   0.29553    0.000
 6575.00    0.49427   0.29768    0.000
 6576.00    0.49862   0.29711    0.000
 6577.00    0.50665   0.29620    0.000
 6578.00    0.51584   0.29811    0.000
 6579.00    0.51466   0.30415    0.000
 6580.00    0.51074   0.31133    0.000
 6581.00    0.53082   0.31576    0.000
 6582.00    0.55608   0.31707    0.000
 6583.00    0.69666   0.31584    0.000
 6584.00    0.85701   0.31364    0.000
 6585.00    1.00553   0.31445    0.000
 6586.00    1.15251   0.31737    0.000
 6587.00    1.15188   0.31914    0.000
 6588.00    1.13776   0.31900    0.000
 6589.00    1.01337   0.31826    0.000
 6590.00    0.88290   0.31874    0.000
 6591.00    0.73059   0.32123    0.000
 6592.00    0.57870   0.32437    0.000
 6593.00    0.51165   0.32576    0.000
 6594.00    0.44720   0.32383    0.000
 6595.00    0.44223   0.31649    0.000
 6596.00    0.43822   0.30723    0.000
 6597.00    0.44645   0.30578    0.000
 6598.00    0.45287   0.31291    0.000
 6599.00    0.44376   0.31970    0.000
 6600.00    0.44053   0.32148    0.000
 6601.00    0.47463   0.31999    0.000
 6602.00    0.50709   0.31937    0.000
 6603.00    0.53138   0.32195    0.000
 6604.00    0.54979   0.32600    0.000
 6605.00    0.54442   0.32805    0.000
 6606.00    0.53807   0.32691    0.000
 6607.00    0.52838   0.32405    0.000
 6608.00    0.51464   0.32143    0.000
 6609.00    0.48945   0.32072    0.008
 6610.00    0.48540   0.32060    0.008
 6611.00    0.53245   0.31882    0.008
 6612.00    0.56558   0.31614    0.008
 6613.00    0.56965   0.31712    0.008
 6614.00    0.56135   0.32174    0.008
 6615.00    0.53060   0.32502    0.008
 6616.00    0.50979   0.32423    0.008
 6617.00    0.50476   0.32286    0.008
 6618.00    0.51023   0.32429    0.008
 6619.00    0.53033   0.32634    0.008
 6620.00    0.53938   0.32659    0.008
 6621.00    0.53490   0.32588    0.008
 6622.00    0.50355   0.32575    0.008
 6623.00    0.44318   0.32684    0.008
 6624.00    0.40912   0.32786    0.008
 6625.00    0.40011   0.32756    0.008
 6626.00    0.41446   0.32553    0.008
 6627.00    0.44843   0.32157    0.008
 6628.00    0.47964   0.31863    0.008
 6629.00    0.50880   0.31908    0.008
 6630.00    0.52364   0.32107    0.008
 6631.00    0.52918   0.32255    0.008
 6632.00    0.51432   0.32284    0.008
 6633.00    0.48785   0.32198    0.008
 6634.00    0.47574   0.32086    0.008
 6635.00    0.47073   0.31906    0.008
 6636.00    0.47543   0.31509    0.008
 6637.00    0.48428   0.31138    0.008
 6638.00    0.48935   0.31264    0.008
 6639.00    0.49304   0.31716    0.008
 6640.00    0.49054   0.32084    0.008
 6641.00    0.48613   0.32218    0.008
 6642.00    0.51394   0.32130    0.008
 6643.00    0.55009   0.31998    0.008
 6644.00    0.59190   0.32081    0.008
 6645.00    0.63490   0.32110    0.008
 6646.00    0.62713   0.31738    0.008
 6647.00    0.61089   0.31449    0.008
 6648.00    0.58610   0.31604    0.008
 6649.00    0.56024   0.31886    0.008
 6650.00    0.53611   0.32019    0.008
 6651.00    0.51213   0.32020    0.008
 6652.00    0.49534   0.32052    0.008
 6653.00    0.47891   0.32088    0.008
 6654.00    0.48773   0.32015    0.008
 6655.00    0.49686   0.31920    0.008
 6656.00    0.49577   0.31892    0.008
 6657.00    0.49334   0.31896    0.008
 6658.00    0.46263   0.31904    0.008
 6659.00    0.43611   0.31888    0.008
 6660.00    0.45998   0.31884    0.008
 6661.00    0.48528   0.31926    0.008
 6662.00    0.52250   0.31933    0.008
 6663.00    0.55260   0.31839    0.008
 6664.00    0.53876   0.31670    0.008
 6665.00    0.52615   0.31390    0.008
 6666.00    0.51951   0.30984    0.008
 6667.00    0.50936   0.30835    0.008
 6668.00    0.48529   0.31072    0.008
 6669.00    0.47830   0.31291    0.008
 6670.00    0.52735   0.31357    0.008
 6671.00    0.56406   0.31385    0.008
 6672.00    0.56649   0.31531    0.008
 6673.00    0.56635   0.31772    0.008
 6674.00    0.56008   0.31926    0.008
 6675.00    0.56104   0.31929    0.008
 6676.00    0.57683   0.31902    0.008
 6677.00    0.57282   0.31910    0.008
 6678.00    0.53346   0.31918    0.008
 6679.00    0.49835   0.31722    0.008
 6680.00    0.46989   0.31079    0.008
 6681.00    0.46000   0.30305    0.008
 6682.00    0.47559   0.30252    0.008
 6683.00    0.49815   0.30865    0.008
 6684.00    0.52913   0.31320    0.008
 6685.00    0.53321   0.31482    0.008
 6686.00    0.50866   0.31582    0.008
 6687.00    0.49125   0.31679    0.008
 6688.00    0.48056   0.31712    0.008
 6689.00    0.48518   0.31664    0.008
 6690.00    0.50246   0.31597    0.008
 6691.00    0.52223   0.31550    0.008
 6692.00    0.54380   0.31548    0.008
 6693.00    0.54831   0.31586    0.008
 6694.00    0.54191   0.31637    0.008
 6695.00    0.54256   0.31617    0.008
 6696.00    0.54716   0.31623    0.000
 6697.00    0.54442   0.31548    0.000
 6698.00    0.53811   0.31300    0.000
 6699.00    0.53939   0.30968    0.000
 6700.00    0.54386   0.30799    0.000
 6701.00    0.57850   0.30895    0.000
 6702.00    0.62400   0.31111    0.000
 6703.00    0.62885   0.31345    0.000
 6704.00    0.62131   0.31492    0.000
 6705.00    0.60611   0.31464    0.000
 6706.00    0.58898   0.31244    0.000
 6707.00    0.63379   0.30990    0.000
 6708.00    0.69135   0.30913    0.000
 6709.00    0.64251   0.31079    0.000
 6710.00    0.57643   0.31220    0.000
 6711.00    0.53583   0.31220    0.000
 6712.00    0.49831   0.31178    0.000
 6713.00    0.50296   0.31089    0.000
 6714.00    0.51110   0.31030    0.000
 6715.00    0.51274   0.31051    0.000
 6716.00    0.51407   0.31009    0.000
 6717.00    0.64632   0.30854    0.000
 6718.00    0.77978   0.30611    0.000
 6719.00    0.87755   0.30257    0.000
 6720.00    0.96599   0.29838    0.000
 6721.00    0.87286   0.29680    0.000
 6722.00    0.77833   0.30053    0.000
 6723.00    0.66782   0.30589    0.000
 6724.00    0.56520   0.30789    0.000
 6725.00    0.52535   0.30732    0.000
 6726.00    0.48632   0.30781    0.000
 6727.00    0.45212   0.30937    0.000
 6728.00    0.42618   0.30945    0.000
 6729.00    0.43938   0.30752    0.000
 6730.00    0.46368   0.30645    0.000
 6731.00    0.53094   0.30732    0.000
 6732.00    0.59767   0.30893    0.000
 6733.00    0.66273   0.31019    0.000
 6734.00    0.71679   0.31056    0.000
 6735.00    0.74086   0.30997    0.000
 6736.00    0.74183   0.30893    0.000
 6737.00    0.68879   0.30791    0.000
 6738.00    0.64054   0.30753    0.000
 6739.00    0.60193   0.30806    0.000
 6740.00    0.56045   0.30803    0.000
 6741.00    0.51391   0.30629    0.000
 6742.00    0.49554   0.30419    0.000
 6743.00    0.52057   0.30388    0.000
 6744.00    0.54472   0.30527    0.000
 6745.00    0.56769   0.30561    0.000
 6746.00    0.56881   0.30398    0.000
 6747.00    0.54392   0.30329    0.000
 6748.00    0.52830   0.30452    0.000
 6749.00    0.52241   0.30557    0.000
 6750.00    0.50890   0.30545    0.000
 6751.00    0.48833   0.30421    0.000
 6752.00    0.50642   0.30203    0.000
 6753.00    0.55607   0.30053    0.009
 6754.00    0.56329   0.30117    0.009
 6755.00    0.54003   0.30241    0.009
 6756.00    0.52665   0.30230    0.009
 6757.00    0.51950   0.30280    0.009
 6758.00    0.49620   0.30430    0.009
 6759.00    0.46400   0.30485    0.010
 6760.00    0.51727   0.30485    0.010
 6761.00    0.61150   0.30593    0.010
 6762.00    0.62446   0.30767    0.010
 6763.00    0.60381   0.30905    0.010
 6764.00    0.64147   0.30925    0.010
 6765.00    0.69975   0.30813    0.010
 6766.00    0.71646   0.30768    0.010
 6767.00    0.72076   0.30814    0.009
 6768.00    0.66937   0.30784    0.009
 6769.00    0.60418   0.30576    0.009
 6770.00    0.57511   0.30226    0.009
 6771.00    0.55329   0.30016    0.009
 6772.00    0.57963   0.30128    0.009
 6773.00    0.61355   0.30287    0.009
 6774.00    0.60781   0.30248    0.009
 6775.00    0.59745   0.30189    0.009
 6776.00    0.54150   0.30306    0.009
 6777.00    0.48196   0.30536    0.009
 6778.00    0.53146   0.30731    0.009
 6779.00    0.58571   0.30834    0.009
 6780.00    0.51315   0.30837    0.009
 6781.00    0.44040   0.30781    0.009
 6782.00    0.42068   0.30821    0.009
 6783.00    0.40397   0.30842    0.009
 6784.00    0.44174   0.30700    0.009
 6785.00    0.47683   0.30448    0.009
 6786.00    0.48259   0.30121    0.009
 6787.00    0.48882   0.29808    0.009
 6788.00    0.49857   0.29702    0.009
 6789.00    0.51065   0.29767    0.009
 6790.00    0.53624   0.29934    0.009
 6791.00    0.55449   0.30200    0.009
 6792.00    0.53882   0.30381    0.009
 6793.00    0.53366   0.30391    0.009
 6794.00    0.56821   0.30354    0.009
 6795.00    0.57967   0.30322    0.009
 6796.00    0.51821   0.30199    0.009
 6797.00    0.47626   0.30039    0.009
 6798.00    0.48653   0.29982    0.009
 6799.00    0.48200   0.30008    0.009
 6800.00    0.44348   0.30040    0.009
 6801.00    0.43503   0.30054    0.009
 6802.00    0.48638   0.30099    0.009
 6803.00    0.52098   0.30190    0.009
 6804.00    0.52656   0.30264    0.009
 6805.00    0.52103   0.30306    0.009
 6806.00    0.49864   0.30254    0.009
 6807.00    0.48106   0.30119    0.009
 6808.00    0.46990   0.30079    0.009
 6809.00    0.46556   0.30115    0.008
 6810.00    0.46922   0.30078    0.009
 6811.00    0.51384   0.30064    0.009
 6812.00    0.60086   0.30066    0.009
 6813.00    0.63788   0.29969    0.009
 6814.00    0.62926   0.29941    0.009
 6815.00    0.58202   0.30050    0.009
 6816.00    0.50370   0.30129    0.009
 6817.00    0.48104   0.30009    0.009
 6818.00    0.49780   0.29816    0.009
 6819.00    0.51869   0.29859    0.009
 6820.00    0.54216   0.30118    0.009
 6821.00    0.56941   0.30265    0.009
 6822.00    0.59872   0.30171    0.009
 6823.00    0.61137   0.29969    0.009
 6824.00    0.61616   0.29915    0.009
 6825.00    0.58468   0.30102    0.009
 6826.00    0.53845   0.30312    0.009
 6827.00    0.49995   0.30361    0.009
 6828.00    0.46413   0.30313    0.009
 6829.00    0.43452   0.30256    0.009
 6830.00    0.40673   0.30094    0.009
 6831.00    0.42535   0.29822    0.009
 6832.00    0.45522   0.29697    0.009
 6833.00    0.51524   0.29839    0.009
 6834.00    0.58115   0.30042    0.008
 6835.00    0.56211   0.30105    0.009
 6836.00    0.53012   0.30074    0.009
 6837.00    0.49016   0.30133    0.009
 6838.00    0.44931   0.30248    0.009
 6839.00    0.44104   0.30242    0.009
 6840.00    0.43519   0.30109    0.009
 6841.00    0.40089   0.29871    0.009
 6842.00    0.36545   0.29544    0.009
 6843.00    0.41643   0.29256    0.018
 6844.00    0.47037   0.29003   -1.000
 6845.00    0.61801   0.28822   -1.000
 6846.00    0.75357   0.28924   -1.000
 6847.00    0.68504   0.29306   -1.000
 6848.00    0.62061   0.29689   -1.000
 6849.00    0.59911   0.29861   -1.000
 6850.00    0.57542   0.29874   -1.000
 6851.00    0.53546   0.29874   -1.000
 6852.00    0.49665   0.29892   -1.000
 6853.00    0.46442   0.29912   -1.000
 6854.00    0.44754   0.29895    0.090
 6855.00    0.50000   0.29875    0.014
 6856.00    0.54449   0.29888    0.008
 6857.00    0.55953   0.29730    0.008
 6858.00    0.56002   0.29319    0.009
 6859.00    0.51543   0.29069    0.009
 6860.00    0.48142   0.29161    0.009
 6861.00    0.47522   0.29305    0.009
 6862.00    0.45679   0.29395    0.009
 6863.00    0.41071   0.29418    0.009
 6864.00    0.38534   0.29244    0.009
 6865.00    0.40052   0.29054    0.009
 6866.00    0.43162   0.29198    0.009
 6867.00    0.48992   0.29600    0.009
 6868.00    0.53237   0.29821    0.009
 6869.00    0.55114   0.29691    0.009
 6870.00    0.55126   0.29389    0.009
 6871.00    0.52691   0.29098    0.009
 6872.00    0.50802   0.29069    0.009
 6873.00    0.49546   0.29332    0.009
 6874.00    0.48791   0.29486    0.009
 6875.00    0.48545   0.29332    0.008
 6876.00    0.51835   0.29216    0.008
 6877.00    0.58306   0.29274    0.008
 6878.00    0.58265   0.29280    0.008
 6879.00    0.53059   0.29287    0.008
 6880.00    0.47801   0.29417    0.008
 6881.00    0.42507   0.29569    0.008
 6882.00    0.44156   0.29609    0.008
 6883.00    0.50053   0.29539    0.008
 6884.00    0.48754   0.29368    0.008
 6885.00    0.43610   0.29107    0.009
 6886.00    0.47916   0.28956    0.009
 6887.00    0.56607   0.29064    0.009
 6888.00    0.54747   0.29292    0.009
 6889.00    0.48670   0.29384    0.009
 6890.00    0.51447   0.29368    0.009
 6891.00    0.57241   0.29534    0.009
 6892.00    0.57297   0.29715    0.009
 6893.00    0.55707   0.29751    0.009
 6894.00    0.51961   0.29851    0.009
 6895.00    0.47704   0.29921    0.009
 6896.00    0.54499   0.29817    0.009
 6897.00    0.63401   0.29718    0.009
 6898.00    0.59499   0.29632    0.009
 6899.00    0.53706   0.29503    0.009
 6900.00    0.49485   0.29472    0.009
 6901.00    0.45433   0.29630    0.009
 6902.00    0.48991   0.29752    0.009
 6903.00    0.53086   0.29636    0.009
 6904.00    0.50358   0.29542    0.009
 6905.00    0.47386   0.29632    0.009
 6906.00    0.49062   0.29723    0.009
 6907.00    0.50550   0.29673    0.009
 6908.00    0.45016   0.29575    0.009
 6909.00    0.40067   0.29609    0.009
 6910.00    0.44364   0.29767    0.009
 6911.00    0.48297   0.29871    0.009
 6912.00    0.48581   0.29869    0.009
 6913.00    0.49222   0.29799    0.009
 6914.00    0.52428   0.29704    0.009
 6915.00    0.54734   0.29583    0.009
 6916.00    0.52072   0.29402    0.009
 6917.00    0.49154   0.29144    0.009
 6918.00    0.45103   0.28985    0.009
 6919.00    0.43380   0.29058    0.009
 6920.00    0.50090   0.29173    0.009
 6921.00    0.54732   0.29255    0.009
 6922.00    0.53086   0.29357    0.009
 6923.00    0.52057   0.29447    0.009
 6924.00    0.52624   0.29516    0.009
 6925.00    0.53116   0.29576    0.009
 6926.00    0.53440   0.29493    0.009
 6927.00    0.52862   0.29192    0.009
 6928.00    0.50544   0.28886    0.009
 6929.00    0.48414   0.28797    0.009
 6930.00    0.46598   0.28955    0.009
 6931.00    0.44394   0.29200    0.009
 6932.00    0.41619   0.29329    0.009
 6933.00    0.39957   0.29326    0.009
 6934.00    0.39739   0.29293    0.009
 6935.00    0.40027   0.29199    0.009
 6936.00    0.40894   0.29033    0.009
 6937.00    0.46689   0.28969    0.009
 6938.00    0.57442   0.29130    0.009
 6939.00    0.60638   0.29306    0.009
 6940.00    0.57128   0.29308    0.009
 6941.00    0.53477   0.29230    0.009
 6942.00    0.49716   0.29258    0.009
 6943.00    0.48149   0.29376    0.009
 6944.00    0.48091   0.29457    0.009
 6945.00    0.49745   0.29425    0.009
 6946.00    0.52431   0.29257    0.009
 6947.00    0.52108   0.28967    0.009
 6948.00    0.50202   0.28627    0.009
 6949.00    0.48821   0.28555    0.009
 6950.00    0.47679   0.28824    0.009
 6951.00    0.45112   0.29140    0.009
 6952.00    0.41985   0.29315    0.009
 6953.00    0.45544   0.29273    0.009
 6954.00    0.51338   0.29056    0.010
 6955.00    0.50983   0.28869    0.010
 6956.00    0.48901   0.28825    0.010
 6957.00    0.46515   0.28846    0.009
 6958.00    0.44059   0.28886    0.009
 6959.00    0.44776   0.28998    0.009
 6960.00    0.46082   0.29144    0.009
 6961.00    0.45873   0.29204    0.009
 6962.00    0.45448   0.29221    0.009
 6963.00    0.45034   0.29264    0.009
 6964.00    0.44622   0.29293    0.009
 6965.00    0.46361   0.29274    0.009
 6966.00    0.48243   0.29248    0.009
 6967.00    0.50951   0.29267    0.009
 6968.00    0.53684   0.29243    0.009
 6969.00    0.50029   0.29140    0.009
 6970.00    0.46541   0.29151    0.009
 6971.00    0.48170   0.29350    0.009
 6972.00    0.49218   0.29499    0.009
 6973.00    0.41614   0.29439    0.009
 6974.00    0.34430   0.29229    0.009
 6975.00    0.31280   0.29105    0.010
 6976.00    0.29765   0.29232    0.010
 6977.00    0.39628   0.29347    0.010
 6978.00    0.48094   0.29165    0.010
 6979.00    0.49066   0.28828    0.010
 6980.00    0.49760   0.28452    0.010
 6981.00    0.49262   0.27940    0.010
 6982.00    0.48840   0.27564    0.010
 6983.00    0.48692   0.27787    0.010
 6984.00    0.48475   0.28452    0.009
 6985.00    0.48056   0.28993    0.009
 6986.00    0.47952   0.29234    0.009
 6987.00    0.48648   0.29327    0.009
 6988.00    0.46288   0.29346    0.009
 6989.00    0.37247   0.29316    0.009
 6990.00    0.31194   0.29268    0.009
 6991.00    0.30807   0.29145    0.009
 6992.00    0.33724   0.28920    0.009
 6993.00    0.42109   0.28780    0.009
 6994.00    0.47233   0.28895    0.010
 6995.00    0.47623   0.29103    0.010
 6996.00    0.48388   0.29181    0.010
 6997.00    0.49631   0.29098    0.010
 6998.00    0.53325   0.29013    0.010
 6999.00    0.59776   0.29052    0.010
 7000.00    0.57582   0.29135    0.010
 7001.00    0.46815   0.29084    0.010
 7002.00    0.40487   0.28795    0.009
 7003.00    0.38043   0.28448    0.009
 7004.00    0.40387   0.28364    0.009
 7005.00    0.46421   0.28572    0.009
 7006.00    0.48460   0.28726    0.009
 7007.00    0.47792   0.28582    0.009
 7008.00    0.47043   0.28360    0.009
 7009.00    0.46246   0.28309    0.009
 7010.00    0.39573   0.28386    0.009
 7011.00    0.29856   0.28552    0.009
 7012.00    0.28707   0.28774    0.009
 7013.00    0.31404   0.28883    0.009
 7014.00    0.37066   0.28793    0.009
 7015.00    0.43872   0.28676    0.009
 7016.00    0.45436   0.28706    0.010
 7017.00    0.45280   0.28722    0.010
 7018.00    0.39543   0.28447    0.010
 7019.00    0.32270   0.27913    0.010
 7020.00    0.36778   0.27586    0.010
 7021.00    0.43950   0.27880    0.010
 7022.00    0.51250   0.28471    0.010
 7023.00    0.58573   0.28858    0.010
 7024.00    0.57523   0.28992    0.010
 7025.00    0.55313   0.28885    0.010
 7026.00    0.50653   0.28528    0.010
 7027.00    0.45750   0.28136    0.009
 7028.00    0.48836   0.28037    0.009
 7029.00    0.52423   0.28231    0.009
 7030.00    0.54189   0.28439    0.009
 7031.00    0.55890   0.28543    0.009
 7032.00    0.54239   0.28605    0.009
 7033.00    0.52325   0.28700    0.010
 7034.00    0.43209   0.28802    0.009
 7035.00    0.34246   0.28813    0.009
 7036.00    0.27435   0.28722    0.009
 7037.00    0.21480   0.28615    0.009
 7038.00    0.23419   0.28587    0.010
 7039.00    0.25564   0.28654    0.010
 7040.00    0.29101   0.28628    0.010
 7041.00    0.33566   0.28298    0.010
 7042.00    0.42886   0.28011    0.010
 7043.00    0.49199   0.28304    0.010
 7044.00    0.42855   0.28942    0.010
 7045.00    0.38164   0.29400    0.009
 7046.00    0.39228   0.29547    0.010
 7047.00    0.40912   0.29406    0.010
 7048.00    0.44411   0.29075    0.010
 7049.00    0.47252   0.28871    0.009
 7050.00    0.48450   0.29010   -2.000
 7051.00    0.49171   0.29295   -2.000
 7052.00    0.48867   0.29442   -2.000
 7053.00    0.48353   0.29395   -2.000
 7054.00    0.47448   0.29244   -2.000
 7055.00    0.47071   0.28915   -2.000
 7056.00    0.47553   0.28354   -2.000
 7057.00    0.48484   0.27852   -2.000
 7058.00    0.50057   0.27659   -2.000
 7059.00    0.46045   0.27727   -2.000
 7060.00    0.35007   0.27925   -2.000
 7061.00    0.33981   0.28052   -2.000
 7062.00    0.44059   0.27924   -2.000
 7063.00    0.55082   0.27645   -2.000
 7064.00    0.67029   0.27478   -2.000
 7065.00    0.65278   0.27531   -2.000
 7066.00    0.51711   0.27698   -2.000
 7067.00    0.47227   0.27868   -2.000
 7068.00    0.49644   0.27979   -2.000
 7069.00    0.49145   0.27899   -2.000
 7070.00    0.46699   0.27589   -2.000
 7071.00    0.45125   0.27181   -2.000
 7072.00    0.44062   0.26989   -2.000
 7073.00    0.45248   0.27223   -2.000
 7074.00    0.47581   0.27645   -2.000
 7075.00    0.52054   0.27920   -2.000
 7076.00    0.57471   0.27976   -2.000
 7077.00    0.57136   0.27981   -2.000
 7078.00    0.54621   0.28001   -2.000
 7079.00    0.49274   0.27926   -2.000
 7080.00    0.43016   0.27838   -2.000
 7081.00    0.43774   0.27876   -2.000
 7082.00    0.46422   0.27957   -2.000
 7083.00    0.50302   0.28026   -2.000
 7084.00    0.54454   0.28079   -2.000
 7085.00    0.49920   0.28002   -2.000
 7086.00    0.43858   0.27695   -2.000
 7087.00    0.42755   0.27161   -2.000
 7088.00    0.42317   0.26674   -2.000
 7089.00    0.43740   0.26572   -2.000
 7090.00    0.45341   0.26678   -2.000
 7091.00    0.42518   0.26686   -2.000
 7092.00    0.39436   0.26612   -2.000
 7093.00    0.37803   0.26490   -2.000
 7094.00    0.36246   0.26370   -2.000
 7095.00    0.40405   0.26377   -2.000
 7096.00    0.44311   0.26423   -2.000
 7097.00    0.41919   0.26420   -2.000
 7098.00    0.39291   0.26422   -2.000
 7099.00    0.33533   0.26421   -2.000
 7100.00    0.28757   0.26455   -2.000
 7101.00    0.32672   0.26532   -2.000
 7102.00    0.37012   0.26713   -2.000
 7103.00    0.44129   0.26944   -2.000
 7104.00    0.51016   0.27003   -2.000
 7105.00    0.56729   0.26919   -2.000
 7106.00    0.59147   0.26830   -2.000
 7107.00    0.48009   0.26873   -2.000
 7108.00    0.39860   0.27058   -2.000
 7109.00    0.41903   0.27145   -2.000
 7110.00    0.44336   0.27017   -2.000
 7111.00    0.47890   0.26875   -2.000
 7112.00    0.49259   0.26825   -2.000
 7113.00    0.45266   0.26757   -2.000
 7114.00    0.43369   0.26555   -2.000
 7115.00    0.45907   0.26363   -2.000
 7116.00    0.48012   0.26403   -2.000
 7117.00    0.49324   0.26611   -2.000
 7118.00    0.50197   0.26770   -2.000
 7119.00    0.50366   0.26825   -2.000
 7120.00    0.51023   0.26856   -2.000
 7121.00    0.52370   0.26878   -2.000
 7122.00    0.52982   0.26832   -2.000
 7123.00    0.52683   0.26784   -2.000
 7124.00    0.49171   0.26725   -2.000
 7125.00    0.42146   0.26578   -2.000
 7126.00    0.31460   0.26542   -2.000
 7127.00    0.17244   0.26715   -2.000
 7128.00    0.20767   0.26817   -2.000
 7129.00    0.39375   0.26656   -2.000
 7130.00    0.36395   0.26427   -2.000
 7131.00    0.17247   0.26406   -2.000
 7132.00    0.15934   0.26436   -2.000
 7133.00    0.26354   0.26222   -2.000
 7134.00    0.27783   0.25918   -2.000
 7135.00    0.24033   0.25886   -2.000
 7136.00    0.26763   0.26144   -2.000
 7137.00    0.32744   0.26440   -2.000
 7138.00    0.37520   0.26669   -2.000
 7139.00    0.41774   0.26773   -2.000
 7140.00    0.44419   0.26834   -2.000
 7141.00    0.46464   0.26886   -2.000
 7142.00    0.44241   0.26784   -2.000
 7143.00    0.40669   0.26648   -2.000
 7144.00    0.37281   0.26664   -2.000
 7145.00    0.33941   0.26778   -2.000
 7146.00    0.40905   0.26842   -2.000
 7147.00    0.50091   0.26814   -2.000
 7148.00    0.42796   0.26715   -2.000
 7149.00    0.32683   0.26644   -2.000
 7150.00    0.34472   0.26506   -2.000
 7151.00    0.37802   0.26099   -2.000
 7152.00    0.43081   0.25813   -2.000
 7153.00    0.48538   0.26009   -2.000
 7154.00    0.54234   0.26350   -2.000
 7155.00    0.59942   0.26602   -2.000
 7156.00    0.59545   0.26821   -2.000
 7157.00    0.59019   0.26944   -2.000
 7158.00    0.58363   0.26902   -2.000
 7159.00    0.57181   0.26820   -2.000
 7160.00    0.44047   0.26883   -2.000
 7161.00    0.29580   0.27038   -2.000
 7162.00   -0.01673   0.26984   -2.000
 7163.00   -0.27921   0.26745   -2.000
 7164.00   -0.11461   0.26624   -2.000
 7165.00    0.07756   0.26703   -2.000
 7166.00    0.44452   0.26684   -2.000
 7167.00    0.72873   0.26269   -2.000
 7168.00    0.60205   0.25716   -2.000
 7169.00    0.46359   0.25573   -2.000
 7170.00    0.27770   0.25957   -2.000
 7171.00    0.14983   0.26441   -2.000
 7172.00    0.21579   0.26681   -2.000
 7173.00    0.29250   0.26729   -2.000
 7174.00    0.39953   0.26732   -2.000
 7175.00    0.46815   0.26801   -2.000
 7176.00    0.44411   0.26930   -2.000
 7177.00    0.43099   0.26933   -2.000
 7178.00    0.44058   0.26796   -2.000
 7179.00    0.44528   0.26526   -2.000
 7180.00    0.44111   0.26330   -2.000
 7181.00    0.40897   0.26488   -2.000
 7182.00    0.33257   0.26695   -2.000
 7183.00    0.29366   0.26511   -2.000
 7184.00    0.30686   0.26034   -2.000
 7185.00    0.31744   0.25777   -2.000
 7186.00    0.32484   0.26025   -2.000
 7187.00    0.30357   0.26493   -2.000
 7188.00    0.25139   0.26678   -2.000
 7189.00    0.24731   0.26534   -2.000
 7190.00    0.28895   0.26137   -2.000
 7191.00    0.25010   0.25663   -2.000
 7192.00    0.14376   0.25537   -2.000
 7193.00    0.13398   0.25763   -2.000
 7194.00    0.19548   0.26074   -2.000
 7195.00    0.27550   0.26205   -2.000
 7196.00    0.36753   0.26108   -2.000
 7197.00    0.44541   0.26027   -2.000
 7198.00    0.51527   0.26157   -2.000
 7199.00    0.47155   0.26356   -2.000
 7200.00    0.37172   0.26278   -2.000
 7201.00    0.19380   0.26108   -2.000
 7202.00   -0.01748   0.26203   -2.000
 7203.00   -0.03621   0.26403   -2.000
 7204.00    0.01549   0.26346   -2.000
 7205.00    0.14860   0.26118   -2.000
 7206.00    0.30692   0.26076   -2.000
 7207.00    0.32898   0.26324   -2.000
 7208.00    0.31588   0.26609   -2.000
 7209.00    0.29617   0.26513   -2.000
 7210.00    0.27507   0.25891   -2.000
 7211.00    0.29558   0.25332   -2.000
 7212.00    0.32300   0.25363   -2.000
 7213.00    0.25155   0.25777   -2.000
 7214.00    0.16773   0.26241   -2.000
 7215.00    0.22713   0.26511   -2.000
 7216.00    0.29893   0.26466   -2.000
 7217.00    0.33456   0.26235   -2.000
 7218.00    0.36835   0.26032   -2.000
