###################################################################
## OUTPUT of StarlightChains_v04.for    [Cid@UFSC - 01/Apr/2007] ##
###################################################################

## Some input info
KUG0210-078._22_21.txt                   [arq_obs]
Base.CB07.vall.4m                        [arq_base]
Masks.EmLines.NEW.gm                     [arq_masks]
StCv04.C11.config                        [arq_config]
   66                                    [N_base]
    0                                    [N_YAV_components = # of components with extra extinction!]
    0                                    [i_FitPowerLaw (1/0 = Yes/No)]
-9.99                                    [alpha_PowerLaw]
CCM                                      [red_law_option]
 1.458241                                [q_norm = A(l_norm)/A(V)]

## (Re)Sampling Parameters
 3741.00                                 [l_ini (A)]
 7218.00                                 [l_fin (A)]
    1.00                                 [dl    (A)]     (OBS: dl_cushion =    50.00 A)

## Normalization info
 4020.00                                 [l_norm (A) - for base]
 4010.00                                 [llow_norm (A) - window for f_obs]
 4060.00                                 [lupp_norm (A) - window for f_obs]
1.167186E-17                             [fobs_norm (in input units)]

## S/N
 3691.00                                 [llow_SN (A) - window for S/N]
 7268.00                                 [lupp_SN (A) - window for S/N]
   3.868                                 [S/N in S/N window]
   5.201                                 [S/N in norm. window]
   0.011                                 [S/N_err in S/N window]
   0.014                                 [S/N_err in norm. window]
  1.0000                                 [fscale_chi2]

## etc...
    -2007237                             [idum_orig]
  2406                                   [NOl_eff]
  2383                                   [Nl_eff]
    23    NSIGMA                         [Ntot_cliped & clip_method]
   950180                                [Nglobal_steps]
   7                                     [N_chains]
  37                                     [NEX0s_base = N_base in EX0s-fits]
 0   0   1       23   2.0   2.346E+03    [Clip-Bug, RC-Crash & Burn-In warning-flags, n_censored_weights, wei_nsig_threshold & wei_limit]
    24     23.298     22.905      0.393  [idt_all, wdt_TotTime, wdt_UsrTime & wdt_SysTime (sec)]

## Synthesis Results - Best model ##

 2.83651E-05                             [chi2/Nl_eff]
    21.54461                             [adev (%)]

   107.50929                             [sum-of-x (%)]
 9.35368E-18                             [Flux_tot (units of input spectrum!)]
 1.14693E-13                             [Mini_tot (???)]
 6.08964E-14                             [Mcor_tot (???)]

   0.00                                  [v0_min  (km/s)]
   0.00                                  [vd_min  (km/s)]
-0.2188                                  [AV_min  (mag)]
 0.0000                                  [YAV_min (mag)]

# j     x_j(%)      Mini_j(%)     Mcor_j(%)     age_j(yr)     Z_j      (L/M)_j    YAV?  Mstars   component_j        a/Fe...       SSP_chi2r SSP_adev(%)   SSP_AV   SSP_x(%)
  1      0.0000     0.0000E+00    0.0000E+00    1.000000E+06  0.00400  1.094E-02    0   1.0000   age020_m42            0.0000     3.7766E-05    29.1986   2.0732   100.9232
  2      0.0000     0.0000E+00    0.0000E+00    3.160000E+06  0.00400  4.007E-02    0   0.9999   age045_m42            0.0000     3.2707E-05    26.2047   1.4315   103.2591
  3      0.3588     1.0719E-03    1.9154E-03    5.010000E+06  0.00400  2.539E-02    0   0.9488   age055_m42            0.0000     3.7774E-05    27.8085   1.7037   103.2241
  4      0.0000     0.0000E+00    0.0000E+00    6.610000E+06  0.00400  2.620E-02    0   0.9220   age061_m42            0.0000     3.4001E-05    26.0394   1.3652   103.2485
  5      0.0000     0.0000E+00    0.0000E+00    1.000000E+07  0.00400  1.322E-02    0   0.8862   age070_m42            0.0000     3.4923E-05    25.0846   1.1633   103.4595
  6      0.0000     0.0000E+00    0.0000E+00    1.445000E+07  0.00400  7.883E-03    0   0.8571   age078_m42            0.0000     3.8353E-05    26.1494   1.4502   102.6311
  7      0.0000     0.0000E+00    0.0000E+00    2.512000E+07  0.00400  5.251E-03    0   0.8174   age090_m42            0.0000     3.5939E-05    24.8435   1.0510   103.5925
  8      0.0000     0.0000E+00    0.0000E+00    4.000000E+07  0.00400  3.649E-03    0   0.7851   age104_m42            0.0000     3.5142E-05    24.3709   0.8322   103.7281
  9      0.0000     0.0000E+00    0.0000E+00    5.500000E+07  0.00400  3.098E-03    0   0.7629   age110_m42            0.0000     3.3811E-05    24.2052   0.9660   103.8448
 10      0.1306     4.4459E-03    6.0348E-03    1.015200E+08  0.00400  2.228E-03    0   0.7207   age116_m42            0.0000     3.2022E-05    23.9754   0.9779   103.9217
 11      1.4009     9.7229E-02    1.2174E-01    2.861200E+08  0.00400  1.093E-03    0   0.6648   age125_m42            0.0000     2.9519E-05    22.6049   0.4654   104.7141
 12     20.3755     2.3429E+00    2.8087E+00    5.088000E+08  0.00400  6.597E-04    0   0.6365   age130_m42            0.0000     2.9130E-05    22.4869   0.4243   106.0278
 13      0.0000     0.0000E+00    0.0000E+00    1.434000E+09  0.00400  2.132E-04    0   0.5798   age139_m42            0.0000     2.8639E-05    21.5737  -0.4984   105.6157
 14      5.4282     6.9851E+00    7.0739E+00    4.250000E+09  0.00400  5.895E-05    0   0.5377   age158_m42            0.0000     3.0001E-05    23.5935  -1.0000   105.1979
 15      0.0000     0.0000E+00    0.0000E+00    7.500000E+09  0.00400  3.510E-05    0   0.5212   age171_m42            0.0000     3.1121E-05    24.6064  -1.0000   104.3888
 16      0.0000     0.0000E+00    0.0000E+00    1.300000E+10  0.00400  2.005E-05    0   0.5034   age193_m42            0.0000     3.3228E-05    28.4716  -1.0000   103.2204
 17      0.0000     0.0000E+00    0.0000E+00    1.800000E+10  0.00400  1.525E-05    0   0.4967   age213_m42            0.0000     3.3647E-05    29.2451  -1.0000   102.6469
 18      0.0000     0.0000E+00    0.0000E+00    1.000000E+06  0.00800  1.238E-02    0   1.0000   age020_m52            0.0000     3.7779E-05    29.1345   2.0746   100.9915
 19      0.0000     0.0000E+00    0.0000E+00    3.160000E+06  0.00800  3.074E-02    0   0.9966   age045_m52            0.0000     3.9011E-05    28.9828   2.0052   101.4199
 20      0.0000     0.0000E+00    0.0000E+00    5.010000E+06  0.00800  2.668E-02    0   0.9443   age055_m52            0.0000     3.8812E-05    27.9125   1.7974   102.0670
 21      0.0000     0.0000E+00    0.0000E+00    6.610000E+06  0.00800  2.136E-02    0   0.9177   age061_m52            0.0000     3.4321E-05    25.0039   0.6854   103.7481
 22      0.0000     0.0000E+00    0.0000E+00    1.000000E+07  0.00800  1.215E-02    0   0.8827   age070_m52            0.0000     3.6770E-05    25.1921   1.3621   102.9686
 23      0.0000     0.0000E+00    0.0000E+00    1.445000E+07  0.00800  8.717E-03    0   0.8552   age078_m52            0.0000     3.7527E-05    25.6366   1.4406   102.9719
 24      0.0000     0.0000E+00    0.0000E+00    2.512000E+07  0.00800  5.592E-03    0   0.8162   age090_m52            0.0000     3.5972E-05    24.3804   1.1414   103.7143
 25      0.0000     0.0000E+00    0.0000E+00    4.000000E+07  0.00800  3.896E-03    0   0.7841   age104_m52            0.0000     3.5353E-05    23.9752   1.0487   104.1702
 26      0.0000     0.0000E+00    0.0000E+00    1.015200E+08  0.00800  2.148E-03    0   0.7226   age116_m52            0.0000     3.2550E-05    23.7638   0.9660   104.0795
 27      7.5992     5.8081E-01    7.3106E-01    2.861200E+08  0.00800  9.925E-04    0   0.6683   age125_m52            0.0000     2.8786E-05    21.8080   0.5440   104.9405
 28      2.5914     6.2584E-01    7.2350E-01    9.047900E+08  0.00800  3.141E-04    0   0.6138   age135_m52            0.0000     2.8920E-05    21.0656  -0.2371   107.1373
 29      0.0000     0.0000E+00    0.0000E+00    1.434000E+09  0.00800  1.719E-04    0   0.5853   age139_m52            0.0000     2.9371E-05    22.1390  -0.8572   106.7234
 30      0.7122     6.8632E-01    7.2387E-01    2.500000E+09  0.00800  7.872E-05    0   0.5600   age150_m52            0.0000     3.0475E-05    23.2322  -1.0000   105.7324
 31      0.0000     0.0000E+00    0.0000E+00    4.250000E+09  0.00800  4.336E-05    0   0.5426   age158_m52            0.0000     3.1184E-05    23.7331  -1.0000   105.1849
 32      0.4442     1.0667E+00    1.0686E+00    6.250000E+09  0.00800  3.159E-05    0   0.5319   age166_m52            0.0000     3.3744E-05    27.8454  -1.0000   104.2754
 33      3.5637     1.9863E+01    1.8978E+01    1.300000E+10  0.00800  1.361E-05    0   0.5073   age193_m52            0.0000     4.5878E-05    44.8255  -1.0000   100.3932
 34      0.0000     0.0000E+00    0.0000E+00    1.800000E+10  0.00800  9.886E-06    0   0.4990   age213_m52            0.0000     5.1574E-05    49.5232  -1.0000    99.3827
 35      0.0000     0.0000E+00    0.0000E+00    1.000000E+06  0.02000  1.544E-02    0   1.0000   age020_m62            0.0000     3.7847E-05    29.1091   2.0746   101.0186
 36      0.0000     0.0000E+00    0.0000E+00    3.160000E+06  0.02000  3.762E-02    0   0.9858   age045_m62            0.0000     4.0486E-05    29.0917   2.0221   101.5205
 37      0.0000     0.0000E+00    0.0000E+00    5.010000E+06  0.02000  3.296E-02    0   0.9342   age055_m62            0.0000     3.6142E-05    26.9385   1.6992   102.6642
 38      0.0000     0.0000E+00    0.0000E+00    8.710000E+06  0.02000  1.154E-02    0   0.8861   age067_m62            0.0000     4.0162E-05    25.9512   0.9432   103.0149
 39      0.0000     0.0000E+00    0.0000E+00    1.445000E+07  0.02000  7.663E-03    0   0.8472   age078_m62            0.0000     3.8278E-05    24.8334   1.0628   103.7051
 40      0.0000     0.0000E+00    0.0000E+00    2.512000E+07  0.02000  4.532E-03    0   0.8099   age090_m62            0.0000     3.9259E-05    24.8098   1.0524   103.5714
 41      0.0000     0.0000E+00    0.0000E+00    5.500000E+07  0.02000  2.733E-03    0   0.7595   age110_m62            0.0000     3.5089E-05    24.2039   1.0250   103.8136
 42      0.4599     2.5484E-02    3.3525E-02    1.609000E+08  0.02000  1.369E-03    0   0.6985   age120_m62            0.0000     3.0269E-05    22.6281   0.8912   104.3461
 43      3.3919     2.8548E-01    3.6099E-01    2.861200E+08  0.02000  9.013E-04    0   0.6714   age125_m62            0.0000     2.8897E-05    21.4045   0.6764   105.2169
 44      0.0000     0.0000E+00    0.0000E+00    5.088000E+08  0.02000  5.028E-04    0   0.6449   age130_m62            0.0000     2.8805E-05    20.8256   0.3000   106.6945
 45      1.3808     4.3142E-01    5.0207E-01    9.047900E+08  0.02000  2.428E-04    0   0.6179   age135_m62            0.0000     2.9433E-05    21.9924  -0.3378   107.6900
 46      0.0000     0.0000E+00    0.0000E+00    1.434000E+09  0.02000  1.263E-04    0   0.5908   age139_m62            0.0000     3.0264E-05    22.9800  -0.8228   107.6053
 47      0.0000     0.0000E+00    0.0000E+00    2.500000E+09  0.02000  5.985E-05    0   0.5673   age150_m62            0.0000     3.1519E-05    23.4785  -1.0000   106.6294
 48      0.0000     0.0000E+00    0.0000E+00    4.250000E+09  0.02000  3.271E-05    0   0.5468   age158_m62            0.0000     3.6305E-05    30.6715  -1.0000   104.7361
 49     10.6603     5.9461E+01    5.7865E+01    1.000000E+10  0.02000  1.360E-05    0   0.5167   age181_m62            0.0000     4.7459E-05    43.4941  -1.0000   101.9229
 50      0.0000     0.0000E+00    0.0000E+00    1.800000E+10  0.02000  7.124E-06    0   0.5013   age213_m62            0.0000     5.8304E-05    51.9216  -1.0000    99.2895
 51      0.0000     0.0000E+00    0.0000E+00    1.000000E+06  0.05000  2.592E-02    0   0.9998   age020_m72            0.0000     3.7894E-05    29.1147   2.0760   100.9221
 52      0.0000     0.0000E+00    0.0000E+00    3.160000E+06  0.05000  4.845E-02    0   0.9577   age045_m72            0.0000     4.0712E-05    28.5620   1.9120   102.1616
 53      0.0000     0.0000E+00    0.0000E+00    5.010000E+06  0.05000  3.072E-02    0   0.9147   age055_m72            0.0000     4.0447E-05    26.2499   1.5543   102.9544
 54      0.0000     0.0000E+00    0.0000E+00    6.610000E+06  0.05000  1.455E-02    0   0.8877   age061_m72            0.0000     4.2465E-05    27.5199   1.0236   103.0061
 55      0.0000     0.0000E+00    0.0000E+00    1.000000E+07  0.05000  9.074E-03    0   0.8524   age070_m72            0.0000     4.1500E-05    26.8193   1.7243   102.9361
 56      0.2267     4.0471E-03    6.0232E-03    2.512000E+07  0.05000  4.250E-03    0   0.7902   age090_m72            0.0000     3.9303E-05    25.3384   1.4552   103.3719
 57      0.0000     0.0000E+00    0.0000E+00    4.000000E+07  0.05000  3.087E-03    0   0.7618   age104_m72            0.0000     3.6505E-05    24.5288   1.2670   103.5308
 58      0.0000     0.0000E+00    0.0000E+00    1.015200E+08  0.05000  1.700E-03    0   0.7096   age116_m72            0.0000     3.0854E-05    22.7486   1.0405   104.0638
 59     39.6964     4.0781E+00    5.0946E+00    2.861200E+08  0.05000  7.384E-04    0   0.6633   age125_m72            0.0000     2.8226E-05    20.9024   0.5504   105.7160
 60      7.2578     1.4416E+00    1.7301E+00    5.088000E+08  0.05000  3.819E-04    0   0.6372   age130_m72            0.0000     2.9059E-05    21.7018  -0.0002   107.2943
 61      0.9417     4.2622E-01    4.9047E-01    9.047900E+08  0.05000  1.676E-04    0   0.6110   age135_m72            0.0000     3.0730E-05    23.3922  -0.7539   108.4146
 62      0.0000     0.0000E+00    0.0000E+00    1.434000E+09  0.05000  8.837E-05    0   0.5874   age139_m72            0.0000     3.2280E-05    23.3562  -1.0000   107.9956
 63      0.8891     1.5933E+00    1.6798E+00    2.500000E+09  0.05000  4.233E-05    0   0.5598   age150_m72            0.0000     3.7143E-05    30.3588  -1.0000   105.4213
 64      0.0000     0.0000E+00    0.0000E+00    6.250000E+09  0.05000  1.435E-05    0   0.5249   age166_m72            0.0000     5.1568E-05    47.2382  -1.0000   100.6583
 65      0.0000     0.0000E+00    0.0000E+00    1.300000E+10  0.05000  6.513E-06    0   0.5036   age193_m72            0.0000     6.6784E-05    57.4895  -1.0000    97.8088
 66      0.0000     0.0000E+00    0.0000E+00    1.800000E+10  0.05000  4.527E-06    0   0.4945   age213_m72            0.0000     7.8692E-05    63.9802  -1.0000    95.5126


## Synthesis Results - Average & Chains ##

# j      x_j: min, <> & last-chain-values for 1 ...  7 chains
  1      0.0000      0.4004      1.1098      0.6194      0.0000      0.0000      0.3737      0.3601      0.9512
  2      0.0000      0.4436      1.5338      1.1395      0.0597      0.4178      0.7358      0.9059      0.3317
  3      0.3588      0.3305      0.4879      0.6857      1.8611      0.3785      0.4704      0.2160      0.2690
  4      0.0000      0.3580      0.1305      0.1749      0.3203      0.2027      0.0000      0.1591      0.0000
  5      0.0000      0.5028      0.0844      0.4071      0.9539      0.1731      0.5265      1.0076      0.9026
  6      0.0000      0.3471      0.0000      0.6676      1.1846      0.5084      0.5107      0.6995      0.6741
  7      0.0000      0.4040      0.0000      0.6473      0.1555      1.1377      0.3215      0.2684      1.6186
  8      0.0000      0.4571      0.0045      0.6401      0.6239      0.9882      0.0000      0.5114      1.3925
  9      0.0000      0.4549      0.8567      0.1244      0.0000      0.3551      0.8394      0.5061      0.0917
 10      0.1306      0.3412      0.3594      0.0000      0.9839      0.0000      0.6167      0.4243      1.5733
 11      1.4009      0.2580      0.3465      0.3048      0.2779      0.3817      0.2672      0.0000      0.2008
 12     20.3755      0.3666      0.4803      0.0000      1.0294      0.5071      0.1429      0.0000      0.6323
 13      0.0000      0.2804      0.2550      0.0000      0.6848      0.4331      0.1551      0.5323      0.0000
 14      5.4282      0.3438      0.6082      0.1593      0.7258      0.2571      0.5864      0.1692      0.8815
 15      0.0000      0.2470      0.2335      0.0707      0.4276      0.7392      0.1927      0.1619      0.6338
 16      0.0000      0.4615      0.0000      0.0000      0.9171      1.5468      0.2122      0.0000      0.9011
 17      0.0000      0.3592      0.3727      0.5283      1.2734      0.1206      0.3464      0.0000      1.0554
 18      0.0000      0.3429      0.1073      1.1427      0.0000      0.4188      0.6413      0.0591      1.1495
 19      0.0000      0.2618      0.0000      0.1318      0.0000      0.0000      0.1516      1.2190      0.0000
 20      0.0000      0.4313      0.0508      2.1909      0.0858      0.0000      0.5443      1.2436      0.6880
 21      0.0000      0.3964      0.0000      0.4968      0.5392      0.0000      0.1693      0.2425      0.7321
 22      0.0000      0.3710      0.2740      0.2658      1.0753      0.0000      0.2212      0.5201      0.7215
 23      0.0000      0.3871      0.1845      0.3719      0.0000      0.2111      0.2322      0.0582      4.4590
 24      0.0000      0.4772      0.0797      0.6176      0.0000      0.0000      0.8642      0.0718      0.3047
 25      0.0000      0.4119      0.3996      0.2379      0.1103      0.9725      0.3042      0.3632      0.8228
 26      0.0000      0.3168      0.3640      0.7641      0.0000      0.3173      0.1140      0.0000      1.0020
 27      7.5992      0.3944      0.4618      0.8681      0.1744      0.0000      0.0000      1.7541      0.0863
 28      2.5914      0.4615      0.9529      0.0000      0.1915      0.0000      0.9112      0.0000      3.0788
 29      0.0000      0.3383      0.0000      0.5789      0.9936      0.9826      0.0849      0.0000      0.1831
 30      0.7122      0.4021      0.4284      0.1176      1.1754      0.0000      0.0000      0.3368      0.0000
 31      0.0000      0.2112      0.0000      0.1473      0.0000      0.8104      0.4119      0.0000      0.5473
 32      0.4442      0.4027      0.3655      0.3367      1.8217      0.1181      0.0000      1.0289      0.2842
 33      3.5637      0.2463      0.3430      0.7607      0.0000      0.2659      0.1316      0.0000      0.8989
 34      0.0000      0.4571      0.0000      1.0400      0.0000      0.0735      0.2185      0.4461      0.8524
 35      0.0000      0.3363      0.2197      0.7649      1.7249      0.0000      0.7887      0.2147      1.0693
 36      0.0000      0.3607      0.0172      0.0000      0.6705      0.0586      0.0000      0.3572      2.0239
 37      0.0000      0.4857      1.0352      0.6075      0.8394      1.2610      0.9778      0.0000      1.4397
 38      0.0000      0.3575      0.0000      1.9622      0.2054      0.0000      0.4146      1.7602      0.0000
 39      0.0000      0.3879      0.0000      0.2642      2.0970      0.5836      0.1559      0.2813      2.5952
 40      0.0000      0.4014      0.5933      0.8742      0.0000      0.9895      0.0000      0.2972      0.0000
 41      0.0000      0.5203      0.0000      0.0703      1.1547      0.8542      0.5709      0.5997      0.6265
 42      0.4599      0.5357      0.7633      0.4279      0.9266      0.9339      0.0000      0.0000      0.8760
 43      3.3919      0.3147      0.4051      1.5057      0.6060      0.0000      0.2974      0.0000      0.0000
 44      0.0000      0.3968      0.1146      0.0000      0.4268      0.8687      0.4011      0.8014      1.1438
 45      1.3808      0.3382      0.4721      0.0000      0.5910      0.2474      0.3193      0.6987      0.0000
 46      0.0000      0.3434      0.9717      0.4747      2.1440      0.0149      0.5759      0.9514      0.4428
 47      0.0000      0.3295      0.2264      0.0000      0.3753      0.0000      0.1804      0.1919      0.3370
 48      0.0000      0.4010      0.0000      1.2277      0.0000      0.0000      0.8410      0.0177      0.3317
 49     10.6603      0.4264      0.5976      0.1199      0.0000      0.0662      0.2717      0.5911      0.7735
 50      0.0000      0.3262      0.1378      0.7428      0.5042      0.1327      0.4624      0.6640      0.8212
 51      0.0000      0.4100      0.0000      0.1830      0.8337      1.0594      0.5645      0.7066      0.9691
 52      0.0000      0.4257      0.2916      0.5088      0.1422      0.0000      0.6009      0.0454      1.2307
 53      0.0000      0.2462      0.0796      0.2239      1.0604      0.0453      0.0000      0.0622      0.0656
 54      0.0000      0.3039      0.1491      0.3606      0.0000      0.2135      0.5475      0.0085      0.0909
 55      0.0000      0.3694      0.7777      0.0000      1.1866      0.7440      0.8278      0.3117      0.5455
 56      0.2267      0.5957      0.7606      0.2432      0.4095      0.0000      0.7919      0.0788      0.0000
 57      0.0000      0.2254      0.3366      0.1836      0.1074      0.0000      0.4704      0.0000      0.0000
 58      0.0000      0.4554      0.3945      1.0045      0.0000      0.8824      0.3305      0.0000      0.9246
 59     39.6964     44.9728     48.2706     41.9920     37.3205     44.4485     45.8417     47.1433     31.0252
 60      7.2578     27.1865     27.9049     24.6575     24.3057     29.0981     28.2005     25.6372     20.1113
 61      0.9417      0.2576      0.9423      0.2843      0.0000      0.0000      0.0901      0.8318      0.2235
 62      0.0000      0.2849      0.1526      0.0563      0.0000      0.0000      0.1043      0.5384      0.4588
 63      0.8891      0.4398      0.6084      0.3805      0.2827      0.2629      0.0000      0.0000      0.0352
 64      0.0000      0.3443      0.0730      0.1802      0.0000      0.2843      0.0013      0.0000      0.0000
 65      0.0000      0.3911      0.3560      0.9187      1.0604      0.3745      0.5826      0.2055      0.0000
 66      0.0000      0.3323      0.1468      0.2163      0.1908      0.7147      0.0000      0.6815      0.8898

# j      m_j: min, <> & last-chain-values for 1 ...  7 chains
  1  0.0000E+00  1.1964E-02  4.2651E-02  1.4852E-02  0.0000E+00  0.0000E+00  1.3791E-02  1.0591E-02  1.9917E-02
  2  0.0000E+00  3.6187E-03  1.6092E-02  7.4588E-03  4.1615E-04  3.3362E-03  7.4124E-03  7.2739E-03  1.8962E-03
  3  1.9154E-03  4.0373E-03  7.6659E-03  6.7218E-03  1.9428E-02  4.5256E-03  7.0969E-03  2.5977E-03  2.3028E-03
  4  0.0000E+00  4.1179E-03  1.9308E-03  1.6148E-03  3.1486E-03  2.2824E-03  0.0000E+00  1.8018E-03  0.0000E+00
  5  0.0000E+00  1.1018E-02  2.3776E-03  7.1577E-03  1.7863E-02  3.7130E-03  1.4249E-02  2.1733E-02  1.3860E-02
  6  0.0000E+00  1.2338E-02  0.0000E+00  1.9041E-02  3.5980E-02  1.7686E-02  2.2415E-02  2.4471E-02  1.6791E-02
  7  0.0000E+00  2.0557E-02  0.0000E+00  2.6431E-02  6.7631E-03  5.6663E-02  2.0205E-02  1.3446E-02  5.7717E-02
  8  0.0000E+00  3.2146E-02  4.0392E-04  3.6125E-02  3.7499E-02  6.8025E-02  0.0000E+00  3.5403E-02  6.8630E-02
  9  0.0000E+00  3.6620E-02  8.8693E-02  8.0383E-03  0.0000E+00  2.7978E-02  8.3445E-02  4.0099E-02  5.1740E-03
 10  6.0348E-03  3.6079E-02  4.8873E-02  0.0000E+00  8.8910E-02  0.0000E+00  8.0528E-02  4.4163E-02  1.1658E-01
 11  1.2174E-01  5.1292E-02  8.8593E-02  4.8636E-02  4.7222E-02  7.4279E-02  6.5601E-02  0.0000E+00  2.7973E-02
 12  2.8087E+00  1.1561E-01  1.9481E-01  0.0000E+00  2.7743E-01  1.5655E-01  5.5640E-02  0.0000E+00  1.3974E-01
 13  0.0000E+00  2.4924E-01  2.9155E-01  0.0000E+00  5.2024E-01  3.7688E-01  1.7029E-01  4.6577E-01  0.0000E+00
 14  7.0739E+00  1.0251E+00  2.3324E+00  3.8126E-01  1.8494E+00  7.5024E-01  2.1593E+00  4.9651E-01  1.8418E+00
 15  0.0000E+00  1.1989E+00  1.4578E+00  2.7525E-01  1.7738E+00  3.5122E+00  1.1554E+00  7.7346E-01  2.1560E+00
 16  0.0000E+00  3.7874E+00  0.0000E+00  0.0000E+00  6.4324E+00  1.2425E+01  2.1506E+00  0.0000E+00  5.1827E+00
 17  0.0000E+00  3.8245E+00  5.1031E+00  4.5139E+00  1.1586E+01  1.2563E+00  4.5548E+00  0.0000E+00  7.8743E+00
 18  0.0000E+00  9.0544E-03  3.6445E-03  2.4213E-02  0.0000E+00  1.0823E-02  2.0911E-02  1.5360E-03  2.1270E-02
 19  0.0000E+00  2.7741E-03  0.0000E+00  1.1211E-03  0.0000E+00  0.0000E+00  1.9846E-03  1.2717E-02  0.0000E+00
 20  0.0000E+00  4.9895E-03  7.5633E-04  2.0341E-02  8.4856E-04  0.0000E+00  7.7776E-03  1.4163E-02  5.5779E-03
 21  0.0000E+00  5.5672E-03  0.0000E+00  5.5987E-03  6.4712E-03  0.0000E+00  2.9356E-03  3.3529E-03  7.2050E-03
 22  0.0000E+00  8.8096E-03  8.3699E-03  5.0661E-03  2.1823E-02  0.0000E+00  6.4887E-03  1.2158E-02  1.2008E-02
 23  0.0000E+00  1.2413E-02  7.6106E-03  9.5701E-03  0.0000E+00  6.6253E-03  9.1978E-03  1.8384E-03  1.0021E-01
 24  0.0000E+00  2.2770E-02  4.8882E-03  2.3647E-02  0.0000E+00  0.0000E+00  5.0919E-02  3.3731E-03  1.0188E-02
 25  0.0000E+00  2.7097E-02  3.3810E-02  1.2560E-02  6.2004E-03  6.2624E-02  2.4712E-02  2.3522E-02  3.7936E-02
 26  0.0000E+00  3.4843E-02  5.1479E-02  6.7426E-02  0.0000E+00  3.4156E-02  1.5478E-02  0.0000E+00  7.7214E-02
 27  7.3106E-01  8.6821E-02  1.3074E-01  1.5333E-01  3.2810E-02  0.0000E+00  0.0000E+00  3.8006E-01  1.3310E-02
 28  7.2350E-01  2.9480E-01  7.8285E-01  0.0000E+00  1.0455E-01  0.0000E+00  7.1878E-01  0.0000E+00  1.3782E+00
 29  0.0000E+00  3.7658E-01  0.0000E+00  5.1704E-01  9.4506E-01  1.0704E+00  1.1668E-01  0.0000E+00  1.4280E-01
 30  7.2387E-01  9.3516E-01  1.2814E+00  2.1948E-01  2.3359E+00  0.0000E+00  0.0000E+00  7.7092E-01  0.0000E+00
 31  0.0000E+00  8.6397E-01  0.0000E+00  4.8339E-01  0.0000E+00  3.2449E+00  2.0808E+00  0.0000E+00  1.5689E+00
 32  1.0686E+00  2.2163E+00  2.5874E+00  1.4871E+00  8.5685E+00  6.3610E-01  0.0000E+00  5.5746E+00  1.0964E+00
 33  1.8978E+01  3.0013E+00  5.3757E+00  7.4378E+00  0.0000E+00  3.1713E+00  1.9799E+00  0.0000E+00  7.6755E+00
 34  0.0000E+00  7.5417E+00  0.0000E+00  1.3770E+01  0.0000E+00  1.1867E+00  4.4521E+00  7.2460E+00  9.8560E+00
 35  0.0000E+00  7.1194E-03  5.9810E-03  1.2995E-02  3.1207E-02  0.0000E+00  2.0622E-02  4.4739E-03  1.5865E-02
 36  0.0000E+00  3.0899E-03  1.8991E-04  0.0000E+00  4.9080E-03  4.9154E-04  0.0000E+00  3.0120E-03  1.2149E-02
 37  0.0000E+00  4.5001E-03  1.2335E-02  4.5170E-03  6.6462E-03  1.1435E-02  1.1188E-02  0.0000E+00  9.3480E-03
 38  0.0000E+00  8.9723E-03  0.0000E+00  3.9523E-02  4.4058E-03  0.0000E+00  1.2852E-02  4.3491E-02  0.0000E+00
 39  0.0000E+00  1.4019E-02  0.0000E+00  7.6621E-03  6.4764E-02  2.0643E-02  6.9597E-03  1.0008E-02  6.5726E-02
 40  0.0000E+00  2.3447E-02  4.4575E-02  4.0978E-02  0.0000E+00  5.6576E-02  0.0000E+00  1.7091E-02  0.0000E+00
 41  0.0000E+00  4.7269E-02  0.0000E+00  5.1264E-03  8.9641E-02  7.5950E-02  6.4046E-02  5.3628E-02  3.9882E-02
 42  3.3525E-02  8.9347E-02  1.6373E-01  5.7264E-02  1.3207E-01  1.5246E-01  0.0000E+00  0.0000E+00  1.0239E-01
 43  3.6099E-01  7.6621E-02  1.2687E-01  2.9422E-01  1.2610E-01  0.0000E+00  8.9423E-02  0.0000E+00  0.0000E+00
 44  0.0000E+00  1.6636E-01  6.1776E-02  0.0000E+00  1.5293E-01  3.5651E-01  2.0769E-01  3.3077E-01  3.3608E-01
 45  5.0207E-01  2.8137E-01  5.0506E-01  0.0000E+00  4.2016E-01  2.0147E-01  3.2804E-01  5.7212E-01  0.0000E+00
 46  0.0000E+00  5.2505E-01  1.9110E+00  5.8251E-01  2.8015E+00  2.2375E-02  1.0874E+00  1.4320E+00  4.7452E-01
 47  0.0000E+00  1.0209E+00  9.0235E-01  0.0000E+00  9.9378E-01  0.0000E+00  6.9030E-01  5.8533E-01  7.3172E-01
 48  0.0000E+00  2.1912E+00  0.0000E+00  5.3837E+00  0.0000E+00  0.0000E+00  5.6756E+00  9.5406E-02  1.2703E+00
 49  5.7865E+01  5.2954E+00  9.5461E+00  1.1947E+00  0.0000E+00  8.0489E-01  4.1665E+00  7.2268E+00  6.7320E+00
 50  0.0000E+00  7.5029E+00  4.0776E+00  1.3710E+01  9.9107E+00  2.9866E+00  1.3135E+01  1.5034E+01  1.3238E+01
 51  0.0000E+00  5.1692E-03  0.0000E+00  1.8512E-03  8.9831E-03  1.3075E-02  8.7904E-03  8.7695E-03  8.5635E-03
 52  0.0000E+00  2.7506E-03  2.4232E-03  2.6384E-03  7.8543E-04  0.0000E+00  4.7952E-03  2.8850E-04  5.5728E-03
 53  0.0000E+00  2.3965E-03  9.9585E-04  1.7484E-03  8.8196E-03  4.3152E-04  0.0000E+00  5.9624E-04  4.4711E-04
 54  0.0000E+00  6.0607E-03  3.8235E-03  5.7706E-03  0.0000E+00  4.1678E-03  1.3484E-02  1.6785E-04  1.2699E-03
 55  0.0000E+00  1.1342E-02  3.0715E-02  0.0000E+00  3.1137E-02  2.2361E-02  3.1390E-02  9.4216E-03  1.1739E-02
 56  6.0232E-03  3.6203E-02  5.9457E-02  1.1860E-02  2.1268E-02  0.0000E+00  5.9438E-02  4.7168E-03  0.0000E+00
 57  0.0000E+00  1.8185E-02  3.4925E-02  1.1883E-02  7.4055E-03  0.0000E+00  4.6857E-02  0.0000E+00  0.0000E+00
 58  0.0000E+00  6.2142E-02  6.9231E-02  1.0998E-01  0.0000E+00  1.1785E-01  5.5688E-02  0.0000E+00  8.8409E-02
 59  5.0946E+00  1.3206E+01  1.8230E+01  9.8948E+00  9.3650E+00  1.2775E+01  1.6624E+01  1.3627E+01  6.3843E+00
 60  1.7301E+00  1.4828E+01  1.9574E+01  1.0792E+01  1.1329E+01  1.5534E+01  1.8995E+01  1.3764E+01  7.6868E+00
 61  4.9047E-01  3.0701E-01  1.4443E+00  2.7183E-01  0.0000E+00  0.0000E+00  1.3260E-01  9.7572E-01  1.8669E-01
 62  0.0000E+00  6.1894E-01  4.2644E-01  9.8175E-02  0.0000E+00  0.0000E+00  2.7995E-01  1.1516E+00  6.9868E-01
 63  1.6798E+00  1.9014E+00  3.3826E+00  1.3200E+00  1.0442E+00  1.1124E+00  0.0000E+00  0.0000E+00  1.0665E-01
 64  0.0000E+00  4.1167E+00  1.1222E+00  1.7291E+00  0.0000E+00  3.3279E+00  1.8488E-02  0.0000E+00  0.0000E+00
 65  0.0000E+00  9.8854E+00  1.1572E+01  1.8633E+01  2.2904E+01  9.2650E+00  1.8185E+01  5.1135E+00  0.0000E+00
 66  0.0000E+00  1.1865E+01  6.7438E+00  6.1974E+00  5.8224E+00  2.4979E+01  0.0000E+00  2.3955E+01  2.2265E+01

# AV, chi2 & Mass for <> & i_chain = 1 ...  7 solutions
AV      -0.2188      0.5770      0.4785      0.4989      0.4670      0.4731      0.5441      0.4829      0.4552
chi2 2.8365E-05  3.5445E-05  3.3388E-05  3.4718E-05  3.4713E-05  3.4894E-05  3.4822E-05  3.4281E-05  3.4722E-05
Mass 6.0896E-14  7.7500E-14  5.2794E-14  8.6967E-14  7.8234E-14  6.8867E-14  6.0047E-14  6.9383E-14  9.3897E-14
   0.00                                  [v0_min (km/s) before EX0s...]
   0.00                                  [vd_min (km/s) before EX0s...]


## Synthetic spectrum (Best Model) ##l_obs f_obs f_syn wei
 3478    [Nl_obs]
 3741.00   -0.10476   0.64609    0.000
 3742.00   -0.05373   0.62209    0.000
 3743.00   -0.09574   0.58578    0.000
 3744.00   -0.17658   0.56244    0.000
 3745.00   -0.28003   0.52744    0.000
 3746.00   -0.14442   0.48515    0.000
 3747.00    0.11258   0.45302    0.034
 3748.00   -0.04284   0.39169    0.000
 3749.00   -0.37962   0.32658    0.000
 3750.00   -0.10685   0.32516    0.000
 3751.00    0.39603   0.39047    0.036
 3752.00    0.16298   0.46448    0.034
 3753.00   -0.30592   0.52267    0.000
 3754.00   -0.35561   0.58762    0.000
 3755.00   -0.29296   0.64375    0.000
 3756.00   -0.16607   0.66204    0.000
 3757.00   -0.02507   0.62939    0.000
 3758.00   -0.04261   0.58822    0.000
 3759.00   -0.08783   0.59550    0.000
 3760.00    0.03006   0.62987    0.040
 3761.00    0.16962   0.65078    0.058
 3762.00    0.19595   0.66320    0.041
 3763.00    0.21163   0.65566    0.031
 3764.00    0.44530   0.63314    0.030
 3765.00    0.69155   0.62067    0.030
 3766.00    0.91421   0.57812    0.033
 3767.00    1.13442   0.51968    0.038
 3768.00    1.12531   0.48924    0.037
 3769.00    1.10065   0.45836    0.036
 3770.00    0.69841   0.40976    0.032
 3771.00    0.31781   0.40497    0.028
 3772.00    0.22089   0.46234    0.028
 3773.00    0.16518   0.53148    0.028
 3774.00    0.47126   0.57866    0.028
 3775.00    0.72812   0.60883    0.029
 3776.00    0.66587   0.64204    0.030
 3777.00    0.57569   0.68710    0.030
 3778.00    0.34417   0.72334    0.029
 3779.00    0.13788   0.75977    0.028
 3780.00    0.03481   0.79723    0.029
 3781.00   -0.07017   0.81545    0.000
 3782.00   -0.18163   0.82105    0.000
 3783.00   -0.18414   0.83351    0.000
 3784.00    0.12496   0.85103    0.031
 3785.00    0.22511   0.83118    0.032
 3786.00   -0.18527   0.77335    0.000
 3787.00   -0.42468   0.73109    0.000
 3788.00   -0.30376   0.71076    0.000
 3789.00   -0.13395   0.69408    0.000
 3790.00    0.12540   0.67983    0.031
 3791.00    0.34599   0.67468    0.031
 3792.00    0.50457   0.65657    0.031
 3793.00    0.54065   0.60501    0.031
 3794.00    0.40469   0.53427    0.031
 3795.00    0.54965   0.47931    0.031
 3796.00    1.04184   0.43840    0.031
 3797.00    1.10239   0.38637    0.031
 3798.00    0.69268   0.35154    0.030
 3799.00    0.31373   0.37778    0.030
 3800.00   -0.03565   0.45721    0.000
 3801.00   -0.04850   0.53500    0.000
 3802.00    0.22383   0.59525    0.031
 3803.00    0.46339   0.65775    0.032
 3804.00    0.67850   0.70225    0.032
 3805.00    0.86642   0.72020    0.032
 3806.00    1.03652   0.72133    0.031
 3807.00    0.85828   0.73112    0.030
 3808.00    0.48016   0.76907    0.028
 3809.00    0.27101   0.82076    0.028
 3810.00    0.14633   0.86245    0.028
 3811.00    0.26019   0.87472    0.030
 3812.00    0.47721   0.84952    0.034
 3813.00    0.63687   0.80463    0.033
 3814.00    0.77526   0.77568    0.030
 3815.00    0.76219   0.77124    0.029
 3816.00    0.70150   0.78799    0.028
 3817.00    0.63461   0.82420    0.031
 3818.00    0.56608   0.84032    0.035
 3819.00    0.54656   0.80470    0.032
 3820.00    0.53755   0.75834    0.029
 3821.00    0.55952   0.75784    0.029
 3822.00    0.58675   0.78775    0.030
 3823.00    0.33700   0.78841    0.029
 3824.00    0.05172   0.73573    0.029
 3825.00   -0.01711   0.68130    0.000
 3826.00   -0.06651   0.65686    0.000
 3827.00    0.04797   0.63635    0.029
 3828.00    0.17126   0.60882    0.031
 3829.00    0.52474   0.58311    0.032
 3830.00    0.87756   0.56398    0.034
 3831.00    0.78507   0.52499    0.032
 3832.00    0.71380   0.45435    0.031
 3833.00    1.11377   0.39246    0.032
 3834.00    1.46233   0.34895    0.033
 3835.00    1.17163   0.32577    0.032
 3836.00    0.88136   0.34193    0.032
 3837.00    0.59469   0.37682    0.032
 3838.00    0.34689   0.41528    0.032
 3839.00    0.34354   0.46077    0.031
 3840.00    0.33334   0.50098    0.029
 3841.00    0.28931   0.55338    0.029
 3842.00    0.21980   0.62479    0.029
 3843.00    0.04827   0.68767    0.028
 3844.00   -0.10342   0.72741    0.000
 3845.00   -0.18911   0.74749    0.000
 3846.00   -0.20121   0.76733    0.000
 3847.00   -0.00667   0.79591    0.000
 3848.00    0.17342   0.81875    0.000
 3849.00    0.31882   0.81251    0.000
 3850.00    0.49925   0.80833    0.000
 3851.00    0.75235   0.84174    0.000
 3852.00    0.81224   0.87437    0.000
 3853.00    0.52366   0.88198    0.000
 3854.00    0.26952   0.87213    0.000
 3855.00    0.06969   0.85620    0.000
 3856.00    0.18178   0.84333    0.000
 3857.00    0.72568   0.85281    0.000
 3858.00    1.02377   0.85666    0.000
 3859.00    1.02233   0.83233    0.000
 3860.00    0.96764   0.82397    0.000
 3861.00    0.85575   0.86281    0.000
 3862.00    0.89923   0.90024    0.000
 3863.00    1.08990   0.91172    0.000
 3864.00    1.02016   0.91172    0.000
 3865.00    0.73285   0.89886    0.000
 3866.00    0.70404   0.88776    0.000
 3867.00    0.86535   0.89534    0.000
 3868.00    1.05982   0.90634    0.000
 3869.00    1.27570   0.90363    0.000
 3870.00    1.12367   0.88066    0.000
 3871.00    0.76371   0.84340    0.000
 3872.00    0.70670   0.80817    0.000
 3873.00    0.79871   0.79896    0.000
 3874.00    0.59133   0.82114    0.000
 3875.00    0.25664   0.84713    0.000
 3876.00    0.06267   0.84297    0.000
 3877.00   -0.08004   0.79306    0.000
 3878.00    0.07295   0.72616    0.000
 3879.00    0.31709   0.70519    0.000
 3880.00    0.57496   0.72028    0.000
 3881.00    0.83634   0.70596    0.032
 3882.00    0.73103   0.65736    0.031
 3883.00    0.54906   0.62708    0.029
 3884.00    0.44003   0.61232    0.029
 3885.00    0.34303   0.55832    0.030
 3886.00    0.35618   0.47983    0.029
 3887.00    0.38297   0.42128    0.029
 3888.00    0.48870   0.37826    0.028
 3889.00    0.60118   0.35974    0.028
 3890.00    0.33026   0.40002    0.028
 3891.00    0.04023   0.47797    0.028
 3892.00    0.31863   0.54776    0.028
 3893.00    0.60022   0.59179    0.028
 3894.00    0.48613   0.62041    0.028
 3895.00    0.38012   0.64073    0.027
 3896.00    0.43924   0.67430    0.027
 3897.00    0.52301   0.72295    0.027
 3898.00    0.89832   0.74535    0.027
 3899.00    1.18970   0.74760    0.027
 3900.00    0.79746   0.76909    0.026
 3901.00    0.45383   0.81164    0.025
 3902.00    0.40716   0.83228    0.025
 3903.00    0.39103   0.83255    0.024
 3904.00    0.52184   0.84206    0.024
 3905.00    0.63105   0.83257    0.024
 3906.00    0.65565   0.82347    0.024
 3907.00    0.65674   0.85919    0.024
 3908.00    0.58121   0.91362    0.024
 3909.00    0.52124   0.94697    0.024
 3910.00    0.50414   0.96082    0.025
 3911.00    0.51525   0.97195    0.026
 3912.00    0.59295   0.97318    0.027
 3913.00    0.72982   0.95152    0.027
 3914.00    0.98746   0.93439    0.029
 3915.00    1.08356   0.94206    0.029
 3916.00    0.89274   0.93900    0.030
 3917.00    0.97869   0.93339    0.030
 3918.00    1.49468   0.92892    0.031
 3919.00    1.76723   0.91341    0.032
 3920.00    1.70761   0.89273    0.032
 3921.00    1.41179   0.88991    0.031
 3922.00    0.83224   0.90657    0.030
 3923.00    0.48306   0.91803    0.029
 3924.00    0.37784   0.92717    0.029
 3925.00    0.32995   0.92065    0.029
 3926.00    0.33559   0.89230    0.030
 3927.00    0.40904   0.86243    0.030
 3928.00    0.53832   0.82874    0.030
 3929.00    0.63464   0.78471    0.030
 3930.00    0.70706   0.74536    0.030
 3931.00    0.62567   0.70132    0.030
 3932.00    0.44640   0.62485    0.029
 3933.00    0.35131   0.53645    0.029
 3934.00    0.30308   0.51382    0.028
 3935.00    0.50687   0.58258    0.029
 3936.00    0.83266   0.68698    0.029
 3937.00    1.14132   0.76170    0.030
 3938.00    1.44282   0.80454    0.030
 3939.00    1.16548   0.83685    0.029
 3940.00    0.68109   0.86745    0.028
 3941.00    0.57906   0.88121    0.028
 3942.00    0.59261   0.87645    0.028
 3943.00    0.74949   0.85902    0.028
 3944.00    0.94239   0.85023    0.028
 3945.00    0.98330   0.87978    0.028
 3946.00    0.99323   0.91756    0.029
 3947.00    0.99436   0.91845    0.029
 3948.00    0.99408   0.90022    0.029
 3949.00    0.84430   0.89651    0.029
 3950.00    0.67666   0.90920    0.029
 3951.00    0.87745   0.90977    0.029
 3952.00    1.10825   0.88922    0.030
 3953.00    1.32541   0.87923    0.030
 3954.00    1.54196   0.89953    0.030
 3955.00    1.34920   0.89436    0.030
 3956.00    1.15290   0.84653    0.030
 3957.00    1.04348   0.81147    0.030
 3958.00    0.94090   0.81102    0.030
 3959.00    0.96787   0.81541    0.030
 3960.00    0.98527   0.78104    0.000
 3961.00    0.89476   0.70360    0.000
 3962.00    0.82016   0.64384    0.000
 3963.00    0.87068   0.61513    0.000
 3964.00    0.93038   0.58153    0.000
 3965.00    1.04460   0.52808    0.000
 3966.00    1.00400   0.45285    0.000
 3967.00    0.23651   0.36658    0.000
 3968.00   -0.31001   0.29291    0.000
 3969.00   -0.00974   0.25335    0.000
 3970.00    0.22310   0.25999    0.000
 3971.00    0.24042   0.31155    0.000
 3972.00    0.23250   0.38217    0.000
 3973.00    0.15617   0.45032    0.000
 3974.00    0.07193   0.51550    0.000
 3975.00   -0.03069   0.58104    0.000
 3976.00    0.02883   0.63434    0.000
 3977.00    0.41402   0.68074    0.000
 3978.00    0.59891   0.73138    0.000
 3979.00    0.43341   0.77963    0.000
 3980.00    0.33265   0.81869    0.000
 3981.00    0.33099   0.83294    0.030
 3982.00    0.52735   0.83065    0.030
 3983.00    0.99000   0.84055    0.030
 3984.00    1.17414   0.86550    0.030
 3985.00    1.02845   0.89190    0.030
 3986.00    0.88406   0.90717    0.030
 3987.00    0.74103   0.92442    0.029
 3988.00    0.69306   0.95115    0.029
 3989.00    0.73265   0.95747    0.029
 3990.00    0.75016   0.95120    0.029
 3991.00    0.74976   0.96379    0.028
 3992.00    0.55509   0.98830    0.028
 3993.00    0.22162   1.00457    0.028
 3994.00    0.19774   1.00155    0.028
 3995.00    0.36797   0.98972    0.028
 3996.00    0.71602   0.97076    0.028
 3997.00    1.16150   0.94868    0.029
 3998.00    1.16573   0.95078    0.028
 3999.00    0.95977   0.98836    0.028
 4000.00    0.68896   1.02346    0.028
 4001.00    0.39150   1.02763    0.027
 4002.00    0.52114   1.02478    0.028
 4003.00    0.80077   1.02737    0.028
 4004.00    0.68846   0.99907    0.028
 4005.00    0.46003   0.94471    0.027
 4006.00    0.56635   0.93671    0.028
 4007.00    0.75492   0.98259    0.028
 4008.00    1.05014   1.02542    0.049
 4009.00    1.36656   1.03808    0.415
 4010.00    1.15817   1.03839   -1.000
 4011.00    0.86823   1.04079   -1.000
 4012.00    0.91679   1.03471   -1.000
 4013.00    1.00427   1.03029   -1.000
 4014.00    0.91908   1.03417   -1.000
 4015.00    0.82053   1.04522   -1.000
 4016.00    0.76933   1.04722   -1.000
 4017.00    0.72013   1.03250   -1.000
 4018.00    0.87924   1.03385   -1.000
 4019.00    1.03639   1.06276   -1.000
 4020.00    1.02422   1.07510   -1.000
 4021.00    1.01178   1.05779    1.086
 4022.00    0.99448   1.04488    0.055
 4023.00    1.02019   1.03886    0.030
 4024.00    1.50872   1.01662    0.030
 4025.00    1.89227   1.00580    0.031
 4026.00    1.47893   1.03201    0.030
 4027.00    1.12623   1.06229    0.030
 4028.00    1.12333   1.07061    0.031
 4029.00    1.09288   1.04828    0.031
 4030.00    0.93620   0.99356    0.030
 4031.00    0.96943   0.95300    0.030
 4032.00    1.71508   0.94897    0.030
 4033.00    2.12007   0.95706    0.030
 4034.00    1.45713   0.97277    0.030
 4035.00    0.84761   0.99933    0.029
 4036.00    0.38017   1.03630    0.028
 4037.00    0.11376   1.07410    0.028
 4038.00    0.30641   1.08892    0.028
 4039.00    0.58065   1.07591    0.028
 4040.00    1.01617   1.05507    0.028
 4041.00    1.23519   1.04627    0.028
 4042.00    1.08120   1.05656    0.029
 4043.00    0.99011   1.05193    0.029
 4044.00    0.99389   0.99274    0.029
 4045.00    0.93840   0.91426    0.028
 4046.00    0.80432   0.89893    0.028
 4047.00    0.81211   0.96458    0.027
 4048.00    0.98551   1.02547    0.027
 4049.00    1.05018   1.03927    0.027
 4050.00    1.00289   1.04642    0.027
 4051.00    0.86417   1.05185    0.027
 4052.00    0.64243   1.03788    0.027
 4053.00    0.70674   1.01597    0.027
 4054.00    1.00000   0.99612    0.027
 4055.00    1.09905   0.99064    0.027
 4056.00    1.06134   0.99682    0.027
 4057.00    1.01829   0.98777    0.027
 4058.00    0.97194   0.97661    0.027
 4059.00    1.05556   0.99513    0.027
 4060.00    1.20930   1.02851    0.027
 4061.00    1.22987   1.03256    0.027
 4062.00    1.18802   0.98651    0.027
 4063.00    1.03903   0.92052    0.027
 4064.00    0.84676   0.90718    0.027
 4065.00    0.84808   0.95540    0.027
 4066.00    0.91615   0.97777    0.027
 4067.00    0.86733   0.96311    0.027
 4068.00    0.78457   0.98277    0.027
 4069.00    0.67939   1.02479    0.027
 4070.00    0.56883   1.01024    0.027
 4071.00    0.78055   0.94827    0.027
 4072.00    1.05471   0.92700    0.028
 4073.00    1.07881   0.96951    0.027
 4074.00    1.06522   0.99988    0.027
 4075.00    0.87102   0.97679    0.027
 4076.00    0.65684   0.92009    0.028
 4077.00    0.74642   0.86988    0.028
 4078.00    0.85825   0.87010    0.028
 4079.00    1.03497   0.91652    0.028
 4080.00    1.21418   0.96781    0.028
 4081.00    1.31416   0.99779    0.028
 4082.00    1.40783   0.99005    0.029
 4083.00    1.28046   0.95866    0.028
 4084.00    1.14627   0.92920    0.028
 4085.00    0.89978   0.91389    0.028
 4086.00    0.67201   0.91884    0.028
 4087.00    0.63691   0.94034    0.028
 4088.00    0.63644   0.95631    0.028
 4089.00    0.89002   0.94685    0.028
 4090.00    1.09054   0.92014    0.028
 4091.00    0.99335   0.89156    0.028
 4092.00    0.95086   0.86168    0.000
 4093.00    1.15321   0.84137    0.000
 4094.00    1.22733   0.82379    0.000
 4095.00    0.83050   0.77875    0.000
 4096.00    0.57747   0.72136    0.000
 4097.00    0.76666   0.68001    0.000
 4098.00    0.88132   0.64568    0.000
 4099.00    0.80116   0.60211    0.000
 4100.00    0.77233   0.53430    0.000
 4101.00    0.85876   0.45452    0.000
 4102.00    0.94398   0.43227    0.000
 4103.00    1.02685   0.48843    0.000
 4104.00    1.04732   0.56378    0.000
 4105.00    0.96188   0.62839    0.000
 4106.00    0.80393   0.68245    0.000
 4107.00    0.53820   0.71896    0.000
 4108.00    0.47163   0.74408    0.000
 4109.00    0.66527   0.76263    0.000
 4110.00    0.81442   0.77589    0.000
 4111.00    0.91235   0.79396    0.000
 4112.00    1.00577   0.82518    0.000
 4113.00    1.09462   0.86099    0.027
 4114.00    1.16164   0.88935    0.027
 4115.00    1.20912   0.91285    0.027
 4116.00    1.06885   0.93415    0.027
 4117.00    0.78045   0.93634    0.026
 4118.00    0.86648   0.91538    0.026
 4119.00    1.21234   0.90105    0.026
 4120.00    1.33618   0.91766    0.026
 4121.00    1.32491   0.93828    0.026
 4122.00    1.14244   0.93770    0.026
 4123.00    0.86902   0.93634    0.026
 4124.00    0.96600   0.95765    0.026
 4125.00    1.23378   0.98139    0.026
 4126.00    1.38002   0.97823    0.026
 4127.00    1.47800   0.95068    0.027
 4128.00    1.31196   0.92584    0.026
 4129.00    1.05657   0.92597    0.026
 4130.00    0.81368   0.92780    0.025
 4131.00    0.57435   0.91186    0.025
 4132.00    0.78748   0.89391    0.026
 4133.00    1.10685   0.90174    0.026
 4134.00    1.11970   0.92792    0.026
 4135.00    1.07470   0.96527    0.026
 4136.00    0.68018   0.99826    0.025
 4137.00    0.23462   1.00014    0.025
 4138.00    0.48482   1.00433    0.025
 4139.00    0.80895   1.02056    0.026
 4140.00    1.15646   1.02751    0.026
 4141.00    1.50558   1.01486    0.026
 4142.00    1.15085   0.96411    0.026
 4143.00    0.77183   0.89831    0.026
 4144.00    0.70678   0.88939    0.026
 4145.00    0.64656   0.94057    0.026
 4146.00    0.72576   0.98312    0.026
 4147.00    0.81275   0.99693    0.026
 4148.00    1.02006   0.99439    0.027
 4149.00    1.17267   0.97750    0.027
 4150.00    0.78612   0.96510    0.027
 4151.00    0.45913   0.97163    0.026
 4152.00    0.55500   0.97490    0.026
 4153.00    0.62768   0.96474    0.026
 4154.00    0.57377   0.94917    0.026
 4155.00    0.54292   0.94493    0.026
 4156.00    0.61295   0.94711    0.026
 4157.00    0.64710   0.95286    0.026
 4158.00    0.55221   0.97375    0.026
 4159.00    0.53383   0.99567    0.026
 4160.00    0.74633   1.00066    0.026
 4161.00    0.96017   0.99431    0.026
 4162.00    1.17745   1.00064    0.027
 4163.00    1.32200   1.01158    0.027
 4164.00    1.30587   1.00974    0.027
 4165.00    1.14978   1.00468    0.027
 4166.00    0.72555   0.99468    0.026
 4167.00    0.47655   0.97844    0.026
 4168.00    0.52040   0.97891    0.026
 4169.00    0.58367   0.99879    0.026
 4170.00    0.67538   0.99850    0.027
 4171.00    0.77719   0.95775    0.027
 4172.00    0.89203   0.89987    0.027
 4173.00    0.80322   0.87643    0.027
 4174.00    0.48329   0.89896    0.027
 4175.00    0.57986   0.93421    0.027
 4176.00    1.09328   0.95172    0.027
 4177.00    1.24408   0.93580    0.027
 4178.00    1.07479   0.91399    0.027
 4179.00    1.11829   0.92833    0.027
 4180.00    1.32728   0.96183    0.027
 4181.00    1.38994   0.96670    0.027
 4182.00    1.35252   0.95222    0.027
 4183.00    1.11485   0.95423    0.026
 4184.00    0.75715   0.96967    0.026
 4185.00    0.69791   0.98861    0.026
 4186.00    0.79477   0.97888    0.025
 4187.00    0.88027   0.93721    0.025
 4188.00    0.96061   0.92975    0.026
 4189.00    0.92331   0.96455    0.025
 4190.00    0.84009   0.98502    0.025
 4191.00    0.75551   0.97547    0.025
 4192.00    0.67048   0.98085    0.025
 4193.00    0.72489   1.01078    0.025
 4194.00    0.81816   1.01559    0.025
 4195.00    0.94717   0.98117    0.025
 4196.00    1.08438   0.94971    0.025
 4197.00    1.08051   0.93237    0.026
 4198.00    1.05071   0.90675    0.026
 4199.00    0.94957   0.90392    0.025
 4200.00    0.83833   0.92908    0.024
 4201.00    0.76748   0.92945    0.024
 4202.00    0.70075   0.91566    0.024
 4203.00    0.67578   0.92897    0.024
 4204.00    0.65354   0.94472    0.024
 4205.00    1.01463   0.94993    0.024
 4206.00    1.38658   0.96783    0.024
 4207.00    1.16594   0.98843    0.025
 4208.00    0.95196   0.99647    0.025
 4209.00    0.93385   0.98807    0.024
 4210.00    0.92858   0.97604    0.024
 4211.00    1.11015   0.98640    0.024
 4212.00    1.23619   1.00615    0.024
 4213.00    0.83713   1.00586    0.024
 4214.00    0.47762   0.97638    0.024
 4215.00    0.38993   0.92430    0.024
 4216.00    0.38528   0.90936    0.024
 4217.00    0.82197   0.95467    0.024
 4218.00    1.15629   0.99910    0.023
 4219.00    1.05339   1.01606    0.024
 4220.00    0.90898   1.01949    0.024
 4221.00    0.61825   1.02187    0.024
 4222.00    0.45720   1.00629    0.024
 4223.00    0.68016   0.97334    0.024
 4224.00    0.88836   0.92715    0.024
 4225.00    1.05930   0.86615    0.024
 4226.00    1.17957   0.80249    0.024
 4227.00    1.18976   0.79105    0.024
 4228.00    1.18259   0.86740    0.024
 4229.00    1.14268   0.95589    0.024
 4230.00    1.06968   0.99804    0.024
 4231.00    0.94219   1.01038    0.023
 4232.00    0.81411   0.98259    0.023
 4233.00    0.68518   0.93235    0.023
 4234.00    0.75671   0.92662    0.023
 4235.00    1.08274   0.94044    0.023
 4236.00    1.14253   0.92961    0.023
 4237.00    0.90444   0.93469    0.023
 4238.00    0.80831   0.94750    0.023
 4239.00    0.85227   0.94677    0.023
 4240.00    0.93243   0.95997    0.023
 4241.00    1.04410   0.98343    0.023
 4242.00    1.00415   0.98398    0.023
 4243.00    0.84797   0.98456    0.023
 4244.00    0.83341   1.01155    0.023
 4245.00    0.91428   1.02101    0.024
 4246.00    1.08451   0.98689    0.024
 4247.00    1.30750   0.94778    0.024
 4248.00    1.39460   0.93851    0.025
 4249.00    1.41173   0.93272    0.026
 4250.00    1.17532   0.90696    0.026
 4251.00    0.82580   0.90935    0.025
 4252.00    0.61574   0.94675    0.025
 4253.00    0.45915   0.95605    0.025
 4254.00    0.71740   0.92849    0.025
 4255.00    1.11084   0.92210    0.025
 4256.00    1.06065   0.95949    0.025
 4257.00    0.88937   0.99258    0.024
 4258.00    0.95532   0.97343    0.024
 4259.00    1.07444   0.92882    0.025
 4260.00    1.26890   0.89240    0.025
 4261.00    1.47683   0.88853    0.026
 4262.00    1.06505   0.93355    0.026
 4263.00    0.56849   0.98795    0.026
 4264.00    0.88952   1.01299    0.025
 4265.00    1.29042   1.02286    0.025
 4266.00    1.31031   1.02610    0.025
 4267.00    1.30690   1.00494    0.025
 4268.00    0.91405   0.97402    0.024
 4269.00    0.51346   0.95041    0.024
 4270.00    0.65334   0.91391    0.024
 4271.00    0.77957   0.85641    0.024
 4272.00    0.54507   0.83606    0.024
 4273.00    0.34402   0.86716    0.024
 4274.00    0.60277   0.88156    0.024
 4275.00    0.86014   0.88789    0.025
 4276.00    1.10497   0.92938    0.025
 4277.00    1.29541   0.97647    0.025
 4278.00    1.12362   0.99351    0.025
 4279.00    0.97065   0.97819    0.025
 4280.00    0.91506   0.94978    0.025
 4281.00    0.88136   0.93880    0.024
 4282.00    0.93903   0.93877   -2.000
 4283.00    0.91393   0.94414   -2.000
 4284.00    0.60309   0.95029   -2.000
 4285.00    0.46076   0.93654   -2.000
 4286.00    0.80824   0.92443   -2.000
 4287.00    1.03974   0.92554   -2.000
 4288.00    0.98359   0.91052   -2.000
 4289.00    1.04282   0.86047   -2.000
 4290.00    1.34872   0.82340   -2.000
 4291.00    1.45658   0.85185   -2.000
 4292.00    1.19672   0.91145   -2.000
 4293.00    0.96852   0.93744   -2.000
 4294.00    0.79165   0.91750   -2.000
 4295.00    0.74011   0.90150   -2.000
 4296.00    0.86684   0.89876   -2.000
 4297.00    0.92159   0.88720   -2.000
 4298.00    0.88626   0.85806    0.024
 4299.00    0.80341   0.80133    0.024
 4300.00    0.66814   0.76736    0.024
 4301.00    0.65248   0.78432    0.023
 4302.00    0.75319   0.79496    0.023
 4303.00    0.80540   0.79913    0.024
 4304.00    0.81599   0.82360    0.024
 4305.00    0.73955   0.83473    0.024
 4306.00    0.59736   0.82336    0.024
 4307.00    0.57468   0.79309    0.024
 4308.00    0.63138   0.75989    0.023
 4309.00    0.71013   0.76506    0.024
 4310.00    0.80171   0.80055    0.024
 4311.00    0.89326   0.83411    0.023
 4312.00    0.98478   0.85090    0.023
 4313.00    1.05248   0.85130    0.022
 4314.00    1.10972   0.84805    0.022
 4315.00    1.14254   0.87885    0.022
 4316.00    1.16616   0.94836    0.022
 4317.00    1.16190   0.99327    0.023
 4318.00    1.14873   0.99038    0.023
 4319.00    0.90676   0.97029    0.023
 4320.00    0.60365   0.94488    0.023
 4321.00    0.69267   0.92085    0.023
 4322.00    0.86750   0.91162    0.023
 4323.00    0.83234   0.87946    0.023
 4324.00    0.76064   0.81302    0.023
 4325.00    0.72418   0.74533    0.023
 4326.00    0.69238   0.72910    0.023
 4327.00    0.96445   0.78918    0.023
 4328.00    1.26492   0.86049    0.023
 4329.00    1.46606   0.87840    0.023
 4330.00    1.66153   0.84911    0.000
 4331.00    1.63249   0.82219    0.000
 4332.00    1.59617   0.81478    0.000
 4333.00    1.32326   0.80411    0.000
 4334.00    1.06007   0.78983    0.000
 4335.00    1.03050   0.77603    0.000
 4336.00    1.01886   0.73175    0.000
 4337.00    1.24080   0.64096    0.000
 4338.00    1.41975   0.55640    0.000
 4339.00    1.22312   0.49600    0.000
 4340.00    1.04667   0.44294    0.000
 4341.00    1.00057   0.45203    0.000
 4342.00    0.99435   0.53418    0.000
 4343.00    1.18932   0.60548    0.000
 4344.00    1.31709   0.64603    0.000
 4345.00    1.17056   0.69479    0.000
 4346.00    1.01982   0.73636    0.000
 4347.00    0.85480   0.75919    0.000
 4348.00    0.73713   0.79524    0.000
 4349.00    0.75453   0.83759    0.000
 4350.00    0.81987   0.83170    0.000
 4351.00    1.00209   0.77072    0.023
 4352.00    1.06115   0.73586    0.023
 4353.00    0.86112   0.77924    0.023
 4354.00    0.72713   0.83923    0.023
 4355.00    0.71387   0.86953    0.023
 4356.00    0.82700   0.89751    0.024
 4357.00    1.14206   0.91848    0.023
 4358.00    1.31486   0.90733    0.023
 4359.00    1.28820   0.88686    0.023
 4360.00    1.29099   0.90100    0.023
 4361.00    1.33012   0.93798    0.023
 4362.00    1.30523   0.95764    0.023
 4363.00    1.21070   0.95919    0.023
 4364.00    0.97167   0.97506    0.023
 4365.00    0.59403   0.99789    0.023
 4366.00    0.55758   0.98691    0.023
 4367.00    0.80972   0.94635    0.023
 4368.00    0.93360   0.91977    0.023
 4369.00    0.96193   0.92527    0.023
 4370.00    0.86934   0.93691    0.023
 4371.00    0.69762   0.94813    0.023
 4372.00    0.84921   0.95587    0.023
 4373.00    1.18599   0.93819    0.023
 4374.00    1.26237   0.89286    0.023
 4375.00    1.20887   0.86585    0.023
 4376.00    1.10305   0.89496    0.023
 4377.00    0.97465   0.95236    0.023
 4378.00    0.93931   0.98497    0.023
 4379.00    0.93840   0.98170    0.023
 4380.00    0.96891   0.96606    0.024
 4381.00    1.00927   0.94978    0.024
 4382.00    0.84740   0.89886    0.023
 4383.00    0.63262   0.80351    0.023
 4384.00    0.61968   0.74728    0.023
 4385.00    0.64986   0.78687    0.023
 4386.00    0.85891   0.86838    0.023
 4387.00    1.09821   0.91368    0.023
 4388.00    1.05627   0.92011    0.023
 4389.00    0.97839   0.91698    0.023
 4390.00    0.74937   0.90754    0.023
 4391.00    0.50686   0.90845    0.023
 4392.00    0.63369   0.93256    0.023
 4393.00    0.78020   0.94402    0.023
 4394.00    0.65810   0.91941    0.023
 4395.00    0.53459   0.89941    0.023
 4396.00    0.72284   0.93079    0.023
 4397.00    0.90520   0.98045    0.023
 4398.00    0.95799   0.98903    0.023
 4399.00    0.99493   0.95720    0.023
 4400.00    0.83610   0.91460    0.023
 4401.00    0.70693   0.90987    0.023
 4402.00    0.82728   0.94708    0.023
 4403.00    0.92858   0.94711    0.023
 4404.00    0.91054   0.88324    0.023
 4405.00    0.86979   0.85024    0.023
 4406.00    0.71735   0.88902    0.023
 4407.00    0.70524   0.91646    0.023
 4408.00    1.25335   0.90598    0.023
 4409.00    1.57498   0.91850    0.024
 4410.00    1.14560   0.95887    0.023
 4411.00    0.85474   0.98650    0.023
 4412.00    0.95199   1.00211    0.023
 4413.00    1.06769   0.99779    0.023
 4414.00    1.22764   0.94547    0.024
 4415.00    1.29925   0.88599    0.024
 4416.00    1.18803   0.88054    0.024
 4417.00    0.98348   0.90559    0.024
 4418.00    0.61091   0.93552    0.024
 4419.00    0.58361   0.97672    0.024
 4420.00    1.09978   1.00146    0.024
 4421.00    1.33217   0.98360    0.024
 4422.00    1.17244   0.94197    0.024
 4423.00    1.02925   0.92925    0.023
 4424.00    0.90619   0.95155    0.023
 4425.00    0.84939   0.96521    0.023
 4426.00    0.86365   0.95816    0.023
 4427.00    0.94934   0.94953    0.023
 4428.00    1.10260   0.95982    0.024
 4429.00    1.05603   0.96495    0.024
 4430.00    0.84281   0.94232    0.024
 4431.00    0.63359   0.94042    0.023
 4432.00    0.42729   0.96152    0.024
 4433.00    0.52904   0.95164    0.024
 4434.00    0.82940   0.91032    0.024
 4435.00    0.81759   0.88039    0.024
 4436.00    0.62971   0.89801    0.024
 4437.00    0.64242   0.94986    0.024
 4438.00    0.75361   0.99438    0.024
 4439.00    0.71261   1.01426    0.024
 4440.00    0.60703   0.99995    0.024
 4441.00    0.67065   0.95619    0.023
 4442.00    0.79574   0.91035    0.023
 4443.00    0.85246   0.88628    0.023
 4444.00    0.88815   0.90590    0.024
 4445.00    0.91145   0.96065    0.024
 4446.00    0.93158   0.99234    0.024
 4447.00    0.89630   0.98346    0.024
 4448.00    0.84947   0.98024    0.024
 4449.00    0.87124   0.98157    0.024
 4450.00    0.90428   0.96219    0.023
 4451.00    0.87607   0.95735    0.023
 4452.00    0.84030   0.97141    0.023
 4453.00    0.96771   0.96181    0.023
 4454.00    1.10899   0.91737    0.023
 4455.00    0.90800   0.87742    0.023
 4456.00    0.69012   0.88569    0.023
 4457.00    0.59333   0.90921    0.022
 4458.00    0.50232   0.90916    0.022
 4459.00    0.65221   0.89998    0.022
 4460.00    0.80224   0.89807    0.022
 4461.00    0.95510   0.88520    0.000
 4462.00    1.08705   0.88116    0.000
 4463.00    0.97326   0.91727    0.000
 4464.00    0.86015   0.94750    0.000
 4465.00    0.75250   0.94514    0.000
 4466.00    0.70467   0.93854    0.000
 4467.00    1.02089   0.93478    0.000
 4468.00    1.20246   0.92193    0.000
 4469.00    0.73812   0.90563    0.000
 4470.00    0.39256   0.90912    0.000
 4471.00    0.51088   0.93011    0.000
 4472.00    0.64390   0.95483    0.000
 4473.00    0.82473   0.97904    0.000
 4474.00    0.94447   0.99464    0.000
 4475.00    0.89616   0.99143    0.000
 4476.00    0.88140   0.99212    0.000
 4477.00    0.94571   1.01115    0.000
 4478.00    0.97938   1.01587    0.000
 4479.00    0.95064   0.98032    0.000
 4480.00    0.87109   0.91028    0.000
 4481.00    0.70147   0.84908    0.000
 4482.00    0.62801   0.85477    0.022
 4483.00    0.70367   0.91727    0.022
 4484.00    0.81656   0.97530    0.022
 4485.00    0.98013   1.00392    0.022
 4486.00    0.96430   1.01213    0.022
 4487.00    0.73338   0.99963    0.022
 4488.00    0.71406   0.96065    0.022
 4489.00    0.91847   0.92339    0.022
 4490.00    1.05064   0.91599    0.022
 4491.00    1.11544   0.93880    0.022
 4492.00    1.15844   0.96908    0.022
 4493.00    1.18352   0.97325    0.022
 4494.00    1.10793   0.94359    0.022
 4495.00    0.95951   0.92191    0.022
 4496.00    0.83202   0.92891    0.022
 4497.00    0.71782   0.95083    0.022
 4498.00    0.85148   0.97840    0.022
 4499.00    1.12280   0.99542    0.022
 4500.00    1.05793   0.98297    0.022
 4501.00    0.83066   0.95262    0.022
 4502.00    0.76554   0.95882    0.022
 4503.00    0.76807   1.00650    0.022
 4504.00    0.75551   1.03930    0.022
 4505.00    0.73757   1.03770    0.022
 4506.00    0.85588   1.01996    0.022
 4507.00    1.01528   0.99712    0.021
 4508.00    0.92971   0.98252    0.021
 4509.00    0.78278   0.98915    0.022
 4510.00    1.02793   1.00981    0.022
 4511.00    1.35278   1.01696    0.022
 4512.00    1.26248   1.00006    0.022
 4513.00    1.10597   0.98019    0.022
 4514.00    1.03256   0.96182    0.022
 4515.00    0.96904   0.95206    0.022
 4516.00    0.92054   0.96251    0.021
 4517.00    0.87327   0.96892    0.021
 4518.00    0.98942   0.96259    0.021
 4519.00    1.11300   0.96582    0.021
 4520.00    0.76744   0.97806    0.021
 4521.00    0.42896   0.98426    0.021
 4522.00    0.74642   0.96266    0.021
 4523.00    1.04714   0.93764    0.022
 4524.00    1.03364   0.94113    0.021
 4525.00    1.00977   0.93843    0.021
 4526.00    0.86957   0.91793    0.021
 4527.00    0.74431   0.89516    0.021
 4528.00    0.73604   0.87582    0.021
 4529.00    0.74504   0.87185    0.021
 4530.00    0.85616   0.88679    0.021
 4531.00    0.94125   0.90669    0.021
 4532.00    0.90452   0.92452    0.022
 4533.00    0.85494   0.91055    0.022
 4534.00    0.75624   0.87399    0.022
 4535.00    0.70036   0.86615    0.021
 4536.00    0.78102   0.90903    0.021
 4537.00    0.82457   0.97282    0.021
 4538.00    0.76778   0.99816    0.021
 4539.00    0.74566   0.97998    0.021
 4540.00    0.80384   0.94965    0.021
 4541.00    0.85911   0.93491    0.021
 4542.00    0.90855   0.95154    0.021
 4543.00    0.87098   0.97165    0.021
 4544.00    0.68152   0.95970    0.021
 4545.00    0.60069   0.93916    0.021
 4546.00    0.68589   0.94236    0.021
 4547.00    0.81883   0.94982    0.021
 4548.00    1.01585   0.92963    0.021
 4549.00    1.16098   0.88498    0.021
 4550.00    1.24476   0.88136    0.000
 4551.00    1.15140   0.92653    0.000
 4552.00    0.87341   0.94489    0.000
 4553.00    0.72004   0.92877    0.000
 4554.00    0.68126   0.90322    0.000
 4555.00    0.74532   0.88557    0.000
 4556.00    0.89272   0.90382    0.000
 4557.00    0.98266   0.94691    0.000
 4558.00    1.03162   0.96731    0.000
 4559.00    0.94897   0.96995    0.000
 4560.00    0.78394   0.97871    0.000
 4561.00    0.78951   0.98856    0.000
 4562.00    0.88839   0.98579    0.000
 4563.00    0.96080   0.95261    0.000
 4564.00    1.02061   0.91429    0.000
 4565.00    0.97670   0.90852    0.000
 4566.00    0.89024   0.93410    0.000
 4567.00    0.69739   0.97343    0.000
 4568.00    0.46725   0.99632    0.000
 4569.00    0.55595   0.99342    0.000
 4570.00    0.73887   0.97299    0.000
 4571.00    0.72353   0.93121    0.000
 4572.00    0.65963   0.91501    0.000
 4573.00    0.59182   0.95320    0.000
 4574.00    0.52325   0.98193    0.000
 4575.00    0.50774   0.97554    0.000
 4576.00    0.50043   0.96824    0.000
 4577.00    0.67652   0.96996    0.000
 4578.00    0.87360   0.96320    0.000
 4579.00    1.05299   0.93760    0.000
 4580.00    1.23101   0.91162    0.000
 4581.00    1.06008   0.90606    0.000
 4582.00    0.87462   0.91517    0.000
 4583.00    0.85807   0.91276    0.000
 4584.00    0.84739   0.90625    0.000
 4585.00    1.02564   0.91359    0.000
 4586.00    1.17489   0.92423    0.000
 4587.00    0.81730   0.93612    0.000
 4588.00    0.51730   0.94912    0.000
 4589.00    0.83351   0.95954    0.000
 4590.00    1.08928   0.95900    0.000
 4591.00    0.88822   0.94050    0.000
 4592.00    0.74163   0.92122    0.000
 4593.00    0.90812   0.92186    0.000
 4594.00    1.00231   0.93023    0.000
 4595.00    0.76613   0.92645    0.000
 4596.00    0.61369   0.92468    0.000
 4597.00    0.77449   0.93115    0.000
 4598.00    0.95281   0.93862    0.000
 4599.00    1.18588   0.94490    0.000
 4600.00    1.28403   0.93344    0.000
 4601.00    1.02403   0.92403    0.000
 4602.00    0.86513   0.93268    0.000
 4603.00    0.93660   0.94022    0.000
 4604.00    0.93155   0.94040    0.000
 4605.00    0.77553   0.93334    0.000
 4606.00    0.68813   0.93663    0.000
 4607.00    0.71872   0.95641    0.000
 4608.00    0.78487   0.98253    0.000
 4609.00    0.90457   0.99981    0.000
 4610.00    0.93731   0.99475    0.000
 4611.00    0.85495   0.97385    0.000
 4612.00    0.72529   0.96026    0.000
 4613.00    0.54049   0.95459    0.000
 4614.00    0.53236   0.95892    0.000
 4615.00    0.70581   0.96812    0.000
 4616.00    0.81179   0.96228    0.000
 4617.00    0.85660   0.96271    0.000
 4618.00    0.85682   0.95942    0.000
 4619.00    0.82140   0.93936    0.000
 4620.00    0.77302   0.94206    0.000
 4621.00    0.71553   0.96574    0.000
 4622.00    0.73750   0.97286    0.000
 4623.00    0.80846   0.97244    0.000
 4624.00    0.85698   0.97463    0.000
 4625.00    0.89343   0.96554    0.000
 4626.00    0.94648   0.95740    0.000
 4627.00    1.00730   0.96116    0.000
 4628.00    1.00881   0.95597    0.000
 4629.00    0.98639   0.93709    0.000
 4630.00    0.93510   0.94203    0.000
 4631.00    0.87387   0.96971    0.000
 4632.00    0.90650   0.97240    0.000
 4633.00    0.96631   0.94615    0.000
 4634.00    0.92143   0.92708    0.000
 4635.00    0.85147   0.93042    0.000
 4636.00    0.87320   0.93787    0.000
 4637.00    0.91263   0.92990    0.000
 4638.00    0.91214   0.91966    0.000
 4639.00    0.90566   0.91662    0.000
 4640.00    0.86029   0.91590    0.000
 4641.00    0.81063   0.93294    0.000
 4642.00    0.97286   0.95127    0.000
 4643.00    1.15049   0.94602    0.000
 4644.00    1.05639   0.93415    0.000
 4645.00    0.95202   0.91885    0.000
 4646.00    1.09346   0.88732    0.000
 4647.00    1.23031   0.86840    0.000
 4648.00    1.15050   0.87750    0.000
 4649.00    1.06823   0.90025    0.000
 4650.00    0.94591   0.92479    0.000
 4651.00    0.83258   0.93851    0.000
 4652.00    0.81136   0.94501    0.000
 4653.00    0.77475   0.94591    0.000
 4654.00    0.62575   0.92660    0.000
 4655.00    0.50923   0.90410    0.000
 4656.00    0.57429   0.89835    0.000
 4657.00    0.64419   0.91133    0.000
 4658.00    0.73567   0.94615    0.000
 4659.00    0.81546   0.98007    0.000
 4660.00    0.85239   0.99018    0.000
 4661.00    0.87866   0.97345    0.000
 4662.00    0.87225   0.94521    0.000
 4663.00    0.85441   0.92033    0.000
 4664.00    0.80672   0.91395    0.000
 4665.00    0.80899   0.91296    0.000
 4666.00    0.92324   0.87920    0.000
 4667.00    0.94247   0.83289    0.000
 4668.00    0.77718   0.82858    0.000
 4669.00    0.73634   0.86166    0.000
 4670.00    0.90628   0.89816    0.000
 4671.00    1.05355   0.92524    0.000
 4672.00    1.16718   0.93079    0.000
 4673.00    1.01803   0.92033    0.000
 4674.00    0.52614   0.91715    0.000
 4675.00    0.44430   0.92934    0.000
 4676.00    0.83359   0.94866    0.000
 4677.00    0.98202   0.95143    0.000
 4678.00    0.88639   0.93001    0.000
 4679.00    0.86221   0.90801    0.000
 4680.00    0.90191   0.89806    0.000
 4681.00    0.98521   0.89377    0.000
 4682.00    1.10285   0.90065    0.000
 4683.00    1.13034   0.91909    0.000
 4684.00    1.09538   0.93106    0.000
 4685.00    1.04546   0.93243    0.000
 4686.00    0.98644   0.92973    0.000
 4687.00    0.92063   0.92185    0.000
 4688.00    0.85122   0.91694    0.000
 4689.00    0.93147   0.91981    0.000
 4690.00    1.08060   0.91788    0.000
 4691.00    0.90486   0.90988    0.000
 4692.00    0.60041   0.91095    0.000
 4693.00    0.65194   0.91897    0.000
 4694.00    0.82367   0.92805    0.000
 4695.00    0.84694   0.94201    0.000
 4696.00    0.82808   0.95158    0.000
 4697.00    0.91469   0.93791    0.000
 4698.00    1.02599   0.90391    0.000
 4699.00    1.11329   0.88536    0.000
 4700.00    1.19608   0.89263    0.000
 4701.00    0.93451   0.89518    0.000
 4702.00    0.62285   0.88054    0.000
 4703.00    0.87150   0.86897    0.000
 4704.00    1.17939   0.88575    0.000
 4705.00    0.90021   0.91032    0.000
 4706.00    0.58070   0.90988    0.000
 4707.00    0.82834   0.88996    0.000
 4708.00    1.09528   0.87635    0.000
 4709.00    0.88671   0.87585    0.000
 4710.00    0.68258   0.89249    0.000
 4711.00    0.64635   0.92032    0.000
 4712.00    0.61418   0.92986    0.000
 4713.00    0.64407   0.91447    0.000
 4714.00    0.69890   0.89051    0.000
 4715.00    0.99826   0.88731    0.000
 4716.00    1.24709   0.91434    0.000
 4717.00    1.13872   0.93675    0.000
 4718.00    1.03890   0.94057    0.000
 4719.00    0.98562   0.94687    0.000
 4720.00    0.94251   0.95576    0.000
 4721.00    0.94375   0.95174    0.000
 4722.00    0.97030   0.93860    0.000
 4723.00    1.08765   0.93605    0.000
 4724.00    1.16158   0.94936    0.000
 4725.00    1.10478   0.95947    0.000
 4726.00    1.06763   0.94554    0.000
 4727.00    1.08086   0.90569    0.000
 4728.00    1.08700   0.87243    0.000
 4729.00    1.07752   0.86838    0.000
 4730.00    0.99290   0.87346    0.000
 4731.00    0.76462   0.87720    0.000
 4732.00    0.63099   0.89254    0.000
 4733.00    0.65525   0.90956    0.000
 4734.00    0.69050   0.91998    0.000
 4735.00    0.74185   0.92538    0.000
 4736.00    0.81217   0.90726    0.000
 4737.00    0.90687   0.89301    0.000
 4738.00    0.87029   0.91445    0.000
 4739.00    0.68498   0.93231    0.000
 4740.00    0.68469   0.92375    0.000
 4741.00    0.86925   0.91258    0.000
 4742.00    0.92739   0.91739    0.000
 4743.00    0.87414   0.93076    0.000
 4744.00    0.86706   0.93061    0.000
 4745.00    0.89584   0.92318    0.000
 4746.00    0.92105   0.93132    0.000
 4747.00    0.94381   0.94058    0.000
 4748.00    0.94613   0.93596    0.000
 4749.00    0.93624   0.93351    0.000
 4750.00    0.93235   0.93902    0.000
 4751.00    0.93160   0.93732    0.000
 4752.00    0.90811   0.92380    0.000
 4753.00    0.87434   0.91257    0.000
 4754.00    0.90870   0.90458    0.000
 4755.00    0.96959   0.90001    0.000
 4756.00    1.02556   0.89704    0.000
 4757.00    1.07989   0.89959    0.000
 4758.00    1.03112   0.91037    0.000
 4759.00    0.95368   0.92100    0.000
 4760.00    0.93775   0.92502    0.000
 4761.00    0.93590   0.91019    0.018
 4762.00    0.97685   0.88203    0.018
 4763.00    1.02563   0.86789    0.018
 4764.00    0.91259   0.86253    0.018
 4765.00    0.77676   0.85435    0.018
 4766.00    0.90621   0.85445    0.018
 4767.00    1.06257   0.86813    0.019
 4768.00    1.09004   0.88815    0.019
 4769.00    1.10918   0.91015    0.018
 4770.00    0.98740   0.91891    0.018
 4771.00    0.86156   0.90329    0.018
 4772.00    0.83351   0.88870    0.018
 4773.00    0.80658   0.89767    0.018
 4774.00    0.81228   0.91963    0.018
 4775.00    0.81789   0.92896    0.018
 4776.00    0.82227   0.92485    0.018
 4777.00    0.84202   0.92842    0.018
 4778.00    1.00647   0.92989    0.018
 4779.00    1.14402   0.91805    0.018
 4780.00    1.09740   0.91055    0.018
 4781.00    1.03914   0.91310    0.018
 4782.00    0.91930   0.90702    0.017
 4783.00    0.80907   0.88982    0.017
 4784.00    0.73977   0.88969    0.017
 4785.00    0.72086   0.89717    0.017
 4786.00    0.87904   0.88388    0.017
 4787.00    1.02147   0.87950    0.017
 4788.00    1.11738   0.89004    0.017
 4789.00    1.16006   0.88723    0.017
 4790.00    1.06873   0.88585    0.017
 4791.00    0.97262   0.89466    0.017
 4792.00    0.86618   0.90305    0.017
 4793.00    0.79129   0.91977    0.017
 4794.00    0.77582   0.94142    0.017
 4795.00    0.83957   0.94984    0.017
 4796.00    1.03354   0.94103    0.017
 4797.00    1.07129   0.92422    0.017
 4798.00    0.88396   0.90407    0.018
 4799.00    0.77087   0.88593    0.018
 4800.00    0.75187   0.88219    0.018
 4801.00    0.80077   0.90052    0.018
 4802.00    0.92551   0.92475    0.018
 4803.00    0.98760   0.92975    0.018
 4804.00    0.98796   0.91253    0.018
 4805.00    0.96948   0.89045    0.018
 4806.00    0.93464   0.88757    0.018
 4807.00    0.93231   0.88969    0.018
 4808.00    0.95486   0.88570    0.018
 4809.00    0.93268   0.88823    0.018
 4810.00    0.88042   0.89700    0.018
 4811.00    0.84691   0.89898    0.018
 4812.00    0.82446   0.89598    0.018
 4813.00    0.75797   0.89751    0.018
 4814.00    0.66885   0.90158    0.018
 4815.00    0.72028   0.90613    0.018
 4816.00    0.83429   0.91235    0.018
 4817.00    0.92180   0.91865    0.018
 4818.00    0.99917   0.92371    0.018
 4819.00    1.01174   0.92642    0.018
 4820.00    1.00325   0.92251    0.018
 4821.00    1.00656   0.91642    0.018
 4822.00    1.01308   0.89912    0.018
 4823.00    0.90448   0.85959    0.018
 4824.00    0.77015   0.84075    0.018
 4825.00    0.81152   0.86617    0.018
 4826.00    0.88421   0.89214    0.018
 4827.00    0.80687   0.89489    0.018
 4828.00    0.70909   0.88377    0.018
 4829.00    0.76935   0.87575    0.018
 4830.00    0.84496   0.87939    0.018
 4831.00    0.77359   0.87279    0.018
 4832.00    0.69330   0.85699    0.018
 4833.00    0.79948   0.86131    0.018
 4834.00    0.90954   0.87684    0.018
 4835.00    0.82813   0.87906    0.018
 4836.00    0.75119   0.87255    0.018
 4837.00    0.79074   0.87019    0.018
 4838.00    0.82140   0.86394    0.019
 4839.00    0.73068   0.84452    0.018
 4840.00    0.66205   0.82931    0.018
 4841.00    0.79312   0.83370    0.018
 4842.00    0.90752   0.83754    0.018
 4843.00    0.91125   0.82829    0.018
 4844.00    0.91435   0.82918    0.018
 4845.00    0.91423   0.84373    0.018
 4846.00    0.90206   0.84570    0.018
 4847.00    0.83969   0.82492    0.018
 4848.00    0.77830   0.79313    0.000
 4849.00    0.72027   0.77996    0.000
 4850.00    0.68812   0.79199    0.000
 4851.00    0.73104   0.79424    0.000
 4852.00    0.77780   0.77950    0.000
 4853.00    0.83406   0.76448    0.000
 4854.00    0.84998   0.73312    0.000
 4855.00    0.77983   0.68488    0.000
 4856.00    0.70900   0.66546    0.000
 4857.00    0.63690   0.67413    0.000
 4858.00    0.64431   0.65976    0.000
 4859.00    0.78042   0.60608    0.000
 4860.00    0.88572   0.52444    0.000
 4861.00    0.94727   0.45735    0.000
 4862.00    1.03273   0.47525    0.000
 4863.00    1.14806   0.55313    0.000
 4864.00    1.15820   0.60754    0.000
 4865.00    1.05250   0.64352    0.000
 4866.00    0.99072   0.68069    0.000
 4867.00    0.97161   0.70601    0.000
 4868.00    0.88342   0.72099    0.000
 4869.00    0.73607   0.73577    0.000
 4870.00    0.67472   0.72798    0.000
 4871.00    0.67822   0.69648    0.000
 4872.00    0.70090   0.69543    0.000
 4873.00    0.73629   0.73657    0.000
 4874.00    0.79557   0.77059    0.000
 4875.00    0.86874   0.77860    0.018
 4876.00    0.85895   0.78526    0.018
 4877.00    0.80720   0.79981    0.018
 4878.00    0.78793   0.81488    0.018
 4879.00    0.78287   0.84057    0.018
 4880.00    0.70789   0.85209    0.018
 4881.00    0.60663   0.83293    0.018
 4882.00    0.76604   0.82129    0.018
 4883.00    1.00859   0.82924    0.018
 4884.00    0.95582   0.82793    0.018
 4885.00    0.82433   0.81130    0.018
 4886.00    0.77898   0.80265    0.018
 4887.00    0.75242   0.81185    0.018
 4888.00    0.81394   0.82523    0.018
 4889.00    0.89073   0.82498    0.018
 4890.00    0.90865   0.79958    0.018
 4891.00    0.91882   0.77090    0.017
 4892.00    0.86438   0.79697    0.017
 4893.00    0.80393   0.85362    0.017
 4894.00    0.86878   0.89018    0.017
 4895.00    0.94074   0.91099    0.017
 4896.00    0.77718   0.91631    0.017
 4897.00    0.61076   0.91161    0.017
 4898.00    0.71961   0.90512    0.018
 4899.00    0.83711   0.88558    0.018
 4900.00    1.15990   0.86702    0.018
 4901.00    1.44475   0.87264    0.018
 4902.00    1.23895   0.87623    0.018
 4903.00    1.04369   0.86244    0.017
 4904.00    0.94004   0.86078    0.017
 4905.00    0.85417   0.88428    0.017
 4906.00    0.88262   0.90697    0.017
 4907.00    0.90138   0.90539    0.017
 4908.00    0.87145   0.88309    0.017
 4909.00    0.85951   0.85443    0.017
 4910.00    0.92079   0.83052    0.017
 4911.00    0.98330   0.82878    0.017
 4912.00    1.04998   0.85110    0.017
 4913.00    1.07291   0.86990    0.017
 4914.00    0.97124   0.88203    0.017
 4915.00    0.90193   0.89756    0.017
 4916.00    0.91132   0.90153    0.017
 4917.00    0.91294   0.88000    0.017
 4918.00    0.89828   0.83063    0.017
 4919.00    0.90589   0.77802    0.017
 4920.00    0.95413   0.75364    0.017
 4921.00    0.96269   0.77089    0.017
 4922.00    0.90798   0.81104    0.017
 4923.00    0.86829   0.82584    0.017
 4924.00    0.84962   0.81627    0.017
 4925.00    0.84377   0.82721    0.016
 4926.00    0.85370   0.86247    0.016
 4927.00    0.87002   0.88504    0.016
 4928.00    0.89329   0.89368    0.017
 4929.00    0.86339   0.90611    0.017
 4930.00    0.78256   0.91022    0.017
 4931.00    0.79186   0.90668    0.017
 4932.00    0.87725   0.89049    0.017
 4933.00    0.89856   0.84983    0.017
 4934.00    0.87222   0.82824    0.017
 4935.00    0.87380   0.85256    0.017
 4936.00    0.89362   0.86964    0.017
 4937.00    0.90518   0.84660    0.017
 4938.00    0.91201   0.81010    0.017
 4939.00    0.84900   0.79889    0.017
 4940.00    0.75122   0.83131    0.000
 4941.00    0.76572   0.87504    0.000
 4942.00    0.82857   0.89069    0.000
 4943.00    0.91956   0.89723    0.000
 4944.00    1.02093   0.90312    0.000
 4945.00    0.98899   0.89063    0.000
 4946.00    0.91535   0.87925    0.000
 4947.00    0.93162   0.88718    0.000
 4948.00    0.97136   0.89893    0.000
 4949.00    0.95580   0.90145    0.000
 4950.00    0.92846   0.90309    0.000
 4951.00    0.93608   0.90746    0.000
 4952.00    0.94959   0.89864    0.000
 4953.00    0.77371   0.88400    0.000
 4954.00    0.57374   0.88189    0.000
 4955.00    0.77515   0.88011    0.000
 4956.00    1.01216   0.84683    0.000
 4957.00    0.93096   0.77845    0.000
 4958.00    0.83296   0.76279    0.000
 4959.00    0.89991   0.82974    0.000
 4960.00    0.96949   0.88465    0.000
 4961.00    0.99872   0.89060    0.000
 4962.00    1.02153   0.88428    0.000
 4963.00    0.90496   0.88699    0.000
 4964.00    0.80362   0.88174    0.000
 4965.00    0.88943   0.85559    0.000
 4966.00    0.95815   0.83788    0.000
 4967.00    0.88372   0.83949    0.000
 4968.00    0.83030   0.84102    0.000
 4969.00    0.90802   0.84485    0.000
 4970.00    0.96013   0.85175    0.000
 4971.00    0.88668   0.86115    0.000
 4972.00    0.83925   0.87363    0.000
 4973.00    0.89544   0.88107    0.000
 4974.00    0.92250   0.88802    0.000
 4975.00    0.85321   0.88823    0.000
 4976.00    0.80941   0.87933    0.000
 4977.00    0.83684   0.86875    0.000
 4978.00    0.86828   0.85204    0.000
 4979.00    0.90930   0.84155    0.000
 4980.00    0.95044   0.83965    0.000
 4981.00    0.99184   0.82117    0.000
 4982.00    1.02860   0.78107    0.000
 4983.00    1.05701   0.75654    0.000
 4984.00    1.01699   0.76730    0.000
 4985.00    0.86947   0.79063    0.000
 4986.00    0.79116   0.81746    0.000
 4987.00    0.80832   0.84865    0.000
 4988.00    0.84393   0.86295    0.000
 4989.00    0.90196   0.85625    0.000
 4990.00    0.94081   0.84200    0.000
 4991.00    0.95915   0.83099    0.000
 4992.00    1.01770   0.83790    0.000
 4993.00    1.11422   0.84182    0.000
 4994.00    1.10481   0.83835    0.000
 4995.00    1.00722   0.85034    0.000
 4996.00    0.88496   0.86079    0.000
 4997.00    0.74462   0.86031    0.000
 4998.00    0.72956   0.85198    0.000
 4999.00    0.79513   0.82864    0.000
 5000.00    0.78256   0.80571    0.000
 5001.00    0.72601   0.79670    0.000
 5002.00    0.76405   0.79906    0.000
 5003.00    0.84843   0.81012    0.000
 5004.00    0.91625   0.81029    0.000
 5005.00    0.97707   0.78426    0.000
 5006.00    1.02991   0.75972    0.000
 5007.00    1.07987   0.77528    0.000
 5008.00    1.01411   0.81727    0.000
 5009.00    0.91286   0.84059    0.000
 5010.00    0.89098   0.83656    0.000
 5011.00    0.88936   0.81996    0.000
 5012.00    0.81084   0.79192    0.000
 5013.00    0.71635   0.76652    0.000
 5014.00    0.62974   0.75814    0.000
 5015.00    0.54442   0.77271    0.000
 5016.00    0.68076   0.79197    0.000
 5017.00    0.84430   0.78342    0.000
 5018.00    0.82402   0.76138    0.000
 5019.00    0.78821   0.76750    0.000
 5020.00    0.87408   0.79361    0.000
 5021.00    0.96590   0.80153    0.000
 5022.00    0.86942   0.79089    0.000
 5023.00    0.77081   0.79753    0.000
 5024.00    0.71925   0.82042    0.000
 5025.00    0.67965   0.83134    0.000
 5026.00    0.88005   0.82655    0.000
 5027.00    1.05359   0.80526    0.000
 5028.00    0.91347   0.79820    0.000
 5029.00    0.78042   0.81937    0.016
 5030.00    0.70449   0.83329    0.016
 5031.00    0.64408   0.83758    0.017
 5032.00    0.67781   0.85192    0.017
 5033.00    0.71099   0.86804    0.016
 5034.00    0.74159   0.86180    0.016
 5035.00    0.75376   0.82497    0.016
 5036.00    0.69415   0.79494    0.016
 5037.00    0.67970   0.80408    0.016
 5038.00    0.81171   0.81218    0.017
 5039.00    0.87907   0.78821    0.017
 5040.00    0.76895   0.74524    0.016
 5041.00    0.71289   0.71416    0.016
 5042.00    0.78397   0.74103    0.016
 5043.00    0.85260   0.80225    0.017
 5044.00    0.91624   0.83871    0.016
 5045.00    0.95537   0.85864    0.016
 5046.00    0.95110   0.87133    0.017
 5047.00    0.94036   0.85890    0.017
 5048.00    0.91960   0.82306    0.016
 5049.00    0.84714   0.79531    0.016
 5050.00    0.70439   0.79184    0.017
 5051.00    0.65092   0.79498    0.017
 5052.00    0.70432   0.79895    0.017
 5053.00    0.77783   0.81701    0.017
 5054.00    0.87257   0.83546    0.017
 5055.00    0.86257   0.83819    0.017
 5056.00    0.75507   0.83391    0.017
 5057.00    0.75686   0.83841    0.017
 5058.00    0.84832   0.84998    0.017
 5059.00    0.82939   0.85287    0.017
 5060.00    0.73071   0.85472    0.017
 5061.00    0.76199   0.86363    0.017
 5062.00    0.87566   0.86807    0.017
 5063.00    0.83769   0.85291    0.017
 5064.00    0.71567   0.81432    0.016
 5065.00    0.72875   0.78713    0.016
 5066.00    0.80699   0.79815    0.017
 5067.00    0.80324   0.81005    0.017
 5068.00    0.76537   0.80373    0.016
 5069.00    0.75034   0.80610    0.016
 5070.00    0.74346   0.82237    0.017
 5071.00    0.76526   0.82092    0.016
 5072.00    0.79568   0.80091    0.016
 5073.00    0.82738   0.80223    0.016
 5074.00    0.85939   0.81485    0.017
 5075.00    0.81260   0.81100    0.016
 5076.00    0.74983   0.80820    0.016
 5077.00    0.66208   0.81865    0.016
 5078.00    0.57037   0.81093    0.016
 5079.00    0.68995   0.76764    0.016
 5080.00    0.83452   0.73944    0.016
 5081.00    0.80379   0.75476    0.016
 5082.00    0.75897   0.77745    0.016
 5083.00    0.81246   0.78392    0.016
 5084.00    0.87037   0.79169    0.016
 5085.00    0.93738   0.80917    0.016
 5086.00    1.00200   0.81886    0.016
 5087.00    0.94245   0.81576    0.015
 5088.00    0.88062   0.81505    0.015
 5089.00    0.77626   0.82177    0.015
 5090.00    0.68723   0.82447    0.015
 5091.00    0.76894   0.82410    0.015
 5092.00    0.83949   0.83229    0.015
 5093.00    0.82309   0.84480    0.015
 5094.00    0.82022   0.84678    0.015
 5095.00    0.89707   0.83366    0.015
 5096.00    0.96421   0.81367    0.015
 5097.00    0.98606   0.79185    0.016
 5098.00    0.99840   0.76698    0.016
 5099.00    0.97450   0.75092    0.015
 5100.00    0.95403   0.76530    0.015
 5101.00    0.94452   0.79707    0.015
 5102.00    0.92361   0.81624    0.015
 5103.00    0.87195   0.81492    0.015
 5104.00    0.84678   0.80701    0.015
 5105.00    0.88286   0.80464    0.015
 5106.00    0.87100   0.79872    0.016
 5107.00    0.76321   0.78259    0.015
 5108.00    0.70528   0.77642    0.015
 5109.00    0.73426   0.77919    0.015
 5110.00    0.73565   0.77631    0.015
 5111.00    0.69498   0.78827    0.016
 5112.00    0.68296   0.80833    0.016
 5113.00    0.70932   0.81441    0.016
 5114.00    0.68374   0.81714    0.016
 5115.00    0.59686   0.81998    0.016
 5116.00    0.59223   0.82478    0.016
 5117.00    0.67316   0.83634    0.016
 5118.00    0.70502   0.84184    0.017
 5119.00    0.69182   0.83516    0.017
 5120.00    0.76133   0.82220    0.017
 5121.00    0.89774   0.80771    0.016
 5122.00    0.92984   0.79250    0.016
 5123.00    0.88767   0.77035    0.016
 5124.00    0.82197   0.75410    0.016
 5125.00    0.74156   0.75882    0.016
 5126.00    0.78709   0.76916    0.016
 5127.00    0.90136   0.77081    0.016
 5128.00    0.80634   0.76685    0.016
 5129.00    0.61203   0.76326    0.016
 5130.00    0.62702   0.76892    0.016
 5131.00    0.72766   0.78440    0.016
 5132.00    0.74235   0.79257    0.017
 5133.00    0.72698   0.78992    0.017
 5134.00    0.67245   0.79440    0.017
 5135.00    0.60637   0.81145    0.016
 5136.00    0.53561   0.80882    0.016
 5137.00    0.46372   0.78706    0.016
 5138.00    0.52170   0.76807    0.016
 5139.00    0.60534   0.75296    0.016
 5140.00    0.60890   0.76563    0.016
 5141.00    0.60010   0.78427    0.016
 5142.00    0.59383   0.76536    0.016
 5143.00    0.58786   0.75395    0.016
 5144.00    0.66739   0.77384    0.016
 5145.00    0.75345   0.77890    0.016
 5146.00    0.65666   0.76643    0.016
 5147.00    0.55235   0.75748    0.016
 5148.00    0.54812   0.75893    0.016
 5149.00    0.54462   0.77274    0.016
 5150.00    0.53689   0.77741    0.016
 5151.00    0.53317   0.76625    0.015
 5152.00    0.59880   0.75735    0.015
 5153.00    0.66608   0.75230    0.016
 5154.00    0.75101   0.75135    0.016
 5155.00    0.81595   0.76578    0.016
 5156.00    0.73042   0.78793    0.016
 5157.00    0.66330   0.80703    0.016
 5158.00    0.70158   0.81609    0.015
 5159.00    0.73286   0.81284    0.015
 5160.00    0.73223   0.81139    0.015
 5161.00    0.74238   0.80666    0.015
 5162.00    0.79277   0.79012    0.015
 5163.00    0.82679   0.78327    0.016
 5164.00    0.80976   0.77844    0.015
 5165.00    0.78930   0.74506    0.015
 5166.00    0.75979   0.68417    0.015
 5167.00    0.73700   0.62383    0.016
 5168.00    0.72952   0.60767    0.016
 5169.00    0.67834   0.64883    0.015
 5170.00    0.54112   0.69829    0.015
 5171.00    0.48067   0.68426    0.015
 5172.00    0.55197   0.62061    0.015
 5173.00    0.59582   0.60995    0.015
 5174.00    0.59840   0.68094    0.015
 5175.00    0.57139   0.75208    0.015
 5176.00    0.50531   0.77294    0.015
 5177.00    0.50139   0.77621    0.015
 5178.00    0.56979   0.78365    0.015
 5179.00    0.65124   0.78234    0.015
 5180.00    0.74608   0.77090    0.015
 5181.00    0.88200   0.74985    0.015
 5182.00    1.05511   0.69611    0.015
 5183.00    1.04011   0.61800    0.015
 5184.00    0.87509   0.59946    0.015
 5185.00    0.75398   0.66852    0.015
 5186.00    0.66367   0.74358    0.015
 5187.00    0.74179   0.77270    0.015
 5188.00    0.92354   0.76888    0.015
 5189.00    0.89573   0.77432    0.015
 5190.00    0.75529   0.78833    0.000
 5191.00    0.70498   0.75952    0.000
 5192.00    0.69675   0.71596    0.000
 5193.00    0.77814   0.72108    0.000
 5194.00    0.89558   0.74677    0.000
 5195.00    0.86206   0.74842    0.000
 5196.00    0.77672   0.74872    0.000
 5197.00    0.82202   0.76110    0.000
 5198.00    0.90505   0.77365    0.000
 5199.00    0.91503   0.78683    0.000
 5200.00    0.90757   0.79628    0.000
 5201.00    0.82657   0.79475    0.000
 5202.00    0.73141   0.78603    0.000
 5203.00    0.73141   0.77464    0.000
 5204.00    0.74563   0.74792    0.000
 5205.00    0.69037   0.71234    0.000
 5206.00    0.62750   0.70229    0.000
 5207.00    0.62987   0.70990    0.000
 5208.00    0.63696   0.70141    0.000
 5209.00    0.65568   0.70297    0.000
 5210.00    0.67484   0.72870    0.000
 5211.00    0.48354   0.75810    0.016
 5212.00    0.30337   0.78738    0.016
 5213.00    0.56411   0.80535    0.016
 5214.00    0.80624   0.79948    0.016
 5215.00    0.74674   0.77201    0.016
 5216.00    0.70345   0.75136    0.015
 5217.00    0.82502   0.75814    0.015
 5218.00    0.91862   0.78272    0.015
 5219.00    0.80860   0.80371    0.015
 5220.00    0.72279   0.81299    0.015
 5221.00    0.77193   0.81861    0.015
 5222.00    0.82345   0.81522    0.015
 5223.00    0.88554   0.79758    0.015
 5224.00    0.90493   0.76962    0.016
 5225.00    0.76838   0.73138    0.015
 5226.00    0.67149   0.68652    0.015
 5227.00    0.69600   0.67062    0.015
 5228.00    0.71552   0.71469    0.015
 5229.00    0.72202   0.76975    0.015
 5230.00    0.71613   0.79331    0.015
 5231.00    0.68251   0.79973    0.015
 5232.00    0.68750   0.78014    0.015
 5233.00    0.76732   0.74724    0.015
 5234.00    0.79507   0.73914    0.015
 5235.00    0.73483   0.75484    0.015
 5236.00    0.71010   0.78177    0.015
 5237.00    0.73800   0.80257    0.015
 5238.00    0.74564   0.80945    0.015
 5239.00    0.72692   0.80812    0.015
 5240.00    0.73476   0.80673    0.015
 5241.00    0.77307   0.80945    0.015
 5242.00    0.79472   0.80737    0.015
 5243.00    0.79950   0.80312    0.015
 5244.00    0.82896   0.81372    0.015
 5245.00    0.88044   0.82301    0.015
 5246.00    0.84989   0.79834    0.015
 5247.00    0.75487   0.76300    0.015
 5248.00    0.73828   0.76200    0.015
 5249.00    0.77593   0.77121    0.015
 5250.00    0.77158   0.75807    0.015
 5251.00    0.74177   0.75438    0.015
 5252.00    0.66415   0.77258    0.015
 5253.00    0.56123   0.78376    0.015
 5254.00    0.56685   0.77383    0.015
 5255.00    0.62232   0.76037    0.015
 5256.00    0.68788   0.77638    0.015
 5257.00    0.75744   0.80844    0.015
 5258.00    0.85355   0.82719    0.016
 5259.00    0.95861   0.82640    0.016
 5260.00    0.90191   0.80931    0.016
 5261.00    0.79942   0.78159    0.016
 5262.00    0.72247   0.74652    0.016
 5263.00    0.65150   0.71313    0.016
 5264.00    0.73945   0.68785    0.016
 5265.00    0.85720   0.67136    0.016
 5266.00    0.68967   0.67386    0.016
 5267.00    0.48082   0.70882    0.016
 5268.00    0.47787   0.72116    0.016
 5269.00    0.49659   0.66930    0.016
 5270.00    0.52598   0.63858    0.016
 5271.00    0.55610   0.68738    0.016
 5272.00    0.54694   0.74384    0.016
 5273.00    0.53647   0.75669    0.016
 5274.00    0.54865   0.74829    0.016
 5275.00    0.56078   0.73188    0.016
 5276.00    0.57023   0.73778    0.016
 5277.00    0.58381   0.78029    0.016
 5278.00    0.66044   0.81303    0.016
 5279.00    0.72951   0.81173    0.016
 5280.00    0.72490   0.79223    0.015
 5281.00    0.72429   0.77323    0.015
 5282.00    0.75189   0.76018    0.015
 5283.00    0.77971   0.74466    0.015
 5284.00    0.80879   0.74142    0.015
 5285.00    0.83439   0.77684    0.015
 5286.00    0.84487   0.82003    0.015
 5287.00    0.84271   0.83223    0.015
 5288.00    0.79534   0.82330    0.015
 5289.00    0.75924   0.82005    0.015
 5290.00    0.75702   0.82782    0.015
 5291.00    0.78400   0.83182    0.015
 5292.00    0.88565   0.82384    0.015
 5293.00    0.93914   0.81333    0.015
 5294.00    0.88668   0.81209    0.015
 5295.00    0.85976   0.80705    0.015
 5296.00    0.88156   0.78067    0.015
 5297.00    0.87521   0.73990    0.015
 5298.00    0.82199   0.72147    0.015
 5299.00    0.81381   0.74634    0.015
 5300.00    0.87135   0.77494    0.015
 5301.00    0.85381   0.77493    0.015
 5302.00    0.73989   0.77142    0.015
 5303.00    0.70483   0.78906    0.015
 5304.00    0.75894   0.81456    0.015
 5305.00    0.76859   0.82663    0.015
 5306.00    0.73390   0.81941    0.015
 5307.00    0.71482   0.80458    0.015
 5308.00    0.70946   0.80230    0.015
 5309.00    0.71608   0.81554    0.015
 5310.00    0.73198   0.82628    0.015
 5311.00    0.74084   0.82458    0.015
 5312.00    0.74489   0.81644    0.015
 5313.00    0.69082   0.80768    0.015
 5314.00    0.60203   0.80409    0.015
 5315.00    0.69784   0.79518    0.015
 5316.00    0.88981   0.77372    0.015
 5317.00    0.83609   0.76828    0.015
 5318.00    0.67137   0.78631    0.015
 5319.00    0.62215   0.79924    0.015
 5320.00    0.61780   0.79997    0.015
 5321.00    0.67674   0.79886    0.015
 5322.00    0.75660   0.79391    0.015
 5323.00    0.76135   0.77513    0.015
 5324.00    0.74527   0.75102    0.015
 5325.00    0.68538   0.75238    0.015
 5326.00    0.61551   0.75969    0.015
 5327.00    0.63230   0.72061    0.015
 5328.00    0.66491   0.65905    0.015
 5329.00    0.66701   0.66357    0.015
 5330.00    0.66482   0.72855    0.015
 5331.00    0.54667   0.77986    0.015
 5332.00    0.41682   0.78500    0.015
 5333.00    0.52049   0.77623    0.014
 5334.00    0.63915   0.78680    0.014
 5335.00    0.74487   0.80074    0.014
 5336.00    0.84992   0.79786    0.014
 5337.00    0.83896   0.78800    0.014
 5338.00    0.82886   0.78439    0.014
 5339.00    0.84324   0.76875    0.014
 5340.00    0.85095   0.73698    0.014
 5341.00    0.76288   0.73296    0.014
 5342.00    0.68533   0.76503    0.014
 5343.00    0.70637   0.78968    0.014
 5344.00    0.73247   0.79274    0.014
 5345.00    0.79315   0.78053    0.014
 5346.00    0.83675   0.77128    0.014
 5347.00    0.79014   0.77554    0.014
 5348.00    0.75144   0.77137    0.014
 5349.00    0.74635   0.76116    0.014
 5350.00    0.74119   0.76985    0.014
 5351.00    0.73576   0.79464    0.014
 5352.00    0.74807   0.80718    0.014
 5353.00    0.81266   0.80508    0.014
 5354.00    0.86237   0.81252    0.014
 5355.00    0.87467   0.82650    0.014
 5356.00    0.85385   0.83111    0.014
 5357.00    0.76134   0.82984    0.014
 5358.00    0.73736   0.82916    0.014
 5359.00    0.84209   0.82932    0.014
 5360.00    0.90519   0.82429    0.014
 5361.00    0.90000   0.80669    0.014
 5362.00    0.85481   0.78699    0.014
 5363.00    0.75208   0.78150    0.014
 5364.00    0.66401   0.77993    0.014
 5365.00    0.59448   0.77239    0.014
 5366.00    0.63053   0.77058    0.014
 5367.00    0.78431   0.77213    0.015
 5368.00    0.83173   0.77015   -2.000
 5369.00    0.77457   0.75452   -2.000
 5370.00    0.78398   0.72166   -2.000
 5371.00    0.85112   0.69984   -2.000
 5372.00    0.86849   0.71997   -2.000
 5373.00    0.84786   0.76694   -2.000
 5374.00    0.80157   0.79980   -2.000
 5375.00    0.73807   0.81292   -2.000
 5376.00    0.73392   0.80949   -2.000
 5377.00    0.76468   0.79961   -2.000
 5378.00    0.77810   0.80061   -2.000
 5379.00    0.78263   0.80209   -2.000
 5380.00    0.76388   0.79367   -2.000
 5381.00    0.73479   0.78468   -2.000
 5382.00    0.75319   0.77913   -2.000
 5383.00    0.78972   0.77239    0.014
 5384.00    0.79039   0.77852    0.014
 5385.00    0.77942   0.79400    0.014
 5386.00    0.80214   0.79789    0.014
 5387.00    0.83401   0.79368    0.014
 5388.00    0.84162   0.78814    0.014
 5389.00    0.84383   0.77689    0.014
 5390.00    0.83003   0.76430    0.014
 5391.00    0.81339   0.75966    0.014
 5392.00    0.78754   0.75783    0.014
 5393.00    0.76044   0.75629    0.014
 5394.00    0.80011   0.75711    0.014
 5395.00    0.84622   0.75587    0.014
 5396.00    0.78196   0.73491    0.014
 5397.00    0.71107   0.71032    0.014
 5398.00    0.69230   0.72563    0.014
 5399.00    0.67542   0.75814    0.013
 5400.00    0.74889   0.76500    0.014
 5401.00    0.81658   0.76447    0.014
 5402.00    0.73555   0.77095    0.014
 5403.00    0.66088   0.75803    0.014
 5404.00    0.67252   0.72130    0.013
 5405.00    0.68023   0.69026    0.013
 5406.00    0.65263   0.69110    0.013
 5407.00    0.64043   0.72099    0.013
 5408.00    0.73005   0.74239    0.014
 5409.00    0.79169   0.73260    0.014
 5410.00    0.70936   0.71809    0.014
 5411.00    0.64213   0.73424    0.014
 5412.00    0.63756   0.76515    0.014
 5413.00    0.64916   0.77749    0.014
 5414.00    0.71631   0.76906    0.014
 5415.00    0.77181   0.76514    0.014
 5416.00    0.79362   0.78043    0.014
 5417.00    0.82332   0.79585    0.014
 5418.00    0.87251   0.79467    0.014
 5419.00    0.88677   0.78342    0.014
 5420.00    0.82664   0.77153    0.014
 5421.00    0.78862   0.77097    0.014
 5422.00    0.79149   0.77970    0.014
 5423.00    0.79189   0.77002    0.014
 5424.00    0.78828   0.74776    0.014
 5425.00    0.80140   0.75316    0.014
 5426.00    0.83822   0.78197    0.014
 5427.00    0.88864   0.80003    0.014
 5428.00    0.95602   0.78046    0.014
 5429.00    0.94288   0.73231    0.014
 5430.00    0.84125   0.71831    0.014
 5431.00    0.78848   0.74791    0.014
 5432.00    0.78310   0.75861    0.014
 5433.00    0.77394   0.74075    0.014
 5434.00    0.76154   0.72459    0.014
 5435.00    0.71655   0.72320    0.014
 5436.00    0.64700   0.73653    0.013
 5437.00    0.66434   0.75778    0.013
 5438.00    0.73918   0.78284    0.013
 5439.00    0.74371   0.80009    0.013
 5440.00    0.70750   0.80577    0.013
 5441.00    0.71160   0.80561    0.013
 5442.00    0.73606   0.80472    0.013
 5443.00    0.74247   0.80332    0.013
 5444.00    0.74099   0.78931    0.013
 5445.00    0.67694   0.75755    0.013
 5446.00    0.58941   0.71783    0.013
 5447.00    0.59121   0.70401    0.013
 5448.00    0.62142   0.73476    0.013
 5449.00    0.67192   0.77047    0.013
 5450.00    0.72781   0.78402    0.013
 5451.00    0.76977   0.78364    0.013
 5452.00    0.80870   0.77868    0.013
 5453.00    0.81346   0.76997    0.013
 5454.00    0.81231   0.74583    0.013
 5455.00    0.77211   0.71095    0.013
 5456.00    0.72680   0.70801    0.013
 5457.00    0.66606   0.74484    0.013
 5458.00    0.60390   0.77750    0.014
 5459.00    0.67441   0.78598    0.013
 5460.00    0.75237   0.77797    0.013
 5461.00    0.74138   0.76436    0.013
 5462.00    0.72823   0.74604    0.013
 5463.00    0.69717   0.73000    0.013
 5464.00    0.66938   0.73935    0.013
 5465.00    0.71841   0.75983    0.013
 5466.00    0.76266   0.76270    0.014
 5467.00    0.74567   0.76204    0.014
 5468.00    0.72957   0.76989    0.013
 5469.00    0.72130   0.76995    0.014
 5470.00    0.71410   0.76010    0.014
 5471.00    0.71379   0.75698    0.014
 5472.00    0.70083   0.75650    0.014
 5473.00    0.62445   0.74539    0.014
 5474.00    0.56499   0.74008    0.014
 5475.00    0.57420   0.73492    0.014
 5476.00    0.58576   0.70515    0.014
 5477.00    0.60519   0.68897    0.014
 5478.00    0.61830   0.71834   -2.000
 5479.00    0.61347   0.75215   -2.000
 5480.00    0.60462   0.75043   -2.000
 5481.00    0.58601   0.72780   -2.000
 5482.00    0.61666   0.72427   -2.000
 5483.00    0.75050   0.74153   -2.000
 5484.00    0.73247   0.76228   -2.000
 5485.00    0.43786   0.77786   -2.000
 5486.00    0.27983   0.77158   -2.000
 5487.00    0.33920   0.74778   -2.000
 5488.00    0.31158   0.73887   -2.000
 5489.00    0.16244   0.75266   -2.000
 5490.00    0.20434   0.76056   -2.000
 5491.00    0.48111   0.76216   -2.000
 5492.00    0.72558   0.76406   -2.000
 5493.00    0.93506   0.75621   -2.000
 5494.00    0.97220   0.75264   -2.000
 5495.00    0.84461   0.76144   -2.000
 5496.00    0.75404   0.75906   -2.000
 5497.00    0.69467   0.74247   -2.000
 5498.00    0.70441   0.74516   -2.000
 5499.00    0.76546   0.76781   -2.000
 5500.00    0.77956   0.76860   -2.000
 5501.00    0.76307   0.74549   -2.000
 5502.00    0.76861   0.73207   -1.000
 5503.00    0.78673   0.73765   -1.000
 5504.00    0.77581   0.74772   -1.000
 5505.00    0.75046   0.74388   -1.000
 5506.00    0.70924   0.72536   -1.000
 5507.00    0.66120   0.72467   -1.000
 5508.00    0.61587   0.74440    0.035
 5509.00    0.57155   0.75305    0.015
 5510.00    0.62264   0.74786    0.013
 5511.00    0.70350   0.73730    0.013
 5512.00    0.72198   0.72282    0.013
 5513.00    0.72422   0.71666    0.013
 5514.00    0.70779   0.72306    0.013
 5515.00    0.68740   0.73459    0.013
 5516.00    0.68599   0.74387    0.013
 5517.00    0.68776   0.75228    0.013
 5518.00    0.67130   0.76703    0.013
 5519.00    0.65252   0.77571    0.013
 5520.00    0.71356   0.77227    0.013
 5521.00    0.78164   0.76681    0.013
 5522.00    0.75411   0.76596    0.013
 5523.00    0.72160   0.76712    0.013
 5524.00    0.69899   0.76452    0.013
 5525.00    0.67652   0.75562    0.013
 5526.00    0.65089   0.74362    0.013
 5527.00    0.62889   0.72430    0.013
 5528.00    0.68513   0.70593    0.013
 5529.00    0.73281   0.71606    0.013
 5530.00    0.67604   0.74424    0.013
 5531.00    0.63426   0.75872    0.013
 5532.00    0.71733   0.75707    0.013
 5533.00    0.78079   0.75089    0.013
 5534.00    0.72232   0.74150    0.012
 5535.00    0.68381   0.73331    0.013
 5536.00    0.74291   0.73996    0.030
 5537.00    0.78757   0.75059   -1.000
 5538.00    0.77488   0.75195   -1.000
 5539.00    0.75682   0.75754   -1.000
 5540.00    0.72102   0.76836   -1.000
 5541.00    0.69825   0.77298   -1.000
 5542.00    0.71180   0.76466   -1.000
 5543.00    0.70791   0.75089    0.082
 5544.00    0.66239   0.74669    0.019
 5545.00    0.64384   0.74970    0.012
 5546.00    0.68089   0.74928    0.012
 5547.00    0.68989   0.75445    0.013
 5548.00    0.64860   0.76662    0.013
 5549.00    0.64939   0.77378    0.013
 5550.00    0.71618   0.77550    0.013
 5551.00    0.74936   0.77532    0.013
 5552.00    0.73628   0.76949    0.013
 5553.00    0.72463   0.75778    0.013
 5554.00    0.71471   0.74798    0.013
 5555.00    0.70031   0.74924    0.013
 5556.00    0.68114   0.75574    0.013
 5557.00    0.68229   0.75546    0.013
 5558.00    0.70259   0.75257    0.013
 5559.00    0.71516   0.75476    0.013
 5560.00    0.72130   0.75593    0.013
 5561.00    0.69422   0.75254    0.013
 5562.00    0.64282   0.74372    0.013
 5563.00    0.65038   0.73617    0.013
 5564.00    0.69581   0.73857    0.013
 5565.00    0.70399   0.73782    0.013
 5566.00    0.69126   0.73122    0.013
 5567.00    0.64385   0.73158    0.013
 5568.00    0.57948   0.73361    0.013
 5569.00    0.57816   0.72766    0.012
 5570.00    0.60348   0.73032    0.012
 5571.00    0.61618   0.74300    0.013
 5572.00    0.62431   0.73389    0.013
 5573.00    0.61454   0.72125    0.013
 5574.00    0.59930   0.73516    0.012
 5575.00    0.65315   0.74665    0.012
 5576.00    0.72459   0.74362    0.012
 5577.00    0.76129   0.74634    0.012
 5578.00    0.79081   0.74942    0.012
 5579.00    0.76847   0.74990    0.012
 5580.00    0.73768   0.75388    0.012
 5581.00    0.68380   0.75122    0.012
 5582.00    0.62710   0.74404    0.012
 5583.00    0.61912   0.74497    0.012
 5584.00    0.61522   0.74536    0.012
 5585.00    0.62651   0.73309    0.012
 5586.00    0.63853   0.70811    0.012
 5587.00    0.65020   0.68418    0.012
 5588.00    0.66251   0.67667    0.013
 5589.00    0.71329   0.68340    0.012
 5590.00    0.76270   0.69990    0.012
 5591.00    0.78483   0.71711    0.013
 5592.00    0.79904   0.72263    0.013
 5593.00    0.72123   0.71851    0.013
 5594.00    0.65575   0.71224    0.013
 5595.00    0.68935   0.72350    0.013
 5596.00    0.71931   0.74746    0.013
 5597.00    0.72729   0.74640    0.013
 5598.00    0.73292   0.72325    0.013
 5599.00    0.72735   0.71357    0.013
 5600.00    0.72120   0.71418    0.013
 5601.00    0.71279   0.70586    0.013
 5602.00    0.71862   0.69635    0.013
 5603.00    0.77051   0.70097    0.013
 5604.00    0.78636   0.72546    0.013
 5605.00    0.70352   0.75085    0.013
 5606.00    0.64983   0.76335    0.013
 5607.00    0.66454   0.76589    0.013
 5608.00    0.67308   0.76356    0.013
 5609.00    0.66909   0.76034    0.013
 5610.00    0.66884   0.75838    0.013
 5611.00    0.67517   0.76160    0.013
 5612.00    0.66879   0.76642    0.012
 5613.00    0.64279   0.76280    0.012
 5614.00    0.65530   0.73413    0.012
 5615.00    0.72007   0.69046    0.012
 5616.00    0.75520   0.68294    0.012
 5617.00    0.75491   0.71257    0.012
 5618.00    0.72077   0.73124    0.012
 5619.00    0.65098   0.72870    0.012
 5620.00    0.61209   0.72680    0.012
 5621.00    0.60193   0.73574    0.012
 5622.00    0.62397   0.74483    0.012
 5623.00    0.67241   0.73463    0.012
 5624.00    0.68538   0.70752    0.013
 5625.00    0.67280   0.69643    0.013
 5626.00    0.69591   0.71228    0.013
 5627.00    0.74162   0.72789    0.013
 5628.00    0.76035   0.73470    0.013
 5629.00    0.76416   0.74502    0.013
 5630.00    0.72801   0.75329    0.012
 5631.00    0.67263   0.75485    0.012
 5632.00    0.65849   0.75221    0.012
 5633.00    0.66149   0.74636    0.012
 5634.00    0.68389   0.74022    0.012
 5635.00    0.71320   0.73518    0.012
 5636.00    0.70001   0.72745    0.012
 5637.00    0.67407   0.71864    0.012
 5638.00    0.66507   0.71871    0.012
 5639.00    0.66029   0.72745    0.012
 5640.00    0.69509   0.72776    0.012
 5641.00    0.73788   0.71742    0.012
 5642.00    0.71961   0.71645    0.012
 5643.00    0.69168   0.72346    0.012
 5644.00    0.70222   0.72699    0.013
 5645.00    0.71730   0.73019    0.013
 5646.00    0.70316   0.73376    0.012
 5647.00    0.68669   0.73754    0.012
 5648.00    0.70152   0.73801    0.012
 5649.00    0.71774   0.73252    0.012
 5650.00    0.70358   0.72906    0.012
 5651.00    0.68951   0.73542    0.012
 5652.00    0.69682   0.74502    0.012
 5653.00    0.70324   0.74535    0.012
 5654.00    0.69327   0.73183    0.012
 5655.00    0.68813   0.72157    0.012
 5656.00    0.73661   0.72702    0.012
 5657.00    0.78013   0.71704    0.012
 5658.00    0.78513   0.68368    0.012
 5659.00    0.78604   0.67775    0.012
 5660.00    0.76288   0.70612    0.012
 5661.00    0.73338   0.71795    0.012
 5662.00    0.67440   0.70500    0.012
 5663.00    0.62772   0.70238    0.011
 5664.00    0.62784   0.71944    0.011
 5665.00    0.63595   0.73472    0.011
 5666.00    0.66943   0.73417    0.012
 5667.00    0.68647   0.72331    0.012
 5668.00    0.65927   0.71775    0.012
 5669.00    0.64489   0.72039    0.012
 5670.00    0.66009   0.72471    0.012
 5671.00    0.68635   0.72906    0.012
 5672.00    0.73468   0.73913    0.012
 5673.00    0.75235   0.74994    0.012
 5674.00    0.71670   0.75013    0.012
 5675.00    0.68121   0.74273    0.012
 5676.00    0.64596   0.74315    0.013
 5677.00    0.62627   0.74835    0.013
 5678.00    0.62739   0.74456    0.013
 5679.00    0.66122   0.73778    0.013
 5680.00    0.73358   0.73699    0.013
 5681.00    0.76737   0.73351    0.013
 5682.00    0.76109   0.71841    0.012
 5683.00    0.74069   0.71004    0.012
 5684.00    0.70734   0.71799    0.012
 5685.00    0.63809   0.72624    0.012
 5686.00    0.53985   0.72141    0.012
 5687.00    0.52199   0.71018    0.012
 5688.00    0.56126   0.70620    0.012
 5689.00    0.61029   0.71416    0.012
 5690.00    0.66541   0.72749    0.012
 5691.00    0.71152   0.73656    0.012
 5692.00    0.75273   0.74382    0.012
 5693.00    0.78694   0.74605    0.012
 5694.00    0.81785   0.74092    0.012
 5695.00    0.79797   0.73735    0.012
 5696.00    0.75736   0.74018    0.012
 5697.00    0.73527   0.73804    0.012
 5698.00    0.71965   0.72540    0.012
 5699.00    0.67305   0.71911    0.012
 5700.00    0.61735   0.71635    0.012
 5701.00    0.63037   0.70643    0.012
 5702.00    0.66013   0.70234    0.012
 5703.00    0.63600   0.71193    0.012
 5704.00    0.60125   0.72244    0.012
 5705.00    0.58054   0.71954    0.012
 5706.00    0.56199   0.70638    0.012
 5707.00    0.57988   0.69547    0.012
 5708.00    0.60189   0.68567    0.012
 5709.00    0.63582   0.67660    0.012
 5710.00    0.67065   0.68074    0.012
 5711.00    0.73869   0.68560    0.012
 5712.00    0.80808   0.68890    0.012
 5713.00    0.79670   0.70766    0.012
 5714.00    0.78495   0.72493    0.013
 5715.00    0.78324   0.72961    0.013
 5716.00    0.77900   0.73283    0.013
 5717.00    0.73118   0.73304    0.013
 5718.00    0.68962   0.73170    0.013
 5719.00    0.71430   0.73597    0.012
 5720.00    0.73832   0.74027    0.012
 5721.00    0.75742   0.74354    0.012
 5722.00    0.76258   0.74891    0.012
 5723.00    0.68821   0.75173    0.012
 5724.00    0.63622   0.75019    0.012
 5725.00    0.68586   0.74677    0.012
 5726.00    0.72956   0.73672    0.012
 5727.00    0.75112   0.72418    0.012
 5728.00    0.75609   0.72612    0.012
 5729.00    0.70943   0.73812    0.012
 5730.00    0.67693   0.73855    0.012
 5731.00    0.68182   0.72529    0.012
 5732.00    0.68744   0.72106    0.012
 5733.00    0.69471   0.73291    0.012
 5734.00    0.69080   0.74370    0.012
 5735.00    0.66488   0.74671    0.012
 5736.00    0.64853   0.74318    0.011
 5737.00    0.64858   0.73790    0.011
 5738.00    0.66550   0.73553    0.011
 5739.00    0.70773   0.73537    0.011
 5740.00    0.73653   0.73564    0.000
 5741.00    0.74762   0.73514    0.000
 5742.00    0.76666   0.73209    0.000
 5743.00    0.79494   0.72972    0.000
 5744.00    0.80808   0.73472    0.000
 5745.00    0.80572   0.74399    0.000
 5746.00    0.75963   0.74606    0.000
 5747.00    0.67405   0.73286    0.000
 5748.00    0.62043   0.71837    0.000
 5749.00    0.59227   0.72374    0.000
 5750.00    0.62542   0.73880    0.000
 5751.00    0.70151   0.74092    0.000
 5752.00    0.75164   0.72583    0.000
 5753.00    0.78583   0.70534    0.000
 5754.00    0.81368   0.69654    0.000
 5755.00    0.83814   0.70965    0.000
 5756.00    0.80404   0.73125    0.000
 5757.00    0.74266   0.74290    0.000
 5758.00    0.72703   0.74486    0.000
 5759.00    0.72976   0.73848    0.000
 5760.00    0.75562   0.72634    0.000
 5761.00    0.78939   0.71194    0.000
 5762.00    0.77171   0.69870    0.000
 5763.00    0.73920   0.69847    0.000
 5764.00    0.77492   0.71885    0.000
 5765.00    0.82688   0.73777    0.000
 5766.00    0.81232   0.74305    0.000
 5767.00    0.78501   0.74348    0.000
 5768.00    0.80306   0.74213    0.000
 5769.00    0.82787   0.73903    0.000
 5770.00    0.87374   0.73690    0.000
 5771.00    0.92191   0.73350    0.000
 5772.00    0.89772   0.72803    0.000
 5773.00    0.86834   0.72665    0.000
 5774.00    0.83483   0.72517    0.000
 5775.00    0.80116   0.72360    0.000
 5776.00    0.82440   0.72835    0.000
 5777.00    0.84748   0.73383    0.000
 5778.00    0.85657   0.73354    0.000
 5779.00    0.86206   0.72536    0.000
 5780.00    0.80964   0.70563    0.000
 5781.00    0.76073   0.68230    0.000
 5782.00    0.74724   0.67756    0.000
 5783.00    0.73266   0.68661    0.000
 5784.00    0.71013   0.68672    0.000
 5785.00    0.68953   0.67929    0.000
 5786.00    0.67959   0.68636    0.000
 5787.00    0.68127   0.70516    0.000
 5788.00    0.73447   0.71683    0.000
 5789.00    0.78076   0.72201    0.000
 5790.00    0.80185   0.71621    0.000
 5791.00    0.81375   0.70664   -2.000
 5792.00    0.79762   0.71042   -2.000
 5793.00    0.77365   0.72067   -2.000
 5794.00    0.72935   0.72897   -2.000
 5795.00    0.67827   0.73560   -2.000
 5796.00    0.61207   0.73286   -2.000
 5797.00    0.58477   0.71797   -2.000
 5798.00    0.63272   0.70908   -2.000
 5799.00    0.65743   0.72085   -2.000
 5800.00    0.64290   0.73804   -2.000
 5801.00    0.63914   0.74520   -2.000
 5802.00    0.65129   0.74699   -2.000
 5803.00    0.68813   0.74075   -2.000
 5804.00    0.75708   0.72589   -2.000
 5805.00    0.79329   0.71664   -2.000
 5806.00    0.79203   0.71728   -2.000
 5807.00    0.77130   0.72219   -2.000
 5808.00    0.73092   0.72606   -2.000
 5809.00    0.72075   0.72789   -2.000
 5810.00    0.73748   0.73136   -2.000
 5811.00    0.73121   0.73526    0.000
 5812.00    0.70688   0.73508    0.000
 5813.00    0.68187   0.73205    0.000
 5814.00    0.65640   0.72670    0.000
 5815.00    0.66564   0.71696    0.000
 5816.00    0.69589   0.70858    0.000
 5817.00    0.73388   0.71362    0.000
 5818.00    0.77595   0.72910    0.000
 5819.00    0.79497   0.73881    0.000
 5820.00    0.80343   0.74107    0.000
 5821.00    0.79044   0.74040    0.000
 5822.00    0.76899   0.73646    0.000
 5823.00    0.80053   0.73199    0.000
 5824.00    0.84988   0.73102    0.000
 5825.00    0.83518   0.73443    0.000
 5826.00    0.80239   0.73573    0.000
 5827.00    0.73786   0.73455    0.000
 5828.00    0.66594   0.73506    0.000
 5829.00    0.65956   0.73758    0.000
 5830.00    0.66542   0.73818    0.000
 5831.00    0.68815   0.73578    0.000
 5832.00    0.71332   0.73503    0.000
 5833.00    0.70406   0.73368    0.000
 5834.00    0.69119   0.72767    0.000
 5835.00    0.70805   0.72353    0.000
 5836.00    0.72692   0.72810    0.000
 5837.00    0.75634   0.73069    0.000
 5838.00    0.78611   0.72574    0.000
 5839.00    0.75294   0.72477    0.000
 5840.00    0.72156   0.73226    0.000
 5841.00    0.74829   0.73914    0.000
 5842.00    0.77077   0.74072    0.000
 5843.00    0.72903   0.73979    0.000
 5844.00    0.69414   0.73582    0.000
 5845.00    0.72572   0.73014    0.000
 5846.00    0.75463   0.72314    0.000
 5847.00    0.76487   0.71638    0.000
 5848.00    0.77140   0.71594    0.000
 5849.00    0.75792   0.71981    0.000
 5850.00    0.73706   0.72192    0.000
 5851.00    0.68419   0.71898    0.000
 5852.00    0.64212   0.70823    0.000
 5853.00    0.63857   0.69512    0.000
 5854.00    0.65726   0.69503    0.000
 5855.00    0.74260   0.70404    0.000
 5856.00    0.80301   0.70003    0.000
 5857.00    0.79980   0.68162    0.000
 5858.00    0.79408   0.67289    0.000
 5859.00    0.78285   0.68465    0.000
 5860.00    0.75758   0.70050    0.000
 5861.00    0.70555   0.70864    0.000
 5862.00    0.68076   0.70544    0.000
 5863.00    0.70123   0.70363    0.000
 5864.00    0.72209   0.70976    0.000
 5865.00    0.74349   0.71277    0.000
 5866.00    0.75470   0.70545    0.000
 5867.00    0.75285   0.69985    0.000
 5868.00    0.74653   0.70750    0.000
 5869.00    0.73515   0.71859    0.000
 5870.00    0.75541   0.72396    0.000
 5871.00    0.80716   0.72335    0.000
 5872.00    0.84128   0.71819    0.000
 5873.00    0.85993   0.71348    0.000
 5874.00    0.84318   0.71531    0.000
 5875.00    0.79906   0.71817    0.000
 5876.00    0.77752   0.71509    0.000
 5877.00    0.77135   0.71049    0.000
 5878.00    0.75659   0.70728    0.000
 5879.00    0.73671   0.70170    0.000
 5880.00    0.73043   0.69359    0.000
 5881.00    0.73124   0.69375    0.000
 5882.00    0.72565   0.70051    0.000
 5883.00    0.71718   0.69901    0.000
 5884.00    0.71057   0.69210    0.000
 5885.00    0.70470   0.69253    0.000
 5886.00    0.72445   0.69584    0.000
 5887.00    0.75265   0.68674    0.000
 5888.00    0.73427   0.64728    0.000
 5889.00    0.70302   0.57159    0.000
 5890.00    0.67090   0.52003    0.000
 5891.00    0.63858   0.55127    0.000
 5892.00    0.60667   0.61082    0.000
 5893.00    0.57483   0.64013    0.000
 5894.00    0.57905   0.63620    0.000
 5895.00    0.58830   0.59042    0.000
 5896.00    0.64733   0.55180    0.000
 5897.00    0.71135   0.58337    0.000
 5898.00    0.70654   0.63811    0.000
 5899.00    0.69734   0.66229    0.000
 5900.00    0.65657   0.67377    0.000
 5901.00    0.61512   0.68568    0.011
 5902.00    0.65869   0.69077    0.011
 5903.00    0.69926   0.69303    0.011
 5904.00    0.65504   0.69558    0.011
 5905.00    0.61832   0.69289    0.011
 5906.00    0.68836   0.69023    0.011
 5907.00    0.75174   0.69448    0.011
 5908.00    0.75297   0.70077    0.011
 5909.00    0.74303   0.70095    0.011
 5910.00    0.65724   0.69953    0.011
 5911.00    0.58868   0.70373    0.011
 5912.00    0.61078   0.70430    0.011
 5913.00    0.63316   0.69221    0.011
 5914.00    0.65671   0.67655    0.011
 5915.00    0.67290   0.67351    0.011
 5916.00    0.66339   0.67855    0.011
 5917.00    0.66118   0.68737    0.011
 5918.00    0.68039   0.69435    0.011
 5919.00    0.70023   0.69659    0.011
 5920.00    0.72163   0.69996    0.011
 5921.00    0.74224   0.69895    0.011
 5922.00    0.76117   0.69411    0.011
 5923.00    0.77281   0.69477    0.011
 5924.00    0.77079   0.69899    0.011
 5925.00    0.75307   0.70177    0.011
 5926.00    0.70968   0.70434    0.011
 5927.00    0.70455   0.70256    0.011
 5928.00    0.75435   0.69572    0.011
 5929.00    0.76603   0.68577    0.011
 5930.00    0.72958   0.67936    0.011
 5931.00    0.68219   0.68836    0.011
 5932.00    0.62263   0.70164    0.011
 5933.00    0.62405   0.70153    0.011
 5934.00    0.68533   0.68979    0.011
 5935.00    0.74563   0.68467    0.011
 5936.00    0.80506   0.69350    0.011
 5937.00    0.81327   0.70128    0.011
 5938.00    0.78242   0.70385    0.011
 5939.00    0.74552   0.70588    0.011
 5940.00    0.70457   0.70026    0.011
 5941.00    0.68597   0.68770    0.011
 5942.00    0.68048   0.68404    0.011
 5943.00    0.68713   0.69003    0.011
 5944.00    0.70000   0.69598    0.011
 5945.00    0.71006   0.70145    0.011
 5946.00    0.71889   0.70498    0.011
 5947.00    0.72928   0.70053    0.011
 5948.00    0.74026   0.68735    0.011
 5949.00    0.73757   0.67847    0.011
 5950.00    0.73046   0.68605    0.011
 5951.00    0.71797   0.69532    0.011
 5952.00    0.70404   0.68852    0.011
 5953.00    0.71067   0.67927    0.011
 5954.00    0.72186   0.68623    0.011
 5955.00    0.71104   0.69421    0.011
 5956.00    0.69632   0.68771    0.011
 5957.00    0.71161   0.67944    0.011
 5958.00    0.73096   0.68120    0.012
 5959.00    0.68913   0.68927    0.011
 5960.00    0.64142   0.69795    0.011
 5961.00    0.65358   0.70343    0.011
 5962.00    0.66932   0.70584    0.011
 5963.00    0.68947   0.70547    0.011
 5964.00    0.70943   0.70332    0.011
 5965.00    0.68085   0.69700    0.011
 5966.00    0.65536   0.69195    0.011
 5967.00    0.70850   0.69635    0.011
 5968.00    0.75881   0.70180    0.011
 5969.00    0.77093   0.70437    0.011
 5970.00    0.77926   0.70714    0.011
 5971.00    0.75375   0.70962    0.011
 5972.00    0.73372   0.70939    0.011
 5973.00    0.74971   0.70805    0.011
 5974.00    0.75699   0.70404    0.010
 5975.00    0.71964   0.69445    0.010
 5976.00    0.68372   0.68371    0.010
 5977.00    0.65365   0.67785    0.010
 5978.00    0.64089   0.67803    0.011
 5979.00    0.68741   0.68441    0.011
 5980.00    0.72964   0.69559    0.011
 5981.00    0.75951   0.70088    0.011
 5982.00    0.76681   0.69619    0.011
 5983.00    0.71848   0.68204    0.011
 5984.00    0.67569   0.66668    0.011
 5985.00    0.64467   0.66774    0.011
 5986.00    0.63290   0.67986    0.011
 5987.00    0.65666   0.68541    0.011
 5988.00    0.68958   0.68754    0.011
 5989.00    0.73727   0.69308    0.011
 5990.00    0.77532   0.69472    0.011
 5991.00    0.79972   0.68810    0.011
 5992.00    0.78954   0.68590    0.011
 5993.00    0.73629   0.69526    0.011
 5994.00    0.70670   0.70401    0.011
 5995.00    0.70306   0.70319    0.011
 5996.00    0.70261   0.69495    0.011
 5997.00    0.70523   0.68384    0.011
 5998.00    0.70929   0.67823    0.011
 5999.00    0.71458   0.68213    0.011
 6000.00    0.73001   0.68931    0.011
 6001.00    0.75308   0.69193    0.011
 6002.00    0.77281   0.68520    0.011
 6003.00    0.79034   0.67814    0.010
 6004.00    0.78186   0.68287    0.010
 6005.00    0.75835   0.68842    0.010
 6006.00    0.71321   0.68345    0.010
 6007.00    0.65717   0.67107    0.010
 6008.00    0.62924   0.65964    0.010
 6009.00    0.61357   0.66687    0.010
 6010.00    0.63261   0.68687    0.011
 6011.00    0.66463   0.69460    0.010
 6012.00    0.71088   0.68530    0.011
 6013.00    0.76164   0.67273    0.011
 6014.00    0.79534   0.67333    0.011
 6015.00    0.82452   0.68066    0.011
 6016.00    0.80719   0.67783    0.011
 6017.00    0.77978   0.67387    0.011
 6018.00    0.76244   0.67854    0.011
 6019.00    0.74684   0.67691    0.011
 6020.00    0.75811   0.66796    0.011
 6021.00    0.77289   0.66565    0.011
 6022.00    0.76532   0.67049    0.011
 6023.00    0.75571   0.67424    0.011
 6024.00    0.72563   0.67511    0.011
 6025.00    0.69441   0.68168    0.011
 6026.00    0.68021   0.68656    0.011
 6027.00    0.66638   0.68412    0.011
 6028.00    0.65192   0.68762    0.011
 6029.00    0.63813   0.69474    0.011
 6030.00    0.63990   0.69596    0.011
 6031.00    0.64275   0.69393    0.010
 6032.00    0.65942   0.69589    0.010
 6033.00    0.67947   0.69994    0.010
 6034.00    0.72858   0.70062    0.010
 6035.00    0.77513   0.69943    0.010
 6036.00    0.80531   0.69886    0.010
 6037.00    0.82831   0.69911    0.010
 6038.00    0.81549   0.69907    0.010
 6039.00    0.80099   0.69578    0.010
 6040.00    0.77973   0.69140    0.010
 6041.00    0.75385   0.68970    0.011
 6042.00    0.71245   0.68970    0.011
 6043.00    0.68143   0.69448    0.011
 6044.00    0.67984   0.70000    0.011
 6045.00    0.69352   0.70104    0.011
 6046.00    0.74423   0.70066    0.011
 6047.00    0.78240   0.70164    0.011
 6048.00    0.79433   0.70136    0.011
 6049.00    0.78930   0.69975    0.011
 6050.00    0.75343   0.70174    0.011
 6051.00    0.72711   0.70323    0.011
 6052.00    0.71595   0.69878    0.011
 6053.00    0.69496   0.69151    0.011
 6054.00    0.66026   0.68783    0.011
 6055.00    0.64855   0.68529    0.011
 6056.00    0.66507   0.68086    0.011
 6057.00    0.66264   0.68103    0.011
 6058.00    0.63973   0.68674    0.011
 6059.00    0.62264   0.69318    0.011
 6060.00    0.61113   0.69650    0.011
 6061.00    0.61993   0.69606    0.011
 6062.00    0.64581   0.69177    0.010
 6063.00    0.66799   0.68550    0.010
 6064.00    0.68741   0.67570    0.010
 6065.00    0.69022   0.66171    0.010
 6066.00    0.68221   0.66416    0.011
 6067.00    0.69072   0.68489    0.011
 6068.00    0.70865   0.69912    0.010
 6069.00    0.71053   0.70165    0.010
 6070.00    0.70446   0.70092    0.010
 6071.00    0.69655   0.70143    0.011
 6072.00    0.68785   0.70328    0.011
 6073.00    0.70175   0.70417    0.010
 6074.00    0.72397   0.70408    0.010
 6075.00    0.71636   0.70291    0.011
 6076.00    0.69947   0.69850    0.011
 6077.00    0.67595   0.69057    0.011
 6078.00    0.65071   0.67919    0.011
 6079.00    0.64411   0.67458    0.011
 6080.00    0.64147   0.68039    0.011
 6081.00    0.60462   0.67956    0.013
 6082.00    0.56205   0.67135    0.015
 6083.00    0.52006   0.67119    0.016
 6084.00    0.47814   0.67626    0.016
 6085.00    0.46472   0.67594    0.015
 6086.00    0.45380   0.67569    0.015
 6087.00    0.50873   0.68031    0.015
 6088.00    0.56707   0.68531    0.015
 6089.00    0.60824   0.68099    0.012
 6090.00    0.64849   0.67067    0.011
 6091.00    0.64446   0.66822    0.011
 6092.00    0.64113   0.67168    0.010
 6093.00    0.65277   0.67311    0.010
 6094.00    0.66389   0.67862    0.010
 6095.00    0.66876   0.68843    0.010
 6096.00    0.67478   0.68925    0.010
 6097.00    0.69039   0.68330    0.010
 6098.00    0.70382   0.68234    0.010
 6099.00    0.70375   0.68782    0.010
 6100.00    0.69742   0.69098    0.010
 6101.00    0.66057   0.67831    0.010
 6102.00    0.63664   0.64542    0.011
 6103.00    0.66388   0.62743    0.011
 6104.00    0.69625   0.64941    0.011
 6105.00    0.74546   0.67643    0.011
 6106.00    0.77628   0.68377    0.011
 6107.00    0.75597   0.67927    0.011
 6108.00    0.74123   0.67535    0.011
 6109.00    0.73979   0.68180    0.011
 6110.00    0.74233   0.68729    0.011
 6111.00    0.75307   0.68113    0.011
 6112.00    0.75893   0.67689    0.011
 6113.00    0.75606   0.68369    0.011
 6114.00    0.74977   0.69116    0.011
 6115.00    0.73809   0.69003    0.011
 6116.00    0.73213   0.68048    0.010
 6117.00    0.73402   0.67809    0.010
 6118.00    0.71861   0.68377    0.010
 6119.00    0.68227   0.68050    0.010
 6120.00    0.66701   0.66780    0.010
 6121.00    0.67423   0.65057    0.010
 6122.00    0.69062   0.63471    0.010
 6123.00    0.71565   0.64355    0.010
 6124.00    0.73359   0.66804    0.010
 6125.00    0.74564   0.67623    0.011
 6126.00    0.74370   0.67211    0.011
 6127.00    0.73154   0.66827    0.010
 6128.00    0.70445   0.66439    0.010
 6129.00    0.66778   0.66574    0.010
 6130.00    0.64554   0.67461    0.010
 6131.00    0.63140   0.68210    0.010
 6132.00    0.63727   0.68397    0.011
 6133.00    0.65291   0.68480    0.011
 6134.00    0.66233   0.67911    0.011
 6135.00    0.66915   0.65919    0.011
 6136.00    0.68243   0.62544    0.011
 6137.00    0.69804   0.59869    0.011
 6138.00    0.68707   0.61313    0.011
 6139.00    0.66798   0.65463    0.011
 6140.00    0.66917   0.67440    0.011
 6141.00    0.67552   0.66062    0.011
 6142.00    0.72251   0.64915    0.011
 6143.00    0.77791   0.66291    0.011
 6144.00    0.79467   0.68144    0.011
 6145.00    0.80515   0.68637    0.011
 6146.00    0.78134   0.68238    0.010
 6147.00    0.75335   0.67578    0.010
 6148.00    0.73752   0.66632    0.010
 6149.00    0.72271   0.65917    0.010
 6150.00    0.71116   0.65801    0.010
 6151.00    0.69977   0.66293    0.010
 6152.00    0.68210   0.67067    0.010
 6153.00    0.66443   0.67551    0.010
 6154.00    0.65204   0.66832    0.010
 6155.00    0.64124   0.65894    0.010
 6156.00    0.66169   0.65999    0.010
 6157.00    0.68002   0.66193    0.010
 6158.00    0.67392   0.66122    0.011
 6159.00    0.66525   0.66077    0.011
 6160.00    0.63614   0.64662    0.011
 6161.00    0.60729   0.61172    0.011
 6162.00    0.58004   0.58415    0.011
 6163.00    0.55793   0.58829    0.011
 6164.00    0.56031   0.61224    0.011
 6165.00    0.56512   0.63266    0.011
 6166.00    0.57934   0.64143    0.011
 6167.00    0.59214   0.64816    0.011
 6168.00    0.60037   0.64423    0.011
 6169.00    0.61029   0.61935    0.011
 6170.00    0.62481   0.60633    0.011
 6171.00    0.63555   0.62622    0.011
 6172.00    0.63741   0.64838    0.010
 6173.00    0.64047   0.65078    0.010
 6174.00    0.64597   0.64923    0.010
 6175.00    0.65068   0.65075    0.010
 6176.00    0.65399   0.64880    0.010
 6177.00    0.64427   0.64760    0.010
 6178.00    0.61445   0.65423    0.010
 6179.00    0.59201   0.65852    0.010
 6180.00    0.57960   0.65533    0.010
 6181.00    0.58147   0.65752    0.010
 6182.00    0.60035   0.66417    0.010
 6183.00    0.61160   0.66500    0.010
 6184.00    0.61481   0.66302    0.010
 6185.00    0.63970   0.66100    0.010
 6186.00    0.68468   0.65257    0.011
 6187.00    0.72346   0.64330    0.011
 6188.00    0.75717   0.64079    0.011
 6189.00    0.75051   0.64225    0.011
 6190.00    0.71481   0.63454    0.011
 6191.00    0.66528   0.61313    0.011
 6192.00    0.60702   0.61015    0.011
 6193.00    0.62022   0.63446    0.011
 6194.00    0.67289   0.65254    0.011
 6195.00    0.73281   0.65624    0.011
 6196.00    0.79622   0.65903   -2.000
 6197.00    0.88222   0.66268   -2.000
 6198.00    0.97758   0.65810   -2.000
 6199.00    0.90186   0.64249   -2.000
 6200.00    0.76550   0.63212   -2.000
 6201.00    0.51577   0.64011   -2.000
 6202.00    0.23211   0.65491   -2.000
 6203.00    0.18273   0.66172   -2.000
 6204.00    0.19154   0.66080   -2.000
 6205.00    0.29782   0.65927   -2.000
 6206.00    0.42373   0.66078   -2.000
 6207.00    0.48555   0.66231   -2.000
 6208.00    0.53726   0.66208    0.011
 6209.00    0.55401   0.66112    0.010
 6210.00    0.56667   0.65771    0.010
 6211.00    0.54703   0.65353    0.010
 6212.00    0.52481   0.64745    0.010
 6213.00    0.53602   0.63131    0.010
 6214.00    0.54870   0.61597    0.010
 6215.00    0.61728   0.61211    0.010
 6216.00    0.68580   0.61757    0.011
 6217.00    0.72228   0.63034    0.011
 6218.00    0.75628   0.63684    0.011
 6219.00    0.74520   0.62813    0.011
 6220.00    0.73239   0.61932    0.011
 6221.00    0.70066   0.62283    0.011
 6222.00    0.67344   0.63340    0.011
 6223.00    0.68101   0.63920    0.011
 6224.00    0.68638   0.63616    0.011
 6225.00    0.67887   0.63584    0.010
 6226.00    0.66943   0.63963    0.010
 6227.00    0.65111   0.64128    0.010
 6228.00    0.63652   0.64011    0.010
 6229.00    0.63606   0.62854    0.010
 6230.00    0.63471   0.60575    0.010
 6231.00    0.63053   0.59487    0.010
 6232.00    0.63293   0.60509    0.010
 6233.00    0.65300   0.61916    0.010
 6234.00    0.66656   0.63604    0.010
 6235.00    0.66515   0.65013    0.010
 6236.00    0.65707   0.65047    0.010
 6237.00    0.63568   0.64063    0.010
 6238.00    0.61729   0.63003    0.010
 6239.00    0.60411   0.62136    0.010
 6240.00    0.60262   0.61561    0.010
 6241.00    0.61890   0.62100    0.010
 6242.00    0.63762   0.62348    0.011
 6243.00    0.65962   0.61201    0.012
 6244.00    0.67690   0.60838    0.012
 6245.00    0.68864   0.61195    0.012
 6246.00    0.67861   0.60958    0.012
 6247.00    0.64601   0.61505    0.012
 6248.00    0.60996   0.63040    0.012
 6249.00    0.57075   0.63990    0.012
 6250.00    0.55585   0.64056    0.012
 6251.00    0.56055   0.63185    0.011
 6252.00    0.56690   0.61346    0.010
 6253.00    0.57441   0.60256    0.010
 6254.00    0.59126   0.60493    0.010
 6255.00    0.61391   0.60972    0.010
 6256.00    0.62203   0.60762    0.010
 6257.00    0.62224   0.59953    0.010
 6258.00    0.63184   0.59201    0.010
 6259.00    0.64587   0.59722    0.011
 6260.00    0.65772   0.61385    0.011
 6261.00    0.66869   0.62296    0.012
 6262.00    0.66566   0.63065    0.013
 6263.00    0.65776   0.64243    0.013
 6264.00    0.61444   0.64073    0.013
 6265.00    0.56074   0.62796    0.012
 6266.00    0.53456   0.62630    0.012
 6267.00    0.51508   0.63556    0.011
 6268.00    0.55427   0.63847    0.011
 6269.00    0.60498   0.63284    0.010
 6270.00    0.66648   0.62917    0.010
 6271.00    0.72964   0.63210    0.011
 6272.00    0.71130   0.63834    0.011
 6273.00    0.68378   0.64232    0.010
 6274.00    0.68254   0.64120    0.010
 6275.00    0.68329   0.63988    0.010
 6276.00    0.68082   0.64090    0.010
 6277.00    0.67821   0.64088    0.010
 6278.00    0.69902   0.63839    0.010
 6279.00    0.71965   0.63216    0.010
 6280.00    0.72601   0.62285    0.000
 6281.00    0.73177   0.62093    0.000
 6282.00    0.72728   0.62746    0.000
 6283.00    0.72200   0.63595    0.000
 6284.00    0.70843   0.64197    0.000
 6285.00    0.69596   0.64058    0.000
 6286.00    0.69171   0.64075    0.000
 6287.00    0.68743   0.64704    0.000
 6288.00    0.68298   0.65276    0.000
 6289.00    0.67405   0.65408    0.000
 6290.00    0.64481   0.64736    0.000
 6291.00    0.62781   0.63883    0.000
 6292.00    0.65626   0.63446    0.000
 6293.00    0.68391   0.63449    0.000
 6294.00    0.70909   0.63946    0.000
 6295.00    0.73288   0.64101    0.000
 6296.00    0.75302   0.63066    0.000
 6297.00    0.76482   0.61979    0.000
 6298.00    0.75772   0.61990    0.000
 6299.00    0.73564   0.62742    0.000
 6300.00    0.68416   0.62804    0.000
 6301.00    0.65100   0.61757    0.000
 6302.00    0.64916   0.61107    0.000
 6303.00    0.64702   0.61921    0.000
 6304.00    0.64445   0.63054    0.000
 6305.00    0.64022   0.63287    0.000
 6306.00    0.63380   0.63387    0.000
 6307.00    0.63886   0.64317    0.000
 6308.00    0.65722   0.65057    0.000
 6309.00    0.66597   0.64856    0.000
 6310.00    0.66489   0.64069    0.000
 6311.00    0.65363   0.63293    0.000
 6312.00    0.63319   0.63138    0.000
 6313.00    0.61857   0.63507    0.000
 6314.00    0.60859   0.62977    0.000
 6315.00    0.63178   0.61784    0.000
 6316.00    0.67816   0.61810    0.000
 6317.00    0.70346   0.61887    0.000
 6318.00    0.71585   0.60809    0.000
 6319.00    0.70357   0.60822    0.000
 6320.00    0.67808   0.62281    0.000
 6321.00    0.67797   0.63169    0.010
 6322.00    0.68966   0.63124    0.010
 6323.00    0.69489   0.63285    0.010
 6324.00    0.69755   0.64047    0.010
 6325.00    0.68324   0.64538    0.010
 6326.00    0.66314   0.64484    0.010
 6327.00    0.66324   0.64080    0.010
 6328.00    0.66916   0.64173    0.010
 6329.00    0.67458   0.64492    0.010
 6330.00    0.67988   0.64047    0.010
 6331.00    0.65260   0.63790    0.010
 6332.00    0.61909   0.64394    0.010
 6333.00    0.63298   0.64984    0.010
 6334.00    0.65389   0.64308    0.010
 6335.00    0.67758   0.62141    0.010
 6336.00    0.70158   0.60623    0.010
 6337.00    0.70871   0.61231    0.010
 6338.00    0.71464   0.62468    0.010
 6339.00    0.71028   0.62923    0.010
 6340.00    0.70554   0.63588    0.010
 6341.00    0.69012   0.64301    0.010
 6342.00    0.67541   0.64020    0.010
 6343.00    0.68716   0.62809    0.010
 6344.00    0.69706   0.61751    0.010
 6345.00    0.67732   0.61866    0.010
 6346.00    0.65846   0.62208    0.010
 6347.00    0.64844   0.62295    0.010
 6348.00    0.64400   0.62957    0.010
 6349.00    0.67987   0.63876    0.010
 6350.00    0.70490   0.64184    0.010
 6351.00    0.66991   0.64244    0.010
 6352.00    0.64208   0.64332    0.010
 6353.00    0.64584   0.63954    0.010
 6354.00    0.65207   0.62868    0.010
 6355.00    0.66725   0.62044    0.010
 6356.00    0.67975   0.62445    0.010
 6357.00    0.68414   0.62647    0.010
 6358.00    0.68752   0.61563    0.010
 6359.00    0.68830   0.60594    0.010
 6360.00    0.67700   0.60669    0.010
 6361.00    0.63881   0.60539    0.010
 6362.00    0.61195   0.59892    0.010
 6363.00    0.60697   0.59896    0.010
 6364.00    0.60631   0.60745    0.010
 6365.00    0.61292   0.61654    0.010
 6366.00    0.61955   0.62239    0.010
 6367.00    0.62620   0.62986    0.010
 6368.00    0.63117   0.63707    0.010
 6369.00    0.63395   0.63604    0.010
 6370.00    0.62866   0.62770    0.010
 6371.00    0.61416   0.62502    0.010
 6372.00    0.61439   0.63387    0.010
 6373.00    0.62946   0.64382    0.010
 6374.00    0.64353   0.64591    0.010
 6375.00    0.65671   0.64379    0.010
 6376.00    0.66383   0.64400    0.010
 6377.00    0.66618   0.64323    0.010
 6378.00    0.65688   0.63629    0.010
 6379.00    0.63955   0.62943    0.010
 6380.00    0.63509   0.62750    0.010
 6381.00    0.63842   0.62862    0.010
 6382.00    0.63694   0.63363    0.010
 6383.00    0.63292   0.63629    0.010
 6384.00    0.64746   0.63219    0.010
 6385.00    0.67049   0.63057    0.010
 6386.00    0.69055   0.63530    0.010
 6387.00    0.70944   0.63985    0.010
 6388.00    0.71508   0.63978    0.010
 6389.00    0.71628   0.63880    0.010
 6390.00    0.72555   0.63965    0.010
 6391.00    0.73709   0.63792    0.010
 6392.00    0.72046   0.62511    0.010
 6393.00    0.69729   0.60558    0.010
 6394.00    0.66733   0.60326    0.010
 6395.00    0.63609   0.62127    0.010
 6396.00    0.61373   0.63742    0.010
 6397.00    0.59263   0.64392    0.011
 6398.00    0.59280   0.63989    0.010
 6399.00    0.59519   0.61816    0.010
 6400.00    0.63293   0.59559    0.010
 6401.00    0.67304   0.60583    0.011
 6402.00    0.69824   0.63258    0.011
 6403.00    0.72295   0.64523    0.010
 6404.00    0.72921   0.64672    0.010
 6405.00    0.73474   0.64428    0.010
 6406.00    0.71754   0.63715    0.010
 6407.00    0.70159   0.62473    0.010
 6408.00    0.70420   0.61644    0.010
 6409.00    0.70865   0.62581    0.010
 6410.00    0.73087   0.63374    0.010
 6411.00    0.74856   0.62301    0.010
 6412.00    0.73468   0.61628    0.010
 6413.00    0.71854   0.62332    0.010
 6414.00    0.69025   0.62833    0.010
 6415.00    0.67024   0.62916    0.010
 6416.00    0.68608   0.63113    0.010
 6417.00    0.69458   0.63224    0.010
 6418.00    0.67691   0.63081    0.010
 6419.00    0.67144   0.62353    0.010
 6420.00    0.70244   0.60979    0.010
 6421.00    0.72404   0.60384    0.010
 6422.00    0.72173   0.61726    0.010
 6423.00    0.70289   0.63721    0.010
 6424.00    0.64783   0.64326    0.010
 6425.00    0.61448   0.64021    0.010
 6426.00    0.62242   0.64075    0.010
 6427.00    0.63623   0.64533    0.010
 6428.00    0.65977   0.64696    0.010
 6429.00    0.67515   0.63882    0.010
 6430.00    0.67866   0.61912    0.010
 6431.00    0.68754   0.60402    0.010
 6432.00    0.70329   0.60981    0.010
 6433.00    0.70113   0.62415    0.010
 6434.00    0.67876   0.63446    0.010
 6435.00    0.65353   0.64018    0.010
 6436.00    0.62545   0.64154    0.010
 6437.00    0.62547   0.63543    0.010
 6438.00    0.65011   0.61661    0.010
 6439.00    0.67103   0.60234    0.010
 6440.00    0.68907   0.61455    0.010
 6441.00    0.67807   0.63635    0.010
 6442.00    0.64736   0.64563    0.010
 6443.00    0.62342   0.64626    0.010
 6444.00    0.60351   0.64546    0.010
 6445.00    0.60912   0.64628    0.010
 6446.00    0.62796   0.64897    0.010
 6447.00    0.64435   0.64853    0.010
 6448.00    0.65964   0.63484    0.011
 6449.00    0.64628   0.60411    0.011
 6450.00    0.62185   0.58295    0.011
 6451.00    0.59321   0.59601    0.010
 6452.00    0.56318   0.62107    0.010
 6453.00    0.54810   0.63524    0.010
 6454.00    0.53713   0.63455    0.010
 6455.00    0.54379   0.61950    0.010
 6456.00    0.55445   0.60731    0.010
 6457.00    0.60060   0.61578    0.010
 6458.00    0.65319   0.63343    0.010
 6459.00    0.68389   0.64436    0.010
 6460.00    0.71155   0.64613    0.010
 6461.00    0.69960   0.63329    0.010
 6462.00    0.68370   0.60538    0.010
 6463.00    0.66833   0.59290    0.010
 6464.00    0.65300   0.60983    0.009
 6465.00    0.65835   0.62759    0.010
 6466.00    0.66436   0.63595    0.010
 6467.00    0.68676   0.64020    0.010
 6468.00    0.70901   0.63982    0.010
 6469.00    0.72730   0.63396    0.010
 6470.00    0.74377   0.62762    0.010
 6471.00    0.73459   0.62128    0.010
 6472.00    0.72544   0.62068    0.010
 6473.00    0.71649   0.62899    0.010
 6474.00    0.71029   0.63025    0.010
 6475.00    0.72275   0.62302    0.010
 6476.00    0.73057   0.62334    0.010
 6477.00    0.71402   0.63163    0.010
 6478.00    0.69485   0.63447    0.010
 6479.00    0.66462   0.63329    0.010
 6480.00    0.64462   0.63002    0.010
 6481.00    0.66030   0.61778    0.010
 6482.00    0.67058   0.60220    0.010
 6483.00    0.66503   0.60052    0.010
 6484.00    0.65787   0.61170    0.010
 6485.00    0.64665   0.62174    0.010
 6486.00    0.63669   0.62575    0.010
 6487.00    0.62944   0.62728    0.010
 6488.00    0.63341   0.62852    0.010
 6489.00    0.65837   0.62559    0.010
 6490.00    0.67261   0.61802    0.010
 6491.00    0.66931   0.61125    0.010
 6492.00    0.67125   0.60555    0.010
 6493.00    0.68069   0.58846    0.010
 6494.00    0.69704   0.55801    0.010
 6495.00    0.72211   0.53983    0.010
 6496.00    0.72960   0.54331    0.010
 6497.00    0.71754   0.55757    0.010
 6498.00    0.69386   0.57420    0.010
 6499.00    0.65879   0.58194    0.010
 6500.00    0.65726   0.59064    0.010
 6501.00    0.68470   0.60292    0.010
 6502.00    0.68924   0.61060    0.010
 6503.00    0.67635   0.61516    0.010
 6504.00    0.64171   0.61788    0.010
 6505.00    0.59254   0.62092    0.010
 6506.00    0.58130   0.62410    0.010
 6507.00    0.59228   0.62319    0.010
 6508.00    0.61609   0.61756    0.010
 6509.00    0.64645   0.61481    0.010
 6510.00    0.67258   0.61830    0.010
 6511.00    0.69684   0.62215    0.010
 6512.00    0.73005   0.62205    0.010
 6513.00    0.76665   0.62146    0.010
 6514.00    0.77277   0.61921    0.010
 6515.00    0.76904   0.61117    0.010
 6516.00    0.73511   0.60315    0.010
 6517.00    0.69302   0.60069    0.010
 6518.00    0.70418   0.59867    0.010
 6519.00    0.72713   0.60004    0.010
 6520.00    0.70395   0.61013    0.010
 6521.00    0.67264   0.61936    0.010
 6522.00    0.66646   0.62122    0.010
 6523.00    0.66366   0.61958    0.010
 6524.00    0.66984   0.61988    0.010
 6525.00    0.67687   0.62022    0.010
 6526.00    0.67515   0.61335    0.010
 6527.00    0.67291   0.60528    0.010
 6528.00    0.66817   0.60667    0.000
 6529.00    0.66336   0.61363    0.000
 6530.00    0.65830   0.61729    0.000
 6531.00    0.65324   0.61359    0.000
 6532.00    0.64810   0.60570    0.000
 6533.00    0.64403   0.60091    0.000
 6534.00    0.65420   0.60400    0.000
 6535.00    0.66159   0.61144    0.000
 6536.00    0.64424   0.61462    0.000
 6537.00    0.63249   0.61115    0.000
 6538.00    0.65752   0.60892    0.000
 6539.00    0.68307   0.61277    0.000
 6540.00    0.71133   0.61657    0.000
 6541.00    0.72868   0.61367    0.000
 6542.00    0.70102   0.60640    0.000
 6543.00    0.68213   0.60027    0.000
 6544.00    0.69316   0.59565    0.000
 6545.00    0.70252   0.58604    0.000
 6546.00    0.70700   0.57280    0.000
 6547.00    0.71593   0.57206    0.000
 6548.00    0.73578   0.58161    0.000
 6549.00    0.75662   0.58734    0.000
 6550.00    0.77954   0.58476    0.000
 6551.00    0.79971   0.57758    0.000
 6552.00    0.81480   0.57198    0.000
 6553.00    0.79647   0.56594    0.000
 6554.00    0.72434   0.55551    0.000
 6555.00    0.65516   0.54418    0.000
 6556.00    0.59014   0.53896    0.000
 6557.00    0.54684   0.54014    0.000
 6558.00    0.53051   0.53878    0.000
 6559.00    0.53833   0.53014    0.000
 6560.00    0.57259   0.51373    0.000
 6561.00    0.70271   0.47070    0.000
 6562.00    0.92542   0.39377    0.000
 6563.00    1.20022   0.35440    0.000
 6564.00    1.51939   0.40680    0.000
 6565.00    1.71694   0.48315    0.000
 6566.00    1.82325   0.52351    0.000
 6567.00    1.73922   0.54071    0.000
 6568.00    1.52974   0.54633    0.000
 6569.00    1.26815   0.54447    0.000
 6570.00    0.97649   0.54776    0.000
 6571.00    0.80687   0.55543    0.000
 6572.00    0.69861   0.55665    0.000
 6573.00    0.64973   0.55163    0.000
 6574.00    0.62670   0.54865    0.000
 6575.00    0.60337   0.55309    0.000
 6576.00    0.57994   0.56806    0.000
 6577.00    0.60119   0.58398    0.000
 6578.00    0.63659   0.59225    0.000
 6579.00    0.67410   0.59252    0.000
 6580.00    0.71216   0.58642    0.000
 6581.00    0.73635   0.58073    0.000
 6582.00    0.75754   0.58431    0.000
 6583.00    0.84792   0.59170    0.000
 6584.00    0.95016   0.59521    0.000
 6585.00    1.07618   0.59384    0.000
 6586.00    1.20529   0.59037    0.000
 6587.00    1.18753   0.59297    0.000
 6588.00    1.15637   0.60050    0.000
 6589.00    1.03126   0.60461    0.000
 6590.00    0.90096   0.60577    0.000
 6591.00    0.78789   0.59921    0.000
 6592.00    0.67615   0.57915    0.000
 6593.00    0.65550   0.55915    0.000
 6594.00    0.63543   0.56293    0.000
 6595.00    0.62869   0.58348    0.000
 6596.00    0.62100   0.59595    0.000
 6597.00    0.60133   0.59525    0.000
 6598.00    0.58429   0.59012    0.000
 6599.00    0.58969   0.59039    0.000
 6600.00    0.59930   0.59906    0.000
 6601.00    0.63578   0.60754    0.000
 6602.00    0.67219   0.60912    0.000
 6603.00    0.70832   0.60576    0.000
 6604.00    0.73197   0.59990    0.000
 6605.00    0.70529   0.59482    0.000
 6606.00    0.67805   0.59313    0.000
 6607.00    0.64891   0.59124    0.000
 6608.00    0.63295   0.58529    0.000
 6609.00    0.65423   0.57901    0.010
 6610.00    0.68290   0.58546    0.010
 6611.00    0.72941   0.60052    0.010
 6612.00    0.75634   0.60647    0.010
 6613.00    0.74241   0.60140    0.010
 6614.00    0.71924   0.59830    0.010
 6615.00    0.67927   0.60433    0.010
 6616.00    0.65375   0.60884    0.010
 6617.00    0.65115   0.60715    0.010
 6618.00    0.65684   0.60529    0.010
 6619.00    0.67407   0.60730    0.010
 6620.00    0.68670   0.60973    0.010
 6621.00    0.69370   0.61078    0.010
 6622.00    0.68796   0.60883    0.010
 6623.00    0.66846   0.60235    0.010
 6624.00    0.66026   0.59235    0.010
 6625.00    0.66283   0.58695    0.010
 6626.00    0.66789   0.59192    0.010
 6627.00    0.67503   0.59804    0.010
 6628.00    0.67942   0.59948    0.010
 6629.00    0.68176   0.59867    0.010
 6630.00    0.67449   0.59651    0.010
 6631.00    0.66097   0.59408    0.010
 6632.00    0.64798   0.58874    0.010
 6633.00    0.63530   0.57849    0.010
 6634.00    0.65003   0.57329    0.010
 6635.00    0.67832   0.58100    0.010
 6636.00    0.69413   0.59270    0.010
 6637.00    0.70459   0.59926    0.010
 6638.00    0.70812   0.60014    0.010
 6639.00    0.70910   0.59607    0.010
 6640.00    0.70591   0.59361    0.010
 6641.00    0.70143   0.59838    0.010
 6642.00    0.68963   0.59795    0.010
 6643.00    0.67593   0.58549    0.010
 6644.00    0.69045   0.57943    0.010
 6645.00    0.71092   0.58750    0.010
 6646.00    0.72898   0.59529    0.010
 6647.00    0.74664   0.59504    0.010
 6648.00    0.73566   0.59402    0.010
 6649.00    0.72110   0.59640    0.010
 6650.00    0.69711   0.59791    0.010
 6651.00    0.67231   0.59600    0.010
 6652.00    0.67957   0.59346    0.010
 6653.00    0.68847   0.59286    0.010
 6654.00    0.70579   0.59342    0.010
 6655.00    0.72257   0.59492    0.010
 6656.00    0.69050   0.59432    0.010
 6657.00    0.65874   0.59326    0.010
 6658.00    0.63351   0.59476    0.010
 6659.00    0.61236   0.59451    0.010
 6660.00    0.64028   0.59151    0.010
 6661.00    0.66707   0.58793    0.010
 6662.00    0.68449   0.58154    0.010
 6663.00    0.69967   0.57123    0.010
 6664.00    0.70106   0.57072    0.010
 6665.00    0.70293   0.57899    0.010
 6666.00    0.70714   0.58230    0.010
 6667.00    0.70726   0.58114    0.010
 6668.00    0.69120   0.58212    0.010
 6669.00    0.68203   0.58776    0.010
 6670.00    0.69543   0.59407    0.010
 6671.00    0.70644   0.59680    0.010
 6672.00    0.71078   0.59573    0.010
 6673.00    0.70971   0.59512    0.010
 6674.00    0.69577   0.59578    0.010
 6675.00    0.68891   0.59598    0.010
 6676.00    0.69657   0.59028    0.010
 6677.00    0.68558   0.57259    0.010
 6678.00    0.64127   0.55682    0.010
 6679.00    0.60358   0.56300    0.010
 6680.00    0.57624   0.57891    0.010
 6681.00    0.57523   0.58504    0.010
 6682.00    0.61031   0.58607    0.010
 6683.00    0.63859   0.58809    0.010
 6684.00    0.65864   0.59081    0.010
 6685.00    0.66861   0.59179    0.010
 6686.00    0.66782   0.59089    0.010
 6687.00    0.66907   0.58941    0.010
 6688.00    0.67224   0.58814    0.010
 6689.00    0.68236   0.58933    0.010
 6690.00    0.69824   0.59105    0.010
 6691.00    0.69651   0.59139    0.010
 6692.00    0.68193   0.59043    0.010
 6693.00    0.66119   0.58973    0.010
 6694.00    0.63652   0.58885    0.010
 6695.00    0.61983   0.58379    0.010
 6696.00    0.60759   0.57528    0.000
 6697.00    0.61708   0.57270    0.000
 6698.00    0.63716   0.57641    0.000
 6699.00    0.65017   0.58205    0.000
 6700.00    0.66022   0.58848    0.000
 6701.00    0.65274   0.59098    0.000
 6702.00    0.63895   0.58870    0.000
 6703.00    0.65171   0.58252    0.000
 6704.00    0.67255   0.57665    0.000
 6705.00    0.68753   0.57756    0.000
 6706.00    0.70103   0.58267    0.000
 6707.00    0.72592   0.58551    0.000
 6708.00    0.75314   0.58589    0.000
 6709.00    0.77170   0.58493    0.000
 6710.00    0.78886   0.58149    0.000
 6711.00    0.79749   0.58053    0.000
 6712.00    0.80508   0.58141    0.000
 6713.00    0.75866   0.57824    0.000
 6714.00    0.70776   0.57351    0.000
 6715.00    0.70036   0.56850    0.000
 6716.00    0.69501   0.56120    0.000
 6717.00    0.80430   0.55254    0.000
 6718.00    0.91460   0.55347    0.000
 6719.00    0.99056   0.56688    0.000
 6720.00    1.05991   0.57665    0.000
 6721.00    1.00065   0.57595    0.000
 6722.00    0.93789   0.57456    0.000
 6723.00    0.83500   0.57882    0.000
 6724.00    0.73803   0.58227    0.000
 6725.00    0.68816   0.57936    0.000
 6726.00    0.63880   0.57401    0.000
 6727.00    0.59244   0.57384    0.000
 6728.00    0.56188   0.57737    0.000
 6729.00    0.60622   0.58044    0.000
 6730.00    0.66186   0.58313    0.000
 6731.00    0.76117   0.58419    0.000
 6732.00    0.84614   0.58209    0.000
 6733.00    0.88494   0.57866    0.000
 6734.00    0.90113   0.57745    0.000
 6735.00    0.85567   0.57922    0.000
 6736.00    0.80114   0.58191    0.000
 6737.00    0.72542   0.57982    0.000
 6738.00    0.65802   0.57286    0.000
 6739.00    0.60741   0.56872    0.000
 6740.00    0.57363   0.57170    0.000
 6741.00    0.56942   0.57580    0.000
 6742.00    0.56775   0.57309    0.000
 6743.00    0.56996   0.56836    0.000
 6744.00    0.57528   0.57023    0.000
 6745.00    0.58479   0.57406    0.000
 6746.00    0.59823   0.57326    0.000
 6747.00    0.61636   0.57068    0.000
 6748.00    0.63450   0.56844    0.000
 6749.00    0.65267   0.56564    0.000
 6750.00    0.66575   0.56385    0.000
 6751.00    0.67411   0.56666    0.000
 6752.00    0.70774   0.56777    0.000
 6753.00    0.76201   0.56540    0.013
 6754.00    0.77862   0.56864    0.014
 6755.00    0.76817   0.57287    0.014
 6756.00    0.76671   0.57484    0.014
 6757.00    0.77090   0.57810    0.014
 6758.00    0.73102   0.58165    0.013
 6759.00    0.66686   0.58388    0.012
 6760.00    0.64066   0.58462    0.012
 6761.00    0.63266   0.58359    0.012
 6762.00    0.67406   0.58072    0.012
 6763.00    0.73591   0.58065    0.013
 6764.00    0.77799   0.58191    0.013
 6765.00    0.81310   0.57999    0.012
 6766.00    0.81958   0.57342    0.012
 6767.00    0.81752   0.56563    0.012
 6768.00    0.78829   0.56427    0.011
 6769.00    0.75233   0.56974    0.011
 6770.00    0.73948   0.57148    0.011
 6771.00    0.73126   0.56714    0.011
 6772.00    0.72041   0.56751    0.011
 6773.00    0.70913   0.57415    0.010
 6774.00    0.69011   0.58097    0.010
 6775.00    0.67018   0.58435    0.010
 6776.00    0.64887   0.58496    0.011
 6777.00    0.62745   0.58350    0.011
 6778.00    0.64511   0.58359    0.011
 6779.00    0.66448   0.58655    0.011
 6780.00    0.63160   0.58632    0.011
 6781.00    0.59871   0.58195    0.012
 6782.00    0.59079   0.57499    0.011
 6783.00    0.58264   0.56582    0.011
 6784.00    0.57023   0.55874    0.011
 6785.00    0.55879   0.55841    0.011
 6786.00    0.55797   0.56171    0.011
 6787.00    0.55967   0.56721    0.011
 6788.00    0.58083   0.57359    0.011
 6789.00    0.60973   0.57504    0.011
 6790.00    0.68383   0.57346    0.011
 6791.00    0.74550   0.57417    0.011
 6792.00    0.74968   0.57414    0.011
 6793.00    0.75037   0.56935    0.011
 6794.00    0.73784   0.56593    0.010
 6795.00    0.71415   0.56727    0.010
 6796.00    0.65525   0.56879    0.010
 6797.00    0.63029   0.57073    0.010
 6798.00    0.69626   0.57196    0.011
 6799.00    0.73745   0.57228    0.011
 6800.00    0.72173   0.57399    0.011
 6801.00    0.70788   0.57623    0.011
 6802.00    0.69773   0.57725    0.011
 6803.00    0.69485   0.57485    0.011
 6804.00    0.70458   0.57171    0.011
 6805.00    0.69756   0.57274    0.011
 6806.00    0.66516   0.57228    0.011
 6807.00    0.63980   0.56986    0.011
 6808.00    0.62384   0.57193    0.010
 6809.00    0.61819   0.57219    0.010
 6810.00    0.62465   0.56921    0.010
 6811.00    0.64883   0.57010    0.011
 6812.00    0.69137   0.57276    0.011
 6813.00    0.71510   0.57227    0.011
 6814.00    0.72167   0.56766    0.011
 6815.00    0.68496   0.56391    0.011
 6816.00    0.61342   0.56809    0.011
 6817.00    0.58413   0.57498    0.010
 6818.00    0.58476   0.57616    0.010
 6819.00    0.58943   0.57177    0.010
 6820.00    0.59660   0.56717    0.010
 6821.00    0.58003   0.56829    0.010
 6822.00    0.55057   0.57456    0.011
 6823.00    0.57820   0.57870    0.011
 6824.00    0.63274   0.57942    0.011
 6825.00    0.64999   0.57870    0.011
 6826.00    0.65207   0.57738    0.011
 6827.00    0.64198   0.57203    0.011
 6828.00    0.62766   0.56475    0.011
 6829.00    0.62733   0.56363    0.011
 6830.00    0.63109   0.56990    0.011
 6831.00    0.65916   0.57552    0.011
 6832.00    0.69311   0.57490    0.011
 6833.00    0.73920   0.57192    0.011
 6834.00    0.78766   0.57333    0.010
 6835.00    0.78884   0.57649    0.011
 6836.00    0.78280   0.57583    0.011
 6837.00    0.73041   0.57204    0.011
 6838.00    0.67282   0.56705    0.011
 6839.00    0.62462   0.56088    0.011
 6840.00    0.57713   0.55430    0.011
 6841.00    0.55027   0.54731    0.011
 6842.00    0.52424   0.54488    0.011
 6843.00    0.54880   0.55058    0.013
 6844.00    0.57498   0.56115    0.016
 6845.00    0.65163   0.56945    0.017
 6846.00    0.72105   0.57149    0.017
 6847.00    0.66832   0.57088    0.016
 6848.00    0.62181   0.57119    0.016
 6849.00    0.64043   0.57080    0.013
 6850.00    0.65262   0.57044    0.011
 6851.00    0.61705   0.57038    0.011
 6852.00    0.58755   0.57112    0.010
 6853.00    0.59241   0.57136    0.010
 6854.00    0.59951   0.56407    0.010
 6855.00    0.61672   0.55336    0.010
 6856.00    0.63092   0.55193    0.010
 6857.00    0.63398   0.55650    0.010
 6858.00    0.63884   0.55974    0.010
 6859.00    0.64928   0.56238    0.010
 6860.00    0.65518   0.56021    0.010
 6861.00    0.64913   0.55247    0.010
 6862.00    0.63666   0.55109    0.010
 6863.00    0.60972   0.56079    0.010
 6864.00    0.59448   0.57118    0.010
 6865.00    0.60214   0.57243    0.011
 6866.00    0.62394   0.56683    0.011
 6867.00    0.66988   0.55899    0.011
 6868.00    0.70149   0.55347    0.011
 6869.00    0.71167   0.55625    0.011
 6870.00    0.71472   0.56288    0.011
 6871.00    0.70837   0.56250    0.011
 6872.00    0.71635   0.55695    0.011
 6873.00    0.74090   0.55646    0.011
 6874.00    0.72611   0.56002    0.010
 6875.00    0.67118   0.56077    0.010
 6876.00    0.65251   0.56149    0.010
 6877.00    0.66647   0.56615    0.010
 6878.00    0.66838   0.57115    0.010
 6879.00    0.66074   0.57138    0.010
 6880.00    0.65613   0.56835    0.010
 6881.00    0.65362   0.56182    0.010
 6882.00    0.67206   0.55363    0.010
 6883.00    0.70332   0.55200    0.010
 6884.00    0.70529   0.55883    0.011
 6885.00    0.69160   0.56423    0.011
 6886.00    0.70708   0.56265    0.011
 6887.00    0.73609   0.56386    0.011
 6888.00    0.72215   0.56929    0.011
 6889.00    0.69104   0.57245    0.011
 6890.00    0.68746   0.57415    0.011
 6891.00    0.69326   0.57637    0.011
 6892.00    0.64772   0.57515    0.011
 6893.00    0.58747   0.57217    0.010
 6894.00    0.58622   0.57072    0.010
 6895.00    0.59894   0.56797    0.010
 6896.00    0.66016   0.56622    0.010
 6897.00    0.73063   0.56819    0.010
 6898.00    0.73745   0.57130    0.010
 6899.00    0.73487   0.57039    0.010
 6900.00    0.71208   0.56649    0.011
 6901.00    0.68711   0.56691    0.011
 6902.00    0.69609   0.57200    0.011
 6903.00    0.70746   0.57369    0.011
 6904.00    0.62741   0.57100    0.011
 6905.00    0.54407   0.56910    0.010
 6906.00    0.58356   0.57093    0.011
 6907.00    0.62312   0.57518    0.011
 6908.00    0.65099   0.57646    0.011
 6909.00    0.67590   0.57623    0.011
 6910.00    0.65409   0.57534    0.011
 6911.00    0.63198   0.57240    0.010
 6912.00    0.60682   0.56934    0.010
 6913.00    0.59222   0.56452    0.010
 6914.00    0.65357   0.55801    0.010
 6915.00    0.70597   0.55797    0.010
 6916.00    0.70896   0.56119    0.010
 6917.00    0.69709   0.56172    0.010
 6918.00    0.61971   0.56428    0.010
 6919.00    0.56916   0.56813    0.010
 6920.00    0.61588   0.57153    0.010
 6921.00    0.63855   0.57391    0.011
 6922.00    0.58815   0.57415    0.010
 6923.00    0.55730   0.56963    0.010
 6924.00    0.57699   0.55984    0.010
 6925.00    0.60132   0.55290    0.011
 6926.00    0.63599   0.55379    0.011
 6927.00    0.64974   0.56145    0.011
 6928.00    0.62319   0.56815    0.011
 6929.00    0.60161   0.56949    0.011
 6930.00    0.58841   0.56918    0.011
 6931.00    0.59428   0.56799    0.011
 6932.00    0.62825   0.56436    0.011
 6933.00    0.64078   0.55905    0.011
 6934.00    0.62557   0.56075    0.011
 6935.00    0.61155   0.56720    0.011
 6936.00    0.59889   0.56859    0.011
 6937.00    0.59483   0.56667    0.011
 6938.00    0.59943   0.56633    0.011
 6939.00    0.62285   0.56850    0.011
 6940.00    0.66297   0.57158    0.011
 6941.00    0.66737   0.57306    0.011
 6942.00    0.64382   0.57073    0.011
 6943.00    0.63407   0.56493    0.011
 6944.00    0.63381   0.55668    0.011
 6945.00    0.64358   0.54986    0.011
 6946.00    0.65940   0.55338    0.011
 6947.00    0.63783   0.56302    0.011
 6948.00    0.59660   0.56887    0.011
 6949.00    0.60812   0.57096    0.011
 6950.00    0.64371   0.56857    0.011
 6951.00    0.63572   0.56116    0.011
 6952.00    0.61060   0.55709    0.011
 6953.00    0.61623   0.55728    0.011
 6954.00    0.63215   0.55769    0.011
 6955.00    0.64179   0.55947    0.011
 6956.00    0.64968   0.56415    0.011
 6957.00    0.63270   0.56774    0.011
 6958.00    0.60996   0.56754    0.011
 6959.00    0.61131   0.56692    0.011
 6960.00    0.61714   0.56722    0.011
 6961.00    0.62723   0.56867    0.011
 6962.00    0.63793   0.56982    0.011
 6963.00    0.60510   0.57072    0.011
 6964.00    0.56776   0.57129    0.011
 6965.00    0.57978   0.56859    0.011
 6966.00    0.59508   0.56484    0.011
 6967.00    0.62133   0.56712    0.011
 6968.00    0.64792   0.57317    0.011
 6969.00    0.62422   0.57482    0.011
 6970.00    0.60183   0.57130    0.011
 6971.00    0.61910   0.56601    0.011
 6972.00    0.63358   0.56661    0.011
 6973.00    0.60642   0.57160    0.011
 6974.00    0.58073   0.57086    0.011
 6975.00    0.56906   0.56372    0.011
 6976.00    0.56854   0.55606    0.011
 6977.00    0.64556   0.54635    0.011
 6978.00    0.70736   0.53210    0.011
 6979.00    0.68742   0.52673    0.011
 6980.00    0.66172   0.54041    0.011
 6981.00    0.61124   0.55731    0.011
 6982.00    0.57252   0.56649    0.011
 6983.00    0.57553   0.57153    0.011
 6984.00    0.58003   0.57324    0.011
 6985.00    0.58899   0.57190    0.011
 6986.00    0.59773   0.57099    0.011
 6987.00    0.60592   0.57023    0.011
 6988.00    0.59559   0.56674    0.011
 6989.00    0.54479   0.56141    0.011
 6990.00    0.51948   0.56078    0.011
 6991.00    0.54252   0.56635    0.011
 6992.00    0.56384   0.57150    0.011
 6993.00    0.58232   0.57135    0.011
 6994.00    0.59843   0.56765    0.011
 6995.00    0.61110   0.56576    0.011
 6996.00    0.63690   0.56745    0.011
 6997.00    0.67945   0.56930    0.011
 6998.00    0.71017   0.56661    0.011
 6999.00    0.72759   0.55798    0.011
 7000.00    0.69353   0.55150    0.011
 7001.00    0.60839   0.55527    0.011
 7002.00    0.57233   0.56325    0.011
 7003.00    0.57923   0.56385    0.011
 7004.00    0.60891   0.55661    0.011
 7005.00    0.65615   0.55177    0.011
 7006.00    0.65836   0.55256    0.011
 7007.00    0.63004   0.55628    0.011
 7008.00    0.64370   0.56091    0.012
 7009.00    0.68229   0.56491    0.012
 7010.00    0.66221   0.56501    0.012
 7011.00    0.61175   0.56162    0.011
 7012.00    0.58528   0.56051    0.011
 7013.00    0.56957   0.56356    0.011
 7014.00    0.57835   0.56322    0.011
 7015.00    0.59659   0.55155    0.011
 7016.00    0.63704   0.53468    0.011
 7017.00    0.68477   0.53316    0.011
 7018.00    0.65084   0.55036    0.011
 7019.00    0.59443   0.56519    0.011
 7020.00    0.56881   0.57031    0.011
 7021.00    0.55016   0.57067    0.012
 7022.00    0.57024   0.56528    0.012
 7023.00    0.59733   0.55400    0.012
 7024.00    0.62857   0.54551    0.012
 7025.00    0.66039   0.54785    0.012
 7026.00    0.58821   0.55622    0.012
 7027.00    0.50571   0.56052    0.011
 7028.00    0.55562   0.56177    0.012
 7029.00    0.61383   0.56361    0.012
 7030.00    0.64523   0.56548    0.012
 7031.00    0.67560   0.56619    0.012
 7032.00    0.63222   0.56472    0.012
 7033.00    0.58971   0.56273    0.012
 7034.00    0.57088   0.56138    0.011
 7035.00    0.55540   0.56290    0.011
 7036.00    0.58700   0.56702    0.011
 7037.00    0.61116   0.56274    0.011
 7038.00    0.56670   0.54892    0.011
 7039.00    0.53221   0.54693    0.011
 7040.00    0.56500   0.56341    0.011
 7041.00    0.59568   0.57884    0.012
 7042.00    0.61531   0.58511    0.012
 7043.00    0.62985   0.58417    0.012
 7044.00    0.62297   0.57691    0.012
 7045.00    0.61882   0.56975    0.012
 7046.00    0.62417   0.57057    0.012
 7047.00    0.63220   0.57711    0.012
 7048.00    0.64803   0.58267    0.012
 7049.00    0.66671   0.58226    0.012
 7050.00    0.69247   0.57869   -2.000
 7051.00    0.68659   0.57479   -2.000
 7052.00    0.61265   0.56422   -2.000
 7053.00    0.57989   0.54974   -2.000
 7054.00    0.62404   0.54269   -2.000
 7055.00    0.65117   0.54316   -2.000
 7056.00    0.65054   0.54881   -2.000
 7057.00    0.65832   0.55527   -2.000
 7058.00    0.67813   0.55592   -2.000
 7059.00    0.67120   0.54820   -2.000
 7060.00    0.63066   0.53904   -2.000
 7061.00    0.62277   0.53808   -2.000
 7062.00    0.65110   0.54251   -2.000
 7063.00    0.69073   0.54615   -2.000
 7064.00    0.74142   0.55116   -2.000
 7065.00    0.71623   0.55280   -2.000
 7066.00    0.62559   0.54671   -2.000
 7067.00    0.58901   0.53751   -2.000
 7068.00    0.59351   0.52921   -2.000
 7069.00    0.60822   0.52987   -2.000
 7070.00    0.62975   0.54130   -2.000
 7071.00    0.61851   0.55121   -2.000
 7072.00    0.58810   0.55381   -2.000
 7073.00    0.61364   0.55409   -2.000
 7074.00    0.66770   0.55448   -2.000
 7075.00    0.68429   0.55374   -2.000
 7076.00    0.68433   0.55157   -2.000
 7077.00    0.67773   0.55098   -2.000
 7078.00    0.66860   0.55319   -2.000
 7079.00    0.67909   0.55453   -2.000
 7080.00    0.69590   0.55603   -2.000
 7081.00    0.68996   0.55819   -2.000
 7082.00    0.67790   0.55415   -2.000
 7083.00    0.71941   0.54232   -2.000
 7084.00    0.77275   0.52727   -2.000
 7085.00    0.72041   0.52060   -2.000
 7086.00    0.64948   0.52549   -2.000
 7087.00    0.63188   0.52802   -2.000
 7088.00    0.62141   0.52451   -2.000
 7089.00    0.61576   0.52110   -2.000
 7090.00    0.61056   0.51793   -2.000
 7091.00    0.63649   0.51804   -2.000
 7092.00    0.66424   0.52089   -2.000
 7093.00    0.60187   0.52063   -2.000
 7094.00    0.53811   0.52075   -2.000
 7095.00    0.58813   0.52128   -2.000
 7096.00    0.63427   0.52149   -2.000
 7097.00    0.58420   0.52227   -2.000
 7098.00    0.53760   0.52496   -2.000
 7099.00    0.53718   0.53296   -2.000
 7100.00    0.53920   0.53656   -2.000
 7101.00    0.56271   0.53496   -2.000
 7102.00    0.59004   0.53020   -2.000
 7103.00    0.64230   0.52825   -2.000
 7104.00    0.68534   0.53219   -2.000
 7105.00    0.68146   0.53762   -2.000
 7106.00    0.66244   0.53635   -2.000
 7107.00    0.58110   0.53085   -2.000
 7108.00    0.52612   0.53005   -2.000
 7109.00    0.56101   0.53211   -2.000
 7110.00    0.60707   0.52870   -2.000
 7111.00    0.68522   0.52194   -2.000
 7112.00    0.74147   0.52079   -2.000
 7113.00    0.74398   0.52591   -2.000
 7114.00    0.71102   0.53111   -2.000
 7115.00    0.60299   0.53309   -2.000
 7116.00    0.56021   0.53485   -2.000
 7117.00    0.63739   0.53556   -2.000
 7118.00    0.67486   0.53440   -2.000
 7119.00    0.64851   0.53313   -2.000
 7120.00    0.59709   0.53227   -2.000
 7121.00    0.51032   0.53036   -2.000
 7122.00    0.50462   0.52631   -2.000
 7123.00    0.59947   0.52819   -2.000
 7124.00    0.65522   0.53303   -2.000
 7125.00    0.66823   0.52982   -2.000
 7126.00    0.60434   0.52232   -2.000
 7127.00    0.46629   0.51962   -2.000
 7128.00    0.42618   0.52194   -2.000
 7129.00    0.46933   0.52107   -2.000
 7130.00    0.46849   0.51222   -2.000
 7131.00    0.43468   0.50590   -2.000
 7132.00    0.45903   0.51108   -2.000
 7133.00    0.52163   0.51998   -2.000
 7134.00    0.52923   0.52701   -2.000
 7135.00    0.50514   0.52985   -2.000
 7136.00    0.53347   0.52978   -2.000
 7137.00    0.58810   0.53260   -2.000
 7138.00    0.61772   0.53193   -2.000
 7139.00    0.63649   0.52584   -2.000
 7140.00    0.61736   0.52428   -2.000
 7141.00    0.58410   0.52971   -2.000
 7142.00    0.57571   0.53207   -2.000
 7143.00    0.57517   0.53081   -2.000
 7144.00    0.56317   0.53038   -2.000
 7145.00    0.54814   0.52965   -2.000
 7146.00    0.64968   0.52876   -2.000
 7147.00    0.77635   0.52200   -2.000
 7148.00    0.70884   0.51032   -2.000
 7149.00    0.60816   0.51026   -2.000
 7150.00    0.57557   0.51936   -2.000
 7151.00    0.55179   0.52575   -2.000
 7152.00    0.61207   0.53193   -2.000
 7153.00    0.67999   0.53803   -2.000
 7154.00    0.68805   0.53769   -2.000
 7155.00    0.69284   0.53224   -2.000
 7156.00    0.62503   0.53244   -2.000
 7157.00    0.55764   0.53989   -2.000
 7158.00    0.66792   0.54072   -2.000
 7159.00    0.77147   0.53459   -2.000
 7160.00    0.72243   0.52989   -2.000
 7161.00    0.66375   0.53123   -2.000
 7162.00    0.48358   0.53563   -2.000
 7163.00    0.32814   0.53003   -2.000
 7164.00    0.38367   0.51472   -2.000
 7165.00    0.46053   0.50426   -2.000
 7166.00    0.67248   0.51115   -2.000
 7167.00    0.83076   0.52603   -2.000
 7168.00    0.72251   0.53514   -2.000
 7169.00    0.62110   0.53568   -2.000
 7170.00    0.54723   0.53318   -2.000
 7171.00    0.50934   0.53410   -2.000
 7172.00    0.59167   0.53857   -2.000
 7173.00    0.65469   0.54172   -2.000
 7174.00    0.66323   0.54026   -2.000
 7175.00    0.66303   0.53425   -2.000
 7176.00    0.64175   0.52716   -2.000
 7177.00    0.61780   0.52853   -2.000
 7178.00    0.58828   0.53597   -2.000
 7179.00    0.60824   0.53466   -2.000
 7180.00    0.71781   0.52210   -2.000
 7181.00    0.72338   0.51139   -2.000
 7182.00    0.56436   0.51466   -2.000
 7183.00    0.49255   0.52852   -2.000
 7184.00    0.54192   0.53691   -2.000
 7185.00    0.54930   0.53553   -2.000
 7186.00    0.50535   0.52763   -2.000
 7187.00    0.47170   0.51451   -2.000
 7188.00    0.44917   0.50705   -2.000
 7189.00    0.46321   0.50922   -2.000
 7190.00    0.51203   0.51611   -2.000
 7191.00    0.50711   0.52413   -2.000
 7192.00    0.45714   0.52469   -2.000
 7193.00    0.43065   0.51996   -2.000
 7194.00    0.42148   0.52085   -2.000
 7195.00    0.47293   0.52769   -2.000
 7196.00    0.56366   0.52854   -2.000
 7197.00    0.64410   0.52241   -2.000
 7198.00    0.71870   0.52261   -2.000
 7199.00    0.71608   0.52801   -2.000
 7200.00    0.67533   0.53044   -2.000
 7201.00    0.51151   0.52657   -2.000
 7202.00    0.29514   0.52113   -2.000
 7203.00    0.34219   0.52453   -2.000
 7204.00    0.48561   0.53404   -2.000
 7205.00    0.45418   0.53661   -2.000
 7206.00    0.36859   0.52480   -2.000
 7207.00    0.42736   0.50632   -2.000
 7208.00    0.52339   0.50150   -2.000
 7209.00    0.51174   0.51053   -2.000
 7210.00    0.47743   0.52249   -2.000
 7211.00    0.52021   0.53325   -2.000
 7212.00    0.57579   0.53431   -2.000
 7213.00    0.54837   0.52789   -2.000
 7214.00    0.51058   0.52294   -2.000
 7215.00    0.53882   0.52203   -2.000
 7216.00    0.57279   0.52397   -2.000
 7217.00    0.49764   0.52958   -2.000
 7218.00    0.41694   0.53585   -2.000
