###################################################################
## OUTPUT of StarlightChains_v04.for    [Cid@UFSC - 01/Apr/2007] ##
###################################################################

## Some input info
KUG0210-078._36_38.txt                   [arq_obs]
Base.CB07.vall.4m                        [arq_base]
Masks.EmLines.NEW.gm                     [arq_masks]
StCv04.C11.config                        [arq_config]
   66                                    [N_base]
    0                                    [N_YAV_components = # of components with extra extinction!]
    0                                    [i_FitPowerLaw (1/0 = Yes/No)]
-9.99                                    [alpha_PowerLaw]
CCM                                      [red_law_option]
 1.458241                                [q_norm = A(l_norm)/A(V)]

## (Re)Sampling Parameters
 3741.00                                 [l_ini (A)]
 7218.00                                 [l_fin (A)]
    1.00                                 [dl    (A)]     (OBS: dl_cushion =    50.00 A)

## Normalization info
 4020.00                                 [l_norm (A) - for base]
 4010.00                                 [llow_norm (A) - window for f_obs]
 4060.00                                 [lupp_norm (A) - window for f_obs]
2.055320E-17                             [fobs_norm (in input units)]

## S/N
 3691.00                                 [llow_SN (A) - window for S/N]
 7268.00                                 [lupp_SN (A) - window for S/N]
   5.334                                 [S/N in S/N window]
   4.752                                 [S/N in norm. window]
   0.027                                 [S/N_err in S/N window]
   0.024                                 [S/N_err in norm. window]
  1.0000                                 [fscale_chi2]

## etc...
    -2007602                             [idum_orig]
  2431                                   [NOl_eff]
  2413                                   [Nl_eff]
    18    NSIGMA                         [Ntot_cliped & clip_method]
  1636950                                [Nglobal_steps]
   7                                     [N_chains]
  45                                     [NEX0s_base = N_base in EX0s-fits]
 0   0   1       18   2.0   3.619E+03    [Clip-Bug, RC-Crash & Burn-In warning-flags, n_censored_weights, wei_nsig_threshold & wei_limit]
    53     51.784     50.868      0.916  [idt_all, wdt_TotTime, wdt_UsrTime & wdt_SysTime (sec)]

## Synthesis Results - Best model ##

 1.55181E-05                             [chi2/Nl_eff]
     7.26540                             [adev (%)]

   102.77879                             [sum-of-x (%)]
 1.98253E-17                             [Flux_tot (units of input spectrum!)]
 8.63585E-13                             [Mini_tot (???)]
 4.49410E-13                             [Mcor_tot (???)]

 -33.15                                  [v0_min  (km/s)]
 288.68                                  [vd_min  (km/s)]
-0.0473                                  [AV_min  (mag)]
 0.0000                                  [YAV_min (mag)]

# j     x_j(%)      Mini_j(%)     Mcor_j(%)     age_j(yr)     Z_j      (L/M)_j    YAV?  Mstars   component_j        a/Fe...       SSP_chi2r SSP_adev(%)   SSP_AV   SSP_x(%)
  1      0.0000     0.0000E+00    0.0000E+00    1.000000E+06  0.00400  1.094E-02    0   1.0000   age020_m42            0.0000     3.2104E-05    12.0989   3.5971    86.0974
  2      0.0000     0.0000E+00    0.0000E+00    3.160000E+06  0.00400  4.007E-02    0   0.9999   age045_m42            0.0000     2.6616E-05    10.9703   2.8589    92.3300
  3      0.0000     0.0000E+00    0.0000E+00    5.010000E+06  0.00400  2.539E-02    0   0.9488   age055_m42            0.0000     2.8963E-05    11.4677   3.1858    89.8826
  4      0.0000     0.0000E+00    0.0000E+00    6.610000E+06  0.00400  2.620E-02    0   0.9220   age061_m42            0.0000     2.6495E-05    10.9298   2.7895    92.3930
  5      0.0000     0.0000E+00    0.0000E+00    1.000000E+07  0.00400  1.322E-02    0   0.8862   age070_m42            0.0000     2.8278E-05    11.8184   2.5374    93.3780
  6      0.8643     2.4489E-03    4.0334E-03    1.445000E+07  0.00400  7.883E-03    0   0.8571   age078_m42            0.0000     2.9690E-05    12.0321   2.8617    91.1032
  7      0.0000     0.0000E+00    0.0000E+00    2.512000E+07  0.00400  5.251E-03    0   0.8174   age090_m42            0.0000     2.8377E-05    11.9684   2.4109    93.7767
  8      0.0000     0.0000E+00    0.0000E+00    4.000000E+07  0.00400  3.649E-03    0   0.7851   age104_m42            0.0000     2.7038E-05    11.5902   2.1774    94.7622
  9      0.0000     0.0000E+00    0.0000E+00    5.500000E+07  0.00400  3.098E-03    0   0.7629   age110_m42            0.0000     2.5783E-05    10.9686   2.3163    95.2533
 10      0.0000     0.0000E+00    0.0000E+00    1.015200E+08  0.00400  2.228E-03    0   0.7207   age116_m42            0.0000     2.4918E-05    10.5574   2.3259    95.7612
 11      0.0000     0.0000E+00    0.0000E+00    2.861200E+08  0.00400  1.093E-03    0   0.6648   age125_m42            0.0000     2.3931E-05    10.6099   1.7613    98.3081
 12      0.0000     0.0000E+00    0.0000E+00    5.088000E+08  0.00400  6.597E-04    0   0.6365   age130_m42            0.0000     2.2378E-05     9.8601   1.7353    99.7170
 13      0.0000     0.0000E+00    0.0000E+00    1.434000E+09  0.00400  2.132E-04    0   0.5798   age139_m42            0.0000     1.8316E-05     8.6206   0.7582   101.9457
 14      6.1045     2.3130E+00    2.3899E+00    4.250000E+09  0.00400  5.895E-05    0   0.5377   age158_m42            0.0000     1.6816E-05     7.9874   0.3020    98.5527
 15      0.0000     0.0000E+00    0.0000E+00    7.500000E+09  0.00400  3.510E-05    0   0.5212   age171_m42            0.0000     1.6434E-05     7.7653   0.1042    98.1936
 16      1.3913     1.5500E+00    1.4993E+00    1.300000E+10  0.00400  2.005E-05    0   0.5034   age193_m42            0.0000     1.6352E-05     7.6944  -0.0694    97.9183
 17      0.0000     0.0000E+00    0.0000E+00    1.800000E+10  0.00400  1.525E-05    0   0.4967   age213_m42            0.0000     1.6477E-05     7.7434  -0.0899    97.4083
 18      0.0000     0.0000E+00    0.0000E+00    1.000000E+06  0.00800  1.238E-02    0   1.0000   age020_m52            0.0000     3.2102E-05    12.0851   3.5921    86.3050
 19      0.0000     0.0000E+00    0.0000E+00    3.160000E+06  0.00800  3.074E-02    0   0.9966   age045_m52            0.0000     3.1645E-05    11.9701   3.5144    87.1156
 20      0.0000     0.0000E+00    0.0000E+00    5.010000E+06  0.00800  2.668E-02    0   0.9443   age055_m52            0.0000     2.9728E-05    11.5904   3.2705    89.0243
 21      0.0000     0.0000E+00    0.0000E+00    6.610000E+06  0.00800  2.136E-02    0   0.9177   age061_m52            0.0000     2.6587E-05    11.4248   2.0349    94.5818
 22      0.0000     0.0000E+00    0.0000E+00    1.000000E+07  0.00800  1.215E-02    0   0.8827   age070_m52            0.0000     2.9834E-05    12.3063   2.7228    92.9287
 23      0.0000     0.0000E+00    0.0000E+00    1.445000E+07  0.00800  8.717E-03    0   0.8552   age078_m52            0.0000     2.9179E-05    11.9235   2.8279    92.3505
 24      2.4438     9.7612E-03    1.5310E-02    2.512000E+07  0.00800  5.592E-03    0   0.8162   age090_m52            0.0000     2.8224E-05    11.9269   2.4730    94.9115
 25      0.0000     0.0000E+00    0.0000E+00    4.000000E+07  0.00800  3.896E-03    0   0.7841   age104_m52            0.0000     2.6748E-05    11.4513   2.3770    95.8973
 26      2.0111     2.0913E-02    2.9039E-02    1.015200E+08  0.00800  2.148E-03    0   0.7226   age116_m52            0.0000     2.4797E-05    10.7256   2.3016    96.2075
 27      0.0000     0.0000E+00    0.0000E+00    2.861200E+08  0.00800  9.925E-04    0   0.6683   age125_m52            0.0000     2.2214E-05     9.7701   1.7997   100.6493
 28      8.1668     5.8076E-01    6.8499E-01    9.047900E+08  0.00800  3.141E-04    0   0.6138   age135_m52            0.0000     1.7751E-05     8.2983   0.9742   105.7903
 29      0.0000     0.0000E+00    0.0000E+00    1.434000E+09  0.00800  1.719E-04    0   0.5853   age139_m52            0.0000     1.6592E-05     8.0928   0.3972   103.4626
 30      0.0000     0.0000E+00    0.0000E+00    2.500000E+09  0.00800  7.872E-05    0   0.5600   age150_m52            0.0000     1.5858E-05     7.5475   0.1116   101.3594
 31      0.0000     0.0000E+00    0.0000E+00    4.250000E+09  0.00800  4.336E-05    0   0.5426   age158_m52            0.0000     1.6022E-05     7.5613   0.0954   100.4345
 32      7.4430     5.2627E+00    5.3790E+00    6.250000E+09  0.00800  3.159E-05    0   0.5319   age166_m52            0.0000     1.5805E-05     7.4768  -0.1215   100.9027
 33      0.0000     0.0000E+00    0.0000E+00    1.300000E+10  0.00800  1.361E-05    0   0.5073   age193_m52            0.0000     1.6190E-05     7.6312  -0.6073   100.8136
 34      0.0000     0.0000E+00    0.0000E+00    1.800000E+10  0.00800  9.886E-06    0   0.4990   age213_m52            0.0000     1.6911E-05     8.0121  -0.7333   100.9085
 35      0.0000     0.0000E+00    0.0000E+00    1.000000E+06  0.02000  1.544E-02    0   1.0000   age020_m62            0.0000     3.2275E-05    12.1118   3.5875    86.5238
 36      0.0000     0.0000E+00    0.0000E+00    3.160000E+06  0.02000  3.762E-02    0   0.9858   age045_m62            0.0000     3.2288E-05    12.0701   3.5240    87.3678
 37      3.9621     2.6850E-03    4.8200E-03    5.010000E+06  0.02000  3.296E-02    0   0.9342   age055_m62            0.0000     2.7881E-05    11.1338   3.1391    91.2088
 38      0.0000     0.0000E+00    0.0000E+00    8.710000E+06  0.02000  1.154E-02    0   0.8861   age067_m62            0.0000     3.8301E-05    15.6341   2.2203    93.8529
 39      0.0000     0.0000E+00    0.0000E+00    1.445000E+07  0.02000  7.663E-03    0   0.8472   age078_m62            0.0000     3.1159E-05    13.0636   2.3807    94.5819
 40      0.0000     0.0000E+00    0.0000E+00    2.512000E+07  0.02000  4.532E-03    0   0.8099   age090_m62            0.0000     3.1396E-05    13.1832   2.3739    94.2283
 41      0.0000     0.0000E+00    0.0000E+00    5.500000E+07  0.02000  2.733E-03    0   0.7595   age110_m62            0.0000     2.6910E-05    11.4485   2.3615    95.1504
 42      0.0000     0.0000E+00    0.0000E+00    1.609000E+08  0.02000  1.369E-03    0   0.6985   age120_m62            0.0000     2.4139E-05    10.3601   2.1774    98.5470
 43      0.0000     0.0000E+00    0.0000E+00    2.861200E+08  0.02000  9.013E-04    0   0.6714   age125_m62            0.0000     2.2707E-05     9.7303   1.9129   101.9078
 44      8.9053     3.9561E-01    4.9025E-01    5.088000E+08  0.02000  5.028E-04    0   0.6449   age130_m62            0.0000     2.0074E-05     8.7179   1.5064   105.6614
 45      0.0000     0.0000E+00    0.0000E+00    9.047900E+08  0.02000  2.428E-04    0   0.6179   age135_m62            0.0000     1.6863E-05     7.8502   0.9090   105.3759
 46      0.0000     0.0000E+00    0.0000E+00    1.434000E+09  0.02000  1.263E-04    0   0.5908   age139_m62            0.0000     1.6068E-05     7.5698   0.4632   103.8593
 47      0.0000     0.0000E+00    0.0000E+00    2.500000E+09  0.02000  5.985E-05    0   0.5673   age150_m62            0.0000     1.5880E-05     7.5177   0.0785   103.0692
 48     25.6740     1.7532E+01    1.8421E+01    4.250000E+09  0.02000  3.271E-05    0   0.5468   age158_m62            0.0000     1.6090E-05     7.7477  -0.2488   102.9377
 49     17.4631     2.8681E+01    2.8477E+01    1.000000E+10  0.02000  1.360E-05    0   0.5167   age181_m62            0.0000     1.7741E-05     8.3308  -0.6257   103.4269
 50     10.1267     3.1751E+01    3.0585E+01    1.800000E+10  0.02000  7.124E-06    0   0.5013   age213_m62            0.0000     1.9801E-05     9.0412  -0.8615   103.4321
 51      0.0000     0.0000E+00    0.0000E+00    1.000000E+06  0.05000  2.592E-02    0   0.9998   age020_m72            0.0000     3.2883E-05    12.2462   3.5816    86.4852
 52      0.0000     0.0000E+00    0.0000E+00    3.160000E+06  0.05000  4.845E-02    0   0.9577   age045_m72            0.0000     3.0509E-05    11.6701   3.4021    88.6584
 53      0.0000     0.0000E+00    0.0000E+00    5.010000E+06  0.05000  3.072E-02    0   0.9147   age055_m72            0.0000     3.1647E-05    12.6019   2.9476    91.5248
 54      0.2423     3.7202E-04    6.3459E-04    6.610000E+06  0.05000  1.455E-02    0   0.8877   age061_m72            0.0000     4.5684E-05    18.2220   2.2601    94.2080
 55      0.0000     0.0000E+00    0.0000E+00    1.000000E+07  0.05000  9.074E-03    0   0.8524   age070_m72            0.0000     3.3184E-05    13.1812   3.1149    91.4013
 56      0.0000     0.0000E+00    0.0000E+00    2.512000E+07  0.05000  4.250E-03    0   0.7902   age090_m72            0.0000     3.0154E-05    12.4485   2.8219    93.0989
 57      0.0000     0.0000E+00    0.0000E+00    4.000000E+07  0.05000  3.087E-03    0   0.7618   age104_m72            0.0000     2.9579E-05    12.4909   2.5963    94.5694
 58      0.0000     0.0000E+00    0.0000E+00    1.015200E+08  0.05000  1.700E-03    0   0.7096   age116_m72            0.0000     2.5382E-05    10.8596   2.3268    97.8271
 59      0.0000     0.0000E+00    0.0000E+00    2.861200E+08  0.05000  7.384E-04    0   0.6633   age125_m72            0.0000     2.1281E-05     9.1475   1.7649   103.8704
 60      0.0000     0.0000E+00    0.0000E+00    5.088000E+08  0.05000  3.819E-04    0   0.6372   age130_m72            0.0000     1.8106E-05     8.1216   1.2506   106.4025
 61      0.0000     0.0000E+00    0.0000E+00    9.047900E+08  0.05000  1.676E-04    0   0.6110   age135_m72            0.0000     1.6318E-05     7.7833   0.5316   105.2930
 62      0.0000     0.0000E+00    0.0000E+00    1.434000E+09  0.05000  8.837E-05    0   0.5874   age139_m72            0.0000     1.6044E-05     7.5415   0.0710   104.8121
 63      0.5090     2.6856E-01    2.8889E-01    2.500000E+09  0.05000  4.233E-05    0   0.5598   age150_m72            0.0000     1.6529E-05     7.9722  -0.2612   104.2330
 64      7.4717     1.1630E+01    1.1730E+01    6.250000E+09  0.05000  1.435E-05    0   0.5249   age166_m72            0.0000     1.8383E-05     8.5943  -0.7326   103.3384
 65      0.0000     0.0000E+00    0.0000E+00    1.300000E+10  0.05000  6.513E-06    0   0.5036   age193_m72            0.0000     2.1256E-05     9.1833  -1.0000   104.1264
 66      0.0000     0.0000E+00    0.0000E+00    1.800000E+10  0.05000  4.527E-06    0   0.4945   age213_m72            0.0000     2.5200E-05     9.1390  -1.0000    99.5096


## Synthesis Results - Average & Chains ##

# j      x_j: min, <> & last-chain-values for 1 ...  7 chains
  1      0.0000      5.6842     11.7843      6.9969      0.0000      0.6779      0.0000      0.8144     13.0897
  2      0.0000      0.9932      0.0559      1.4572      0.0000      0.0000      2.6622      0.0000      0.1349
  3      0.0000      1.0081      0.0000      0.0000      5.9616      1.2366      0.7557      0.8623      0.1316
  4      0.0000      1.1869      0.6680      0.1813      0.0000      0.6434      1.5126      1.7855      0.0000
  5      0.0000      1.2983      0.0474      0.2491      1.2482      0.9966      0.8586      0.8945      0.0000
  6      0.8643      1.2416      0.0404      0.6643      0.4371      0.6433      0.5623      0.8667      0.0519
  7      0.0000      1.1217      0.2016      1.2590      3.1016      3.1308      0.0000      0.2003      0.0000
  8      0.0000      1.0775      0.4353      1.1505      0.0000      1.2003      0.0000      0.8501      0.0280
  9      0.0000      1.2281      0.0000      0.0000      0.7243      0.9150      1.1917      0.0000      0.0000
 10      0.0000      1.1817      0.9238      0.8243      0.7259      0.0000      0.4983      3.7930      0.0041
 11      0.0000      1.0425      0.0000      0.0000      0.1840      0.0000      0.3168      1.0254      0.2488
 12      0.0000      0.9305      0.4401      0.0000      0.0000      2.5255      0.0000      0.0000      0.0000
 13      0.0000      0.9831      2.1119      0.6183      0.6033      0.0000      0.0000      1.0082      0.2761
 14      6.1045      1.2518      1.2249      1.6595      5.8591      2.8810      0.5275      7.7128      0.0000
 15      0.0000      1.4514      0.6835      0.1701      1.0723      0.0000      0.0000      4.1100      0.2650
 16      1.3913      1.0584      0.6945      1.1527      3.3256      1.5273      0.0000      9.6325      1.5032
 17      0.0000      0.9963      0.0775      0.0000      0.0000      0.0000      0.9106      0.0000      0.4028
 18      0.0000      2.2106      4.0295      0.9751      0.0000      3.4674      1.5238      3.9864      4.2043
 19      0.0000      2.3749      3.8441      2.8041      1.2698      2.5410      1.0228      3.0808      4.2946
 20      0.0000      1.0767      0.2899      2.3509      0.0000      0.6628      0.1809      0.6715      0.0000
 21      0.0000      1.2597      0.0000      0.0137      2.1598      0.0000      1.1703      0.0000      0.0000
 22      0.0000      1.3267      0.0009      0.9825      0.0000      0.0000      0.7604      1.5602      0.0756
 23      0.0000      0.8839      0.1329      1.1703      0.0000      0.3057      0.0000      2.6733      0.2196
 24      2.4438      0.9511      0.3326      0.2351      2.9809      0.5629      0.0000      0.3403      0.0116
 25      0.0000      1.1279      0.3122      1.3384      0.1193      1.1247      2.9546      2.1105      0.0000
 26      2.0111      0.8921      0.2775      0.5309      4.3032      0.9621      0.1704      0.0000      0.0000
 27      0.0000      0.9276      0.7678      0.0000      0.0000      2.9891      1.1260      0.0000      0.1611
 28      8.1668      0.9827      0.7290      2.8138      4.5719      2.5198      0.0000      0.0000      0.6331
 29      0.0000      1.0059      0.0000      0.6328      0.0000      4.5191      1.8079      0.0000      0.3002
 30      0.0000      1.2990      0.1296      0.2497      0.0000      0.0000      1.7569      2.5167      0.0000
 31      0.0000      1.0909      0.0255      0.0000      0.9556      3.8449      0.0000      3.7306      0.0000
 32      7.4430      1.1489      0.2501      2.2105      7.6296      4.3309      1.5959      1.2044      0.4786
 33      0.0000      2.5508      1.3832      3.1996      3.8756      5.8106     11.3595      6.0883      0.9391
 34      0.0000      1.2135      0.0000      0.2664      1.0114      0.0000      1.1767      2.6834      0.5463
 35      0.0000      2.0199      3.3096      2.3075      1.4496      2.7352      4.6174      0.6706      3.7758
 36      0.0000      0.7891      0.4871      0.0000      0.8216      1.6404      3.0751      0.0000      0.6854
 37      3.9621      1.4103      0.1700      0.6512      0.4835      2.3575      2.6734      1.4634      0.5398
 38      0.0000      1.2779      0.0000      1.1539      0.0434      0.4014      0.2049      1.0090      0.3500
 39      0.0000      1.1521      0.0000      0.6293      1.9875      0.7014      3.1295      0.0000      0.0806
 40      0.0000      1.0500      0.1318      1.9546      0.5175      2.8893      0.2074      0.0000      0.0247
 41      0.0000      1.2762      0.2277      0.3993      0.0000      0.0000      0.0000      0.6950      0.0525
 42      0.0000      1.0778      0.3640      0.0000      0.0937      0.1388      0.1735      1.2068      0.2500
 43      0.0000      1.1125      0.1580      0.1662      0.0000      0.0000      1.8974      0.0000      0.0000
 44      8.9053      1.2575      0.1387      0.0101      0.2900      0.5418      0.0000      5.4815      0.4404
 45      0.0000      1.4167      0.8856      1.5598      0.6618      2.6478      1.5775      0.0000      0.4389
 46      0.0000      1.4703      0.1310      0.8819      2.7398      2.5912      2.7410      1.2687      0.8043
 47      0.0000      3.1289      4.5632      3.2127      0.0000      1.4599      6.2021      2.1352      5.6402
 48     25.6740      2.2051      5.1878      4.3064      2.0962      4.2178      8.4855      0.0000      5.7618
 49     17.4631      4.8793      9.4367     10.1504      2.6234      8.8449      4.7590      3.4078      9.8886
 50     10.1267      4.5031      7.8195      7.5170      5.7718      4.2304      2.2299      3.5767      9.6305
 51      0.0000      4.9471     10.9235      6.1599      0.0000      0.2491      3.1024      0.0000     11.9706
 52      0.0000      1.1899      0.7663      0.0000      3.1788      0.0000      1.0833      0.0353      0.0000
 53      0.0000      1.4092      1.0241      0.0000      5.5436      1.5348      2.7778      0.0000      0.0467
 54      0.2423      1.1056      0.0000      0.1195      0.9098      0.7102      0.0000      0.8306      0.0000
 55      0.0000      1.5652      0.0971      1.9739      1.7761      1.4007      0.0000      3.3817      0.3305
 56      0.0000      1.2890      0.0000      0.7692      0.0000      0.1323      0.0075      0.0000      0.4262
 57      0.0000      1.2503      0.5176      0.7256      0.4818      2.4640      1.1803      1.5522      0.0138
 58      0.0000      1.3346      0.0000      0.9980      1.3639      2.3958      0.6596      0.7430      0.0000
 59      0.0000      1.1758      1.2049      1.1170      0.0000      0.5391      0.7196      4.5525      0.5555
 60      0.0000      1.2045      0.8893      1.8817      0.5169      2.8563      3.0204      0.3483      0.1104
 61      0.0000      1.6566      1.3810      1.6406      4.6216      0.0000      2.3970      0.0000      1.5703
 62      0.0000      2.8595      4.9642      4.0748      6.5169      0.0000      2.8490      1.4358      5.8303
 63      0.5090      4.4617      7.4952      7.3860      3.2985      4.4315      4.3459      5.9708      8.5029
 64      7.4717      2.6695      4.2209      2.8584      1.6603      1.5995      0.4127      0.7839      5.4843
 65      0.0000      2.9287      6.9684      3.6195      0.0000      2.5715      7.2253      0.3068      6.2335
 66      0.0000      2.0594      4.4635      4.1241      8.5587      1.4363      3.0106      3.8013      2.2517

# j      m_j: min, <> & last-chain-values for 1 ...  7 chains
  1  0.0000E+00  3.4075E-02  4.3573E-02  2.8718E-02  0.0000E+00  3.7602E-03  0.0000E+00  4.1262E-03  4.9315E-02
  2  0.0000E+00  1.6254E-03  5.6427E-05  1.6328E-03  0.0000E+00  0.0000E+00  3.1378E-03  0.0000E+00  1.3876E-04
  3  0.0000E+00  2.4705E-03  0.0000E+00  0.0000E+00  1.0312E-02  2.8044E-03  1.3338E-03  1.7860E-03  2.0265E-04
  4  0.0000E+00  2.7391E-03  9.5091E-04  2.8651E-04  0.0000E+00  1.3741E-03  2.5142E-03  3.4828E-03  0.0000E+00
  5  0.0000E+00  5.7079E-03  1.2863E-04  7.4990E-04  3.8730E-03  4.0542E-03  2.7184E-03  3.3237E-03  0.0000E+00
  6  4.0334E-03  8.8536E-03  1.7761E-04  3.2433E-03  2.1996E-03  4.2447E-03  2.8878E-03  5.2231E-03  2.3237E-04
  7  0.0000E+00  1.1451E-02  1.2694E-03  8.8000E-03  2.2348E-02  2.9575E-02  0.0000E+00  1.7282E-03  0.0000E+00
  8  0.0000E+00  1.5203E-02  3.7888E-03  1.1115E-02  0.0000E+00  1.5672E-02  0.0000E+00  1.0139E-02  2.4874E-04
  9  0.0000E+00  1.9833E-02  0.0000E+00  0.0000E+00  8.2557E-03  1.3674E-02  1.3861E-02  0.0000E+00  0.0000E+00
 10  0.0000E+00  2.5069E-02  1.2088E-02  1.1973E-02  1.0869E-02  0.0000E+00  7.6132E-03  6.8008E-02  5.4329E-05
 11  0.0000E+00  4.1585E-02  0.0000E+00  0.0000E+00  5.1815E-03  0.0000E+00  9.1003E-03  3.4572E-02  6.2373E-03
 12  0.0000E+00  5.8880E-02  1.7175E-02  0.0000E+00  0.0000E+00  1.4787E-01  0.0000E+00  0.0000E+00  0.0000E+00
 13  0.0000E+00  1.7534E-01  2.3233E-01  7.5497E-02  7.5945E-02  0.0000E+00  0.0000E+00  1.5197E-01  3.0947E-02
 14  2.3899E+00  7.4884E-01  4.5193E-01  6.7969E-01  2.4737E+00  1.5947E+00  2.2727E-01  3.8995E+00  0.0000E+00
 15  0.0000E+00  1.4134E+00  4.1055E-01  1.1344E-01  7.3701E-01  0.0000E+00  0.0000E+00  3.3828E+00  1.6221E-01
 16  1.4993E+00  1.7428E+00  7.0540E-01  1.2995E+00  3.8648E+00  2.3271E+00  0.0000E+00  1.3405E+01  1.5556E+00
 17  0.0000E+00  2.1281E+00  1.0211E-01  0.0000E+00  0.0000E+00  0.0000E+00  1.4009E+00  0.0000E+00  5.4080E-01
 18  0.0000E+00  1.1711E-02  1.3166E-02  3.5366E-03  0.0000E+00  1.6997E-02  5.8134E-03  1.7848E-02  1.3997E-02
 19  0.0000E+00  5.0495E-03  5.0413E-03  4.0820E-03  1.9056E-03  4.9992E-03  1.5662E-03  5.5364E-03  5.7387E-03
 20  0.0000E+00  2.4991E-03  4.1502E-04  3.7362E-03  0.0000E+00  1.4236E-03  3.0236E-04  1.3175E-03  0.0000E+00
 21  0.0000E+00  3.5495E-03  0.0000E+00  2.6491E-05  4.2952E-03  0.0000E+00  2.3749E-03  0.0000E+00  0.0000E+00
 22  0.0000E+00  6.3209E-03  2.7074E-06  3.2051E-03  0.0000E+00  0.0000E+00  2.6092E-03  6.2828E-03  2.2652E-04
 23  0.0000E+00  5.6869E-03  5.2733E-04  5.1556E-03  0.0000E+00  1.8200E-03  0.0000E+00  1.4537E-02  8.8799E-04
 24  1.5310E-02  9.1045E-03  1.9639E-03  1.5407E-03  2.0139E-02  4.9856E-03  0.0000E+00  2.7535E-03  6.9601E-05
 25  0.0000E+00  1.4887E-02  2.5420E-03  1.2095E-02  1.1110E-03  1.3736E-02  2.8086E-02  2.3544E-02  0.0000E+00
 26  2.9039E-02  1.9681E-02  3.7757E-03  8.0200E-03  6.7006E-02  1.9641E-02  2.7071E-03  0.0000E+00  0.0000E+00
 27  0.0000E+00  4.0961E-02  2.0912E-02  0.0000E+00  0.0000E+00  1.2214E-01  3.5812E-02  0.0000E+00  4.4706E-03
 28  6.8499E-01  1.2594E-01  5.7629E-02  2.4690E-01  4.1354E-01  2.9882E-01  0.0000E+00  0.0000E+00  5.0994E-02
 29  0.0000E+00  2.2461E-01  0.0000E+00  9.6751E-02  0.0000E+00  9.3377E-01  2.9075E-01  0.0000E+00  4.2135E-02
 30  0.0000E+00  6.0602E-01  3.7287E-02  7.9770E-02  0.0000E+00  0.0000E+00  5.9030E-01  9.9237E-01  0.0000E+00
 31  0.0000E+00  8.9524E-01  1.2911E-02  0.0000E+00  5.5350E-01  2.9198E+00  0.0000E+00  2.5877E+00  0.0000E+00
 32  5.3790E+00  1.2687E+00  1.7033E-01  1.6712E+00  5.9463E+00  4.4253E+00  1.2692E+00  1.1241E+00  3.3215E-01
 33  0.0000E+00  6.2353E+00  2.0855E+00  5.3551E+00  6.6866E+00  1.3143E+01  1.9999E+01  1.2579E+01  1.4428E+00
 34  0.0000E+00  4.0170E+00  0.0000E+00  6.0373E-01  2.3631E+00  0.0000E+00  2.8054E+00  7.5077E+00  1.1365E+00
 35  0.0000E+00  8.5798E-03  8.6707E-03  6.7107E-03  4.3457E-03  1.0750E-02  1.4125E-02  2.4074E-03  1.0079E-02
 36  0.0000E+00  1.3561E-03  5.1627E-04  0.0000E+00  9.9648E-04  2.6086E-03  3.8060E-03  0.0000E+00  7.4022E-04
 37  4.8200E-03  2.6215E-03  1.9495E-04  8.2877E-04  6.3427E-04  4.0550E-03  3.5789E-03  2.2991E-03  6.3061E-04
 38  0.0000E+00  6.4349E-03  0.0000E+00  3.9784E-03  1.5440E-04  1.8704E-03  7.4305E-04  4.2943E-03  1.1076E-03
 39  0.0000E+00  8.3532E-03  0.0000E+00  3.1242E-03  1.0171E-02  4.7056E-03  1.6342E-02  0.0000E+00  3.6714E-04
 40  0.0000E+00  1.2305E-02  9.5289E-04  1.5684E-02  4.2803E-03  3.1334E-02  1.7502E-03  0.0000E+00  1.8209E-04
 41  0.0000E+00  2.3258E-02  2.5600E-03  4.9823E-03  0.0000E+00  0.0000E+00  0.0000E+00  1.0705E-02  6.0097E-04
 42  0.0000E+00  3.6065E-02  7.5124E-03  0.0000E+00  2.2120E-03  4.2975E-03  4.1812E-03  3.4130E-02  5.2566E-03
 43  0.0000E+00  5.4350E-02  4.7609E-03  5.5603E-03  0.0000E+00  0.0000E+00  6.6757E-02  0.0000E+00  0.0000E+00
 44  4.9025E-01  1.0578E-01  7.1981E-03  5.7953E-04  1.7218E-02  4.2168E-02  0.0000E+00  3.8970E-01  2.3283E-02
 45  0.0000E+00  2.3644E-01  9.1171E-02  1.7824E-01  7.7962E-02  4.0892E-01  1.8961E-01  0.0000E+00  4.6040E-02
 46  0.0000E+00  4.5104E-01  2.4787E-02  1.8524E-01  5.9323E-01  7.3557E-01  6.0560E-01  3.2895E-01  1.5507E-01
 47  0.0000E+00  1.9450E+00  1.7496E+00  1.3674E+00  0.0000E+00  8.3975E-01  2.7767E+00  1.1218E+00  2.2035E+00
 48  1.8421E+01  2.4174E+00  3.5080E+00  3.2324E+00  1.6220E+00  4.2787E+00  6.6998E+00  0.0000E+00  3.9699E+00
 49  2.8477E+01  1.2157E+01  1.4503E+01  1.7316E+01  4.6135E+00  2.0393E+01  8.5400E+00  7.1766E+00  1.5485E+01
 50  3.0585E+01  2.0781E+01  2.2258E+01  2.3751E+01  1.8800E+01  1.8065E+01  7.4113E+00  1.3951E+01  2.7931E+01
 51  0.0000E+00  1.2514E-02  1.7044E-02  1.0669E-02  0.0000E+00  5.8306E-04  5.6521E-03  0.0000E+00  1.9031E-02
 52  0.0000E+00  1.5425E-03  6.1272E-04  0.0000E+00  2.9085E-03  0.0000E+00  1.0114E-03  3.8645E-05  0.0000E+00
 53  0.0000E+00  2.7518E-03  1.2334E-03  0.0000E+00  7.6403E-03  2.7732E-03  3.9065E-03  0.0000E+00  5.7256E-05
 54  6.3459E-04  4.4237E-03  0.0000E+00  3.2746E-04  2.5692E-03  2.6295E-03  0.0000E+00  2.8090E-03  0.0000E+00
 55  0.0000E+00  9.6426E-03  3.6908E-04  8.3260E-03  7.7228E-03  7.9847E-03  0.0000E+00  1.7608E-02  1.2797E-03
 56  0.0000E+00  1.5717E-02  0.0000E+00  6.4221E-03  0.0000E+00  1.4922E-03  6.5442E-05  0.0000E+00  3.2660E-03
 57  0.0000E+00  2.0235E-02  5.1667E-03  8.0403E-03  5.5030E-03  3.6900E-02  1.3757E-02  2.1232E-02  1.4026E-04
 58  0.0000E+00  3.6534E-02  0.0000E+00  1.8706E-02  2.6352E-02  6.0688E-02  1.3005E-02  1.7191E-02  0.0000E+00
 59  0.0000E+00  6.9268E-02  4.3781E-02  4.5053E-02  0.0000E+00  2.9389E-02  3.0531E-02  2.2667E-01  2.0567E-02
 60  0.0000E+00  1.3180E-01  6.0021E-02  1.4097E-01  3.9919E-02  2.8921E-01  2.3803E-01  3.2216E-02  7.5950E-03
 61  0.0000E+00  3.9607E-01  2.0366E-01  2.6855E-01  7.7987E-01  0.0000E+00  4.1273E-01  0.0000E+00  2.3594E-01
 62  0.0000E+00  1.2465E+00  1.3348E+00  1.2162E+00  2.0051E+00  0.0000E+00  8.9446E-01  5.2901E-01  1.5973E+00
 63  2.8889E-01  3.8696E+00  4.0096E+00  4.3859E+00  2.0191E+00  3.5564E+00  2.7146E+00  4.3768E+00  4.6347E+00
 64  1.1730E+01  6.4038E+00  6.2454E+00  4.6947E+00  2.8111E+00  3.5506E+00  7.1301E-01  1.5894E+00  8.2683E+00
 65  0.0000E+00  1.4851E+01  2.1796E+01  1.2567E+01  0.0000E+00  1.2066E+01  2.6387E+01  1.3150E+00  1.9866E+01
 66  0.0000E+00  1.4753E+01  1.9723E+01  2.0228E+01  4.3274E+01  9.5212E+00  1.5533E+01  2.3016E+01  1.0137E+01

# AV, chi2 & Mass for <> & i_chain = 1 ...  7 solutions
AV      -0.0473      0.2292      0.2289      0.2655      0.2652      0.4392      0.2127      0.3549      0.1966
chi2 1.5518E-05  4.0123E-05  2.3425E-05  2.1387E-05  2.2013E-05  2.1099E-05  2.2411E-05  2.1719E-05  2.3590E-05
Mass 4.4941E-13  4.2636E-13  6.9094E-13  6.5382E-13  6.3402E-13  6.1092E-13  5.7907E-13  5.9725E-13  6.4932E-13
 -33.15                                  [v0_min (km/s) before EX0s...]
 288.68                                  [vd_min (km/s) before EX0s...]


## Synthetic spectrum (Best Model) ##l_obs f_obs f_syn wei
 3478    [Nl_obs]
 3741.00    0.37042   0.49956    0.000
 3742.00    0.25572   0.49699    0.000
 3743.00    0.01007   0.48675    0.000
 3744.00   -0.07465   0.47311    0.000
 3745.00   -0.06559   0.46085    0.000
 3746.00    0.13095   0.44882    0.051
 3747.00    0.42269   0.44133    0.051
 3748.00    0.43898   0.44387    0.051
 3749.00    0.33416   0.45272    0.050
 3750.00    0.34849   0.46637    0.050
 3751.00    0.40782   0.48663    0.049
 3752.00    0.39030   0.50950    0.049
 3753.00    0.34815   0.52948    0.048
 3754.00    0.45412   0.54505    0.048
 3755.00    0.59979   0.55561    0.048
 3756.00    0.72763   0.56110    0.048
 3757.00    0.85156   0.56244    0.048
 3758.00    0.78457   0.55944    0.048
 3759.00    0.68425   0.55551    0.047
 3760.00    0.55308   0.55373    0.049
 3761.00    0.41780   0.55077    0.052
 3762.00    0.34475   0.54798    0.048
 3763.00    0.27756   0.54780    0.044
 3764.00    0.24059   0.54519    0.043
 3765.00    0.20537   0.54253    0.043
 3766.00    0.32034   0.54487    0.043
 3767.00    0.43922   0.54639    0.043
 3768.00    0.59987   0.54768    0.044
 3769.00    0.74885   0.55613    0.045
 3770.00    0.61414   0.56776    0.044
 3771.00    0.48828   0.57842    0.043
 3772.00    0.47833   0.59263    0.044
 3773.00    0.47154   0.61013    0.044
 3774.00    0.49246   0.62695    0.044
 3775.00    0.50968   0.64299    0.043
 3776.00    0.50283   0.65890    0.044
 3777.00    0.49293   0.67464    0.044
 3778.00    0.46757   0.68846    0.045
 3779.00    0.45618   0.69840    0.045
 3780.00    0.50195   0.70522    0.046
 3781.00    0.54238   0.70861    0.047
 3782.00    0.56467   0.70654    0.048
 3783.00    0.55451   0.69805    0.048
 3784.00    0.45150   0.68510    0.048
 3785.00    0.38266   0.67057    0.047
 3786.00    0.39731   0.65258    0.047
 3787.00    0.44020   0.63174    0.047
 3788.00    0.54260   0.61366    0.047
 3789.00    0.59801   0.59717    0.047
 3790.00    0.56734   0.57908    0.047
 3791.00    0.56291   0.56247    0.046
 3792.00    0.60048   0.54789    0.046
 3793.00    0.61019   0.53306    0.045
 3794.00    0.58077   0.52004    0.045
 3795.00    0.52405   0.51036    0.044
 3796.00    0.43358   0.50476    0.043
 3797.00    0.40147   0.50627    0.043
 3798.00    0.43295   0.51411    0.043
 3799.00    0.49853   0.52658    0.044
 3800.00    0.59687   0.54534    0.044
 3801.00    0.68305   0.56787    0.045
 3802.00    0.75893   0.58932    0.047
 3803.00    0.77543   0.61001    0.047
 3804.00    0.74763   0.62880    0.046
 3805.00    0.69868   0.64307    0.045
 3806.00    0.63588   0.65440    0.045
 3807.00    0.59890   0.66169    0.044
 3808.00    0.57675   0.66426    0.043
 3809.00    0.62296   0.66466    0.043
 3810.00    0.70334   0.66047    0.044
 3811.00    0.69705   0.65139    0.045
 3812.00    0.65328   0.64119    0.046
 3813.00    0.71479   0.62800    0.047
 3814.00    0.81535   0.61235    0.047
 3815.00    0.87052   0.59882    0.047
 3816.00    0.91142   0.58554    0.048
 3817.00    0.81374   0.57159    0.048
 3818.00    0.67971   0.56010    0.047
 3819.00    0.64145   0.54997    0.046
 3820.00    0.62370   0.53918    0.045
 3821.00    0.52452   0.52810    0.046
 3822.00    0.41152   0.51751    0.046
 3823.00    0.29730   0.50714    0.046
 3824.00    0.18293   0.49564    0.045
 3825.00    0.11399   0.48369    0.044
 3826.00    0.04913   0.47239    0.044
 3827.00    0.18531   0.46101    0.044
 3828.00    0.33230   0.44952    0.045
 3829.00    0.25429   0.43757    0.045
 3830.00    0.17276   0.42574    0.045
 3831.00    0.17463   0.41589    0.045
 3832.00    0.18202   0.40655    0.045
 3833.00    0.31181   0.39886    0.045
 3834.00    0.42705   0.39633    0.045
 3835.00    0.36138   0.39697    0.045
 3836.00    0.30946   0.40159    0.044
 3837.00    0.37378   0.41317    0.044
 3838.00    0.44899   0.42815    0.044
 3839.00    0.59274   0.44690    0.045
 3840.00    0.70198   0.47090    0.045
 3841.00    0.64094   0.49492    0.045
 3842.00    0.57371   0.51913    0.044
 3843.00    0.48169   0.54375    0.045
 3844.00    0.41471   0.56379    0.045
 3845.00    0.43098   0.58085    0.045
 3846.00    0.46631   0.59562    0.045
 3847.00    0.55520   0.60441    0.000
 3848.00    0.61715   0.61025    0.000
 3849.00    0.61440   0.61549    0.000
 3850.00    0.52429   0.61624    0.000
 3851.00    0.25301   0.61407    0.000
 3852.00    0.10140   0.61312    0.000
 3853.00    0.16565   0.60936    0.000
 3854.00    0.30482   0.60240    0.000
 3855.00    0.56214   0.59816    0.000
 3856.00    0.71685   0.59418    0.000
 3857.00    0.72951   0.58938    0.000
 3858.00    0.65951   0.58932    0.000
 3859.00    0.48881   0.59240    0.000
 3860.00    0.46545   0.59621    0.000
 3861.00    0.60036   0.60293    0.000
 3862.00    0.70975   0.61075    0.000
 3863.00    0.79498   0.61690    0.000
 3864.00    0.75081   0.62134    0.000
 3865.00    0.59854   0.62337    0.000
 3866.00    0.62997   0.62234    0.000
 3867.00    0.79650   0.61895    0.000
 3868.00    0.83534   0.61406    0.000
 3869.00    0.79169   0.60872    0.000
 3870.00    0.66885   0.60344    0.000
 3871.00    0.50126   0.59934    0.000
 3872.00    0.46423   0.59680    0.000
 3873.00    0.49142   0.59399    0.000
 3874.00    0.46855   0.59197    0.000
 3875.00    0.42441   0.59014    0.000
 3876.00    0.43491   0.58527    0.000
 3877.00    0.46531   0.58001    0.000
 3878.00    0.44562   0.57488    0.000
 3879.00    0.41048   0.56649    0.000
 3880.00    0.52460   0.55722    0.000
 3881.00    0.67704   0.54950    0.043
 3882.00    0.71890   0.54093    0.043
 3883.00    0.73765   0.53039    0.044
 3884.00    0.62825   0.52209    0.043
 3885.00    0.49771   0.51801    0.043
 3886.00    0.49615   0.51441    0.044
 3887.00    0.51056   0.51435    0.045
 3888.00    0.54961   0.52262    0.045
 3889.00    0.59077   0.53430    0.044
 3890.00    0.58958   0.54785    0.044
 3891.00    0.58629   0.56653    0.044
 3892.00    0.60779   0.58640    0.045
 3893.00    0.62920   0.60342    0.045
 3894.00    0.61872   0.62003    0.045
 3895.00    0.60414   0.63561    0.045
 3896.00    0.50559   0.64720    0.045
 3897.00    0.42514   0.65610    0.044
 3898.00    0.55883   0.66431    0.044
 3899.00    0.67789   0.67151    0.044
 3900.00    0.67773   0.67516    0.042
 3901.00    0.68290   0.67860    0.042
 3902.00    0.72061   0.68533    0.041
 3903.00    0.72939   0.68949    0.041
 3904.00    0.59891   0.69446    0.039
 3905.00    0.51665   0.70519    0.038
 3906.00    0.62322   0.71544    0.039
 3907.00    0.69376   0.72624    0.040
 3908.00    0.64690   0.73946    0.040
 3909.00    0.58508   0.75134    0.040
 3910.00    0.48201   0.76120    0.042
 3911.00    0.45248   0.76732    0.043
 3912.00    0.59660   0.77014    0.044
 3913.00    0.70243   0.76997    0.045
 3914.00    0.73011   0.76384    0.046
 3915.00    0.76253   0.75481    0.046
 3916.00    0.80336   0.74462    0.046
 3917.00    0.80362   0.73064    0.046
 3918.00    0.74085   0.71560    0.046
 3919.00    0.68325   0.70157    0.045
 3920.00    0.63270   0.68607    0.045
 3921.00    0.67048   0.66973    0.045
 3922.00    0.81438   0.65375    0.045
 3923.00    0.87526   0.63481    0.046
 3924.00    0.84821   0.61282    0.046
 3925.00    0.72959   0.58864    0.045
 3926.00    0.52541   0.56002    0.045
 3927.00    0.41050   0.52895    0.045
 3928.00    0.36912   0.49735    0.045
 3929.00    0.33485   0.46596    0.045
 3930.00    0.30576   0.43838    0.044
 3931.00    0.30359   0.41668    0.044
 3932.00    0.31857   0.40258    0.043
 3933.00    0.37233   0.39794    0.043
 3934.00    0.44766   0.40305    0.043
 3935.00    0.42755   0.41689    0.044
 3936.00    0.36123   0.43773    0.045
 3937.00    0.34192   0.46461    0.045
 3938.00    0.34226   0.49395    0.045
 3939.00    0.40411   0.52258    0.046
 3940.00    0.48798   0.55211    0.046
 3941.00    0.55176   0.57981    0.046
 3942.00    0.60947   0.60291    0.047
 3943.00    0.60514   0.62606    0.047
 3944.00    0.58522   0.64833    0.046
 3945.00    0.60105   0.66667    0.047
 3946.00    0.62417   0.68483    0.047
 3947.00    0.71124   0.70178    0.047
 3948.00    0.80854   0.71545    0.048
 3949.00    0.74383   0.72811    0.048
 3950.00    0.65978   0.73673    0.048
 3951.00    0.55047   0.74150    0.048
 3952.00    0.43909   0.74543    0.048
 3953.00    0.39980   0.74357    0.048
 3954.00    0.36382   0.73671    0.048
 3955.00    0.60316   0.72815    0.049
 3956.00    0.84501   0.71311    0.049
 3957.00    1.03415   0.69275    0.051
 3958.00    1.20132   0.66907    0.052
 3959.00    0.95219   0.63875    0.050
 3960.00    0.71665   0.60469    0.000
 3961.00    0.63441   0.56850    0.000
 3962.00    0.55959   0.52874    0.000
 3963.00    0.54311   0.48933    0.000
 3964.00    0.51097   0.45256    0.000
 3965.00    0.38599   0.41908    0.000
 3966.00    0.28770   0.39237    0.000
 3967.00    0.31470   0.37461    0.000
 3968.00    0.30804   0.36677    0.000
 3969.00    0.17238   0.37038    0.000
 3970.00    0.08849   0.38552    0.000
 3971.00    0.17006   0.41030    0.000
 3972.00    0.30165   0.44374    0.000
 3973.00    0.56869   0.48412    0.000
 3974.00    0.82821   0.52721    0.000
 3975.00    1.07027   0.57153    0.000
 3976.00    1.14053   0.61537    0.000
 3977.00    0.86573   0.65557    0.000
 3978.00    0.67661   0.69215    0.000
 3979.00    0.63739   0.72378    0.000
 3980.00    0.68195   0.75041    0.000
 3981.00    0.85479   0.77314    0.047
 3982.00    0.91263   0.79162    0.048
 3983.00    0.81580   0.80857    0.048
 3984.00    0.83080   0.82263    0.048
 3985.00    0.97821   0.83439    0.048
 3986.00    1.04756   0.84806    0.048
 3987.00    1.03539   0.85838    0.047
 3988.00    1.01004   0.86657    0.047
 3989.00    0.97256   0.87638    0.046
 3990.00    0.98829   0.88276    0.046
 3991.00    1.04722   0.88739    0.046
 3992.00    0.99584   0.89147    0.045
 3993.00    0.86564   0.89367    0.045
 3994.00    0.92107   0.89652    0.046
 3995.00    1.09289   0.89865    0.046
 3996.00    1.14361   0.90051    0.046
 3997.00    1.12796   0.90537    0.047
 3998.00    1.15337   0.91009    0.047
 3999.00    1.19834   0.91262    0.046
 4000.00    1.22581   0.91589    0.046
 4001.00    1.24609   0.91925    0.047
 4002.00    1.13419   0.91938    0.047
 4003.00    0.97585   0.91733    0.047
 4004.00    0.99739   0.91747    0.047
 4005.00    1.07222   0.91915    0.048
 4006.00    1.05953   0.92049    0.049
 4007.00    1.02534   0.92448    0.049
 4008.00    0.94744   0.93179    0.049
 4009.00    0.86085   0.93953    0.048
 4010.00    1.09685   0.94788    0.048
 4011.00    1.38298   0.95739    0.049
 4012.00    1.24984   0.96478    0.048
 4013.00    1.06849   0.97189    0.048
 4014.00    0.98429   0.97924    0.048
 4015.00    0.90760   0.98227    0.049
 4016.00    0.97248   0.98540    0.049
 4017.00    1.04332   0.98985    0.048
 4018.00    0.95634   0.99026    0.048
 4019.00    0.86493   0.98960    0.048
 4020.00    0.64235   0.99017    0.047
 4021.00    0.44751   0.98935    0.046
 4022.00    0.74166   0.98630    0.048
 4023.00    1.01631   0.98339    0.049
 4024.00    1.08115   0.98096    0.049
 4025.00    1.14260   0.97500    0.049
 4026.00    1.17828   0.96817    0.048
 4027.00    1.19234   0.96136    0.047
 4028.00    1.08175   0.94955    0.047
 4029.00    0.93646   0.93904    0.047
 4030.00    0.63220   0.93208    0.046
 4031.00    0.44560   0.92439    0.045
 4032.00    0.70035   0.92229    0.045
 4033.00    0.93282   0.92588    0.045
 4034.00    1.09542   0.93231    0.046
 4035.00    1.16707   0.94275    0.046
 4036.00    0.99676   0.95321    0.044
 4037.00    0.87992   0.96223    0.044
 4038.00    0.88520   0.96768    0.044
 4039.00    0.92755   0.96738    0.044
 4040.00    1.04315   0.96385    0.046
 4041.00    1.09410   0.95560    0.046
 4042.00    1.03366   0.94376    0.046
 4043.00    0.96271   0.93190    0.046
 4044.00    0.87590   0.92239    0.047
 4045.00    0.81551   0.91965    0.047
 4046.00    0.79014   0.91993    0.046
 4047.00    0.85155   0.92220    0.046
 4048.00    1.01428   0.93101    0.047
 4049.00    1.24282   0.93974    0.047
 4050.00    1.53912   0.94484    0.048
 4051.00    1.59774   0.95018    0.048
 4052.00    1.44051   0.95130    0.048
 4053.00    1.21719   0.94761    0.048
 4054.00    0.94098   0.94442    0.047
 4055.00    0.84134   0.93763    0.047
 4056.00    0.86603   0.92863    0.046
 4057.00    1.00000   0.92271    0.047
 4058.00    1.20148   0.91565    0.048
 4059.00    1.23745   0.90844    0.048
 4060.00    1.18411   0.90307    0.047
 4061.00    1.03349   0.89606    0.047
 4062.00    0.83727   0.89193    0.047
 4063.00    0.72945   0.89298    0.047
 4064.00    0.65735   0.89229    0.047
 4065.00    0.57412   0.89301    0.047
 4066.00    0.48706   0.89851    0.046
 4067.00    0.48693   0.90384    0.046
 4068.00    0.51204   0.90780    0.046
 4069.00    0.57178   0.90892    0.047
 4070.00    0.63985   0.90956    0.048
 4071.00    0.84594   0.91159    0.048
 4072.00    1.07878   0.90886    0.048
 4073.00    1.18353   0.90522    0.049
 4074.00    1.26897   0.90415    0.049
 4075.00    1.16347   0.90227    0.049
 4076.00    1.03684   0.90391    0.049
 4077.00    1.10257   0.90872    0.049
 4078.00    1.18238   0.91471    0.049
 4079.00    1.06191   0.92491    0.049
 4080.00    0.93376   0.93551    0.049
 4081.00    0.80147   0.94540    0.048
 4082.00    0.68101   0.95696    0.047
 4083.00    1.00720   0.96699    0.047
 4084.00    1.30762   0.97536    0.048
 4085.00    1.18315   0.98347    0.047
 4086.00    1.06013   0.98971    0.047
 4087.00    0.95202   0.99287    0.047
 4088.00    0.86124   0.99325    0.047
 4089.00    0.89763   0.99075    0.047
 4090.00    0.93157   0.98260    0.046
 4091.00    0.95179   0.97069    0.046
 4092.00    0.97970   0.95614    0.000
 4093.00    1.04210   0.93479    0.000
 4094.00    1.05891   0.91106    0.000
 4095.00    0.90829   0.88748    0.000
 4096.00    0.79193   0.86128    0.000
 4097.00    0.78094   0.83705    0.000
 4098.00    0.79656   0.81617    0.000
 4099.00    0.88173   0.79765    0.000
 4100.00    0.91515   0.78731    0.000
 4101.00    0.83238   0.78510    0.000
 4102.00    0.76209   0.78704    0.000
 4103.00    0.71611   0.79659    0.000
 4104.00    0.71145   0.81245    0.000
 4105.00    0.77689   0.82921    0.000
 4106.00    0.84285   0.84804    0.000
 4107.00    0.90956   0.86681    0.000
 4108.00    0.98207   0.88323    0.000
 4109.00    1.06216   0.89913    0.000
 4110.00    1.09525   0.91265    0.000
 4111.00    1.07422   0.92447    0.000
 4112.00    0.97732   0.93533    0.000
 4113.00    0.80340   0.94341    0.044
 4114.00    0.80140   0.95049    0.044
 4115.00    0.95333   0.95635    0.044
 4116.00    1.05864   0.95843    0.044
 4117.00    1.12716   0.95944    0.044
 4118.00    1.07554   0.96142    0.063
 4119.00    0.94054   0.96121    0.230
 4120.00    0.95388   0.96022   -1.000
 4121.00    1.05750   0.96019   -1.000
 4122.00    1.08293   0.95998   -1.000
 4123.00    1.06682   0.95959   -1.000
 4124.00    1.03737   0.95715   -1.000
 4125.00    1.00176   0.95352   -1.000
 4126.00    1.09656   0.94953    0.128
 4127.00    1.24315   0.94372    0.053
 4128.00    1.22490   0.93782    0.046
 4129.00    1.15087   0.93227    0.046
 4130.00    0.96093   0.92695    0.045
 4131.00    0.73801   0.92604    0.045
 4132.00    0.73036   0.92694    0.045
 4133.00    0.77325   0.92989    0.044
 4134.00    0.87412   0.93753    0.045
 4135.00    0.98594   0.94311    0.045
 4136.00    0.93382   0.94915    0.046
 4137.00    0.85776   0.95492    0.047
 4138.00    0.89181   0.95522    0.046
 4139.00    0.93756   0.95412    0.045
 4140.00    0.92235   0.94968    0.045
 4141.00    0.90293   0.94172    0.045
 4142.00    0.92042   0.93585    0.046
 4143.00    0.93919   0.93162    0.048
 4144.00    1.26463   0.92709    0.048
 4145.00    1.57469   0.92517    0.048
 4146.00    1.35640   0.92633    0.047
 4147.00    1.14934   0.92690    0.046
 4148.00    1.11605   0.92805    0.046
 4149.00    1.06654   0.92966    0.046
 4150.00    0.85710   0.92959    0.046
 4151.00    0.71577   0.93039    0.047
 4152.00    1.05789   0.93083    0.047
 4153.00    1.33465   0.93209    0.047
 4154.00    1.25458   0.93520    0.047
 4155.00    1.16742   0.93896    0.046
 4156.00    1.04928   0.94592    0.046
 4157.00    0.90680   0.95390    0.045
 4158.00    0.67678   0.96220    0.043
 4159.00    0.53008   0.97058    0.042
 4160.00    0.63485   0.97815    0.044
 4161.00    0.70421   0.98463    0.044
 4162.00    0.68263   0.98684    0.045
 4163.00    0.70202   0.98729    0.044
 4164.00    0.81192   0.98586    0.044
 4165.00    0.87274   0.97934    0.044
 4166.00    0.83952   0.97210    0.044
 4167.00    0.87483   0.96406    0.044
 4168.00    1.02467   0.95327    0.044
 4169.00    1.13114   0.94288    0.044
 4170.00    1.17404   0.93150    0.044
 4171.00    1.13232   0.92136    0.044
 4172.00    0.98161   0.91473    0.044
 4173.00    0.91314   0.90842    0.044
 4174.00    0.93801   0.90482    0.044
 4175.00    0.96453   0.90444    0.044
 4176.00    0.99272   0.90576    0.044
 4177.00    0.99212   0.90979    0.044
 4178.00    0.96611   0.91490    0.043
 4179.00    0.89165   0.91946    0.042
 4180.00    0.77949   0.92455    0.041
 4181.00    0.80217   0.93074    0.041
 4182.00    0.91708   0.93560    0.042
 4183.00    0.96873   0.94004    0.042
 4184.00    0.98247   0.94359    0.041
 4185.00    0.92076   0.94518    0.041
 4186.00    0.81959   0.94929    0.041
 4187.00    0.88809   0.95313    0.041
 4188.00    1.03356   0.95431    0.042
 4189.00    1.05747   0.95575    0.042
 4190.00    1.03396   0.95716    0.042
 4191.00    0.97336   0.95772    0.042
 4192.00    0.90043   0.95492    0.041
 4193.00    0.80018   0.94898    0.041
 4194.00    0.69231   0.94215    0.041
 4195.00    0.76946   0.93483    0.042
 4196.00    0.88905   0.92622    0.043
 4197.00    1.00733   0.91790    0.043
 4198.00    1.12538   0.91351    0.043
 4199.00    1.05895   0.91109    0.043
 4200.00    0.96643   0.91139    0.043
 4201.00    1.09128   0.91736    0.042
 4202.00    1.23830   0.92504    0.042
 4203.00    1.08672   0.93458    0.042
 4204.00    0.91569   0.94719    0.042
 4205.00    0.96669   0.95895    0.042
 4206.00    1.02436   0.97047    0.042
 4207.00    0.98614   0.98016    0.042
 4208.00    0.95002   0.98556    0.043
 4209.00    0.97552   0.99079    0.043
 4210.00    1.00414   0.99441    0.043
 4211.00    1.07816   0.99415    0.044
 4212.00    1.13263   0.99395    0.044
 4213.00    1.00219   0.99299    0.043
 4214.00    0.89201   0.99259    0.042
 4215.00    0.92109   0.99462    0.042
 4216.00    0.92141   0.99436    0.042
 4217.00    0.76883   0.99315    0.042
 4218.00    0.68430   0.99135    0.042
 4219.00    0.89036   0.98505    0.042
 4220.00    1.05086   0.97413    0.042
 4221.00    1.05079   0.95986    0.042
 4222.00    0.99986   0.94276    0.042
 4223.00    0.79830   0.92457    0.042
 4224.00    0.68541   0.90806    0.042
 4225.00    0.79632   0.89493    0.043
 4226.00    0.87543   0.88976    0.043
 4227.00    0.88543   0.89119    0.043
 4228.00    0.94788   0.89582    0.043
 4229.00    1.10924   0.90655    0.042
 4230.00    1.12064   0.91945    0.041
 4231.00    0.88517   0.93050    0.040
 4232.00    0.76947   0.94197    0.040
 4233.00    0.82667   0.95050    0.040
 4234.00    0.89665   0.95629    0.041
 4235.00    0.98285   0.96340    0.041
 4236.00    1.05051   0.96887    0.041
 4237.00    1.09744   0.97493    0.040
 4238.00    1.18983   0.98302    0.040
 4239.00    1.32709   0.99116    0.041
 4240.00    1.25089   0.99971    0.041
 4241.00    0.98891   1.00701    0.041
 4242.00    0.87009   1.01370    0.041
 4243.00    0.86103   1.01646    0.041
 4244.00    0.87257   1.01518    0.042
 4245.00    0.89798   1.01197    0.043
 4246.00    0.97704   1.00453    0.043
 4247.00    1.08777   0.99585    0.043
 4248.00    1.17504   0.98558    0.043
 4249.00    1.25022   0.97613    0.044
 4250.00    1.15414   0.97053    0.044
 4251.00    0.98165   0.96409    0.044
 4252.00    0.97576   0.95947    0.044
 4253.00    1.03374   0.95837    0.044
 4254.00    0.93334   0.95892    0.042
 4255.00    0.78132   0.96176    0.041
 4256.00    0.83152   0.96335    0.041
 4257.00    0.93692   0.96597    0.041
 4258.00    0.90338   0.97172    0.041
 4259.00    0.83870   0.97779    0.042
 4260.00    0.68156   0.98557    0.041
 4261.00    0.50789   0.99326    0.040
 4262.00    0.80192   1.00006    0.041
 4263.00    1.15994   1.00602    0.043
 4264.00    1.13846   1.00815    0.042
 4265.00    1.07992   1.00508    0.041
 4266.00    0.97880   0.99771    0.040
 4267.00    0.87507   0.98549    0.040
 4268.00    0.86423   0.96974    0.040
 4269.00    0.85536   0.95344    0.039
 4270.00    0.74081   0.93801    0.039
 4271.00    0.63242   0.92778    0.039
 4272.00    0.68661   0.92096    0.039
 4273.00    0.74432   0.91872    0.038
 4274.00    0.85049   0.92513    0.039
 4275.00    0.95394   0.93390    0.039
 4276.00    1.03263   0.94477    0.040
 4277.00    1.10614   0.95675    0.040
 4278.00    1.14509   0.96479    0.041
 4279.00    1.18615   0.97316    0.041
 4280.00    1.23814   0.97803    0.041
 4281.00    1.27030   0.97669    0.041
 4282.00    1.21967   0.97411   -2.000
 4283.00    1.12402   0.96727   -2.000
 4284.00    0.87295   0.95924   -2.000
 4285.00    0.64224   0.95119   -2.000
 4286.00    0.47067   0.94078   -2.000
 4287.00    0.43821   0.93053   -2.000
 4288.00    0.75078   0.92216   -2.000
 4289.00    1.03440   0.91631   -2.000
 4290.00    1.25611   0.91048   -2.000
 4291.00    1.36242   0.90563   -2.000
 4292.00    1.25445   0.89907   -2.000
 4293.00    1.18096   0.89210   -2.000
 4294.00    1.16340   0.88522   -2.000
 4295.00    1.09410   0.87229   -2.000
 4296.00    0.95123   0.85805   -2.000
 4297.00    0.82319   0.84195   -2.000
 4298.00    0.71373   0.82406    0.040
 4299.00    0.65142   0.80906    0.040
 4300.00    0.64112   0.79304    0.040
 4301.00    0.65665   0.77867    0.040
 4302.00    0.69732   0.76943    0.040
 4303.00    0.75331   0.76135    0.040
 4304.00    0.82244   0.75696    0.040
 4305.00    0.80664   0.75661    0.039
 4306.00    0.72666   0.75875    0.039
 4307.00    0.72999   0.76783    0.039
 4308.00    0.78863   0.78191    0.039
 4309.00    0.90976   0.80154    0.040
 4310.00    1.06724   0.82735    0.040
 4311.00    1.08084   0.85778    0.039
 4312.00    1.02152   0.89296    0.038
 4313.00    0.97821   0.92930    0.038
 4314.00    0.94192   0.96548    0.038
 4315.00    0.90159   0.99726    0.038
 4316.00    0.85973   1.02194    0.038
 4317.00    0.95747   1.03976    0.039
 4318.00    1.09983   1.04883    0.040
 4319.00    1.13521   1.04845    0.040
 4320.00    1.14201   1.04177    0.040
 4321.00    1.12795   1.02833    0.040
 4322.00    1.10932   1.01242    0.040
 4323.00    1.08992   0.99971    0.040
 4324.00    1.07038   0.98920    0.040
 4325.00    1.05200   0.98611    0.040
 4326.00    1.03377   0.98751    0.039
 4327.00    0.98625   0.99272    0.040
 4328.00    0.93601   1.00278    0.040
 4329.00    1.06727   1.01300    0.040
 4330.00    1.20891   1.02249    0.000
 4331.00    1.13938   1.02666    0.000
 4332.00    1.06456   1.02449    0.000
 4333.00    0.94659   1.01559    0.000
 4334.00    0.83324   1.00073    0.000
 4335.00    0.83094   0.98123    0.000
 4336.00    0.83966   0.95879    0.000
 4337.00    0.99198   0.93797    0.000
 4338.00    1.13109   0.91977    0.000
 4339.00    1.15487   0.90769    0.000
 4340.00    1.16131   0.90362    0.000
 4341.00    1.05571   0.90646    0.000
 4342.00    0.97381   0.91651    0.000
 4343.00    1.01148   0.93243    0.000
 4344.00    1.04752   0.95079    0.000
 4345.00    1.07695   0.97007    0.000
 4346.00    1.09462   0.98809    0.000
 4347.00    1.07250   1.00171    0.000
 4348.00    1.07526   1.01195    0.000
 4349.00    1.14902   1.01890    0.000
 4350.00    1.16697   1.02373    0.000
 4351.00    1.04887   1.02871    0.042
 4352.00    1.01198   1.03320    0.049
 4353.00    1.14588   1.03826    0.126
 4354.00    1.21149   1.04517   -1.000
 4355.00    1.15225   1.05418   -1.000
 4356.00    1.09916   1.06539   -1.000
 4357.00    1.05589   1.07753   -1.000
 4358.00    1.02599   1.08982   -1.000
 4359.00    1.01480   1.10151   -1.000
 4360.00    1.02316   1.11233    0.181
 4361.00    1.05562   1.12131    0.056
 4362.00    1.19331   1.12823    0.041
 4363.00    1.44544   1.13274    0.041
 4364.00    1.45442   1.13360    0.041
 4365.00    1.23014   1.13153    0.041
 4366.00    1.14094   1.12627    0.041
 4367.00    1.16599   1.11948    0.041
 4368.00    1.10128   1.11108    0.041
 4369.00    0.96970   1.10091    0.042
 4370.00    0.95107   1.09056    0.042
 4371.00    1.00633   1.08019    0.041
 4372.00    0.98759   1.07161    0.041
 4373.00    0.92645   1.06432    0.041
 4374.00    0.95835   1.05727    0.041
 4375.00    1.03666   1.05060    0.041
 4376.00    1.10914   1.04254    0.041
 4377.00    1.17911   1.03371    0.042
 4378.00    1.18389   1.02302    0.041
 4379.00    1.16455   1.00977    0.040
 4380.00    1.03113   0.99576    0.040
 4381.00    0.86193   0.98072    0.040
 4382.00    0.79845   0.96866    0.040
 4383.00    0.76262   0.96018    0.039
 4384.00    0.81701   0.95555    0.039
 4385.00    0.89068   0.95596    0.040
 4386.00    0.98926   0.95981    0.039
 4387.00    1.09206   0.96970    0.039
 4388.00    1.16877   0.98348    0.040
 4389.00    1.24213   0.99861    0.041
 4390.00    1.19009   1.01350    0.041
 4391.00    1.12686   1.02621    0.040
 4392.00    1.00103   1.03936    0.039
 4393.00    0.87187   1.05185    0.038
 4394.00    0.95528   1.06191    0.039
 4395.00    1.04092   1.06950    0.040
 4396.00    0.96955   1.07229    0.039
 4397.00    0.90608   1.07281    0.039
 4398.00    1.01651   1.07132    0.040
 4399.00    1.11210   1.06644    0.041
 4400.00    1.02424   1.05970    0.041
 4401.00    0.95724   1.05055    0.041
 4402.00    1.06572   1.04184    0.041
 4403.00    1.15064   1.03570    0.041
 4404.00    1.08792   1.03278    0.040
 4405.00    1.02468   1.03363    0.039
 4406.00    0.95890   1.03738    0.040
 4407.00    0.93468   1.04419    0.040
 4408.00    1.07636   1.05433    0.039
 4409.00    1.17645   1.06671    0.039
 4410.00    1.13862   1.07787    0.039
 4411.00    1.10753   1.08642    0.040
 4412.00    1.09532   1.09406    0.040
 4413.00    1.12315   1.10016    0.040
 4414.00    1.24695   1.10601    0.039
 4415.00    1.29475   1.11073    0.039
 4416.00    1.18526   1.11381    0.038
 4417.00    1.13584   1.11723    0.038
 4418.00    1.19455   1.11925    0.039
 4419.00    1.22707   1.12263    0.039
 4420.00    1.21833   1.12632    0.038
 4421.00    1.17555   1.12758    0.038
 4422.00    1.08573   1.12890    0.038
 4423.00    1.03035   1.12817    0.038
 4424.00    1.01686   1.12693    0.038
 4425.00    1.02851   1.12567    0.038
 4426.00    1.06710   1.12239    0.038
 4427.00    1.14291   1.12117    0.039
 4428.00    1.25394   1.11872    0.039
 4429.00    1.27118   1.11551    0.039
 4430.00    1.21021   1.11312    0.039
 4431.00    1.17450   1.10946    0.039
 4432.00    1.15734   1.10844    0.040
 4433.00    1.17210   1.10822    0.040
 4434.00    1.20744   1.10969    0.040
 4435.00    1.07060   1.11430    0.039
 4436.00    0.83664   1.11786    0.038
 4437.00    0.89311   1.12188    0.038
 4438.00    1.09217   1.12590    0.038
 4439.00    1.17568   1.13041    0.039
 4440.00    1.21017   1.13644    0.039
 4441.00    1.14957   1.14152    0.039
 4442.00    1.05440   1.14641    0.038
 4443.00    1.08708   1.15004    0.039
 4444.00    1.15906   1.15401    0.039
 4445.00    1.20454   1.15769    0.039
 4446.00    1.24323   1.15980    0.038
 4447.00    1.23418   1.16163    0.038
 4448.00    1.21517   1.16008    0.038
 4449.00    1.26413   1.15541    0.038
 4450.00    1.32427   1.14650    0.038
 4451.00    1.23783   1.13442    0.038
 4452.00    1.13334   1.12255    0.038
 4453.00    1.14200   1.10845    0.037
 4454.00    1.16029   1.09526    0.037
 4455.00    1.14775   1.08333    0.037
 4456.00    1.13368   1.07295    0.037
 4457.00    1.15344   1.06542    0.037
 4458.00    1.17399   1.06057    0.037
 4459.00    1.21061   1.06176    0.037
 4460.00    1.24411   1.06524    0.037
 4461.00    1.21453   1.07095    0.000
 4462.00    1.18042   1.07839    0.000
 4463.00    1.09300   1.08701    0.000
 4464.00    1.03017   1.09757    0.000
 4465.00    1.16673   1.10681    0.000
 4466.00    1.28293   1.11825    0.000
 4467.00    1.27516   1.12947    0.000
 4468.00    1.25419   1.13995    0.000
 4469.00    1.16995   1.15181    0.000
 4470.00    1.11461   1.16311    0.000
 4471.00    1.17215   1.17445    0.000
 4472.00    1.22274   1.18471    0.000
 4473.00    1.25071   1.19442    0.000
 4474.00    1.25571   1.20260    0.000
 4475.00    1.19752   1.20739    0.000
 4476.00    1.14303   1.20883    0.000
 4477.00    1.09724   1.20789    0.000
 4478.00    1.07344   1.20495    0.000
 4479.00    1.09441   1.20244    0.000
 4480.00    1.12632   1.20061    0.000
 4481.00    1.17765   1.19893    0.000
 4482.00    1.18817   1.19801    0.036
 4483.00    1.13542   1.19701    0.036
 4484.00    1.18046   1.19703    0.036
 4485.00    1.35869   1.19694    0.036
 4486.00    1.44277   1.19704    0.036
 4487.00    1.41397   1.19693    0.036
 4488.00    1.33614   1.19508    0.036
 4489.00    1.20647   1.19259    0.036
 4490.00    1.15645   1.18833    0.036
 4491.00    1.18069   1.18505    0.036
 4492.00    1.19329   1.18334    0.036
 4493.00    1.19632   1.18408    0.036
 4494.00    1.20891   1.18849    0.036
 4495.00    1.22842   1.19387    0.036
 4496.00    1.16856   1.20166    0.036
 4497.00    1.05826   1.20926    0.035
 4498.00    1.09834   1.21984    0.035
 4499.00    1.22194   1.23371    0.035
 4500.00    1.21725   1.24688    0.035
 4501.00    1.15057   1.26028    0.035
 4502.00    1.12086   1.27121    0.035
 4503.00    1.10656   1.28039    0.035
 4504.00    1.21266   1.28743    0.036
 4505.00    1.36173   1.29238    0.036
 4506.00    1.38460   1.29651    0.036
 4507.00    1.36941   1.29700    0.036
 4508.00    1.33991   1.29391    0.036
 4509.00    1.30683   1.28914    0.036
 4510.00    1.36871   1.28285    0.036
 4511.00    1.44989   1.27619    0.035
 4512.00    1.42530   1.27007    0.035
 4513.00    1.38384   1.26346    0.035
 4514.00    1.33773   1.25688    0.035
 4515.00    1.29106   1.25135    0.035
 4516.00    1.29170   1.24603    0.035
 4517.00    1.29617   1.24196    0.035
 4518.00    1.21679   1.23638    0.034
 4519.00    1.13360   1.22979    0.034
 4520.00    1.16156   1.22275    0.034
 4521.00    1.18926   1.21196    0.035
 4522.00    1.13436   1.20053    0.035
 4523.00    1.08276   1.18683    0.035
 4524.00    1.09308   1.17205    0.034
 4525.00    1.10228   1.15714    0.034
 4526.00    1.09898   1.14316    0.035
 4527.00    1.09667   1.13202    0.035
 4528.00    1.10212   1.12428    0.035
 4529.00    1.10916   1.11826    0.034
 4530.00    1.12568   1.11573    0.034
 4531.00    1.13110   1.11730    0.035
 4532.00    1.08455   1.12226    0.035
 4533.00    1.07112   1.13292    0.035
 4534.00    1.18428   1.14286    0.035
 4535.00    1.27664   1.15438    0.035
 4536.00    1.30263   1.16512    0.035
 4537.00    1.30789   1.17432    0.035
 4538.00    1.25709   1.18425    0.035
 4539.00    1.19186   1.19239    0.035
 4540.00    1.09318   1.19919    0.034
 4541.00    1.02771   1.20169    0.034
 4542.00    1.02878   1.20205    0.034
 4543.00    1.03622   1.20071    0.034
 4544.00    1.05476   1.19815    0.034
 4545.00    1.08885   1.19453    0.033
 4546.00    1.14670   1.19148    0.034
 4547.00    1.21188   1.18902    0.034
 4548.00    1.28689   1.18514    0.035
 4549.00    1.26995   1.18386    0.035
 4550.00    1.14432   1.18331    0.000
 4551.00    1.10143   1.18460    0.000
 4552.00    1.14479   1.18768    0.000
 4553.00    1.18704   1.19343    0.000
 4554.00    1.22828   1.20169    0.000
 4555.00    1.23987   1.20948    0.000
 4556.00    1.22744   1.21771    0.000
 4557.00    1.26037   1.22585    0.000
 4558.00    1.32563   1.23360    0.000
 4559.00    1.35185   1.23933    0.000
 4560.00    1.35364   1.24383    0.000
 4561.00    1.34699   1.24640    0.000
 4562.00    1.33573   1.24768    0.000
 4563.00    1.25804   1.24903    0.000
 4564.00    1.14878   1.24933    0.000
 4565.00    1.14337   1.24978    0.000
 4566.00    1.18056   1.25020    0.000
 4567.00    1.24229   1.24968    0.000
 4568.00    1.31262   1.25066    0.000
 4569.00    1.34428   1.25335    0.000
 4570.00    1.36452   1.25529    0.000
 4571.00    1.36296   1.25597    0.000
 4572.00    1.35605   1.25513    0.000
 4573.00    1.18973   1.25360    0.000
 4574.00    0.99181   1.25003    0.000
 4575.00    1.10598   1.24475    0.000
 4576.00    1.26846   1.24026    0.000
 4577.00    1.25275   1.23392    0.000
 4578.00    1.21664   1.22719    0.000
 4579.00    1.13225   1.22090    0.000
 4580.00    1.04415   1.21500    0.000
 4581.00    1.08773   1.21099    0.000
 4582.00    1.13680   1.20779    0.000
 4583.00    1.17364   1.20764    0.000
 4584.00    1.20799   1.20929    0.000
 4585.00    1.14016   1.21258    0.000
 4586.00    1.08160   1.21597    0.000
 4587.00    1.18513   1.21818    0.000
 4588.00    1.27796   1.22040    0.000
 4589.00    1.25644   1.22117    0.000
 4590.00    1.22343   1.22153    0.000
 4591.00    1.10370   1.22044    0.000
 4592.00    1.01923   1.21834    0.000
 4593.00    1.13748   1.21588    0.000
 4594.00    1.23138   1.21248    0.000
 4595.00    1.21407   1.21066    0.000
 4596.00    1.19551   1.20898    0.000
 4597.00    1.17233   1.20879    0.000
 4598.00    1.16705   1.21012    0.000
 4599.00    1.21779   1.21186    0.000
 4600.00    1.24930   1.21608    0.000
 4601.00    1.22978   1.22001    0.000
 4602.00    1.21992   1.22681    0.000
 4603.00    1.23208   1.23387    0.000
 4604.00    1.23539   1.24195    0.000
 4605.00    1.22125   1.25159    0.000
 4606.00    1.19444   1.25981    0.000
 4607.00    1.14585   1.26804    0.000
 4608.00    1.13143   1.27512    0.000
 4609.00    1.16846   1.28145    0.000
 4610.00    1.19202   1.28653    0.000
 4611.00    1.19776   1.29112    0.000
 4612.00    1.19307   1.29346    0.000
 4613.00    1.17624   1.29504    0.000
 4614.00    1.16175   1.29566    0.000
 4615.00    1.14967   1.29599    0.000
 4616.00    1.17027   1.29660    0.000
 4617.00    1.22050   1.29746    0.000
 4618.00    1.23514   1.29865    0.000
 4619.00    1.22134   1.29869    0.000
 4620.00    1.19605   1.29931    0.000
 4621.00    1.16269   1.29939    0.000
 4622.00    1.21747   1.29868    0.000
 4623.00    1.32660   1.29807    0.000
 4624.00    1.35246   1.29765    0.000
 4625.00    1.33348   1.29585    0.000
 4626.00    1.34860   1.29366    0.000
 4627.00    1.37967   1.29162    0.000
 4628.00    1.37692   1.28825    0.000
 4629.00    1.36053   1.28389    0.000
 4630.00    1.37714   1.27956    0.000
 4631.00    1.40510   1.27429    0.000
 4632.00    1.37084   1.26818    0.000
 4633.00    1.31856   1.26149    0.000
 4634.00    1.30195   1.25470    0.000
 4635.00    1.29388   1.24816    0.000
 4636.00    1.28519   1.24068    0.000
 4637.00    1.27638   1.23470    0.000
 4638.00    1.21574   1.22878    0.000
 4639.00    1.14733   1.22306    0.000
 4640.00    1.11770   1.21723    0.000
 4641.00    1.09234   1.21146    0.000
 4642.00    1.11496   1.20617    0.000
 4643.00    1.14108   1.20102    0.000
 4644.00    1.13728   1.19755    0.000
 4645.00    1.13235   1.19507    0.000
 4646.00    1.07504   1.19376    0.000
 4647.00    1.02173   1.19416    0.000
 4648.00    1.12630   1.19607    0.000
 4649.00    1.22471   1.19966    0.000
 4650.00    1.22258   1.20443    0.000
 4651.00    1.22079   1.21090    0.000
 4652.00    1.22263   1.21845    0.000
 4653.00    1.21863   1.22619    0.000
 4654.00    1.17207   1.23431    0.000
 4655.00    1.12806   1.24086    0.000
 4656.00    1.09835   1.24678    0.000
 4657.00    1.06660   1.24989    0.000
 4658.00    1.02572   1.25109    0.000
 4659.00    1.03024   1.24998    0.000
 4660.00    1.20103   1.24556    0.000
 4661.00    1.31210   1.23897    0.000
 4662.00    1.23991   1.22943    0.000
 4663.00    1.18240   1.21861    0.000
 4664.00    1.16312   1.20746    0.000
 4665.00    1.16489   1.19782    0.000
 4666.00    1.21383   1.19018    0.000
 4667.00    1.20468   1.18570    0.000
 4668.00    1.08275   1.18470    0.000
 4669.00    1.00325   1.18633    0.000
 4670.00    0.99563   1.19090    0.000
 4671.00    1.04897   1.19720    0.000
 4672.00    1.19277   1.20483    0.000
 4673.00    1.26069   1.21182    0.000
 4674.00    1.22965   1.21770    0.000
 4675.00    1.20294   1.22182    0.000
 4676.00    1.18122   1.22398    0.000
 4677.00    1.20988   1.22530    0.000
 4678.00    1.28959   1.22531    0.000
 4679.00    1.30649   1.22530    0.000
 4680.00    1.26725   1.22501    0.000
 4681.00    1.24462   1.22440    0.000
 4682.00    1.23508   1.22445    0.000
 4683.00    1.25167   1.22481    0.000
 4684.00    1.28636   1.22567    0.000
 4685.00    1.23808   1.22676    0.000
 4686.00    1.13940   1.22825    0.000
 4687.00    1.15943   1.22957    0.000
 4688.00    1.24240   1.23065    0.000
 4689.00    1.24401   1.23192    0.000
 4690.00    1.20817   1.23263    0.000
 4691.00    1.25746   1.23305    0.000
 4692.00    1.34047   1.23270    0.000
 4693.00    1.30153   1.23152    0.000
 4694.00    1.22143   1.22944    0.000
 4695.00    1.19037   1.22612    0.000
 4696.00    1.17324   1.22203    0.000
 4697.00    1.18171   1.21646    0.000
 4698.00    1.19618   1.21118    0.000
 4699.00    1.18658   1.20531    0.000
 4700.00    1.17247   1.19998    0.000
 4701.00    1.15433   1.19504    0.000
 4702.00    1.13562   1.19116    0.000
 4703.00    1.17130   1.18909    0.000
 4704.00    1.21274   1.18810    0.000
 4705.00    1.20854   1.18951    0.000
 4706.00    1.20121   1.19126    0.000
 4707.00    1.13858   1.19497    0.000
 4708.00    1.07408   1.19895    0.000
 4709.00    1.15604   1.20432    0.000
 4710.00    1.23606   1.21079    0.000
 4711.00    1.24525   1.21789    0.000
 4712.00    1.25510   1.22615    0.000
 4713.00    1.27510   1.23497    0.000
 4714.00    1.28093   1.24493    0.000
 4715.00    1.14766   1.25448    0.000
 4716.00    1.03467   1.26387    0.000
 4717.00    1.06503   1.27231    0.000
 4718.00    1.09933   1.27964    0.000
 4719.00    1.15510   1.28542    0.000
 4720.00    1.19204   1.28878    0.000
 4721.00    1.14688   1.28893    0.000
 4722.00    1.12461   1.28646    0.000
 4723.00    1.18444   1.28120    0.000
 4724.00    1.24348   1.27397    0.000
 4725.00    1.30014   1.26530    0.000
 4726.00    1.32133   1.25613    0.000
 4727.00    1.25164   1.24764    0.000
 4728.00    1.20526   1.23992    0.000
 4729.00    1.21029   1.23479    0.000
 4730.00    1.21561   1.23078    0.000
 4731.00    1.22148   1.22934    0.000
 4732.00    1.23120   1.23059    0.000
 4733.00    1.24735   1.23358    0.000
 4734.00    1.24244   1.23799    0.000
 4735.00    1.20675   1.24310    0.000
 4736.00    1.19411   1.24898    0.000
 4737.00    1.21113   1.25468    0.000
 4738.00    1.22152   1.26053    0.000
 4739.00    1.22441   1.26548    0.000
 4740.00    1.21085   1.27067    0.000
 4741.00    1.18086   1.27565    0.000
 4742.00    1.21848   1.27979    0.000
 4743.00    1.31569   1.28388    0.000
 4744.00    1.34536   1.28720    0.000
 4745.00    1.32260   1.28961    0.000
 4746.00    1.29033   1.29063    0.000
 4747.00    1.25158   1.29118    0.000
 4748.00    1.20013   1.28993    0.000
 4749.00    1.14110   1.28804    0.000
 4750.00    1.14824   1.28464    0.000
 4751.00    1.18993   1.28071    0.000
 4752.00    1.24568   1.27640    0.000
 4753.00    1.30781   1.27135    0.000
 4754.00    1.24011   1.26664    0.000
 4755.00    1.12188   1.26125    0.000
 4756.00    1.19412   1.25613    0.000
 4757.00    1.32947   1.25055    0.000
 4758.00    1.31298   1.24521    0.000
 4759.00    1.25426   1.23953    0.000
 4760.00    1.16826   1.23385    0.000
 4761.00    1.07601   1.22889    0.032
 4762.00    1.15568   1.22448    0.032
 4763.00    1.26683   1.22142    0.032
 4764.00    1.24163   1.21996    0.031
 4765.00    1.19723   1.21997    0.031
 4766.00    1.17839   1.22235    0.031
 4767.00    1.16214   1.22637    0.031
 4768.00    1.19987   1.23280    0.031
 4769.00    1.24108   1.24035    0.031
 4770.00    1.26446   1.24842    0.031
 4771.00    1.28725   1.25699    0.031
 4772.00    1.28952   1.26508    0.032
 4773.00    1.28965   1.27253    0.032
 4774.00    1.22760   1.27816    0.031
 4775.00    1.17241   1.28248    0.031
 4776.00    1.21641   1.28454    0.031
 4777.00    1.25005   1.28464    0.031
 4778.00    1.18609   1.28335    0.031
 4779.00    1.13490   1.28057    0.030
 4780.00    1.17106   1.27622    0.030
 4781.00    1.21719   1.27092    0.030
 4782.00    1.31613   1.26578    0.030
 4783.00    1.37456   1.26093    0.030
 4784.00    1.26045   1.25693    0.030
 4785.00    1.15937   1.25437    0.029
 4786.00    1.10407   1.25385    0.030
 4787.00    1.10214   1.25503    0.030
 4788.00    1.25788   1.25810    0.030
 4789.00    1.37097   1.26278    0.030
 4790.00    1.37669   1.26875    0.030
 4791.00    1.36610   1.27485    0.030
 4792.00    1.32014   1.28074    0.030
 4793.00    1.28868   1.28663    0.030
 4794.00    1.28454   1.29097    0.030
 4795.00    1.28848   1.29412    0.030
 4796.00    1.30573   1.29616    0.030
 4797.00    1.29722   1.29642    0.030
 4798.00    1.25162   1.29595    0.030
 4799.00    1.22023   1.29423    0.030
 4800.00    1.20685   1.29231    0.030
 4801.00    1.20771   1.28956    0.030
 4802.00    1.22446   1.28706    0.030
 4803.00    1.27085   1.28456    0.030
 4804.00    1.34643   1.28235    0.030
 4805.00    1.35593   1.28071    0.030
 4806.00    1.30802   1.27958    0.030
 4807.00    1.26092   1.27948    0.030
 4808.00    1.21445   1.27984    0.030
 4809.00    1.20858   1.28141    0.030
 4810.00    1.23000   1.28357    0.030
 4811.00    1.29238   1.28715    0.029
 4812.00    1.37888   1.29099    0.029
 4813.00    1.35921   1.29521    0.029
 4814.00    1.28498   1.29916    0.029
 4815.00    1.23349   1.30245    0.029
 4816.00    1.19212   1.30459    0.029
 4817.00    1.22332   1.30542    0.029
 4818.00    1.28227   1.30493    0.030
 4819.00    1.27020   1.30291    0.030
 4820.00    1.23504   1.29977    0.030
 4821.00    1.29173   1.29548    0.030
 4822.00    1.37342   1.29086    0.030
 4823.00    1.36241   1.28579    0.030
 4824.00    1.33067   1.28090    0.030
 4825.00    1.26988   1.27659    0.030
 4826.00    1.20391   1.27265    0.029
 4827.00    1.21948   1.26964    0.029
 4828.00    1.24617   1.26680    0.029
 4829.00    1.27395   1.26490    0.029
 4830.00    1.30184   1.26337    0.029
 4831.00    1.25564   1.26212    0.029
 4832.00    1.20495   1.26064    0.029
 4833.00    1.17702   1.25925    0.029
 4834.00    1.15002   1.25767    0.029
 4835.00    1.18140   1.25573    0.029
 4836.00    1.21368   1.25384    0.029
 4837.00    1.26930   1.25147    0.029
 4838.00    1.31758   1.24953    0.030
 4839.00    1.26579   1.24737    0.029
 4840.00    1.21512   1.24543    0.029
 4841.00    1.17467   1.24364    0.028
 4842.00    1.14616   1.24235    0.028
 4843.00    1.19691   1.24099    0.028
 4844.00    1.22940   1.23936    0.028
 4845.00    1.16767   1.23736    0.029
 4846.00    1.12237   1.23434    0.029
 4847.00    1.14549   1.22992    0.029
 4848.00    1.17166   1.22377    0.000
 4849.00    1.20833   1.21580    0.000
 4850.00    1.22101   1.20547    0.000
 4851.00    1.16412   1.19264    0.000
 4852.00    1.10651   1.17726    0.000
 4853.00    1.04715   1.15971    0.000
 4854.00    1.01789   1.14071    0.000
 4855.00    1.05288   1.12127    0.000
 4856.00    1.09222   1.10161    0.000
 4857.00    1.13965   1.08342    0.000
 4858.00    1.17719   1.06749    0.000
 4859.00    1.19874   1.05520    0.000
 4860.00    1.18893   1.04682    0.000
 4861.00    1.13459   1.04356    0.000
 4862.00    1.08837   1.04475    0.000
 4863.00    1.05229   1.04995    0.000
 4864.00    1.04645   1.05845    0.000
 4865.00    1.07390   1.06894    0.000
 4866.00    1.08771   1.08069    0.000
 4867.00    1.08827   1.09240    0.000
 4868.00    1.05190   1.10430    0.000
 4869.00    0.98390   1.11528    0.000
 4870.00    0.98754   1.12596    0.000
 4871.00    1.04523   1.13622    0.000
 4872.00    1.09548   1.14624    0.000
 4873.00    1.14079   1.15653    0.000
 4874.00    1.20722   1.16674    0.000
 4875.00    1.28590   1.17688    0.030
 4876.00    1.27009   1.18620    0.030
 4877.00    1.20648   1.19434    0.030
 4878.00    1.21277   1.20092    0.030
 4879.00    1.24965   1.20522    0.029
 4880.00    1.28489   1.20762    0.030
 4881.00    1.31950   1.20730    0.030
 4882.00    1.31402   1.20551    0.030
 4883.00    1.29574   1.20200    0.030
 4884.00    1.23349   1.19870    0.030
 4885.00    1.15952   1.19536    0.031
 4886.00    1.16239   1.19364    0.030
 4887.00    1.18202   1.19384    0.030
 4888.00    1.20270   1.19671    0.030
 4889.00    1.22357   1.20255    0.030
 4890.00    1.18042   1.21123    0.030
 4891.00    1.12884   1.22261    0.030
 4892.00    1.17165   1.23514    0.030
 4893.00    1.22322   1.24895    0.030
 4894.00    1.31197   1.26198    0.030
 4895.00    1.40282   1.27423    0.031
 4896.00    1.35044   1.28400    0.031
 4897.00    1.29554   1.29149    0.031
 4898.00    1.32369   1.29621    0.031
 4899.00    1.34970   1.29856    0.030
 4900.00    1.32478   1.29906    0.031
 4901.00    1.30053   1.29754    0.031
 4902.00    1.28490   1.29496    0.030
 4903.00    1.27305   1.29146    0.030
 4904.00    1.29406   1.28748    0.030
 4905.00    1.30876   1.28334    0.030
 4906.00    1.28284   1.27890    0.029
 4907.00    1.24644   1.27444    0.029
 4908.00    1.15730   1.26980    0.029
 4909.00    1.09579   1.26514    0.030
 4910.00    1.14675   1.25995    0.030
 4911.00    1.18475   1.25444    0.030
 4912.00    1.17901   1.24835    0.029
 4913.00    1.17687   1.24123    0.029
 4914.00    1.18498   1.23322    0.029
 4915.00    1.20482   1.22421    0.029
 4916.00    1.25322   1.21530    0.029
 4917.00    1.25936   1.20655    0.030
 4918.00    1.17676   1.19954    0.029
 4919.00    1.12454   1.19468    0.029
 4920.00    1.12776   1.19297    0.029
 4921.00    1.12278   1.19464    0.029
 4922.00    1.10471   1.19988    0.029
 4923.00    1.11042   1.20826    0.029
 4924.00    1.14944   1.21871    0.028
 4925.00    1.20776   1.23059    0.029
 4926.00    1.28985   1.24218    0.029
 4927.00    1.31016   1.25285    0.029
 4928.00    1.26338   1.26119    0.028
 4929.00    1.25750   1.26694    0.028
 4930.00    1.29078   1.26952    0.028
 4931.00    1.28276   1.26927    0.028
 4932.00    1.23987   1.26670    0.028
 4933.00    1.21541   1.26277    0.028
 4934.00    1.20466   1.25829    0.028
 4935.00    1.20671   1.25435    0.028
 4936.00    1.21713   1.25183    0.028
 4937.00    1.26496   1.25134    0.028
 4938.00    1.33419   1.25323    0.028
 4939.00    1.30092   1.25763    0.028
 4940.00    1.21662   1.26411    0.000
 4941.00    1.21730   1.27224    0.000
 4942.00    1.25458   1.28141    0.000
 4943.00    1.28830   1.29066    0.000
 4944.00    1.32070   1.29936    0.000
 4945.00    1.36880   1.30662    0.000
 4946.00    1.42181   1.31223    0.000
 4947.00    1.38872   1.31545    0.000
 4948.00    1.33317   1.31646    0.000
 4949.00    1.29617   1.31450    0.000
 4950.00    1.26312   1.31037    0.000
 4951.00    1.30549   1.30378    0.000
 4952.00    1.36056   1.29574    0.000
 4953.00    1.27825   1.28669    0.000
 4954.00    1.17846   1.27753    0.000
 4955.00    1.20503   1.26921    0.000
 4956.00    1.24280   1.26203    0.000
 4957.00    1.22938   1.25700    0.000
 4958.00    1.21325   1.25353    0.000
 4959.00    1.27155   1.25221    0.000
 4960.00    1.33058   1.25204    0.000
 4961.00    1.33525   1.25296    0.000
 4962.00    1.33856   1.25422    0.000
 4963.00    1.31225   1.25557    0.000
 4964.00    1.28671   1.25694    0.000
 4965.00    1.27077   1.25803    0.000
 4966.00    1.25581   1.25932    0.000
 4967.00    1.24907   1.26058    0.000
 4968.00    1.24240   1.26241    0.000
 4969.00    1.23609   1.26406    0.000
 4970.00    1.22516   1.26559    0.000
 4971.00    1.19151   1.26645    0.000
 4972.00    1.17830   1.26620    0.000
 4973.00    1.24645   1.26437    0.000
 4974.00    1.28307   1.26042    0.000
 4975.00    1.21539   1.25442    0.000
 4976.00    1.17144   1.24634    0.000
 4977.00    1.19381   1.23674    0.000
 4978.00    1.19715   1.22621    0.000
 4979.00    1.15498   1.21568    0.000
 4980.00    1.12553   1.20610    0.000
 4981.00    1.12235   1.19824    0.000
 4982.00    1.14031   1.19290    0.000
 4983.00    1.19628   1.19023    0.000
 4984.00    1.23120   1.19051    0.000
 4985.00    1.23305   1.19316    0.000
 4986.00    1.24771   1.19790    0.000
 4987.00    1.28003   1.20379    0.000
 4988.00    1.31937   1.21023    0.000
 4989.00    1.36723   1.21642    0.000
 4990.00    1.34090   1.22170    0.000
 4991.00    1.23514   1.22569    0.000
 4992.00    1.17463   1.22795    0.000
 4993.00    1.15686   1.22847    0.000
 4994.00    1.13414   1.22700    0.000
 4995.00    1.10730   1.22375    0.000
 4996.00    1.10780   1.21877    0.000
 4997.00    1.12835   1.21243    0.000
 4998.00    1.10575   1.20499    0.000
 4999.00    1.05537   1.19700    0.000
 5000.00    1.04709   1.18882    0.000
 5001.00    1.06250   1.18101    0.000
 5002.00    1.11370   1.17385    0.000
 5003.00    1.18244   1.16766    0.000
 5004.00    1.27696   1.16247    0.000
 5005.00    1.38240   1.15829    0.000
 5006.00    1.35734   1.15485    0.000
 5007.00    1.28496   1.15195    0.000
 5008.00    1.24782   1.14928    0.000
 5009.00    1.22150   1.14662    0.000
 5010.00    1.19060   1.14396    0.000
 5011.00    1.15854   1.14122    0.000
 5012.00    1.20549   1.13886    0.000
 5013.00    1.26887   1.13683    0.000
 5014.00    1.25102   1.13580    0.000
 5015.00    1.21988   1.13566    0.000
 5016.00    1.17279   1.13698    0.000
 5017.00    1.12375   1.13940    0.000
 5018.00    1.10796   1.14327    0.000
 5019.00    1.09497   1.14809    0.000
 5020.00    1.08935   1.15396    0.000
 5021.00    1.08409   1.16043    0.000
 5022.00    1.11418   1.16747    0.000
 5023.00    1.14385   1.17484    0.000
 5024.00    1.11538   1.18231    0.000
 5025.00    1.09168   1.18987    0.000
 5026.00    1.16345   1.19700    0.000
 5027.00    1.22574   1.20373    0.000
 5028.00    1.17722   1.20932    0.000
 5029.00    1.13659   1.21371    0.027
 5030.00    1.15965   1.21618    0.027
 5031.00    1.18384   1.21658    0.027
 5032.00    1.21478   1.21465    0.027
 5033.00    1.23525   1.21044    0.027
 5034.00    1.20559   1.20441    0.027
 5035.00    1.17679   1.19701    0.027
 5036.00    1.15137   1.18931    0.027
 5037.00    1.12376   1.18203    0.027
 5038.00    1.08905   1.17627    0.027
 5039.00    1.07453   1.17262    0.027
 5040.00    1.11545   1.17151    0.026
 5041.00    1.15657   1.17302    0.026
 5042.00    1.19817   1.17671    0.026
 5043.00    1.19988   1.18213    0.027
 5044.00    1.12048   1.18837    0.026
 5045.00    1.06919   1.19487    0.026
 5046.00    1.06762   1.20105    0.026
 5047.00    1.10351   1.20668    0.026
 5048.00    1.19736   1.21180    0.026
 5049.00    1.24954   1.21658    0.027
 5050.00    1.24506   1.22144    0.027
 5051.00    1.24751   1.22655    0.027
 5052.00    1.25826   1.23221    0.027
 5053.00    1.28664   1.23826    0.027
 5054.00    1.33362   1.24456    0.027
 5055.00    1.34341   1.25058    0.027
 5056.00    1.31856   1.25589    0.026
 5057.00    1.29446   1.25987    0.026
 5058.00    1.27097   1.26219    0.027
 5059.00    1.25951   1.26247    0.027
 5060.00    1.25673   1.26075    0.027
 5061.00    1.26804   1.25708    0.027
 5062.00    1.28829   1.25192    0.027
 5063.00    1.25647   1.24566    0.027
 5064.00    1.19579   1.23891    0.027
 5065.00    1.19143   1.23219    0.027
 5066.00    1.21422   1.22586    0.028
 5067.00    1.24426   1.22027    0.027
 5068.00    1.27732   1.21537    0.027
 5069.00    1.24720   1.21119    0.027
 5070.00    1.19458   1.20738    0.027
 5071.00    1.16002   1.20374    0.027
 5072.00    1.13089   1.19990    0.027
 5073.00    1.12644   1.19570    0.027
 5074.00    1.12817   1.19108    0.027
 5075.00    1.10982   1.18612    0.027
 5076.00    1.08741   1.18110    0.027
 5077.00    1.07731   1.17648    0.027
 5078.00    1.06918   1.17269    0.027
 5079.00    1.09910   1.17032    0.027
 5080.00    1.13353   1.16964    0.028
 5081.00    1.13498   1.17109    0.027
 5082.00    1.13378   1.17451    0.026
 5083.00    1.15214   1.17987    0.026
 5084.00    1.17138   1.18666    0.027
 5085.00    1.16778   1.19447    0.026
 5086.00    1.16473   1.20257    0.026
 5087.00    1.20245   1.21038    0.026
 5088.00    1.23833   1.21727    0.026
 5089.00    1.23990   1.22272    0.026
 5090.00    1.24007   1.22637    0.026
 5091.00    1.22457   1.22800    0.026
 5092.00    1.20586   1.22759    0.026
 5093.00    1.16214   1.22532    0.026
 5094.00    1.13490   1.22151    0.027
 5095.00    1.20475   1.21668    0.027
 5096.00    1.25342   1.21127    0.027
 5097.00    1.20320   1.20591    0.026
 5098.00    1.16766   1.20085    0.026
 5099.00    1.18805   1.19661    0.026
 5100.00    1.19697   1.19305    0.026
 5101.00    1.16938   1.19044    0.026
 5102.00    1.13698   1.18844    0.026
 5103.00    1.09162   1.18719    0.026
 5104.00    1.07690   1.18643    0.026
 5105.00    1.13303   1.18639    0.026
 5106.00    1.16011   1.18702    0.026
 5107.00    1.12906   1.18856    0.026
 5108.00    1.12488   1.19107    0.027
 5109.00    1.16751   1.19461    0.026
 5110.00    1.19639   1.19910    0.026
 5111.00    1.20427   1.20420    0.026
 5112.00    1.19625   1.20958    0.026
 5113.00    1.16691   1.21460    0.026
 5114.00    1.19336   1.21870    0.026
 5115.00    1.28565   1.22128    0.026
 5116.00    1.29677   1.22190    0.027
 5117.00    1.22344   1.22028    0.027
 5118.00    1.21163   1.21639    0.027
 5119.00    1.25627   1.21046    0.026
 5120.00    1.27364   1.20292    0.026
 5121.00    1.26895   1.19446    0.026
 5122.00    1.23155   1.18576    0.026
 5123.00    1.17087   1.17760    0.026
 5124.00    1.13979   1.17058    0.026
 5125.00    1.12720   1.16521    0.026
 5126.00    1.13747   1.16175    0.026
 5127.00    1.16023   1.16018    0.026
 5128.00    1.19225   1.16037    0.027
 5129.00    1.22866   1.16184    0.027
 5130.00    1.21239   1.16420    0.027
 5131.00    1.17455   1.16675    0.026
 5132.00    1.16411   1.16910    0.026
 5133.00    1.16325   1.17068    0.026
 5134.00    1.16539   1.17130    0.026
 5135.00    1.16842   1.17076    0.026
 5136.00    1.18165   1.16914    0.026
 5137.00    1.19737   1.16658    0.027
 5138.00    1.14055   1.16338    0.026
 5139.00    1.06940   1.15984    0.026
 5140.00    1.11253   1.15627    0.026
 5141.00    1.17328   1.15293    0.027
 5142.00    1.18466   1.15002    0.026
 5143.00    1.19042   1.14765    0.026
 5144.00    1.15020   1.14594    0.026
 5145.00    1.10647   1.14490    0.026
 5146.00    1.12121   1.14463    0.026
 5147.00    1.13835   1.14510    0.026
 5148.00    1.12163   1.14645    0.026
 5149.00    1.10497   1.14862    0.026
 5150.00    1.10282   1.15171    0.026
 5151.00    1.10005   1.15554    0.026
 5152.00    1.08655   1.15999    0.026
 5153.00    1.07535   1.16460    0.026
 5154.00    1.08862   1.16892    0.026
 5155.00    1.10137   1.17221    0.027
 5156.00    1.11014   1.17371    0.026
 5157.00    1.12448   1.17262    0.026
 5158.00    1.17075   1.16823    0.027
 5159.00    1.21570   1.16006    0.027
 5160.00    1.25468   1.14787    0.027
 5161.00    1.25847   1.13190    0.027
 5162.00    1.13094   1.11263    0.026
 5163.00    1.03863   1.09114    0.026
 5164.00    1.05617   1.06854    0.026
 5165.00    1.04564   1.04642    0.026
 5166.00    0.96078   1.02608    0.026
 5167.00    0.90616   1.00902    0.026
 5168.00    0.92030   0.99613    0.026
 5169.00    0.90715   0.98821    0.026
 5170.00    0.84026   0.98530    0.026
 5171.00    0.80530   0.98720    0.026
 5172.00    0.82516   0.99303    0.026
 5173.00    0.87009   1.00175    0.026
 5174.00    0.95271   1.01195    0.026
 5175.00    1.00052   1.02232    0.026
 5176.00    1.00235   1.03167    0.026
 5177.00    1.03304   1.03919    0.026
 5178.00    1.09731   1.04454    0.026
 5179.00    1.08812   1.04792    0.025
 5180.00    1.00357   1.04990    0.025
 5181.00    0.96160   1.05133    0.025
 5182.00    0.95815   1.05319    0.025
 5183.00    0.95118   1.05624    0.025
 5184.00    0.94138   1.06102    0.025
 5185.00    0.96142   1.06761    0.025
 5186.00    1.00237   1.07580    0.025
 5187.00    1.03916   1.08513    0.025
 5188.00    1.07337   1.09490    0.025
 5189.00    1.12632   1.10472    0.025
 5190.00    1.18935   1.11399    0.000
 5191.00    1.14362   1.12261    0.000
 5192.00    1.04714   1.13040    0.000
 5193.00    1.03335   1.13739    0.000
 5194.00    1.05282   1.14356    0.000
 5195.00    1.09207   1.14876    0.000
 5196.00    1.13811   1.15290    0.000
 5197.00    1.10538   1.15556    0.000
 5198.00    1.04990   1.15663    0.000
 5199.00    1.05458   1.15573    0.000
 5200.00    1.07363   1.15307    0.000
 5201.00    1.04925   1.14863    0.000
 5202.00    1.01651   1.14315    0.000
 5203.00    1.01966   1.13715    0.000
 5204.00    1.02818   1.13161    0.000
 5205.00    1.00192   1.12732    0.000
 5206.00    0.97186   1.12500    0.000
 5207.00    0.96401   1.12526    0.000
 5208.00    0.95776   1.12812    0.000
 5209.00    1.06386   1.13365    0.000
 5210.00    1.17416   1.14120    0.000
 5211.00    1.16530   1.15040    0.026
 5212.00    1.15430   1.16023    0.025
 5213.00    1.08581   1.17016    0.025
 5214.00    1.02552   1.17931    0.026
 5215.00    1.09818   1.18713    0.026
 5216.00    1.16382   1.19316    0.026
 5217.00    1.15812   1.19702    0.026
 5218.00    1.15776   1.19864    0.026
 5219.00    1.19624   1.19794    0.026
 5220.00    1.22803   1.19520    0.026
 5221.00    1.22258   1.19085    0.026
 5222.00    1.20625   1.18542    0.026
 5223.00    1.14156   1.17971    0.026
 5224.00    1.09782   1.17441    0.026
 5225.00    1.13063   1.17032    0.026
 5226.00    1.16316   1.16796    0.026
 5227.00    1.19485   1.16775    0.026
 5228.00    1.22356   1.16978    0.026
 5229.00    1.24449   1.17403    0.026
 5230.00    1.25304   1.18014    0.026
 5231.00    1.23392   1.18779    0.026
 5232.00    1.19839   1.19646    0.026
 5233.00    1.13107   1.20579    0.026
 5234.00    1.12621   1.21522    0.026
 5235.00    1.22691   1.22440    0.026
 5236.00    1.27918   1.23290    0.026
 5237.00    1.25973   1.24033    0.026
 5238.00    1.25419   1.24639    0.026
 5239.00    1.26675   1.25074    0.025
 5240.00    1.25181   1.25326    0.025
 5241.00    1.20533   1.25382    0.025
 5242.00    1.20080   1.25253    0.025
 5243.00    1.23869   1.24956    0.025
 5244.00    1.22897   1.24528    0.025
 5245.00    1.17680   1.24018    0.025
 5246.00    1.22067   1.23475    0.025
 5247.00    1.34005   1.22959    0.025
 5248.00    1.31832   1.22508    0.025
 5249.00    1.19903   1.22174    0.025
 5250.00    1.14816   1.21950    0.025
 5251.00    1.13877   1.21851    0.025
 5252.00    1.15196   1.21825    0.026
 5253.00    1.17711   1.21836    0.025
 5254.00    1.18184   1.21807    0.025
 5255.00    1.17718   1.21655    0.025
 5256.00    1.21305   1.21327    0.025
 5257.00    1.26493   1.20738    0.025
 5258.00    1.23325   1.19889    0.026
 5259.00    1.17342   1.18740    0.026
 5260.00    1.15317   1.17371    0.026
 5261.00    1.14413   1.15810    0.026
 5262.00    1.13154   1.14188    0.026
 5263.00    1.11812   1.12596    0.026
 5264.00    1.10126   1.11162    0.026
 5265.00    1.08376   1.09990    0.026
 5266.00    1.05962   1.09159    0.026
 5267.00    1.03452   1.08744    0.026
 5268.00    1.04213   1.08750    0.026
 5269.00    1.05318   1.09191    0.026
 5270.00    1.10130   1.10004    0.026
 5271.00    1.15195   1.11147    0.027
 5272.00    1.20236   1.12525    0.027
 5273.00    1.25277   1.14046    0.027
 5274.00    1.20375   1.15633    0.027
 5275.00    1.15745   1.17184    0.027
 5276.00    1.20153   1.18673    0.027
 5277.00    1.24067   1.20019    0.026
 5278.00    1.20449   1.21252    0.026
 5279.00    1.17346   1.22336    0.026
 5280.00    1.19257   1.23329    0.026
 5281.00    1.20619   1.24236    0.026
 5282.00    1.18118   1.25104    0.026
 5283.00    1.16736   1.25938    0.026
 5284.00    1.21427   1.26741    0.026
 5285.00    1.25381   1.27502    0.026
 5286.00    1.26136   1.28170    0.026
 5287.00    1.27491   1.28723    0.026
 5288.00    1.30993   1.29092    0.026
 5289.00    1.33006   1.29264    0.026
 5290.00    1.30544   1.29202    0.026
 5291.00    1.28152   1.28924    0.026
 5292.00    1.25937   1.28457    0.026
 5293.00    1.24225   1.27852    0.026
 5294.00    1.23619   1.27194    0.025
 5295.00    1.23424   1.26554    0.025
 5296.00    1.24011   1.26023    0.026
 5297.00    1.22707   1.25668    0.026
 5298.00    1.18252   1.25538    0.026
 5299.00    1.16817   1.25665    0.025
 5300.00    1.19789   1.26029    0.025
 5301.00    1.21556   1.26616    0.025
 5302.00    1.21776   1.27355    0.025
 5303.00    1.22449   1.28200    0.025
 5304.00    1.23632   1.29067    0.025
 5305.00    1.25552   1.29900    0.025
 5306.00    1.28205   1.30635    0.025
 5307.00    1.27944   1.31233    0.025
 5308.00    1.25120   1.31666    0.025
 5309.00    1.23116   1.31919    0.025
 5310.00    1.21748   1.31991    0.025
 5311.00    1.25278   1.31893    0.025
 5312.00    1.32145   1.31634    0.025
 5313.00    1.32366   1.31236    0.025
 5314.00    1.28618   1.30710    0.025
 5315.00    1.29100   1.30069    0.025
 5316.00    1.31787   1.29327    0.025
 5317.00    1.28718   1.28470    0.024
 5318.00    1.23049   1.27536    0.024
 5319.00    1.23255   1.26488    0.024
 5320.00    1.25745   1.25399    0.024
 5321.00    1.24066   1.24231    0.024
 5322.00    1.21008   1.23098    0.024
 5323.00    1.20212   1.21984    0.024
 5324.00    1.20044   1.21017    0.025
 5325.00    1.17031   1.20212    0.025
 5326.00    1.13369   1.19655    0.025
 5327.00    1.11465   1.19383    0.025
 5328.00    1.09881   1.19386    0.025
 5329.00    1.13040   1.19692    0.025
 5330.00    1.16865   1.20206    0.025
 5331.00    1.19744   1.20918    0.025
 5332.00    1.22527   1.21692    0.025
 5333.00    1.23757   1.22500    0.025
 5334.00    1.24888   1.23230    0.025
 5335.00    1.22114   1.23860    0.025
 5336.00    1.19242   1.24346    0.025
 5337.00    1.23936   1.24692    0.024
 5338.00    1.28319   1.24917    0.024
 5339.00    1.23796   1.25049    0.025
 5340.00    1.19325   1.25139    0.025
 5341.00    1.15583   1.25212    0.025
 5342.00    1.12929   1.25331    0.024
 5343.00    1.20448   1.25496    0.024
 5344.00    1.26741   1.25763    0.024
 5345.00    1.24673   1.26115    0.024
 5346.00    1.22996   1.26593    0.024
 5347.00    1.23378   1.27171    0.024
 5348.00    1.23928   1.27860    0.024
 5349.00    1.25195   1.28633    0.024
 5350.00    1.27471   1.29467    0.024
 5351.00    1.33285   1.30324    0.024
 5352.00    1.37221   1.31160    0.024
 5353.00    1.35619   1.31923    0.024
 5354.00    1.34670   1.32565    0.024
 5355.00    1.35360   1.33038    0.024
 5356.00    1.34302   1.33303    0.024
 5357.00    1.29459   1.33343    0.024
 5358.00    1.27712   1.33130    0.024
 5359.00    1.31778   1.32706    0.024
 5360.00    1.33919   1.32050    0.024
 5361.00    1.32902   1.31246    0.024
 5362.00    1.31580   1.30295    0.024
 5363.00    1.29817   1.29292    0.024
 5364.00    1.26769   1.28271    0.024
 5365.00    1.22097   1.27304    0.024
 5366.00    1.21889   1.26461    0.024
 5367.00    1.26658   1.25762    0.024
 5368.00    1.27544   1.25303   -2.000
 5369.00    1.24609   1.25039   -2.000
 5370.00    1.21618   1.25049   -2.000
 5371.00    1.18577   1.25254   -2.000
 5372.00    1.22341   1.25668   -2.000
 5373.00    1.31302   1.26216   -2.000
 5374.00    1.30197   1.26841   -2.000
 5375.00    1.22332   1.27499   -2.000
 5376.00    1.22600   1.28096   -2.000
 5377.00    1.27650   1.28635   -2.000
 5378.00    1.28988   1.29028   -2.000
 5379.00    1.28423   1.29307   -2.000
 5380.00    1.29180   1.29426   -2.000
 5381.00    1.30525   1.29412   -2.000
 5382.00    1.31497   1.29268   -2.000
 5383.00    1.32326   1.28994    0.024
 5384.00    1.32780   1.28627    0.024
 5385.00    1.33111   1.28142    0.024
 5386.00    1.34106   1.27584    0.024
 5387.00    1.35281   1.26947    0.024
 5388.00    1.30627   1.26263    0.024
 5389.00    1.24674   1.25539    0.023
 5390.00    1.25704   1.24795    0.023
 5391.00    1.27973   1.24080    0.024
 5392.00    1.22713   1.23372    0.023
 5393.00    1.16432   1.22736    0.023
 5394.00    1.13248   1.22131    0.023
 5395.00    1.10363   1.21620    0.024
 5396.00    1.16661   1.21152    0.024
 5397.00    1.23510   1.20749    0.024
 5398.00    1.18852   1.20379    0.024
 5399.00    1.13948   1.20032    0.023
 5400.00    1.18121   1.19729    0.023
 5401.00    1.22076   1.19430    0.023
 5402.00    1.20414   1.19209    0.023
 5403.00    1.18689   1.19026    0.023
 5404.00    1.16109   1.18977    0.023
 5405.00    1.13723   1.19032    0.023
 5406.00    1.13091   1.19271    0.023
 5407.00    1.13089   1.19669    0.024
 5408.00    1.17253   1.20249    0.024
 5409.00    1.20742   1.20982    0.023
 5410.00    1.20758   1.21831    0.023
 5411.00    1.20779   1.22773    0.023
 5412.00    1.20827   1.23727    0.023
 5413.00    1.21165   1.24672    0.023
 5414.00    1.22501   1.25531    0.023
 5415.00    1.23996   1.26279    0.023
 5416.00    1.25950   1.26894    0.023
 5417.00    1.26467   1.27348    0.023
 5418.00    1.23433   1.27648    0.023
 5419.00    1.21734   1.27778    0.023
 5420.00    1.22872   1.27767    0.023
 5421.00    1.24752   1.27622    0.023
 5422.00    1.28003   1.27391    0.023
 5423.00    1.29195   1.27049    0.023
 5424.00    1.27060   1.26649    0.023
 5425.00    1.25240   1.26183    0.023
 5426.00    1.23867   1.25714    0.023
 5427.00    1.24653   1.25237    0.023
 5428.00    1.28132   1.24817    0.023
 5429.00    1.28410   1.24468    0.023
 5430.00    1.25169   1.24230    0.022
 5431.00    1.22669   1.24145    0.022
 5432.00    1.20888   1.24200    0.022
 5433.00    1.20065   1.24451    0.023
 5434.00    1.20062   1.24821    0.023
 5435.00    1.21536   1.25345    0.023
 5436.00    1.24124   1.25904    0.023
 5437.00    1.26525   1.26495    0.023
 5438.00    1.28804   1.27020    0.023
 5439.00    1.28160   1.27481    0.023
 5440.00    1.25823   1.27786    0.023
 5441.00    1.26076   1.27941    0.023
 5442.00    1.27637   1.27911    0.023
 5443.00    1.29889   1.27763    0.023
 5444.00    1.32445   1.27468    0.023
 5445.00    1.33068   1.27130    0.023
 5446.00    1.32967   1.26703    0.022
 5447.00    1.33466   1.26323    0.022
 5448.00    1.34156   1.25955    0.023
 5449.00    1.30801   1.25649    0.023
 5450.00    1.26371   1.25400    0.023
 5451.00    1.25491   1.25188    0.023
 5452.00    1.25383   1.25059    0.023
 5453.00    1.26151   1.24940    0.023
 5454.00    1.27071   1.24905    0.023
 5455.00    1.24985   1.24880    0.023
 5456.00    1.22505   1.24924    0.023
 5457.00    1.21902   1.24968    0.023
 5458.00    1.21472   1.25054    0.022
 5459.00    1.24458   1.25142    0.022
 5460.00    1.27635   1.25231    0.023
 5461.00    1.30636   1.25316    0.023
 5462.00    1.33545   1.25371    0.023
 5463.00    1.27376   1.25407    0.023
 5464.00    1.21425   1.25383    0.022
 5465.00    1.20599   1.25328    0.023
 5466.00    1.20033   1.25193    0.023
 5467.00    1.22818   1.24983    0.023
 5468.00    1.25247   1.24702    0.022
 5469.00    1.24593   1.24354    0.022
 5470.00    1.24025   1.23946    0.022
 5471.00    1.24012   1.23514    0.022
 5472.00    1.23913   1.23059    0.022
 5473.00    1.23383   1.22637    0.022
 5474.00    1.23207   1.22243    0.022
 5475.00    1.24473   1.21973    0.022
 5476.00    1.26225   1.21788    0.022
 5477.00    1.29615   1.21757    0.022
 5478.00    1.32326   1.21824   -2.000
 5479.00    1.33104   1.22023   -2.000
 5480.00    1.33415   1.22313   -2.000
 5481.00    1.32593   1.22668   -2.000
 5482.00    1.32420   1.23115   -2.000
 5483.00    1.33610   1.23535   -2.000
 5484.00    1.26631   1.23998   -2.000
 5485.00    1.04777   1.24394   -2.000
 5486.00    0.88752   1.24779   -2.000
 5487.00    0.82005   1.25084   -2.000
 5488.00    0.84015   1.25363   -2.000
 5489.00    0.98256   1.25582   -2.000
 5490.00    1.13577   1.25727   -2.000
 5491.00    1.30225   1.25849   -2.000
 5492.00    1.34531   1.25920   -2.000
 5493.00    1.25463   1.25956   -2.000
 5494.00    1.23697   1.25924   -2.000
 5495.00    1.28913   1.25864   -2.000
 5496.00    1.30385   1.25771   -2.000
 5497.00    1.28702   1.25622   -2.000
 5498.00    1.27639   1.25460   -2.000
 5499.00    1.27036   1.25226   -2.000
 5500.00    1.27589   1.25005   -2.000
 5501.00    1.28895   1.24761   -2.000
 5502.00    1.28042   1.24511    0.022
 5503.00    1.25957   1.24247    0.022
 5504.00    1.26128   1.23998    0.022
 5505.00    1.27421   1.23754    0.022
 5506.00    1.26697   1.23549    0.022
 5507.00    1.25107   1.23388    0.022
 5508.00    1.25347   1.23283    0.022
 5509.00    1.26261   1.23256    0.022
 5510.00    1.24502   1.23288    0.022
 5511.00    1.21910   1.23433    0.021
 5512.00    1.21833   1.23639    0.021
 5513.00    1.22410   1.23952    0.022
 5514.00    1.21354   1.24304    0.022
 5515.00    1.19952   1.24734    0.022
 5516.00    1.22103   1.25154    0.022
 5517.00    1.24852   1.25584    0.022
 5518.00    1.28248   1.25949    0.022
 5519.00    1.31726   1.26237    0.022
 5520.00    1.32563   1.26414    0.022
 5521.00    1.33166   1.26455    0.022
 5522.00    1.30487   1.26439    0.022
 5523.00    1.27637   1.26329    0.022
 5524.00    1.25694   1.26171    0.021
 5525.00    1.23759   1.25949    0.021
 5526.00    1.21156   1.25738    0.021
 5527.00    1.18686   1.25556    0.021
 5528.00    1.19104   1.25399    0.021
 5529.00    1.19680   1.25355    0.021
 5530.00    1.22183   1.25354    0.021
 5531.00    1.24393   1.25447    0.022
 5532.00    1.24156   1.25606    0.022
 5533.00    1.24389   1.25833    0.021
 5534.00    1.27540   1.26112    0.022
 5535.00    1.29916   1.26397    0.022
 5536.00    1.28504   1.26706    0.022
 5537.00    1.26673   1.27010    0.021
 5538.00    1.23175   1.27335    0.021
 5539.00    1.20851   1.27618    0.024
 5540.00    1.22402   1.27912    0.057
 5541.00    1.24120   1.28187   -1.000
 5542.00    1.26307   1.28439   -1.000
 5543.00    1.26987   1.28683   -1.000
 5544.00    1.24073   1.28899   -1.000
 5545.00    1.23254   1.29102   -1.000
 5546.00    1.26756   1.29252   -1.000
 5547.00    1.28963   1.29375    0.118
 5548.00    1.28849   1.29449    0.031
 5549.00    1.29111   1.29485    0.021
 5550.00    1.29961   1.29455    0.021
 5551.00    1.30032   1.29371    0.021
 5552.00    1.29029   1.29240    0.021
 5553.00    1.29506   1.29042    0.021
 5554.00    1.31776   1.28815    0.021
 5555.00    1.32602   1.28521    0.022
 5556.00    1.31885   1.28205    0.022
 5557.00    1.29242   1.27859    0.022
 5558.00    1.24782   1.27479    0.021
 5559.00    1.22713   1.27100    0.021
 5560.00    1.22631   1.26704    0.021
 5561.00    1.23784   1.26327    0.021
 5562.00    1.25842   1.25948    0.021
 5563.00    1.25148   1.25613    0.021
 5564.00    1.22687   1.25334    0.021
 5565.00    1.24328   1.25060    0.021
 5566.00    1.28273   1.24878    0.021
 5567.00    1.26803   1.24745    0.021
 5568.00    1.22685   1.24683    0.020
 5569.00    1.20300   1.24686    0.021
 5570.00    1.18646   1.24767    0.021
 5571.00    1.20788   1.24866    0.021
 5572.00    1.24302   1.25017    0.021
 5573.00    1.24770   1.25187    0.021
 5574.00    1.24306   1.25317    0.021
 5575.00    1.22621   1.25430    0.021
 5576.00    1.20625   1.25479    0.021
 5577.00    1.22759   1.25420    0.021
 5578.00    1.25749   1.25273    0.021
 5579.00    1.26690   1.24994    0.021
 5580.00    1.27298   1.24580    0.021
 5581.00    1.24091   1.24049    0.021
 5582.00    1.20418   1.23434    0.021
 5583.00    1.20756   1.22800    0.021
 5584.00    1.21431   1.22129    0.021
 5585.00    1.21465   1.21511    0.021
 5586.00    1.21468   1.20975    0.021
 5587.00    1.17282   1.20500    0.021
 5588.00    1.13134   1.20199    0.021
 5589.00    1.15027   1.20004    0.021
 5590.00    1.16911   1.19969    0.022
 5591.00    1.18608   1.20046    0.022
 5592.00    1.20162   1.20224    0.022
 5593.00    1.20053   1.20427    0.022
 5594.00    1.19602   1.20688    0.022
 5595.00    1.16395   1.21005    0.022
 5596.00    1.13337   1.21291    0.022
 5597.00    1.11186   1.21679    0.022
 5598.00    1.09239   1.22024    0.022
 5599.00    1.08265   1.22510    0.022
 5600.00    1.07500   1.22970    0.022
 5601.00    1.07544   1.23513    0.022
 5602.00    1.08197   1.24075    0.021
 5603.00    1.10816   1.24657    0.021
 5604.00    1.13893   1.25275    0.021
 5605.00    1.18223   1.25802    0.021
 5606.00    1.22114   1.26286    0.021
 5607.00    1.24973   1.26625    0.021
 5608.00    1.26680   1.26845    0.021
 5609.00    1.26051   1.26872    0.021
 5610.00    1.25128   1.26706    0.021
 5611.00    1.23686   1.26462    0.021
 5612.00    1.22254   1.26140    0.021
 5613.00    1.20838   1.25729    0.021
 5614.00    1.19727   1.25262    0.021
 5615.00    1.19031   1.24798    0.020
 5616.00    1.19223   1.24410    0.020
 5617.00    1.20475   1.24058    0.021
 5618.00    1.20684   1.23807    0.021
 5619.00    1.19794   1.23592    0.021
 5620.00    1.19317   1.23501    0.021
 5621.00    1.19224   1.23532    0.021
 5622.00    1.19852   1.23641    0.021
 5623.00    1.21071   1.23819    0.021
 5624.00    1.21701   1.24076    0.021
 5625.00    1.21908   1.24390    0.021
 5626.00    1.21123   1.24699    0.021
 5627.00    1.19712   1.24987    0.021
 5628.00    1.20705   1.25260    0.021
 5629.00    1.23028   1.25473    0.021
 5630.00    1.22184   1.25629    0.020
 5631.00    1.19814   1.25705    0.020
 5632.00    1.20514   1.25694    0.020
 5633.00    1.22488   1.25640    0.021
 5634.00    1.21895   1.25527    0.021
 5635.00    1.20390   1.25381    0.021
 5636.00    1.17635   1.25150    0.021
 5637.00    1.14506   1.24964    0.020
 5638.00    1.15573   1.24807    0.021
 5639.00    1.17685   1.24663    0.021
 5640.00    1.18024   1.24605    0.021
 5641.00    1.18004   1.24568    0.021
 5642.00    1.20270   1.24622    0.020
 5643.00    1.22898   1.24680    0.020
 5644.00    1.22836   1.24782    0.020
 5645.00    1.22457   1.24876    0.020
 5646.00    1.22731   1.24981    0.020
 5647.00    1.23056   1.25055    0.020
 5648.00    1.23840   1.25053    0.020
 5649.00    1.24644   1.24986    0.020
 5650.00    1.22573   1.24805    0.020
 5651.00    1.20524   1.24633    0.020
 5652.00    1.21074   1.24345    0.020
 5653.00    1.21537   1.23933    0.020
 5654.00    1.20390   1.23555    0.020
 5655.00    1.19242   1.23243    0.020
 5656.00    1.18080   1.22917    0.020
 5657.00    1.16752   1.22614    0.020
 5658.00    1.14134   1.22415    0.020
 5659.00    1.12474   1.22357    0.020
 5660.00    1.16437   1.22374    0.020
 5661.00    1.19232   1.22501    0.020
 5662.00    1.16593   1.22687    0.020
 5663.00    1.14588   1.23001    0.020
 5664.00    1.14994   1.23365    0.020
 5665.00    1.16100   1.23818    0.020
 5666.00    1.19422   1.24312    0.021
 5667.00    1.21865   1.24834    0.021
 5668.00    1.21938   1.25373    0.020
 5669.00    1.21730   1.25868    0.020
 5670.00    1.20870   1.26317    0.020
 5671.00    1.21806   1.26725    0.020
 5672.00    1.26328   1.27104    0.021
 5673.00    1.29384   1.27335    0.021
 5674.00    1.29892   1.27506    0.021
 5675.00    1.28954   1.27570    0.021
 5676.00    1.25812   1.27579    0.021
 5677.00    1.24142   1.27410    0.021
 5678.00    1.24439   1.27224    0.021
 5679.00    1.23896   1.26986    0.021
 5680.00    1.22364   1.26725    0.021
 5681.00    1.22118   1.26421    0.021
 5682.00    1.23207   1.26107    0.021
 5683.00    1.23512   1.25892    0.021
 5684.00    1.23100   1.25689    0.021
 5685.00    1.22631   1.25640    0.020
 5686.00    1.22116   1.25583    0.020
 5687.00    1.21621   1.25678    0.020
 5688.00    1.21140   1.25750    0.020
 5689.00    1.22622   1.25871    0.020
 5690.00    1.25327   1.26009    0.020
 5691.00    1.26893   1.26110    0.020
 5692.00    1.27838   1.26193    0.020
 5693.00    1.29409   1.26099    0.020
 5694.00    1.31276   1.26019    0.020
 5695.00    1.30129   1.25800    0.020
 5696.00    1.27751   1.25498    0.021
 5697.00    1.26123   1.25109    0.021
 5698.00    1.24756   1.24660    0.021
 5699.00    1.25479   1.24190    0.021
 5700.00    1.26817   1.23635    0.021
 5701.00    1.25119   1.23072    0.021
 5702.00    1.22682   1.22520    0.021
 5703.00    1.21958   1.22016    0.021
 5704.00    1.21571   1.21520    0.021
 5705.00    1.19678   1.21193    0.021
 5706.00    1.17554   1.20959    0.021
 5707.00    1.16181   1.20831    0.020
 5708.00    1.14894   1.20936    0.020
 5709.00    1.16351   1.21165    0.020
 5710.00    1.18016   1.21563    0.020
 5711.00    1.20783   1.22082    0.020
 5712.00    1.23595   1.22715    0.021
 5713.00    1.23509   1.23425    0.020
 5714.00    1.23382   1.24256    0.020
 5715.00    1.22456   1.25071    0.020
 5716.00    1.21566   1.25921    0.020
 5717.00    1.21312   1.26741    0.020
 5718.00    1.21165   1.27451    0.020
 5719.00    1.22143   1.28112    0.020
 5720.00    1.23175   1.28643    0.020
 5721.00    1.24610   1.29041    0.020
 5722.00    1.25845   1.29286    0.020
 5723.00    1.25941   1.29499    0.020
 5724.00    1.26259   1.29595    0.020
 5725.00    1.27586   1.29659    0.020
 5726.00    1.28197   1.29626    0.020
 5727.00    1.26145   1.29568    0.020
 5728.00    1.24864   1.29544    0.020
 5729.00    1.25982   1.29482    0.020
 5730.00    1.27119   1.29474    0.020
 5731.00    1.28303   1.29432    0.020
 5732.00    1.29079   1.29433    0.020
 5733.00    1.28932   1.29415    0.020
 5734.00    1.29423   1.29437    0.020
 5735.00    1.31166   1.29487    0.020
 5736.00    1.32276   1.29503    0.020
 5737.00    1.32304   1.29495    0.020
 5738.00    1.32353   1.29463    0.020
 5739.00    1.32434   1.29477    0.020
 5740.00    1.32669   1.29448    0.000
 5741.00    1.33107   1.29392    0.000
 5742.00    1.32492   1.29291    0.000
 5743.00    1.30653   1.29126    0.000
 5744.00    1.30303   1.28997    0.000
 5745.00    1.31476   1.28830    0.000
 5746.00    1.31736   1.28675    0.000
 5747.00    1.31171   1.28465    0.000
 5748.00    1.30714   1.28238    0.000
 5749.00    1.30343   1.27985    0.000
 5750.00    1.31530   1.27802    0.000
 5751.00    1.33808   1.27672    0.000
 5752.00    1.33898   1.27547    0.000
 5753.00    1.32644   1.27477    0.000
 5754.00    1.31103   1.27374    0.000
 5755.00    1.29408   1.27362    0.000
 5756.00    1.27390   1.27352    0.000
 5757.00    1.25222   1.27369    0.000
 5758.00    1.25678   1.27373    0.000
 5759.00    1.27188   1.27505    0.000
 5760.00    1.28330   1.27654    0.000
 5761.00    1.29347   1.27895    0.000
 5762.00    1.30570   1.28155    0.000
 5763.00    1.31852   1.28372    0.000
 5764.00    1.32488   1.28595    0.000
 5765.00    1.32970   1.28775    0.000
 5766.00    1.31340   1.28955    0.000
 5767.00    1.29305   1.29035    0.000
 5768.00    1.28952   1.29140    0.000
 5769.00    1.28849   1.29105    0.000
 5770.00    1.28715   1.29049    0.000
 5771.00    1.28577   1.28887    0.000
 5772.00    1.27508   1.28584    0.000
 5773.00    1.26373   1.28227    0.000
 5774.00    1.28294   1.27754    0.000
 5775.00    1.30327   1.27219    0.000
 5776.00    1.29703   1.26566    0.000
 5777.00    1.28989   1.25951    0.000
 5778.00    1.25419   1.25295    0.000
 5779.00    1.22027   1.24726    0.000
 5780.00    1.21501   1.24205    0.000
 5781.00    1.21142   1.23784    0.000
 5782.00    1.22476   1.23513    0.000
 5783.00    1.23556   1.23336    0.000
 5784.00    1.22807   1.23376    0.000
 5785.00    1.22808   1.23448    0.000
 5786.00    1.26969   1.23691    0.000
 5787.00    1.30142   1.24038    0.000
 5788.00    1.28927   1.24479    0.000
 5789.00    1.27715   1.25048    0.000
 5790.00    1.26514   1.25616    0.000
 5791.00    1.26098   1.26203   -2.000
 5792.00    1.28082   1.26741   -2.000
 5793.00    1.29880   1.27278   -2.000
 5794.00    1.31192   1.27761   -2.000
 5795.00    1.31917   1.28177   -2.000
 5796.00    1.31332   1.28601   -2.000
 5797.00    1.38346   1.28952   -2.000
 5798.00    1.60061   1.29244   -2.000
 5799.00    1.74944   1.29472   -2.000
 5800.00    1.78299   1.29620   -2.000
 5801.00    1.73168   1.29705   -2.000
 5802.00    1.55493   1.29757   -2.000
 5803.00    1.42713   1.29796   -2.000
 5804.00    1.36294   1.29808   -2.000
 5805.00    1.33528   1.29836   -2.000
 5806.00    1.34943   1.29847   -2.000
 5807.00    1.36792   1.29831   -2.000
 5808.00    1.39080   1.29814   -2.000
 5809.00    1.39137   1.29798   -2.000
 5810.00    1.37206   1.29789   -2.000
 5811.00    1.34202   1.29794    0.000
 5812.00    1.30355   1.29850    0.000
 5813.00    1.29218   1.29936    0.000
 5814.00    1.29950   1.30058    0.000
 5815.00    1.30526   1.30239    0.000
 5816.00    1.31006   1.30403    0.000
 5817.00    1.30601   1.30591    0.000
 5818.00    1.29728   1.30776    0.000
 5819.00    1.29884   1.30952    0.000
 5820.00    1.30512   1.31149    0.000
 5821.00    1.31368   1.31318    0.000
 5822.00    1.32315   1.31516    0.000
 5823.00    1.32071   1.31657    0.000
 5824.00    1.31427   1.31794    0.000
 5825.00    1.32825   1.31879    0.000
 5826.00    1.34800   1.31906    0.000
 5827.00    1.36510   1.31929    0.000
 5828.00    1.38159   1.31891    0.000
 5829.00    1.36931   1.31862    0.000
 5830.00    1.35166   1.31796    0.000
 5831.00    1.33072   1.31746    0.000
 5832.00    1.30931   1.31671    0.000
 5833.00    1.30679   1.31611    0.000
 5834.00    1.30623   1.31570    0.000
 5835.00    1.32851   1.31493    0.000
 5836.00    1.35234   1.31461    0.000
 5837.00    1.33239   1.31422    0.000
 5838.00    1.31100   1.31382    0.000
 5839.00    1.30989   1.31301    0.000
 5840.00    1.30954   1.31200    0.000
 5841.00    1.33255   1.31040    0.000
 5842.00    1.35353   1.30818    0.000
 5843.00    1.34361   1.30562    0.000
 5844.00    1.33352   1.30227    0.000
 5845.00    1.32177   1.29852    0.000
 5846.00    1.31098   1.29430    0.000
 5847.00    1.30689   1.28962    0.000
 5848.00    1.30404   1.28420    0.000
 5849.00    1.30793   1.27874    0.000
 5850.00    1.30804   1.27301    0.000
 5851.00    1.29178   1.26771    0.000
 5852.00    1.28233   1.26284    0.000
 5853.00    1.29713   1.25831    0.000
 5854.00    1.30734   1.25435    0.000
 5855.00    1.30374   1.25106    0.000
 5856.00    1.28853   1.24970    0.000
 5857.00    1.24371   1.24826    0.000
 5858.00    1.20896   1.24860    0.000
 5859.00    1.19635   1.24910    0.000
 5860.00    1.19633   1.25066    0.000
 5861.00    1.22027   1.25279    0.000
 5862.00    1.23812   1.25520    0.000
 5863.00    1.24582   1.25841    0.000
 5864.00    1.26264   1.26117    0.000
 5865.00    1.29274   1.26520    0.000
 5866.00    1.30988   1.26811    0.000
 5867.00    1.31041   1.27103    0.000
 5868.00    1.29895   1.27304    0.000
 5869.00    1.27395   1.27470    0.000
 5870.00    1.26301   1.27560    0.000
 5871.00    1.26605   1.27570    0.000
 5872.00    1.27476   1.27550    0.000
 5873.00    1.28844   1.27386    0.000
 5874.00    1.29596   1.27172    0.000
 5875.00    1.29871   1.26798    0.000
 5876.00    1.29750   1.26332    0.000
 5877.00    1.29361   1.25669    0.000
 5878.00    1.27240   1.24902    0.000
 5879.00    1.24085   1.24068    0.000
 5880.00    1.21287   1.23041    0.000
 5881.00    1.18675   1.21883    0.000
 5882.00    1.17345   1.20588    0.000
 5883.00    1.16593   1.19143    0.000
 5884.00    1.14188   1.17504    0.000
 5885.00    1.11143   1.15800    0.000
 5886.00    1.08269   1.14099    0.000
 5887.00    1.05452   1.12421    0.000
 5888.00    1.05010   1.11144    0.000
 5889.00    1.05224   1.10127    0.000
 5890.00    1.06486   1.09182    0.000
 5891.00    1.07986   1.08560    0.000
 5892.00    1.08637   1.08158    0.000
 5893.00    1.09133   1.08008    0.000
 5894.00    1.08891   1.08436    0.000
 5895.00    1.08545   1.09339    0.000
 5896.00    1.11179   1.10457    0.000
 5897.00    1.14112   1.11737    0.000
 5898.00    1.17117   1.13185    0.000
 5899.00    1.20126   1.14592    0.000
 5900.00    1.21282   1.15944    0.000
 5901.00    1.22382   1.17444    0.019
 5902.00    1.22888   1.18818    0.019
 5903.00    1.23354   1.20049    0.019
 5904.00    1.22717   1.21169    0.019
 5905.00    1.22093   1.22100    0.019
 5906.00    1.21651   1.22821    0.019
 5907.00    1.21358   1.23375    0.019
 5908.00    1.22455   1.23825    0.019
 5909.00    1.23544   1.24098    0.019
 5910.00    1.24587   1.24296    0.019
 5911.00    1.25546   1.24369    0.019
 5912.00    1.26063   1.24478    0.019
 5913.00    1.25894   1.24528    0.019
 5914.00    1.22815   1.24596    0.019
 5915.00    1.20616   1.24702    0.019
 5916.00    1.21491   1.24748    0.019
 5917.00    1.22578   1.24863    0.019
 5918.00    1.24291   1.24907    0.019
 5919.00    1.25034   1.25019    0.019
 5920.00    1.23345   1.25132    0.019
 5921.00    1.22051   1.25295    0.019
 5922.00    1.21615   1.25419    0.019
 5923.00    1.21182   1.25507    0.019
 5924.00    1.20756   1.25581    0.019
 5925.00    1.21152   1.25564    0.019
 5926.00    1.22893   1.25576    0.019
 5927.00    1.23782   1.25522    0.019
 5928.00    1.23448   1.25577    0.019
 5929.00    1.23228   1.25585    0.019
 5930.00    1.23153   1.25578    0.019
 5931.00    1.24469   1.25545    0.019
 5932.00    1.27333   1.25481    0.019
 5933.00    1.28460   1.25557    0.019
 5934.00    1.27882   1.25566    0.018
 5935.00    1.26256   1.25633    0.018
 5936.00    1.23723   1.25708    0.019
 5937.00    1.20895   1.25725    0.019
 5938.00    1.17843   1.25687    0.019
 5939.00    1.16693   1.25667    0.019
 5940.00    1.16818   1.25723    0.018
 5941.00    1.18369   1.25732    0.018
 5942.00    1.20759   1.25731    0.019
 5943.00    1.22365   1.25698    0.019
 5944.00    1.23571   1.25622    0.018
 5945.00    1.23487   1.25484    0.018
 5946.00    1.22830   1.25353    0.019
 5947.00    1.23065   1.25308    0.019
 5948.00    1.23639   1.25267    0.019
 5949.00    1.24502   1.25198    0.019
 5950.00    1.25459   1.25108    0.019
 5951.00    1.25294   1.25106    0.019
 5952.00    1.24824   1.25128    0.019
 5953.00    1.24402   1.25109    0.019
 5954.00    1.23991   1.25187    0.019
 5955.00    1.23651   1.25346    0.019
 5956.00    1.23324   1.25508    0.019
 5957.00    1.22958   1.25714    0.019
 5958.00    1.22587   1.25962    0.019
 5959.00    1.24335   1.26245    0.019
 5960.00    1.26287   1.26454    0.019
 5961.00    1.26249   1.26686    0.019
 5962.00    1.26092   1.26921    0.018
 5963.00    1.24319   1.27101    0.018
 5964.00    1.22516   1.27349    0.019
 5965.00    1.22521   1.27502    0.018
 5966.00    1.22638   1.27616    0.018
 5967.00    1.25602   1.27668    0.018
 5968.00    1.28462   1.27683    0.018
 5969.00    1.29919   1.27643    0.018
 5970.00    1.31105   1.27534    0.018
 5971.00    1.29869   1.27420    0.018
 5972.00    1.28474   1.27215    0.019
 5973.00    1.26035   1.26948    0.019
 5974.00    1.23808   1.26678    0.018
 5975.00    1.22671   1.26427    0.019
 5976.00    1.21806   1.26167    0.019
 5977.00    1.22069   1.25954    0.018
 5978.00    1.22020   1.25714    0.018
 5979.00    1.20906   1.25470    0.018
 5980.00    1.20352   1.25236    0.019
 5981.00    1.21416   1.25012    0.019
 5982.00    1.22880   1.24938    0.018
 5983.00    1.25327   1.24973    0.019
 5984.00    1.27146   1.25015    0.019
 5985.00    1.27628   1.25077    0.019
 5986.00    1.27905   1.25153    0.019
 5987.00    1.27800   1.25245    0.019
 5988.00    1.27122   1.25296    0.019
 5989.00    1.25519   1.25410    0.019
 5990.00    1.24543   1.25638    0.018
 5991.00    1.24454   1.25775    0.018
 5992.00    1.24828   1.25840    0.018
 5993.00    1.25778   1.25853    0.018
 5994.00    1.25589   1.25811    0.018
 5995.00    1.24149   1.25720    0.018
 5996.00    1.23727   1.25636    0.018
 5997.00    1.24292   1.25558    0.018
 5998.00    1.24650   1.25430    0.018
 5999.00    1.24831   1.25235    0.018
 6000.00    1.23527   1.24992    0.018
 6001.00    1.21105   1.24830    0.018
 6002.00    1.19257   1.24637    0.018
 6003.00    1.17790   1.24428    0.018
 6004.00    1.17422   1.24261    0.018
 6005.00    1.17691   1.24035    0.018
 6006.00    1.18404   1.23916    0.018
 6007.00    1.19341   1.23835    0.018
 6008.00    1.21356   1.23776    0.018
 6009.00    1.23842   1.23677    0.018
 6010.00    1.25123   1.23486    0.019
 6011.00    1.25954   1.23420    0.019
 6012.00    1.25296   1.23363    0.019
 6013.00    1.24166   1.23318    0.019
 6014.00    1.21557   1.23313    0.019
 6015.00    1.18556   1.23362    0.019
 6016.00    1.19266   1.23346    0.019
 6017.00    1.20782   1.23278    0.019
 6018.00    1.21900   1.23380    0.019
 6019.00    1.22951   1.23539    0.019
 6020.00    1.21695   1.23750    0.019
 6021.00    1.20138   1.23914    0.019
 6022.00    1.20201   1.24262    0.018
 6023.00    1.20412   1.24623    0.018
 6024.00    1.22129   1.24874    0.018
 6025.00    1.23929   1.25321    0.018
 6026.00    1.26038   1.25744    0.018
 6027.00    1.28134   1.26193    0.018
 6028.00    1.28302   1.26559    0.018
 6029.00    1.28447   1.26963    0.018
 6030.00    1.28060   1.27372    0.018
 6031.00    1.27795   1.27634    0.018
 6032.00    1.29077   1.27925    0.018
 6033.00    1.30257   1.28194    0.018
 6034.00    1.30545   1.28399    0.018
 6035.00    1.30728   1.28559    0.018
 6036.00    1.30237   1.28686    0.018
 6037.00    1.29510   1.28781    0.018
 6038.00    1.27602   1.28884    0.018
 6039.00    1.25822   1.28913    0.019
 6040.00    1.24557   1.29024    0.018
 6041.00    1.24075   1.29115    0.018
 6042.00    1.26216   1.29157    0.018
 6043.00    1.28236   1.29198    0.019
 6044.00    1.29916   1.29195    0.019
 6045.00    1.31442   1.29230    0.019
 6046.00    1.32599   1.29160    0.019
 6047.00    1.33314   1.29155    0.019
 6048.00    1.33104   1.29107    0.019
 6049.00    1.32269   1.28991    0.019
 6050.00    1.30296   1.28829    0.018
 6051.00    1.28581   1.28650    0.018
 6052.00    1.27276   1.28488    0.018
 6053.00    1.26551   1.28225    0.018
 6054.00    1.26638   1.28064    0.018
 6055.00    1.27415   1.27850    0.018
 6056.00    1.29039   1.27702    0.018
 6057.00    1.29236   1.27559    0.018
 6058.00    1.27887   1.27430    0.018
 6059.00    1.26699   1.27367    0.018
 6060.00    1.25666   1.27236    0.019
 6061.00    1.25251   1.27264    0.018
 6062.00    1.25357   1.27212    0.018
 6063.00    1.25995   1.27325    0.018
 6064.00    1.27027   1.27569    0.018
 6065.00    1.29005   1.27741    0.018
 6066.00    1.31599   1.27948    0.018
 6067.00    1.32814   1.28078    0.018
 6068.00    1.33245   1.28260    0.018
 6069.00    1.32604   1.28368    0.018
 6070.00    1.31431   1.28497    0.018
 6071.00    1.29478   1.28647    0.018
 6072.00    1.27191   1.28640    0.018
 6073.00    1.27175   1.28525    0.018
 6074.00    1.27995   1.28341    0.019
 6075.00    1.27456   1.28049    0.019
 6076.00    1.26494   1.27729    0.019
 6077.00    1.25429   1.27477    0.018
 6078.00    1.24338   1.27150    0.018
 6079.00    1.24238   1.26757    0.018
 6080.00    1.24349   1.26405    0.018
 6081.00    1.24629   1.26122    0.018
 6082.00    1.24937   1.25794    0.018
 6083.00    1.23165   1.25529    0.018
 6084.00    1.21130   1.25407    0.018
 6085.00    1.20909   1.25314    0.018
 6086.00    1.20848   1.25158    0.018
 6087.00    1.22265   1.25019    0.018
 6088.00    1.23759   1.25018    0.017
 6089.00    1.23720   1.25001    0.018
 6090.00    1.23665   1.24987    0.018
 6091.00    1.24510   1.25038    0.018
 6092.00    1.25347   1.25081    0.018
 6093.00    1.26035   1.25028    0.018
 6094.00    1.26565   1.24928    0.018
 6095.00    1.25173   1.24893    0.018
 6096.00    1.23817   1.24928    0.018
 6097.00    1.22764   1.24881    0.018
 6098.00    1.21855   1.24810    0.018
 6099.00    1.21849   1.24637    0.018
 6100.00    1.21684   1.24422    0.018
 6101.00    1.20752   1.24491    0.018
 6102.00    1.20088   1.24548    0.018
 6103.00    1.20486   1.24652    0.018
 6104.00    1.20867   1.24732    0.018
 6105.00    1.21187   1.24767    0.018
 6106.00    1.21891   1.24878    0.018
 6107.00    1.23661   1.24987    0.018
 6108.00    1.25586   1.25235    0.018
 6109.00    1.27878   1.25444    0.018
 6110.00    1.29608   1.25579    0.018
 6111.00    1.30179   1.25640    0.018
 6112.00    1.29837   1.25589    0.018
 6113.00    1.27862   1.25496    0.018
 6114.00    1.25904   1.25403    0.017
 6115.00    1.23975   1.25285    0.017
 6116.00    1.22890   1.25071    0.017
 6117.00    1.22968   1.24821    0.017
 6118.00    1.23691   1.24556    0.018
 6119.00    1.25195   1.24171    0.018
 6120.00    1.26136   1.23953    0.018
 6121.00    1.26476   1.23877    0.018
 6122.00    1.26129   1.23743    0.018
 6123.00    1.25134   1.23642    0.018
 6124.00    1.24162   1.23464    0.018
 6125.00    1.23209   1.23367    0.018
 6126.00    1.23542   1.23232    0.018
 6127.00    1.24815   1.23151    0.018
 6128.00    1.25428   1.23193    0.018
 6129.00    1.25618   1.23014    0.018
 6130.00    1.24934   1.22883    0.018
 6131.00    1.23760   1.22690    0.018
 6132.00    1.23104   1.22418    0.018
 6133.00    1.22701   1.22146    0.018
 6134.00    1.22681   1.21785    0.018
 6135.00    1.22823   1.21755    0.019
 6136.00    1.22539   1.21824    0.018
 6137.00    1.22101   1.21893    0.018
 6138.00    1.23121   1.21918    0.018
 6139.00    1.24586   1.21887    0.018
 6140.00    1.24885   1.22115    0.018
 6141.00    1.24887   1.22358    0.018
 6142.00    1.26001   1.22721    0.018
 6143.00    1.27344   1.23167    0.018
 6144.00    1.28977   1.23420    0.018
 6145.00    1.30656   1.23545    0.018
 6146.00    1.30271   1.23578    0.018
 6147.00    1.29635   1.23651    0.018
 6148.00    1.27676   1.23729    0.018
 6149.00    1.25607   1.23631    0.018
 6150.00    1.24293   1.23454    0.018
 6151.00    1.23016   1.23080    0.018
 6152.00    1.23687   1.22578    0.018
 6153.00    1.24321   1.22078    0.018
 6154.00    1.21210   1.21475    0.018
 6155.00    1.18177   1.20892    0.018
 6156.00    1.16693   1.20278    0.018
 6157.00    1.15349   1.19617    0.018
 6158.00    1.15623   1.18779    0.018
 6159.00    1.15927   1.17955    0.018
 6160.00    1.16479   1.17386    0.018
 6161.00    1.16945   1.16923    0.018
 6162.00    1.16888   1.16586    0.018
 6163.00    1.16767   1.16300    0.018
 6164.00    1.16343   1.16176    0.018
 6165.00    1.16120   1.16072    0.018
 6166.00    1.16673   1.15971    0.018
 6167.00    1.17311   1.16154    0.018
 6168.00    1.18222   1.16591    0.018
 6169.00    1.19171   1.17082    0.018
 6170.00    1.20221   1.17466    0.018
 6171.00    1.20992   1.17911    0.017
 6172.00    1.21109   1.18380    0.017
 6173.00    1.21013   1.18803    0.017
 6174.00    1.20487   1.19239    0.017
 6175.00    1.19823   1.19792    0.017
 6176.00    1.18916   1.20268    0.017
 6177.00    1.18019   1.20515    0.018
 6178.00    1.17140   1.20751    0.018
 6179.00    1.16803   1.20950    0.018
 6180.00    1.17202   1.21073    0.018
 6181.00    1.17743   1.21087    0.018
 6182.00    1.18452   1.21074    0.018
 6183.00    1.18929   1.20904    0.018
 6184.00    1.19163   1.20667    0.018
 6185.00    1.20016   1.20508    0.018
 6186.00    1.21444   1.20313    0.018
 6187.00    1.21991   1.20168    0.018
 6188.00    1.21820   1.19843    0.018
 6189.00    1.20209   1.19672    0.018
 6190.00    1.17562   1.19690    0.018
 6191.00    1.16058   1.19634    0.018
 6192.00    1.15276   1.19745    0.018
 6193.00    1.14196   1.19848    0.018
 6194.00    1.12951   1.20054    0.018
 6195.00    1.13028   1.20254    0.018
 6196.00    1.13740   1.20375   -2.000
 6197.00    1.20953   1.20690   -2.000
 6198.00    1.30862   1.20982   -2.000
 6199.00    1.33293   1.21243   -2.000
 6200.00    1.33074   1.21464   -2.000
 6201.00    1.26247   1.21599   -2.000
 6202.00    1.17442   1.21712   -2.000
 6203.00    1.12984   1.21726   -2.000
 6204.00    1.09605   1.21691   -2.000
 6205.00    1.12605   1.21596   -2.000
 6206.00    1.16889   1.21434   -2.000
 6207.00    1.21183   1.21164   -2.000
 6208.00    1.25478   1.20788    0.018
 6209.00    1.24350   1.20432    0.018
 6210.00    1.22586   1.19955    0.018
 6211.00    1.20505   1.19440    0.018
 6212.00    1.18398   1.18951    0.018
 6213.00    1.18353   1.18471    0.018
 6214.00    1.18399   1.18143    0.018
 6215.00    1.19391   1.17798    0.018
 6216.00    1.20391   1.17420    0.017
 6217.00    1.21249   1.17126    0.018
 6218.00    1.22065   1.16891    0.018
 6219.00    1.22107   1.16820    0.018
 6220.00    1.22013   1.16793    0.018
 6221.00    1.20435   1.16707    0.017
 6222.00    1.18921   1.16650    0.017
 6223.00    1.17899   1.16542    0.017
 6224.00    1.16887   1.16524    0.017
 6225.00    1.15935   1.16552    0.017
 6226.00    1.15202   1.16560    0.017
 6227.00    1.15486   1.16487    0.017
 6228.00    1.15724   1.16352    0.017
 6229.00    1.15788   1.16350    0.018
 6230.00    1.15995   1.16314    0.018
 6231.00    1.16655   1.16391    0.018
 6232.00    1.17215   1.16384    0.018
 6233.00    1.17502   1.16351    0.017
 6234.00    1.17871   1.16332    0.017
 6235.00    1.18428   1.16180    0.017
 6236.00    1.18615   1.16224    0.017
 6237.00    1.18062   1.16124    0.017
 6238.00    1.17123   1.16069    0.017
 6239.00    1.15514   1.16023    0.018
 6240.00    1.14223   1.15798    0.018
 6241.00    1.13417   1.15724    0.017
 6242.00    1.13331   1.15571    0.017
 6243.00    1.14209   1.15422    0.018
 6244.00    1.15317   1.15302    0.018
 6245.00    1.16697   1.15180    0.018
 6246.00    1.17595   1.15097    0.018
 6247.00    1.17995   1.14960    0.017
 6248.00    1.17228   1.14782    0.017
 6249.00    1.15394   1.14568    0.017
 6250.00    1.13424   1.14374    0.017
 6251.00    1.11345   1.14211    0.017
 6252.00    1.11139   1.14178    0.017
 6253.00    1.12261   1.14053    0.017
 6254.00    1.14876   1.13961    0.017
 6255.00    1.18418   1.13939    0.017
 6256.00    1.18293   1.13927    0.018
 6257.00    1.16174   1.14147    0.018
 6258.00    1.15337   1.14358    0.018
 6259.00    1.15108   1.14726    0.018
 6260.00    1.17883   1.15116    0.019
 6261.00    1.21881   1.15425    0.021
 6262.00    1.22472   1.15810    0.022
 6263.00    1.21876   1.16221    0.022
 6264.00    1.19900   1.16756    0.022
 6265.00    1.17518   1.17191    0.021
 6266.00    1.18366   1.17518    0.020
 6267.00    1.19999   1.17836    0.019
 6268.00    1.20951   1.18111    0.019
 6269.00    1.21771   1.18375    0.018
 6270.00    1.21847   1.18616    0.018
 6271.00    1.21809   1.18810    0.018
 6272.00    1.21772   1.18923    0.018
 6273.00    1.21736   1.19018    0.017
 6274.00    1.21450   1.19095    0.017
 6275.00    1.21146   1.19202    0.017
 6276.00    1.20958   1.19347    0.017
 6277.00    1.20775   1.19344    0.017
 6278.00    1.20304   1.19407    0.017
 6279.00    1.19845   1.19508    0.017
 6280.00    1.19946   1.19625    0.000
 6281.00    1.20112   1.19847    0.000
 6282.00    1.21411   1.19881    0.000
 6283.00    1.22758   1.19986    0.000
 6284.00    1.24608   1.20088    0.000
 6285.00    1.26090   1.20152    0.000
 6286.00    1.24817   1.20337    0.000
 6287.00    1.23424   1.20319    0.000
 6288.00    1.21349   1.20245    0.000
 6289.00    1.19595   1.20116    0.000
 6290.00    1.19289   1.19937    0.000
 6291.00    1.19309   1.19889    0.000
 6292.00    1.20539   1.19716    0.000
 6293.00    1.21502   1.19413    0.000
 6294.00    1.21636   1.19117    0.000
 6295.00    1.21599   1.18854    0.000
 6296.00    1.21111   1.18745    0.000
 6297.00    1.20601   1.18615    0.000
 6298.00    1.20041   1.18429    0.000
 6299.00    1.20071   1.18347    0.000
 6300.00    1.21257   1.18303    0.000
 6301.00    1.22105   1.18357    0.000
 6302.00    1.22374   1.18425    0.000
 6303.00    1.22630   1.18493    0.000
 6304.00    1.22868   1.18620    0.000
 6305.00    1.22647   1.18700    0.000
 6306.00    1.21822   1.18772    0.000
 6307.00    1.21030   1.18778    0.000
 6308.00    1.20277   1.18822    0.000
 6309.00    1.19432   1.18805    0.000
 6310.00    1.18491   1.18666    0.000
 6311.00    1.18168   1.18591    0.000
 6312.00    1.18402   1.18464    0.000
 6313.00    1.17938   1.18415    0.000
 6314.00    1.16919   1.18279    0.000
 6315.00    1.16431   1.18123    0.000
 6316.00    1.16314   1.18192    0.000
 6317.00    1.17165   1.18214    0.000
 6318.00    1.18610   1.18368    0.000
 6319.00    1.20354   1.18468    0.000
 6320.00    1.22259   1.18625    0.000
 6321.00    1.23698   1.18974    0.017
 6322.00    1.24920   1.19146    0.017
 6323.00    1.24679   1.19461    0.017
 6324.00    1.23852   1.19706    0.017
 6325.00    1.22476   1.19959    0.017
 6326.00    1.20913   1.20222    0.017
 6327.00    1.19492   1.20198    0.017
 6328.00    1.18112   1.20306    0.017
 6329.00    1.19062   1.20355    0.017
 6330.00    1.20564   1.20373    0.017
 6331.00    1.21052   1.20319    0.017
 6332.00    1.21346   1.20123    0.017
 6333.00    1.21181   1.20021    0.017
 6334.00    1.20948   1.19871    0.017
 6335.00    1.21826   1.19758    0.017
 6336.00    1.22824   1.19617    0.017
 6337.00    1.23623   1.19559    0.017
 6338.00    1.24408   1.19523    0.017
 6339.00    1.24138   1.19445    0.017
 6340.00    1.23829   1.19461    0.017
 6341.00    1.21203   1.19440    0.017
 6342.00    1.18638   1.19551    0.017
 6343.00    1.18480   1.19638    0.017
 6344.00    1.18389   1.19679    0.017
 6345.00    1.19353   1.19774    0.017
 6346.00    1.20305   1.19746    0.017
 6347.00    1.21130   1.19738    0.017
 6348.00    1.22036   1.19732    0.017
 6349.00    1.23536   1.19652    0.017
 6350.00    1.24705   1.19522    0.017
 6351.00    1.24048   1.19263    0.017
 6352.00    1.23343   1.18962    0.017
 6353.00    1.22426   1.18696    0.017
 6354.00    1.21272   1.18377    0.017
 6355.00    1.19262   1.18035    0.017
 6356.00    1.17639   1.17694    0.017
 6357.00    1.17199   1.17383    0.017
 6358.00    1.16961   1.17153    0.017
 6359.00    1.17249   1.16998    0.017
 6360.00    1.17784   1.16950    0.017
 6361.00    1.18869   1.16979    0.017
 6362.00    1.19720   1.17093    0.017
 6363.00    1.20119   1.17302    0.018
 6364.00    1.20323   1.17635    0.018
 6365.00    1.20198   1.18064    0.018
 6366.00    1.20345   1.18483    0.018
 6367.00    1.20892   1.18924    0.018
 6368.00    1.21271   1.19379    0.017
 6369.00    1.21434   1.19868    0.017
 6370.00    1.21875   1.20318    0.017
 6371.00    1.22634   1.20677    0.017
 6372.00    1.22344   1.20993    0.017
 6373.00    1.20998   1.21239    0.017
 6374.00    1.19989   1.21482    0.017
 6375.00    1.19281   1.21622    0.017
 6376.00    1.19521   1.21700    0.017
 6377.00    1.20502   1.21760    0.017
 6378.00    1.21037   1.21747    0.017
 6379.00    1.21264   1.21780    0.017
 6380.00    1.22139   1.21720    0.017
 6381.00    1.23405   1.21649    0.017
 6382.00    1.24071   1.21601    0.017
 6383.00    1.24420   1.21507    0.017
 6384.00    1.24265   1.21458    0.017
 6385.00    1.23880   1.21302    0.017
 6386.00    1.23602   1.21155    0.017
 6387.00    1.23367   1.21022    0.017
 6388.00    1.23850   1.20888    0.017
 6389.00    1.24575   1.20790    0.017
 6390.00    1.23781   1.20573    0.017
 6391.00    1.22560   1.20385    0.017
 6392.00    1.21874   1.20180    0.017
 6393.00    1.21311   1.20094    0.017
 6394.00    1.21310   1.20074    0.017
 6395.00    1.21412   1.19973    0.018
 6396.00    1.20421   1.19930    0.018
 6397.00    1.19273   1.19778    0.018
 6398.00    1.17629   1.19834    0.017
 6399.00    1.15934   1.19933    0.016
 6400.00    1.16444   1.19962    0.016
 6401.00    1.17102   1.20112    0.016
 6402.00    1.20440   1.20047    0.016
 6403.00    1.23867   1.20097    0.016
 6404.00    1.23509   1.20167    0.016
 6405.00    1.23159   1.20149    0.016
 6406.00    1.23065   1.20275    0.016
 6407.00    1.22936   1.20235    0.016
 6408.00    1.22281   1.20168    0.016
 6409.00    1.21609   1.20159    0.016
 6410.00    1.20775   1.20108    0.017
 6411.00    1.20131   1.20120    0.017
 6412.00    1.20812   1.20104    0.017
 6413.00    1.21397   1.20042    0.017
 6414.00    1.21468   1.20048    0.017
 6415.00    1.21533   1.20108    0.017
 6416.00    1.21576   1.20138    0.017
 6417.00    1.21537   1.20180    0.017
 6418.00    1.21206   1.20212    0.017
 6419.00    1.20989   1.20295    0.017
 6420.00    1.21114   1.20475    0.017
 6421.00    1.21312   1.20600    0.017
 6422.00    1.21699   1.20673    0.017
 6423.00    1.21845   1.20723    0.017
 6424.00    1.21460   1.20818    0.017
 6425.00    1.21218   1.20949    0.017
 6426.00    1.21246   1.21055    0.017
 6427.00    1.21255   1.21071    0.017
 6428.00    1.21233   1.21026    0.017
 6429.00    1.20570   1.21079    0.017
 6430.00    1.18975   1.21090    0.017
 6431.00    1.17618   1.21122    0.017
 6432.00    1.16565   1.21159    0.017
 6433.00    1.16832   1.21131    0.017
 6434.00    1.18587   1.21246    0.017
 6435.00    1.20448   1.21302    0.017
 6436.00    1.22414   1.21309    0.017
 6437.00    1.23622   1.21426    0.017
 6438.00    1.24166   1.21485    0.017
 6439.00    1.24712   1.21604    0.017
 6440.00    1.25261   1.21713    0.017
 6441.00    1.26426   1.21604    0.017
 6442.00    1.28011   1.21564    0.017
 6443.00    1.28449   1.21538    0.017
 6444.00    1.28206   1.21446    0.017
 6445.00    1.26655   1.21450    0.017
 6446.00    1.24427   1.21207    0.017
 6447.00    1.21965   1.20933    0.017
 6448.00    1.19398   1.20829    0.018
 6449.00    1.18280   1.20643    0.017
 6450.00    1.17724   1.20646    0.017
 6451.00    1.18124   1.20561    0.017
 6452.00    1.18839   1.20378    0.017
 6453.00    1.19729   1.20408    0.017
 6454.00    1.20667   1.20361    0.017
 6455.00    1.21266   1.20455    0.017
 6456.00    1.21789   1.20578    0.017
 6457.00    1.21963   1.20576    0.017
 6458.00    1.22074   1.20701    0.017
 6459.00    1.21480   1.20697    0.017
 6460.00    1.20787   1.20754    0.017
 6461.00    1.20663   1.20888    0.017
 6462.00    1.20596   1.20939    0.017
 6463.00    1.19856   1.21050    0.017
 6464.00    1.19073   1.21049    0.017
 6465.00    1.19039   1.21080    0.017
 6466.00    1.19034   1.21165    0.017
 6467.00    1.21430   1.21234    0.017
 6468.00    1.23799   1.21279    0.017
 6469.00    1.25398   1.21271    0.017
 6470.00    1.26944   1.21295    0.017
 6471.00    1.27739   1.21287    0.017
 6472.00    1.28449   1.21293    0.017
 6473.00    1.28368   1.21220    0.017
 6474.00    1.27995   1.21121    0.017
 6475.00    1.25635   1.21053    0.017
 6476.00    1.23478   1.20930    0.017
 6477.00    1.22383   1.20819    0.017
 6478.00    1.21501   1.20630    0.016
 6479.00    1.21518   1.20410    0.016
 6480.00    1.21535   1.20199    0.016
 6481.00    1.21554   1.19940    0.017
 6482.00    1.21579   1.19680    0.017
 6483.00    1.21621   1.19315    0.017
 6484.00    1.21865   1.18903    0.017
 6485.00    1.22612   1.18481    0.017
 6486.00    1.23321   1.17955    0.017
 6487.00    1.23947   1.17441    0.017
 6488.00    1.23210   1.16803    0.017
 6489.00    1.19922   1.16192    0.017
 6490.00    1.16894   1.15669    0.017
 6491.00    1.14290   1.14999    0.017
 6492.00    1.12165   1.14521    0.017
 6493.00    1.10726   1.14038    0.017
 6494.00    1.09248   1.13721    0.017
 6495.00    1.07721   1.13699    0.016
 6496.00    1.07882   1.13529    0.016
 6497.00    1.09916   1.13683    0.017
 6498.00    1.12527   1.13944    0.017
 6499.00    1.15703   1.14309    0.017
 6500.00    1.17368   1.14945    0.017
 6501.00    1.17728   1.15390    0.017
 6502.00    1.18197   1.15991    0.017
 6503.00    1.18749   1.16637    0.017
 6504.00    1.20335   1.17203    0.017
 6505.00    1.22613   1.17812    0.017
 6506.00    1.24004   1.18236    0.017
 6507.00    1.24876   1.18629    0.017
 6508.00    1.24488   1.18994    0.017
 6509.00    1.23457   1.19254    0.017
 6510.00    1.22538   1.19430    0.017
 6511.00    1.21668   1.19533    0.017
 6512.00    1.22317   1.19597    0.017
 6513.00    1.23544   1.19635    0.017
 6514.00    1.24654   1.19683    0.017
 6515.00    1.25726   1.19640    0.017
 6516.00    1.25632   1.19611    0.017
 6517.00    1.25221   1.19637    0.017
 6518.00    1.25562   1.19622    0.017
 6519.00    1.26070   1.19685    0.017
 6520.00    1.26107   1.19670    0.017
 6521.00    1.26061   1.19651    0.017
 6522.00    1.25880   1.19757    0.017
 6523.00    1.25680   1.19783    0.017
 6524.00    1.25740   1.19829    0.017
 6525.00    1.25826   1.19842    0.016
 6526.00    1.25010   1.19816    0.016
 6527.00    1.24142   1.19913    0.017
 6528.00    1.23156   1.19950    0.000
 6529.00    1.22168   1.19939    0.000
 6530.00    1.21311   1.19936    0.000
 6531.00    1.20486   1.19918    0.000
 6532.00    1.20447   1.19972    0.000
 6533.00    1.20514   1.19996    0.000
 6534.00    1.21996   1.19940    0.000
 6535.00    1.23381   1.19845    0.000
 6536.00    1.23890   1.19776    0.000
 6537.00    1.24439   1.19717    0.000
 6538.00    1.25252   1.19576    0.000
 6539.00    1.25694   1.19367    0.000
 6540.00    1.24247   1.19048    0.000
 6541.00    1.23010   1.18791    0.000
 6542.00    1.22637   1.18530    0.000
 6543.00    1.22746   1.18093    0.000
 6544.00    1.24498   1.17670    0.000
 6545.00    1.26069   1.17148    0.000
 6546.00    1.27121   1.16642    0.000
 6547.00    1.27150   1.16147    0.000
 6548.00    1.24667   1.15437    0.000
 6549.00    1.22214   1.14758    0.000
 6550.00    1.19827   1.14032    0.000
 6551.00    1.18328   1.13174    0.000
 6552.00    1.18465   1.12303    0.000
 6553.00    1.18371   1.11388    0.000
 6554.00    1.17906   1.10418    0.000
 6555.00    1.17426   1.09459    0.000
 6556.00    1.16925   1.08425    0.000
 6557.00    1.17165   1.07418    0.000
 6558.00    1.18327   1.06756    0.000
 6559.00    1.19774   1.06027    0.000
 6560.00    1.21536   1.05355    0.000
 6561.00    1.22323   1.05030    0.000
 6562.00    1.22168   1.04814    0.000
 6563.00    1.20989   1.05032    0.000
 6564.00    1.18937   1.05265    0.000
 6565.00    1.18360   1.05484    0.000
 6566.00    1.18889   1.06201    0.000
 6567.00    1.19860   1.06983    0.000
 6568.00    1.21122   1.07843    0.000
 6569.00    1.22202   1.08664    0.000
 6570.00    1.23176   1.09401    0.000
 6571.00    1.23593   1.10346    0.000
 6572.00    1.23730   1.11238    0.000
 6573.00    1.23252   1.12050    0.000
 6574.00    1.22508   1.12754    0.000
 6575.00    1.21743   1.13349    0.000
 6576.00    1.20971   1.13993    0.000
 6577.00    1.22161   1.14531    0.000
 6578.00    1.23972   1.15009    0.000
 6579.00    1.28105   1.15456    0.000
 6580.00    1.32852   1.15754    0.000
 6581.00    1.35245   1.16050    0.000
 6582.00    1.37130   1.16264    0.000
 6583.00    1.35952   1.16386    0.000
 6584.00    1.34249   1.16572    0.000
 6585.00    1.30056   1.16625    0.000
 6586.00    1.25539   1.16603    0.000
 6587.00    1.23069   1.16549    0.000
 6588.00    1.20786   1.16460    0.000
 6589.00    1.19704   1.16468    0.000
 6590.00    1.18688   1.16377    0.000
 6591.00    1.18760   1.16268    0.000
 6592.00    1.18847   1.16203    0.000
 6593.00    1.18159   1.16161    0.000
 6594.00    1.17511   1.16218    0.000
 6595.00    1.17779   1.16181    0.000
 6596.00    1.18077   1.16198    0.000
 6597.00    1.18752   1.16320    0.000
 6598.00    1.19428   1.16382    0.000
 6599.00    1.20117   1.16493    0.000
 6600.00    1.20710   1.16548    0.000
 6601.00    1.20689   1.16589    0.000
 6602.00    1.20327   1.16720    0.000
 6603.00    1.18273   1.16767    0.000
 6604.00    1.16446   1.16850    0.000
 6605.00    1.15538   1.16942    0.000
 6606.00    1.15288   1.16944    0.000
 6607.00    1.17238   1.17041    0.000
 6608.00    1.19495   1.17150    0.000
 6609.00    1.22620   1.17309    0.019
 6610.00    1.25127   1.17481    0.019
 6611.00    1.26143   1.17527    0.019
 6612.00    1.26367   1.17691    0.019
 6613.00    1.24941   1.17892    0.019
 6614.00    1.24088   1.18049    0.018
 6615.00    1.24272   1.18191    0.017
 6616.00    1.24007   1.18195    0.017
 6617.00    1.23030   1.18271    0.017
 6618.00    1.21610   1.18339    0.017
 6619.00    1.19574   1.18274    0.017
 6620.00    1.18575   1.18228    0.017
 6621.00    1.18845   1.18076    0.017
 6622.00    1.19796   1.17904    0.017
 6623.00    1.21482   1.17771    0.017
 6624.00    1.21688   1.17540    0.017
 6625.00    1.20483   1.17359    0.017
 6626.00    1.18960   1.17137    0.017
 6627.00    1.17170   1.16852    0.017
 6628.00    1.16428   1.16676    0.017
 6629.00    1.16460   1.16512    0.017
 6630.00    1.17099   1.16372    0.017
 6631.00    1.18132   1.16229    0.017
 6632.00    1.18758   1.16052    0.017
 6633.00    1.19152   1.15987    0.017
 6634.00    1.20164   1.15993    0.017
 6635.00    1.21482   1.15997    0.017
 6636.00    1.22437   1.15963    0.016
 6637.00    1.23238   1.15921    0.016
 6638.00    1.21954   1.16000    0.016
 6639.00    1.19905   1.16117    0.017
 6640.00    1.19062   1.16154    0.017
 6641.00    1.18593   1.16157    0.016
 6642.00    1.19623   1.16179    0.017
 6643.00    1.21042   1.16308    0.017
 6644.00    1.21853   1.16440    0.017
 6645.00    1.22536   1.16418    0.017
 6646.00    1.22328   1.16406    0.017
 6647.00    1.21973   1.16474    0.017
 6648.00    1.21597   1.16550    0.017
 6649.00    1.21218   1.16587    0.017
 6650.00    1.19475   1.16516    0.017
 6651.00    1.17613   1.16458    0.017
 6652.00    1.15913   1.16449    0.017
 6653.00    1.14221   1.16391    0.017
 6654.00    1.14151   1.16295    0.017
 6655.00    1.14128   1.16160    0.017
 6656.00    1.15357   1.16026    0.017
 6657.00    1.16510   1.15861    0.017
 6658.00    1.16074   1.15714    0.017
 6659.00    1.15560   1.15606    0.016
 6660.00    1.14110   1.15434    0.016
 6661.00    1.12790   1.15310    0.016
 6662.00    1.12551   1.15190    0.016
 6663.00    1.12393   1.15113    0.016
 6664.00    1.12731   1.15133    0.016
 6665.00    1.13292   1.15058    0.016
 6666.00    1.14939   1.15020    0.017
 6667.00    1.16343   1.15042    0.017
 6668.00    1.16786   1.15082    0.017
 6669.00    1.17451   1.15152    0.017
 6670.00    1.18849   1.15129    0.017
 6671.00    1.19509   1.15095    0.017
 6672.00    1.18124   1.15075    0.016
 6673.00    1.16737   1.15130    0.016
 6674.00    1.15349   1.15144    0.016
 6675.00    1.14214   1.15039    0.017
 6676.00    1.13602   1.15029    0.017
 6677.00    1.13850   1.15018    0.017
 6678.00    1.15633   1.15078    0.016
 6679.00    1.16826   1.15126    0.016
 6680.00    1.17098   1.15039    0.016
 6681.00    1.16782   1.15141    0.016
 6682.00    1.15660   1.15283    0.016
 6683.00    1.15266   1.15371    0.016
 6684.00    1.15752   1.15440    0.016
 6685.00    1.16720   1.15411    0.016
 6686.00    1.18203   1.15516    0.017
 6687.00    1.19396   1.15625    0.017
 6688.00    1.20316   1.15635    0.017
 6689.00    1.20161   1.15628    0.017
 6690.00    1.19115   1.15531    0.017
 6691.00    1.17974   1.15521    0.017
 6692.00    1.16763   1.15486    0.017
 6693.00    1.15497   1.15360    0.017
 6694.00    1.14195   1.15312    0.017
 6695.00    1.14683   1.15189    0.017
 6696.00    1.16174   1.15115    0.000
 6697.00    1.16472   1.15069    0.000
 6698.00    1.16191   1.14895    0.000
 6699.00    1.16344   1.14838    0.000
 6700.00    1.16681   1.14807    0.000
 6701.00    1.16732   1.14705    0.000
 6702.00    1.16681   1.14644    0.000
 6703.00    1.15640   1.14517    0.000
 6704.00    1.14298   1.14385    0.000
 6705.00    1.13603   1.14311    0.000
 6706.00    1.13071   1.14149    0.000
 6707.00    1.14519   1.13962    0.000
 6708.00    1.16375   1.13860    0.000
 6709.00    1.18430   1.13675    0.000
 6710.00    1.20516   1.13465    0.000
 6711.00    1.20501   1.13263    0.000
 6712.00    1.20232   1.13034    0.000
 6713.00    1.20936   1.12994    0.000
 6714.00    1.21719   1.12902    0.000
 6715.00    1.23950   1.12727    0.000
 6716.00    1.26250   1.12690    0.000
 6717.00    1.25438   1.12681    0.000
 6718.00    1.24580   1.12779    0.000
 6719.00    1.23629   1.12835    0.000
 6720.00    1.22723   1.12846    0.000
 6721.00    1.22692   1.13052    0.000
 6722.00    1.22691   1.13246    0.000
 6723.00    1.23016   1.13375    0.000
 6724.00    1.23093   1.13494    0.000
 6725.00    1.21198   1.13628    0.000
 6726.00    1.19328   1.13840    0.000
 6727.00    1.17606   1.13960    0.000
 6728.00    1.16267   1.13978    0.000
 6729.00    1.16749   1.14043    0.000
 6730.00    1.17325   1.14133    0.000
 6731.00    1.18265   1.14143    0.000
 6732.00    1.18706   1.14076    0.000
 6733.00    1.17544   1.13996    0.000
 6734.00    1.16508   1.13944    0.000
 6735.00    1.15818   1.13900    0.000
 6736.00    1.14930   1.13755    0.000
 6737.00    1.13579   1.13590    0.000
 6738.00    1.12722   1.13518    0.000
 6739.00    1.12862   1.13395    0.000
 6740.00    1.13285   1.13250    0.000
 6741.00    1.14208   1.13112    0.000
 6742.00    1.14595   1.12985    0.000
 6743.00    1.14157   1.12974    0.000
 6744.00    1.14075   1.12863    0.000
 6745.00    1.14476   1.12779    0.000
 6746.00    1.14672   1.12797    0.000
 6747.00    1.14624   1.12744    0.000
 6748.00    1.14725   1.12847    0.000
 6749.00    1.14982   1.12900    0.000
 6750.00    1.14970   1.12931    0.000
 6751.00    1.14708   1.13125    0.000
 6752.00    1.15734   1.13203    0.000
 6753.00    1.17813   1.13385    0.018
 6754.00    1.18909   1.13600    0.018
 6755.00    1.19301   1.13681    0.019
 6756.00    1.17179   1.13867    0.019
 6757.00    1.13472   1.14009    0.019
 6758.00    1.10103   1.14135    0.019
 6759.00    1.06921   1.14269    0.019
 6760.00    1.11980   1.14291    0.019
 6761.00    1.20989   1.14300    0.020
 6762.00    1.28167   1.14333    0.020
 6763.00    1.34587   1.14375    0.020
 6764.00    1.34660   1.14338    0.020
 6765.00    1.32488   1.14274    0.020
 6766.00    1.32017   1.14260    0.019
 6767.00    1.32054   1.14261    0.019
 6768.00    1.31322   1.14296    0.019
 6769.00    1.30401   1.14267    0.019
 6770.00    1.28237   1.14263    0.019
 6771.00    1.25823   1.14354    0.018
 6772.00    1.25644   1.14392    0.018
 6773.00    1.25816   1.14433    0.018
 6774.00    1.26314   1.14451    0.018
 6775.00    1.26849   1.14465    0.018
 6776.00    1.22207   1.14517    0.018
 6777.00    1.17157   1.14460    0.018
 6778.00    1.19173   1.14382    0.018
 6779.00    1.21497   1.14328    0.018
 6780.00    1.21094   1.14218    0.019
 6781.00    1.20575   1.14148    0.019
 6782.00    1.15950   1.14056    0.018
 6783.00    1.11723   1.13909    0.018
 6784.00    1.14712   1.13802    0.018
 6785.00    1.17715   1.13706    0.018
 6786.00    1.20861   1.13644    0.018
 6787.00    1.23539   1.13590    0.018
 6788.00    1.22614   1.13538    0.018
 6789.00    1.21812   1.13541    0.018
 6790.00    1.21719   1.13546    0.018
 6791.00    1.21086   1.13581    0.018
 6792.00    1.17960   1.13587    0.018
 6793.00    1.15811   1.13603    0.018
 6794.00    1.17362   1.13719    0.018
 6795.00    1.18338   1.13734    0.018
 6796.00    1.17500   1.13781    0.018
 6797.00    1.17179   1.13861    0.018
 6798.00    1.18243   1.13831    0.018
 6799.00    1.19084   1.13953    0.018
 6800.00    1.19412   1.13985    0.018
 6801.00    1.19885   1.13911    0.018
 6802.00    1.20643   1.14042    0.018
 6803.00    1.20590   1.14023    0.018
 6804.00    1.19131   1.13985    0.018
 6805.00    1.17931   1.14057    0.018
 6806.00    1.17123   1.13968    0.018
 6807.00    1.16583   1.14034    0.017
 6808.00    1.16400   1.14061    0.017
 6809.00    1.16632   1.13910    0.017
 6810.00    1.17350   1.14029    0.018
 6811.00    1.19407   1.14075    0.018
 6812.00    1.22850   1.14039    0.018
 6813.00    1.24278   1.14120    0.018
 6814.00    1.23867   1.14063    0.018
 6815.00    1.20360   1.14158    0.018
 6816.00    1.14362   1.14290    0.018
 6817.00    1.12217   1.14241    0.018
 6818.00    1.12799   1.14340    0.018
 6819.00    1.15699   1.14413    0.018
 6820.00    1.20037   1.14462    0.018
 6821.00    1.22495   1.14543    0.018
 6822.00    1.23932   1.14464    0.018
 6823.00    1.25106   1.14496    0.017
 6824.00    1.26156   1.14595    0.017
 6825.00    1.23962   1.14571    0.017
 6826.00    1.20448   1.14539    0.017
 6827.00    1.18731   1.14430    0.017
 6828.00    1.17638   1.14379    0.018
 6829.00    1.19766   1.14376    0.018
 6830.00    1.22837   1.14206    0.018
 6831.00    1.24322   1.14067    0.018
 6832.00    1.25423   1.13968    0.018
 6833.00    1.24802   1.13811    0.018
 6834.00    1.23843   1.13674    0.017
 6835.00    1.22198   1.13440    0.018
 6836.00    1.20449   1.13258    0.018
 6837.00    1.21447   1.13183    0.018
 6838.00    1.22753   1.13030    0.019
 6839.00    1.21471   1.12933    0.019
 6840.00    1.19996   1.12826    0.019
 6841.00    1.17336   1.12714    0.019
 6842.00    1.14630   1.12738    0.018
 6843.00    1.16679   1.12689    0.018
 6844.00    1.18791   1.12671    0.018
 6845.00    1.22146   1.12720    0.017
 6846.00    1.25219   1.12706    0.017
 6847.00    1.23548   1.12784    0.017
 6848.00    1.22067   1.12757    0.017
 6849.00    1.22566   1.12635    0.017
 6850.00    1.22656   1.12683    0.017
 6851.00    1.19703   1.12645    0.017
 6852.00    1.17131   1.12541    0.017
 6853.00    1.16722   1.12502    0.017
 6854.00    1.16562   1.12367    0.017
 6855.00    1.17526   1.12283    0.017
 6856.00    1.18129   1.12214    0.017
 6857.00    1.17389   1.12072    0.017
 6858.00    1.16289   1.12067    0.018
 6859.00    1.14075   1.12049    0.018
 6860.00    1.12295   1.11961    0.017
 6861.00    1.11657   1.11948    0.018
 6862.00    1.11277   1.11917    0.018
 6863.00    1.11480   1.11905    0.018
 6864.00    1.11804   1.11956    0.018
 6865.00    1.12368   1.11983    0.018
 6866.00    1.12716   1.11992    0.018
 6867.00    1.12693   1.12018    0.018
 6868.00    1.13022   1.12064    0.018
 6869.00    1.13876   1.12089    0.018
 6870.00    1.13550   1.12107    0.018
 6871.00    1.11674   1.12170    0.017
 6872.00    1.12270   1.12270    0.017
 6873.00    1.15727   1.12344    0.017
 6874.00    1.17760   1.12362    0.017
 6875.00    1.18340   1.12421    0.017
 6876.00    1.17964   1.12527    0.017
 6877.00    1.16728   1.12589    0.017
 6878.00    1.15697   1.12693    0.017
 6879.00    1.14830   1.12824    0.018
 6880.00    1.14006   1.12904    0.018
 6881.00    1.13211   1.13023    0.018
 6882.00    1.13620   1.13160    0.017
 6883.00    1.14766   1.13289    0.017
 6884.00    1.14490   1.13436    0.017
 6885.00    1.13453   1.13568    0.017
 6886.00    1.13937   1.13739    0.017
 6887.00    1.15126   1.13931    0.017
 6888.00    1.16132   1.14055    0.017
 6889.00    1.17065   1.14174    0.017
 6890.00    1.17800   1.14343    0.017
 6891.00    1.18467   1.14464    0.017
 6892.00    1.18145   1.14568    0.017
 6893.00    1.17541   1.14705    0.017
 6894.00    1.17450   1.14748    0.017
 6895.00    1.17480   1.14813    0.017
 6896.00    1.17026   1.14935    0.017
 6897.00    1.16480   1.14962    0.017
 6898.00    1.17847   1.15014    0.018
 6899.00    1.19497   1.15046    0.018
 6900.00    1.18323   1.15067    0.018
 6901.00    1.16845   1.15171    0.018
 6902.00    1.17397   1.15129    0.018
 6903.00    1.18092   1.15100    0.018
 6904.00    1.16188   1.15172    0.018
 6905.00    1.14191   1.15098    0.017
 6906.00    1.13524   1.15072    0.017
 6907.00    1.12897   1.15031    0.017
 6908.00    1.13487   1.14881    0.017
 6909.00    1.14036   1.14891    0.017
 6910.00    1.13949   1.14802    0.017
 6911.00    1.13917   1.14629    0.017
 6912.00    1.14431   1.14611    0.017
 6913.00    1.14752   1.14475    0.017
 6914.00    1.13680   1.14384    0.017
 6915.00    1.12837   1.14361    0.018
 6916.00    1.13250   1.14189    0.017
 6917.00    1.13463   1.14167    0.017
 6918.00    1.12790   1.14160    0.017
 6919.00    1.12646   1.14024    0.017
 6920.00    1.14418   1.14016    0.017
 6921.00    1.15502   1.14021    0.018
 6922.00    1.14492   1.13996    0.018
 6923.00    1.13206   1.13985    0.018
 6924.00    1.11203   1.13936    0.018
 6925.00    1.09685   1.13956    0.018
 6926.00    1.09242   1.13999    0.018
 6927.00    1.09395   1.13942    0.018
 6928.00    1.10699   1.13959    0.018
 6929.00    1.12832   1.14071    0.017
 6930.00    1.16360   1.14101    0.018
 6931.00    1.17981   1.14116    0.018
 6932.00    1.16793   1.14138    0.018
 6933.00    1.15705   1.14175    0.018
 6934.00    1.14748   1.14260    0.018
 6935.00    1.14288   1.14235    0.018
 6936.00    1.14395   1.14197    0.018
 6937.00    1.15491   1.14279    0.018
 6938.00    1.17582   1.14274    0.018
 6939.00    1.18511   1.14175    0.018
 6940.00    1.18407   1.14171    0.018
 6941.00    1.18069   1.14159    0.018
 6942.00    1.17547   1.14082    0.018
 6943.00    1.17292   1.14066    0.018
 6944.00    1.17220   1.13982    0.018
 6945.00    1.18264   1.13910    0.018
 6946.00    1.19980   1.13941    0.018
 6947.00    1.20079   1.13859    0.018
 6948.00    1.19328   1.13853    0.018
 6949.00    1.16961   1.13950    0.018
 6950.00    1.13856   1.13931    0.018
 6951.00    1.13398   1.13999    0.018
 6952.00    1.13979   1.14104    0.018
 6953.00    1.13680   1.14127    0.018
 6954.00    1.13087   1.14237    0.018
 6955.00    1.12023   1.14399    0.018
 6956.00    1.10827   1.14501    0.018
 6957.00    1.11708   1.14611    0.018
 6958.00    1.13069   1.14788    0.018
 6959.00    1.14920   1.14910    0.018
 6960.00    1.16862   1.14985    0.018
 6961.00    1.17478   1.15097    0.018
 6962.00    1.17905   1.15140    0.018
 6963.00    1.17465   1.15213    0.018
 6964.00    1.16936   1.15260    0.018
 6965.00    1.17027   1.15151    0.018
 6966.00    1.17160   1.15143    0.018
 6967.00    1.15976   1.15119    0.018
 6968.00    1.14750   1.14927    0.018
 6969.00    1.16102   1.14774    0.018
 6970.00    1.17437   1.14606    0.018
 6971.00    1.18228   1.14452    0.018
 6972.00    1.18651   1.14274    0.018
 6973.00    1.13591   1.13996    0.018
 6974.00    1.09119   1.13882    0.018
 6975.00    1.10301   1.13820    0.018
 6976.00    1.11586   1.13689    0.018
 6977.00    1.13590   1.13598    0.018
 6978.00    1.15531   1.13564    0.018
 6979.00    1.17137   1.13678    0.018
 6980.00    1.18472   1.13725    0.018
 6981.00    1.18640   1.13743    0.018
 6982.00    1.18368   1.14003    0.018
 6983.00    1.16535   1.14211    0.018
 6984.00    1.15632   1.14349    0.018
 6985.00    1.17501   1.14542    0.018
 6986.00    1.18514   1.14695    0.018
 6987.00    1.17354   1.14868    0.018
 6988.00    1.15695   1.14957    0.018
 6989.00    1.12946   1.15020    0.018
 6990.00    1.11440   1.15131    0.018
 6991.00    1.12290   1.15128    0.018
 6992.00    1.13042   1.15132    0.018
 6993.00    1.13631   1.15124    0.018
 6994.00    1.14286   1.15030    0.018
 6995.00    1.15037   1.14969    0.018
 6996.00    1.14707   1.14865    0.018
 6997.00    1.12998   1.14753    0.018
 6998.00    1.12556   1.14636    0.018
 6999.00    1.13536   1.14469    0.018
 7000.00    1.14815   1.14395    0.018
 7001.00    1.16390   1.14301    0.019
 7002.00    1.18266   1.14118    0.019
 7003.00    1.20405   1.14040    0.019
 7004.00    1.20172   1.13999    0.019
 7005.00    1.18110   1.13905    0.019
 7006.00    1.15776   1.13796    0.019
 7007.00    1.13257   1.13668    0.019
 7008.00    1.10797   1.13646    0.019
 7009.00    1.08372   1.13643    0.019
 7010.00    1.09413   1.13475    0.018
 7011.00    1.12249   1.13439    0.018
 7012.00    1.12016   1.13504    0.019
 7013.00    1.10404   1.13419    0.019
 7014.00    1.12461   1.13365    0.019
 7015.00    1.15934   1.13324    0.019
 7016.00    1.14509   1.13336    0.019
 7017.00    1.11476   1.13429    0.019
 7018.00    1.09886   1.13321    0.019
 7019.00    1.08691   1.13331    0.019
 7020.00    1.10038   1.13558    0.019
 7021.00    1.11960   1.13589    0.019
 7022.00    1.12639   1.13613    0.019
 7023.00    1.13094   1.13727    0.019
 7024.00    1.13466   1.13834    0.019
 7025.00    1.13827   1.13950    0.019
 7026.00    1.12531   1.13965    0.019
 7027.00    1.11069   1.14113    0.019
 7028.00    1.08928   1.14356    0.019
 7029.00    1.06744   1.14396    0.019
 7030.00    1.08538   1.14543    0.019
 7031.00    1.10439   1.14772    0.019
 7032.00    1.10914   1.14876    0.019
 7033.00    1.11534   1.15064    0.019
 7034.00    1.16122   1.15256    0.019
 7035.00    1.20206   1.15444    0.020
 7036.00    1.17200   1.15690    0.019
 7037.00    1.14385   1.15820    0.019
 7038.00    1.13338   1.16035    0.019
 7039.00    1.12396   1.16340    0.019
 7040.00    1.12163   1.16410    0.019
 7041.00    1.12628   1.16504    0.020
 7042.00    1.16747   1.16768    0.020
 7043.00    1.19864   1.16811    0.020
 7044.00    1.18762   1.16732    0.020
 7045.00    1.17323   1.16747    0.020
 7046.00    1.14711   1.16611    0.020
 7047.00    1.13519   1.16382    0.020
 7048.00    1.16482   1.16169    0.020
 7049.00    1.18140   1.15849    0.020
 7050.00    1.16542   1.15539   -2.000
 7051.00    1.14342   1.15138   -2.000
 7052.00    1.10851   1.14654   -2.000
 7053.00    1.09359   1.14289   -2.000
 7054.00    1.11603   1.13796   -2.000
 7055.00    1.14025   1.13305   -2.000
 7056.00    1.16737   1.12958   -2.000
 7057.00    1.17603   1.12539   -2.000
 7058.00    1.15827   1.12205   -2.000
 7059.00    1.15723   1.11885   -2.000
 7060.00    1.17721   1.11581   -2.000
 7061.00    1.20245   1.11434   -2.000
 7062.00    1.23353   1.11172   -2.000
 7063.00    1.24808   1.11010   -2.000
 7064.00    1.24646   1.11038   -2.000
 7065.00    1.23685   1.10923   -2.000
 7066.00    1.22033   1.10926   -2.000
 7067.00    1.19455   1.10995   -2.000
 7068.00    1.16172   1.10972   -2.000
 7069.00    1.17088   1.11101   -2.000
 7070.00    1.20807   1.11152   -2.000
 7071.00    1.28186   1.11153   -2.000
 7072.00    1.37707   1.11326   -2.000
 7073.00    1.35671   1.11368   -2.000
 7074.00    1.27744   1.11320   -2.000
 7075.00    1.27043   1.11267   -2.000
 7076.00    1.29531   1.11138   -2.000
 7077.00    1.29008   1.11048   -2.000
 7078.00    1.27343   1.10783   -2.000
 7079.00    1.24783   1.10458   -2.000
 7080.00    1.21934   1.10250   -2.000
 7081.00    1.23491   1.09821   -2.000
 7082.00    1.26233   1.09410   -2.000
 7083.00    1.24174   1.09059   -2.000
 7084.00    1.21055   1.08544   -2.000
 7085.00    1.16625   1.08209   -2.000
 7086.00    1.11963   1.07781   -2.000
 7087.00    1.13740   1.07310   -2.000
 7088.00    1.16378   1.07158   -2.000
 7089.00    1.16085   1.06833   -2.000
 7090.00    1.15514   1.06587   -2.000
 7091.00    1.17175   1.06540   -2.000
 7092.00    1.18968   1.06346   -2.000
 7093.00    1.16786   1.06331   -2.000
 7094.00    1.14522   1.06366   -2.000
 7095.00    1.14314   1.06351   -2.000
 7096.00    1.14074   1.06514   -2.000
 7097.00    1.13033   1.06577   -2.000
 7098.00    1.11946   1.06691   -2.000
 7099.00    1.10232   1.06862   -2.000
 7100.00    1.08661   1.06946   -2.000
 7101.00    1.08363   1.07139   -2.000
 7102.00    1.07991   1.07214   -2.000
 7103.00    1.07136   1.07287   -2.000
 7104.00    1.06939   1.07446   -2.000
 7105.00    1.10095   1.07466   -2.000
 7106.00    1.12253   1.07506   -2.000
 7107.00    1.10303   1.07625   -2.000
 7108.00    1.08674   1.07641   -2.000
 7109.00    1.08136   1.07637   -2.000
 7110.00    1.07872   1.07639   -2.000
 7111.00    1.08396   1.07673   -2.000
 7112.00    1.07973   1.07719   -2.000
 7113.00    1.05225   1.07619   -2.000
 7114.00    1.04728   1.07595   -2.000
 7115.00    1.08996   1.07680   -2.000
 7116.00    1.13757   1.07582   -2.000
 7117.00    1.19425   1.07494   -2.000
 7118.00    1.20671   1.07458   -2.000
 7119.00    1.14813   1.07349   -2.000
 7120.00    1.12256   1.07288   -2.000
 7121.00    1.14354   1.07094   -2.000
 7122.00    1.16943   1.06938   -2.000
 7123.00    1.20143   1.06942   -2.000
 7124.00    1.21668   1.06694   -2.000
 7125.00    1.21361   1.06565   -2.000
 7126.00    1.18841   1.06587   -2.000
 7127.00    1.14187   1.06395   -2.000
 7128.00    1.11135   1.06361   -2.000
 7129.00    1.09444   1.06345   -2.000
 7130.00    1.08532   1.06248   -2.000
 7131.00    1.08204   1.06375   -2.000
 7132.00    1.09385   1.06387   -2.000
 7133.00    1.11558   1.06352   -2.000
 7134.00    1.07995   1.06554   -2.000
 7135.00    1.01129   1.06614   -2.000
 7136.00    1.04695   1.06656   -2.000
 7137.00    1.13496   1.06857   -2.000
 7138.00    1.17907   1.06864   -2.000
 7139.00    1.20411   1.06876   -2.000
 7140.00    1.20498   1.07071   -2.000
 7141.00    1.19684   1.07052   -2.000
 7142.00    1.13941   1.07028   -2.000
 7143.00    1.06640   1.07209   -2.000
 7144.00    1.07206   1.07188   -2.000
 7145.00    1.09846   1.07210   -2.000
 7146.00    1.10699   1.07335   -2.000
 7147.00    1.11167   1.07264   -2.000
 7148.00    1.10829   1.07403   -2.000
 7149.00    1.10353   1.07548   -2.000
 7150.00    1.10023   1.07443   -2.000
 7151.00    1.09712   1.07581   -2.000
 7152.00    1.09964   1.07746   -2.000
 7153.00    1.10267   1.07748   -2.000
 7154.00    1.12550   1.07827   -2.000
 7155.00    1.14942   1.07887   -2.000
 7156.00    1.14075   1.07942   -2.000
 7157.00    1.13113   1.07946   -2.000
 7158.00    1.09641   1.07914   -2.000
 7159.00    1.06770   1.08012   -2.000
 7160.00    1.17515   1.08013   -2.000
 7161.00    1.27298   1.07948   -2.000
 7162.00    1.24976   1.08001   -2.000
 7163.00    1.22888   1.08011   -2.000
 7164.00    1.22806   1.08011   -2.000
 7165.00    1.20715   1.08116   -2.000
 7166.00    1.05895   1.08129   -2.000
 7167.00    0.96472   1.08095   -2.000
 7168.00    1.13842   1.08223   -2.000
 7169.00    1.27739   1.08309   -2.000
 7170.00    1.27651   1.08325   -2.000
 7171.00    1.24965   1.08397   -2.000
 7172.00    1.13599   1.08349   -2.000
 7173.00    1.05718   1.08321   -2.000
 7174.00    1.07668   1.08392   -2.000
 7175.00    1.10846   1.08241   -2.000
 7176.00    1.16987   1.08148   -2.000
 7177.00    1.20274   1.08148   -2.000
 7178.00    1.17620   1.07878   -2.000
 7179.00    1.15264   1.07756   -2.000
 7180.00    1.13448   1.07721   -2.000
 7181.00    1.11807   1.07481   -2.000
 7182.00    1.10444   1.07394   -2.000
 7183.00    1.08198   1.07239   -2.000
 7184.00    1.04724   1.07031   -2.000
 7185.00    1.00469   1.07085   -2.000
 7186.00    0.95261   1.06973   -2.000
 7187.00    0.97818   1.06840   -2.000
 7188.00    1.08747   1.06900   -2.000
 7189.00    1.12910   1.06802   -2.000
 7190.00    1.10640   1.06793   -2.000
 7191.00    1.06607   1.06908   -2.000
 7192.00    1.01095   1.06894   -2.000
 7193.00    1.01533   1.06980   -2.000
 7194.00    1.06362   1.07115   -2.000
 7195.00    1.08087   1.07104   -2.000
 7196.00    1.07799   1.07173   -2.000
 7197.00    1.04071   1.07342   -2.000
 7198.00    0.98393   1.07353   -2.000
 7199.00    1.03502   1.07378   -2.000
 7200.00    1.13940   1.07472   -2.000
 7201.00    1.17810   1.07484   -2.000
 7202.00    1.18876   1.07569   -2.000
 7203.00    1.14404   1.07593   -2.000
 7204.00    1.07905   1.07565   -2.000
 7205.00    1.01904   1.07682   -2.000
 7206.00    0.96056   1.07690   -2.000
 7207.00    0.96442   1.07750   -2.000
 7208.00    0.98438   1.07893   -2.000
 7209.00    0.96327   1.07843   -2.000
 7210.00    0.93352   1.07987   -2.000
 7211.00    0.96037   1.08187   -2.000
 7212.00    0.99662   1.08228   -2.000
 7213.00    1.05314   1.08474   -2.000
 7214.00    1.11219   1.08655   -2.000
 7215.00    1.09696   1.08727   -2.000
 7216.00    1.07530   1.08968   -2.000
 7217.00    1.06444   1.09157   -2.000
 7218.00    1.05413   1.09311   -2.000
