###################################################################
## OUTPUT of StarlightChains_v04.for    [Cid@UFSC - 01/Apr/2007] ##
###################################################################

## Some input info
KUG0210-078._29_26.txt                   [arq_obs]
Base.CB07.vall.4m                        [arq_base]
Masks.EmLines.NEW.gm                     [arq_masks]
StCv04.C11.config                        [arq_config]
   66                                    [N_base]
    0                                    [N_YAV_components = # of components with extra extinction!]
    0                                    [i_FitPowerLaw (1/0 = Yes/No)]
-9.99                                    [alpha_PowerLaw]
CCM                                      [red_law_option]
 1.458241                                [q_norm = A(l_norm)/A(V)]

## (Re)Sampling Parameters
 3741.00                                 [l_ini (A)]
 7218.00                                 [l_fin (A)]
    1.00                                 [dl    (A)]     (OBS: dl_cushion =    50.00 A)

## Normalization info
 4020.00                                 [l_norm (A) - for base]
 4010.00                                 [llow_norm (A) - window for f_obs]
 4060.00                                 [lupp_norm (A) - window for f_obs]
1.428052E-17                             [fobs_norm (in input units)]

## S/N
 3691.00                                 [llow_SN (A) - window for S/N]
 7268.00                                 [lupp_SN (A) - window for S/N]
   5.174                                 [S/N in S/N window]
   4.642                                 [S/N in norm. window]
   0.020                                 [S/N_err in S/N window]
   0.018                                 [S/N_err in norm. window]
  1.0000                                 [fscale_chi2]

## etc...
    -2007402                             [idum_orig]
  2401                                   [NOl_eff]
  2270                                   [Nl_eff]
   131    NSIGMA                         [Ntot_cliped & clip_method]
 10535840                                [Nglobal_steps]
   7                                     [N_chains]
  40                                     [NEX0s_base = N_base in EX0s-fits]
 0   0   1      131   2.0   7.153E+03    [Clip-Bug, RC-Crash & Burn-In warning-flags, n_censored_weights, wei_nsig_threshold & wei_limit]
    70     69.372     68.573      0.799  [idt_all, wdt_TotTime, wdt_UsrTime & wdt_SysTime (sec)]

## Synthesis Results - Best model ##

 2.77129E-05                             [chi2/Nl_eff]
    12.51886                             [adev (%)]

   106.51758                             [sum-of-x (%)]
 2.02699E-17                             [Flux_tot (units of input spectrum!)]
 3.28384E-13                             [Mini_tot (???)]
 1.76942E-13                             [Mcor_tot (???)]

 -51.75                                  [v0_min  (km/s)]
  10.64                                  [vd_min  (km/s)]
 0.2138                                  [AV_min  (mag)]
 0.0000                                  [YAV_min (mag)]

# j     x_j(%)      Mini_j(%)     Mcor_j(%)     age_j(yr)     Z_j      (L/M)_j    YAV?  Mstars   component_j        a/Fe...       SSP_chi2r SSP_adev(%)   SSP_AV   SSP_x(%)
  1      0.0000     0.0000E+00    0.0000E+00    1.000000E+06  0.00400  1.094E-02    0   1.0000   age020_m42            0.0000     3.3113E-05    14.5671   3.2691    94.8722
  2      0.0000     0.0000E+00    0.0000E+00    3.160000E+06  0.00400  4.007E-02    0   0.9999   age045_m42            0.0000     3.1604E-05    14.0534   2.5986    98.8492
  3      0.0000     0.0000E+00    0.0000E+00    5.010000E+06  0.00400  2.539E-02    0   0.9488   age055_m42            0.0000     3.2384E-05    14.1901   2.9024    97.2182
  4      6.7109     1.4843E-02    2.5399E-02    6.610000E+06  0.00400  2.620E-02    0   0.9220   age061_m42            0.0000     3.1761E-05    13.9121   2.5396    98.4860
  5      0.0000     0.0000E+00    0.0000E+00    1.000000E+07  0.00400  1.322E-02    0   0.8862   age070_m42            0.0000     3.2272E-05    13.5879   2.2875    99.4475
  6      0.0000     0.0000E+00    0.0000E+00    1.445000E+07  0.00400  7.883E-03    0   0.8571   age078_m42            0.0000     3.2729E-05    13.7038   2.5935    97.8015
  7      0.0000     0.0000E+00    0.0000E+00    2.512000E+07  0.00400  5.251E-03    0   0.8174   age090_m42            0.0000     3.2358E-05    13.5981   2.1669    99.6115
  8      0.0000     0.0000E+00    0.0000E+00    4.000000E+07  0.00400  3.649E-03    0   0.7851   age104_m42            0.0000     3.1952E-05    13.5031   1.9445   100.1951
  9      0.0000     0.0000E+00    0.0000E+00    5.500000E+07  0.00400  3.098E-03    0   0.7629   age110_m42            0.0000     3.1658E-05    13.5112   2.0947   100.2391
 10      0.0000     0.0000E+00    0.0000E+00    1.015200E+08  0.00400  2.228E-03    0   0.7207   age116_m42            0.0000     3.1403E-05    13.5290   2.1153   100.3506
 11      0.0000     0.0000E+00    0.0000E+00    2.861200E+08  0.00400  1.093E-03    0   0.6648   age125_m42            0.0000     3.0722E-05    13.3160   1.5549   102.6861
 12      3.0260     2.6581E-01    3.1400E-01    5.088000E+08  0.00400  6.597E-04    0   0.6365   age130_m42            0.0000     2.9878E-05    13.1680   1.5411   103.7420
 13     12.8577     3.4948E+00    3.7606E+00    1.434000E+09  0.00400  2.132E-04    0   0.5798   age139_m42            0.0000     2.8078E-05    12.5990   0.5549   106.5014
 14      1.0636     1.0455E+00    1.0434E+00    4.250000E+09  0.00400  5.895E-05    0   0.5377   age158_m42            0.0000     2.7614E-05    12.7407   0.0561   104.9798
 15     11.5052     1.8995E+01    1.8373E+01    7.500000E+09  0.00400  3.510E-05    0   0.5212   age171_m42            0.0000     2.7638E-05    12.8440  -0.1509   105.0170
 16      9.9320     2.8706E+01    2.6819E+01    1.300000E+10  0.00400  2.005E-05    0   0.5034   age193_m42            0.0000     2.7821E-05    12.9957  -0.3372   105.2131
 17      0.0000     0.0000E+00    0.0000E+00    1.800000E+10  0.00400  1.525E-05    0   0.4967   age213_m42            0.0000     2.7782E-05    12.9740  -0.3620   104.8521
 18      0.0000     0.0000E+00    0.0000E+00    1.000000E+06  0.00800  1.238E-02    0   1.0000   age020_m52            0.0000     3.3228E-05    14.5710   3.2668    95.0133
 19      0.0000     0.0000E+00    0.0000E+00    3.160000E+06  0.00800  3.074E-02    0   0.9966   age045_m52            0.0000     3.3234E-05    14.5449   3.1964    95.6337
 20      0.0000     0.0000E+00    0.0000E+00    5.010000E+06  0.00800  2.668E-02    0   0.9443   age055_m52            0.0000     3.2865E-05    14.2246   2.9823    96.4952
 21      0.0000     0.0000E+00    0.0000E+00    6.610000E+06  0.00800  2.136E-02    0   0.9177   age061_m52            0.0000     3.1124E-05    13.2870   1.7672   101.5882
 22      0.0000     0.0000E+00    0.0000E+00    1.000000E+07  0.00800  1.215E-02    0   0.8827   age070_m52            0.0000     3.2805E-05    13.6257   2.4620    99.4093
 23      0.5492     3.6513E-03    5.7951E-03    1.445000E+07  0.00800  8.717E-03    0   0.8552   age078_m52            0.0000     3.2636E-05    13.6114   2.5675    98.8118
 24      0.0000     0.0000E+00    0.0000E+00    2.512000E+07  0.00800  5.592E-03    0   0.8162   age090_m52            0.0000     3.2455E-05    13.5355   2.2350   100.5389
 25      2.9517     4.3903E-02    6.3888E-02    4.000000E+07  0.00800  3.896E-03    0   0.7841   age104_m52            0.0000     3.1974E-05    13.4668   2.1486   101.1413
 26      0.0000     0.0000E+00    0.0000E+00    1.015200E+08  0.00800  2.148E-03    0   0.7226   age116_m52            0.0000     3.1328E-05    13.4283   2.0879   100.9271
 27      0.0000     0.0000E+00    0.0000E+00    2.861200E+08  0.00800  9.925E-04    0   0.6683   age125_m52            0.0000     3.0352E-05    13.2303   1.6170   104.1524
 28      0.0000     0.0000E+00    0.0000E+00    9.047900E+08  0.00800  3.141E-04    0   0.6138   age135_m52            0.0000     2.8362E-05    12.7372   0.7839   109.8599
 29      0.0000     0.0000E+00    0.0000E+00    1.434000E+09  0.00800  1.719E-04    0   0.5853   age139_m52            0.0000     2.7942E-05    12.5737   0.1812   108.6579
 30      0.0000     0.0000E+00    0.0000E+00    2.500000E+09  0.00800  7.872E-05    0   0.5600   age150_m52            0.0000     2.7682E-05    12.8327  -0.1294   107.7127
 31      0.0000     0.0000E+00    0.0000E+00    4.250000E+09  0.00800  4.336E-05    0   0.5426   age158_m52            0.0000     2.7656E-05    12.8949  -0.1570   107.2505
 32      9.6309     1.7667E+01    1.7440E+01    6.250000E+09  0.00800  3.159E-05    0   0.5319   age166_m52            0.0000     2.7911E-05    13.1695  -0.3810   108.0758
 33      0.0000     0.0000E+00    0.0000E+00    1.300000E+10  0.00800  1.361E-05    0   0.5073   age193_m52            0.0000     2.8846E-05    13.6467  -0.8723   108.2112
 34      0.0000     0.0000E+00    0.0000E+00    1.800000E+10  0.00800  9.886E-06    0   0.4990   age213_m52            0.0000     2.9721E-05    14.0816  -1.0000   108.4056
 35      2.1527     8.0795E-03    1.4995E-02    1.000000E+06  0.02000  1.544E-02    0   1.0000   age020_m62            0.0000     3.3321E-05    14.5898   3.2623    95.2795
 36      0.0000     0.0000E+00    0.0000E+00    3.160000E+06  0.02000  3.762E-02    0   0.9858   age045_m62            0.0000     3.3439E-05    14.5690   3.2059    95.9557
 37      0.0000     0.0000E+00    0.0000E+00    5.010000E+06  0.02000  3.296E-02    0   0.9342   age055_m62            0.0000     3.2610E-05    14.1727   2.8781    97.6960
 38      0.0000     0.0000E+00    0.0000E+00    8.710000E+06  0.02000  1.154E-02    0   0.8861   age067_m62            0.0000     3.5392E-05    14.5351   1.9349   101.3390
 39      0.0000     0.0000E+00    0.0000E+00    1.445000E+07  0.02000  7.663E-03    0   0.8472   age078_m62            0.0000     3.3104E-05    13.6543   2.1176   101.1862
 40      0.0000     0.0000E+00    0.0000E+00    2.512000E+07  0.02000  4.532E-03    0   0.8099   age090_m62            0.0000     3.3500E-05    13.7598   2.1190   100.4251
 41      0.0000     0.0000E+00    0.0000E+00    5.500000E+07  0.02000  2.733E-03    0   0.7595   age110_m62            0.0000     3.2097E-05    13.4355   2.1322   100.4578
 42      1.7439     7.3819E-02    9.5693E-02    1.609000E+08  0.02000  1.369E-03    0   0.6985   age120_m62            0.0000     3.1316E-05    13.3619   1.9851   102.4004
 43      0.0000     0.0000E+00    0.0000E+00    2.861200E+08  0.02000  9.013E-04    0   0.6714   age125_m62            0.0000     3.0682E-05    13.1944   1.7458   104.7949
 44      0.0000     0.0000E+00    0.0000E+00    5.088000E+08  0.02000  5.028E-04    0   0.6449   age130_m62            0.0000     2.9271E-05    13.0109   1.3392   108.6832
 45      2.6285     6.2734E-01    7.1940E-01    9.047900E+08  0.02000  2.428E-04    0   0.6179   age135_m62            0.0000     2.7949E-05    12.7571   0.7080   110.0605
 46      0.0000     0.0000E+00    0.0000E+00    1.434000E+09  0.02000  1.263E-04    0   0.5908   age139_m62            0.0000     2.7673E-05    12.7131   0.2364   109.7123
 47     10.5030     1.0169E+01    1.0707E+01    2.500000E+09  0.02000  5.985E-05    0   0.5673   age150_m62            0.0000     2.8154E-05    13.2312  -0.1696   109.8881
 48      0.0000     0.0000E+00    0.0000E+00    4.250000E+09  0.02000  3.271E-05    0   0.5468   age158_m62            0.0000     2.9035E-05    13.8558  -0.5058   110.1488
 49      0.0000     0.0000E+00    0.0000E+00    1.000000E+10  0.02000  1.360E-05    0   0.5167   age181_m62            0.0000     3.0673E-05    14.5238  -0.8883   110.9249
 50      0.0000     0.0000E+00    0.0000E+00    1.800000E+10  0.02000  7.124E-06    0   0.5013   age213_m62            0.0000     3.2734E-05    14.5208  -1.0000   107.7982
 51      0.0000     0.0000E+00    0.0000E+00    1.000000E+06  0.05000  2.592E-02    0   0.9998   age020_m72            0.0000     3.3549E-05    14.6239   3.2491    95.5416
 52      0.0000     0.0000E+00    0.0000E+00    3.160000E+06  0.05000  4.845E-02    0   0.9577   age045_m72            0.0000     3.3303E-05    14.5005   3.1084    96.3503
 53      0.0000     0.0000E+00    0.0000E+00    5.010000E+06  0.05000  3.072E-02    0   0.9147   age055_m72            0.0000     3.3238E-05    13.8204   2.6616    98.9177
 54      0.0000     0.0000E+00    0.0000E+00    6.610000E+06  0.05000  1.455E-02    0   0.8877   age061_m72            0.0000     3.8805E-05    16.2891   1.9600   101.9488
 55      0.0000     0.0000E+00    0.0000E+00    1.000000E+07  0.05000  9.074E-03    0   0.8524   age070_m72            0.0000     3.4293E-05    14.7725   2.8256    98.6849
 56      0.0000     0.0000E+00    0.0000E+00    2.512000E+07  0.05000  4.250E-03    0   0.7902   age090_m72            0.0000     3.3502E-05    14.0527   2.5712    98.9988
 57      0.0000     0.0000E+00    0.0000E+00    4.000000E+07  0.05000  3.087E-03    0   0.7618   age104_m72            0.0000     3.3410E-05    13.9706   2.3615    99.8758
 58      0.0000     0.0000E+00    0.0000E+00    1.015200E+08  0.05000  1.700E-03    0   0.7096   age116_m72            0.0000     3.2040E-05    13.5056   2.1345   101.6165
 59      2.7989     2.1966E-01    2.7040E-01    2.861200E+08  0.05000  7.384E-04    0   0.6633   age125_m72            0.0000     3.0141E-05    13.0021   1.6055   106.5084
 60      0.0000     0.0000E+00    0.0000E+00    5.088000E+08  0.05000  3.819E-04    0   0.6372   age130_m72            0.0000     2.8652E-05    12.8856   1.0684   110.2732
 61      0.0000     0.0000E+00    0.0000E+00    9.047900E+08  0.05000  1.676E-04    0   0.6110   age135_m72            0.0000     2.8125E-05    13.2924   0.3061   111.2652
 62     28.4633     1.8665E+01    2.0348E+01    1.434000E+09  0.05000  8.837E-05    0   0.5874   age139_m72            0.0000     2.8328E-05    13.2931  -0.1748   111.6019
 63      0.0000     0.0000E+00    0.0000E+00    2.500000E+09  0.05000  4.233E-05    0   0.5598   age150_m72            0.0000     2.9385E-05    14.0901  -0.5205   111.6326
 64      0.0000     0.0000E+00    0.0000E+00    6.250000E+09  0.05000  1.435E-05    0   0.5249   age166_m72            0.0000     3.1193E-05    14.8127  -1.0000   111.0544
 65      0.0000     0.0000E+00    0.0000E+00    1.300000E+10  0.05000  6.513E-06    0   0.5036   age193_m72            0.0000     3.5838E-05    14.8630  -1.0000   104.6904
 66      0.0000     0.0000E+00    0.0000E+00    1.800000E+10  0.05000  4.527E-06    0   0.4945   age213_m72            0.0000     4.0728E-05    16.0104  -1.0000    99.9458


## Synthesis Results - Average & Chains ##

# j      x_j: min, <> & last-chain-values for 1 ...  7 chains
  1      0.0000      0.2556      0.0000      0.0000      0.4709      0.0000      0.0592      0.5636      0.0192
  2      0.0000      0.3120      0.3705      0.0000      0.1272      0.3215      0.0000      0.4805      0.6083
  3      0.0000      3.5351      3.3253      4.0181      3.6674      2.6151      3.8363      3.1801      4.2243
  4      6.7109      0.3482      0.9911      0.1147      0.9494      0.0000      0.1418      0.0345      0.6425
  5      0.0000      0.3790      0.3818      0.4326      0.0000      1.2477      0.2209      0.0396      0.2835
  6      0.0000      0.2665      0.0000      0.1727      0.0000      0.2743      0.0000      1.1561      0.0000
  7      0.0000      0.3656      0.9211      0.0270      0.8460      1.2062      0.4345      1.9589      0.4311
  8      0.0000      0.3945      0.4219      0.1108      0.5271      0.0341      0.1634      0.1844      0.1629
  9      0.0000      0.3095      0.0000      0.0000      0.9421      2.1107      0.0000      0.0633      1.0332
 10      0.0000      0.5322      1.4712      0.0130      2.9195      0.8786      0.8322      0.5702      0.3405
 11      0.0000      0.4011      1.8788      0.3637      1.3984      0.8507      0.0000      0.5610      0.1477
 12      3.0260      0.4023      0.4435      0.1690      1.0637      1.0114      0.8646      0.0000      1.5030
 13     12.8577      0.2316      0.0000      0.1568      0.4677      0.5715      0.0000      0.2715      0.0117
 14      1.0636      2.2539      0.5702      1.8956      1.6472      2.3689      2.0540      1.6989      2.1754
 15     11.5052      0.4202      0.2708      0.1872      0.8125      1.2021      0.5534      2.5049      1.2433
 16      9.9320      0.3500      0.2188      0.0601      1.5094      0.2074      0.0000      0.6215      0.4930
 17      0.0000      0.2867      0.6124      0.0000      0.2966      0.0000      0.0521      0.0307      0.1600
 18      0.0000      0.2526      0.3704      0.2854      0.4073      0.6616      0.3191      0.0000      0.3737
 19      0.0000      0.3680      0.2450      0.0000      0.1437      0.0000      0.4441      0.0000      0.0000
 20      0.0000      1.1784      0.8915      1.2337      0.0000      1.4209      1.3171      0.0000      0.9180
 21      0.0000      0.5314      0.2965      0.0720      0.9723      0.9683      0.1777      0.3783      0.1555
 22      0.0000      0.2412      0.6733      0.2544      0.0493      0.0000      0.2714      0.3952      0.0000
 23      0.5492      0.3186      2.4781      0.5804      0.5129      0.7317      0.0000      0.0377      0.2137
 24      0.0000      0.3216      0.6968      0.4406      0.0000      0.0000      0.0000      0.3059      0.4078
 25      2.9517      0.2945      0.0125      0.0000      3.2471      0.0000      0.4141      0.0000      0.0000
 26      0.0000     16.8243     16.6953     17.4360     15.0395     15.9186     17.1612     16.9471     16.4014
 27      0.0000      0.2715      0.0000      0.1154      0.0000      0.8709      0.1152      0.0000      0.2842
 28      0.0000      0.4045      1.1335      0.5838      2.1646      0.3581      0.2005      0.1556      0.5214
 29      0.0000      0.3951      0.3755      0.2205      0.0000      0.1887      0.4252      0.5471      0.4287
 30      0.0000      0.2439      0.6415      0.1062      0.0000      0.2016      0.1924      0.3327      0.1208
 31      0.0000      0.3601      0.1176      0.2038      0.4203      0.2235      0.0000      0.6649      0.0000
 32      9.6309      0.3619      0.0000      0.0141      1.3869      2.2282      0.3146      0.0000      0.0268
 33      0.0000      0.4806      0.0000      0.2302      0.0000      0.6684      0.0000      0.4855      0.0000
 34      0.0000      0.4633      0.0000      0.2827      1.8462      0.0962      0.6267      0.0000      0.0000
 35      2.1527      0.3817      0.0000      0.1246      5.2809      0.0000      0.1447      0.0000      0.8136
 36      0.0000      0.2634      0.5795      0.0758      0.0000      0.5790      0.0000      0.0000      0.0433
 37      0.0000      0.4288      0.2541      0.2328      1.1019      1.4287      0.0000      1.2784      0.7913
 38      0.0000      0.4530      1.0992      0.3805      0.0000      0.0032      0.8377      1.8273      0.5038
 39      0.0000      0.2537      0.1208      0.0000      1.3848      0.3170      0.1753      0.1320      0.0000
 40      0.0000      0.4121      0.0000      0.4471      0.6781      1.7704      0.1677      0.6007      0.2179
 41      0.0000      0.3861      0.3409      0.0671      1.1991      0.2999      0.9570      1.0696      0.4494
 42      1.7439      0.4596      0.7798      0.3774      1.4900      0.8461      0.6007      2.0871      0.6402
 43      0.0000      0.3577      0.5114      0.2348      1.1633      0.0000      0.2161      0.3129      0.5844
 44      0.0000      0.3690      0.4237      0.4594      1.7840      0.4993      0.1469      0.0000      0.2834
 45      2.6285      0.4249      2.4390      0.0550      0.7307      0.7765      0.3696      0.7654      0.0000
 46      0.0000      0.2897      0.2351      0.1136      0.0726      0.0000      0.0898      0.1141      0.9241
 47     10.5030      0.4295      0.2787      0.3706      0.5931      1.4526      0.3854      0.1275      0.0000
 48      0.0000      0.3062      1.8115      0.0000      0.0000      0.0000      0.0000      0.3403      0.3648
 49      0.0000      0.3451      0.0000      0.2717      0.0000      0.4072      0.0000      0.9785      0.0000
 50      0.0000      0.3483      0.2944      0.4826      0.2873      0.2259      0.2101      0.0000      0.0000
 51      0.0000      0.4104      0.0000      0.0852      0.1534      0.0000      0.0847      1.0865      0.2863
 52      0.0000      4.4906      5.6143      4.8279      4.4420      5.2123      4.5531      4.5920      4.6592
 53      0.0000      0.2195      0.0000      0.1622      0.2170      2.1383      0.1189      0.4080      0.0209
 54      0.0000      0.3600      0.0293      0.0000      1.1804      0.0000      0.2868      0.9091      0.0270
 55      0.0000      0.2404      0.0000      0.0000      0.0000      0.0874      0.3020      0.0000      0.1010
 56      0.0000      6.2685      6.5891      6.1025      6.5122      5.8611      7.1219      5.4261      6.4124
 57      0.0000      1.2667      1.4934      0.9377      1.6209      0.4482      1.1743      2.5098      1.6896
 58      0.0000     73.0613     67.3510     82.3152     46.5245     61.1414     78.0191     68.4683     74.6066
 59      2.7989      0.4628      0.6212      0.2473      0.5529      5.5332      0.0000      0.7265      0.1349
 60      0.0000      0.4012      0.3351      0.2734      0.5814      0.0000      0.0000      0.6751      0.7923
 61      0.0000      0.3858      0.5882      0.1627      0.1800      0.4918      0.3523      0.1343      0.4160
 62     28.4633      0.3531      0.0000      0.0762      1.6827      0.0000      0.4744      0.0190      0.0000
 63      0.0000      0.5584      0.4902      0.3645      2.9729      0.0000      0.4151      0.0000      0.0000
 64      0.0000      0.3184      0.4174      0.3376      0.0000      0.0000      0.7345      0.0178      0.0999
 65      0.0000      0.2761      0.2340      0.0336      0.2087      0.3167      0.3996      0.4460      1.0360
 66      0.0000      0.5106      0.0000      0.3996      2.8293      0.6534      0.2223      0.0000      0.1610

# j      m_j: min, <> & last-chain-values for 1 ...  7 chains
  1  0.0000E+00  7.9925E-03  0.0000E+00  0.0000E+00  6.6923E-03  0.0000E+00  2.4229E-03  2.2962E-02  8.1149E-04
  2  0.0000E+00  2.6632E-03  4.9130E-03  0.0000E+00  4.9359E-04  2.6204E-03  0.0000E+00  5.3440E-03  7.0014E-03
  3  0.0000E+00  4.5193E-02  6.6037E-02  7.2309E-02  2.1305E-02  3.1921E-02  6.4185E-02  5.2966E-02  7.2813E-02
  4  2.5399E-02  4.1920E-03  1.8535E-02  1.9442E-03  5.1940E-03  0.0000E+00  2.2346E-03  5.4133E-04  1.0430E-02
  5  0.0000E+00  8.6924E-03  1.3603E-02  1.3966E-02  0.0000E+00  2.7320E-02  6.6313E-03  1.1830E-03  8.7645E-03
  6  0.0000E+00  9.9135E-03  0.0000E+00  9.0414E-03  0.0000E+00  9.7426E-03  0.0000E+00  5.6026E-02  0.0000E+00
  7  0.0000E+00  1.9470E-02  7.6197E-02  2.0224E-03  2.0473E-02  6.1331E-02  3.0280E-02  1.3591E-01  3.0953E-02
  8  0.0000E+00  2.9037E-02  4.8240E-02  1.1476E-02  1.7629E-02  2.3953E-03  1.5743E-02  1.7681E-02  1.6171E-02
  9  0.0000E+00  2.6071E-02  0.0000E+00  0.0000E+00  3.6065E-02  1.6978E-01  0.0000E+00  6.9462E-03  1.1736E-01
 10  0.0000E+00  5.8892E-02  2.5290E-01  2.0253E-03  1.4681E-01  9.2832E-02  1.2053E-01  8.2209E-02  5.0799E-02
 11  0.0000E+00  8.3463E-02  6.0729E-01  1.0652E-01  1.3223E-01  1.6901E-01  0.0000E+00  1.5208E-01  4.1450E-02
 12  3.1400E-01  1.3279E-01  2.2739E-01  7.8513E-02  1.5955E-01  3.1875E-01  3.7350E-01  0.0000E+00  6.6890E-01
 13  3.7606E+00  2.1544E-01  0.0000E+00  2.0534E-01  1.9771E-01  5.0765E-01  0.0000E+00  3.2904E-01  1.4694E-02
 14  1.0434E+00  7.0334E+00  2.7640E+00  8.3265E+00  2.3357E+00  7.0580E+00  8.3883E+00  6.9068E+00  9.1527E+00
 15  1.8373E+01  2.1349E+00  2.1373E+00  1.3386E+00  1.8755E+00  5.8305E+00  3.6792E+00  1.6578E+01  8.5154E+00
 16  2.6819E+01  3.0067E+00  2.9197E+00  7.2647E-01  5.8915E+00  1.7007E+00  0.0000E+00  6.9552E+00  5.7099E+00
 17  0.0000E+00  3.1945E+00  1.0600E+01  0.0000E+00  1.5016E+00  0.0000E+00  7.5970E-01  4.4625E-01  2.4034E+00
 18  0.0000E+00  6.9791E-03  1.5899E-02  1.1102E-02  5.1150E-03  1.7457E-02  1.1542E-02  0.0000E+00  1.3923E-02
 19  0.0000E+00  4.0821E-03  4.2215E-03  0.0000E+00  7.2414E-04  0.0000E+00  6.4469E-03  0.0000E+00  0.0000E+00
 20  0.0000E+00  1.4269E-02  1.6768E-02  2.1027E-02  0.0000E+00  1.6428E-02  2.0872E-02  0.0000E+00  1.4986E-02
 21  0.0000E+00  7.8100E-03  6.7689E-03  1.4893E-03  6.4939E-03  1.3589E-02  3.4177E-03  7.2440E-03  3.0819E-03
 22  0.0000E+00  5.9954E-03  2.5994E-02  8.9013E-03  5.5687E-04  0.0000E+00  8.8286E-03  1.2798E-02  0.0000E+00
 23  5.7951E-03  1.0692E-02  1.2920E-01  2.7422E-02  7.8221E-03  2.3449E-02  0.0000E+00  1.6503E-03  9.6700E-03
 24  0.0000E+00  1.6059E-02  5.4047E-02  3.0971E-02  0.0000E+00  0.0000E+00  0.0000E+00  1.9897E-02  2.7456E-02
 25  6.3888E-02  2.0274E-02  1.3421E-03  0.0000E+00  1.0159E-01  0.0000E+00  3.7309E-02  0.0000E+00  0.0000E+00
 26  0.0000E+00  1.9363E+00  2.9848E+00  2.8247E+00  7.8653E-01  1.7492E+00  2.5848E+00  2.5410E+00  2.5450E+00
 27  0.0000E+00  6.2531E-02  0.0000E+00  3.7427E-02  0.0000E+00  1.9155E-01  3.4737E-02  0.0000E+00  8.8271E-02
 28  0.0000E+00  2.7044E-01  1.1772E+00  5.4943E-01  6.5758E-01  2.2856E-01  1.7540E-01  1.3553E-01  4.6998E-01
 29  0.0000E+00  4.6027E-01  6.7955E-01  3.6150E-01  0.0000E+00  2.0983E-01  6.4815E-01  8.3023E-01  6.7327E-01
 30  0.0000E+00  5.9366E-01  2.4252E+00  3.6388E-01  0.0000E+00  4.6836E-01  6.1293E-01  1.0548E+00  3.9650E-01
 31  0.0000E+00  1.5415E+00  7.8216E-01  1.2281E+00  8.1766E-01  9.1349E-01  0.0000E+00  3.7082E+00  0.0000E+00
 32  1.7440E+01  2.0848E+00  0.0000E+00  1.1463E-01  3.6302E+00  1.2255E+01  2.3720E+00  0.0000E+00  2.0834E-01
 33  0.0000E+00  6.1281E+00  0.0000E+00  4.1328E+00  0.0000E+00  8.1377E+00  0.0000E+00  8.0660E+00  0.0000E+00
 34  0.0000E+00  8.0007E+00  0.0000E+00  6.8719E+00  1.4487E+01  1.5863E+00  1.4162E+01  0.0000E+00  0.0000E+00
 35  1.4995E-02  8.4574E-03  0.0000E+00  3.8869E-03  5.3172E-02  0.0000E+00  4.1947E-03  0.0000E+00  2.4306E-02
 36  0.0000E+00  2.3611E-03  8.0706E-03  9.5600E-04  0.0000E+00  4.9558E-03  0.0000E+00  0.0000E+00  5.2342E-04
 37  0.0000E+00  4.1584E-03  3.8272E-03  3.1776E-03  4.8553E-03  1.3227E-02  0.0000E+00  1.6150E-02  1.0345E-02
 38  0.0000E+00  1.1901E-02  4.4857E-02  1.4069E-02  0.0000E+00  8.0517E-05  2.8798E-02  6.2536E-02  1.7844E-02
 39  0.0000E+00  9.5945E-03  7.0988E-03  0.0000E+00  2.3801E-02  1.1448E-02  8.6752E-03  6.5035E-03  0.0000E+00
 40  0.0000E+00  2.5197E-02  0.0000E+00  3.8480E-02  1.8839E-02  1.0334E-01  1.3421E-02  4.7845E-02  1.7964E-02
 41  0.0000E+00  3.6703E-02  5.0342E-02  8.9804E-03  5.1804E-02  2.7228E-02  1.1907E-01  1.3249E-01  5.7606E-02
 42  9.5693E-02  8.0222E-02  2.1144E-01  9.2740E-02  1.1818E-01  1.4102E-01  1.3722E-01  4.7463E-01  1.5066E-01
 43  0.0000E+00  9.1161E-02  2.0247E-01  8.4213E-02  1.3472E-01  0.0000E+00  7.2088E-02  1.0390E-01  2.0080E-01
 44  0.0000E+00  1.6191E-01  2.8884E-01  2.8373E-01  3.5572E-01  2.0917E-01  8.4343E-02  0.0000E+00  1.6765E-01
 45  7.1940E-01  3.6994E-01  3.2987E+00  6.7357E-02  2.8910E-01  6.4546E-01  4.2110E-01  8.6817E-01  0.0000E+00
 46  0.0000E+00  4.6364E-01  5.8454E-01  2.5600E-01  5.2814E-02  0.0000E+00  1.8797E-01  2.3791E-01  1.9940E+00
 47  1.0707E+01  1.3929E+00  1.4039E+00  1.6915E+00  8.7391E-01  4.4977E+00  1.6358E+00  5.3857E-01  0.0000E+00
 48  0.0000E+00  1.7513E+00  1.6093E+01  0.0000E+00  0.0000E+00  0.0000E+00  0.0000E+00  2.5354E+00  2.8129E+00
 49  0.0000E+00  4.4850E+00  0.0000E+00  4.9711E+00  0.0000E+00  5.0533E+00  0.0000E+00  1.6569E+01  0.0000E+00
 50  0.0000E+00  8.3843E+00  1.1010E+01  1.6354E+01  3.1428E+00  5.1919E+00  6.6188E+00  0.0000E+00  0.0000E+00
 51  0.0000E+00  5.4161E-03  0.0000E+00  1.5824E-03  9.1997E-04  0.0000E+00  1.4622E-03  1.8679E-02  5.0947E-03
 52  0.0000E+00  3.0367E-02  5.8977E-02  4.5957E-02  1.3650E-02  3.3654E-02  4.0296E-02  4.0456E-02  4.2481E-02
 53  0.0000E+00  2.2363E-03  0.0000E+00  2.3259E-03  1.0043E-03  2.0797E-02  1.5846E-03  5.4145E-03  2.8700E-04
 54  0.0000E+00  7.5149E-03  9.4909E-04  0.0000E+00  1.1196E-02  0.0000E+00  7.8330E-03  2.4722E-02  7.6021E-04
 55  0.0000E+00  7.7248E-03  0.0000E+00  0.0000E+00  0.0000E+00  2.6830E-03  1.2701E-02  0.0000E+00  4.3762E-03
 56  0.0000E+00  3.9873E-01  6.5107E-01  5.4641E-01  1.8823E-01  3.5596E-01  5.9286E-01  4.4965E-01  5.4994E-01
 57  0.0000E+00  1.0694E-01  1.9586E-01  1.1144E-01  6.2182E-02  3.6132E-02  1.2975E-01  2.7605E-01  1.9232E-01
 58  0.0000E+00  1.0433E+01  1.4940E+01  1.6546E+01  3.0190E+00  8.3364E+00  1.4581E+01  1.2738E+01  1.4364E+01
 59  2.7040E-01  1.4221E-01  2.9653E-01  1.0700E-01  7.7214E-02  1.6236E+00  0.0000E+00  2.9086E-01  5.5875E-02
 60  0.0000E+00  2.2903E-01  2.9710E-01  2.1970E-01  1.5080E-01  0.0000E+00  0.0000E+00  5.0204E-01  6.0975E-01
 61  0.0000E+00  4.8113E-01  1.1396E+00  2.8565E-01  1.0199E-01  5.8564E-01  5.7509E-01  2.1828E-01  6.9948E-01
 62  2.0348E+01  8.0286E-01  0.0000E+00  2.4389E-01  1.7388E+00  0.0000E+00  1.4118E+00  5.6246E-02  0.0000E+00
 63  0.0000E+00  2.5264E+00  3.4451E+00  2.3214E+00  6.1120E+00  0.0000E+00  2.4576E+00  0.0000E+00  0.0000E+00
 64  0.0000E+00  3.9839E+00  8.1133E+00  5.9474E+00  0.0000E+00  0.0000E+00  1.2029E+01  2.9024E-01  1.6861E+00
 65  0.0000E+00  7.3038E+00  9.6148E+00  1.2509E+00  2.5083E+00  7.9989E+00  1.3833E+01  1.5370E+01  3.6950E+01
 66  0.0000E+00  1.9082E+01  0.0000E+00  2.1020E+01  4.8045E+01  2.3314E+01  1.0874E+01  0.0000E+00  8.1123E+00

# AV, chi2 & Mass for <> & i_chain = 1 ...  7 solutions
AV       0.2138      1.4912      1.3879      1.4176      1.0730      1.2894      1.3767      1.3704      1.4023
chi2 2.7713E-05  5.3789E-05  5.1102E-05  5.2259E-05  4.8554E-05  5.1109E-05  5.1993E-05  5.1110E-05  5.1482E-05
Mass 1.7694E-13  3.0929E-13  1.7331E-13  1.9905E-13  3.8814E-13  2.4703E-13  2.0265E-13  2.0185E-13  2.0360E-13
 -51.75                                  [v0_min (km/s) before EX0s...]
  10.64                                  [vd_min (km/s) before EX0s...]


## Synthetic spectrum (Best Model) ##l_obs f_obs f_syn wei
 3478    [Nl_obs]
 3741.00    0.75414   0.67515    0.000
 3742.00    1.02385   0.63471    0.000
 3743.00    1.44894   0.60027    0.000
 3744.00    0.94150   0.56950    0.000
 3745.00   -0.10926   0.53366    0.000
 3746.00    0.08642   0.50476   -1.000
 3747.00    0.91506   0.45799   -1.000
 3748.00    0.98415   0.39546   -1.000
 3749.00    0.71923   0.38228   -1.000
 3750.00    0.15773   0.44576   -1.000
 3751.00   -0.51574   0.53533    0.000
 3752.00   -0.43089   0.60549    0.000
 3753.00   -0.10301   0.66734    0.000
 3754.00    0.45263   0.72412   -1.000
 3755.00    1.06931   0.73946   -1.000
 3756.00    0.57716   0.68576   -1.000
 3757.00   -0.15837   0.60355    0.000
 3758.00   -0.21902   0.57195    0.000
 3759.00   -0.16186   0.59906    0.000
 3760.00    0.31494   0.63556   -1.000
 3761.00    0.84749   0.65856   -1.000
 3762.00    0.68424   0.66324   -1.000
 3763.00    0.45561   0.66067   -1.000
 3764.00    0.45711   0.66666   -1.000
 3765.00    0.47188   0.64880   -1.000
 3766.00    0.50496   0.60258   -1.000
 3767.00    0.53775   0.57803   -1.000
 3768.00    0.48309   0.56812   -1.000
 3769.00    0.42878   0.53673   -1.000
 3770.00    0.38320   0.52472   -1.000
 3771.00    0.35147   0.57332   -1.000
 3772.00    0.50134   0.63894   -1.000
 3773.00    0.61552   0.67295   -1.000
 3774.00    0.41631   0.68181   -1.000
 3775.00    0.27952   0.69580   -1.000
 3776.00    0.54750   0.72197   -1.000
 3777.00    0.93884   0.74526   -1.000
 3778.00    1.95455   0.77131   -1.000
 3779.00    2.59544   0.80695   -1.000
 3780.00    1.70211   0.82741   -1.000
 3781.00    1.02102   0.82553   -1.000
 3782.00    1.05976   0.82812   -1.000
 3783.00    0.97578   0.84387   -1.000
 3784.00    0.54082   0.83058   -1.000
 3785.00    0.29685   0.76632   -1.000
 3786.00    0.51950   0.70775   -1.000
 3787.00    0.50531   0.68561   -1.000
 3788.00   -0.00806   0.67355    0.000
 3789.00   -0.04753   0.66715    0.000
 3790.00    0.78105   0.68027   -1.000
 3791.00    1.29349   0.68860   -1.000
 3792.00    1.29987   0.66156   -1.000
 3793.00    1.16408   0.61181   -1.000
 3794.00    0.82858   0.57053   -1.000
 3795.00    0.71026   0.53939   -1.000
 3796.00    0.86039   0.49108   -1.000
 3797.00    0.89403   0.44285   -1.000
 3798.00    0.80078   0.45187   -1.000
 3799.00    0.75143   0.52504   -1.000
 3800.00    0.74427   0.60839   -1.000
 3801.00    0.59607   0.67150   -1.000
 3802.00    0.32835   0.72822   -1.000
 3803.00    0.33524   0.76938   -1.000
 3804.00    0.54707   0.77675   -1.000
 3805.00    0.62321   0.75457   -1.000
 3806.00    0.61042   0.73056   -1.000
 3807.00    0.61492   0.74309   -1.000
 3808.00    0.62933   0.79106   -1.000
 3809.00    0.70000   0.83484   -1.000
 3810.00    0.79879   0.84893   -1.000
 3811.00    0.43928   0.82444   -1.000
 3812.00   -0.11843   0.76698    0.000
 3813.00    0.07524   0.71205   -1.000
 3814.00    0.54758   0.68173   -1.000
 3815.00    0.85729   0.68163   -1.000
 3816.00    1.11587   0.71983   -1.000
 3817.00    0.95889   0.75548   -1.000
 3818.00    0.69290   0.72996   -1.000
 3819.00    0.98804   0.66378   -1.000
 3820.00    1.40339   0.64265   -1.000
 3821.00    1.81623   0.68826   -1.000
 3822.00    2.22864   0.72138   -1.000
 3823.00    2.00507   0.68423   -1.000
 3824.00    1.69989   0.62252   -1.000
 3825.00    1.69134   0.59152   -1.000
 3826.00    1.70942   0.58745   -1.000
 3827.00    1.64371   0.58588   -1.000
 3828.00    1.57348   0.58258   -1.000
 3829.00    0.97804   0.58338   -1.000
 3830.00    0.37713   0.56609   -1.000
 3831.00    0.20230   0.51073   -1.000
 3832.00    0.03819   0.44979   -1.000
 3833.00    0.11212   0.41210   -1.000
 3834.00    0.18044   0.39902   -1.000
 3835.00    0.17901   0.41591   -1.000
 3836.00    0.14925   0.44485   -1.000
 3837.00   -0.12002   0.46215    0.000
 3838.00   -0.35640   0.48001    0.000
 3839.00   -0.38589   0.50883    0.000
 3840.00   -0.24063   0.55416    0.000
 3841.00    0.76682   0.62350   -1.000
 3842.00    1.62423   0.68652   -1.000
 3843.00    1.88105   0.72050   -1.000
 3844.00    2.01628   0.73294   -1.000
 3845.00    1.74727   0.73980   -1.000
 3846.00    1.54731   0.76146   -1.000
 3847.00    1.54128   0.78252    0.000
 3848.00    1.32049   0.76842    0.000
 3849.00    0.58389   0.74094    0.000
 3850.00    0.36682   0.75335    0.000
 3851.00    1.22722   0.79195    0.000
 3852.00    1.81273   0.80705    0.000
 3853.00    1.90244   0.79604    0.000
 3854.00    1.84954   0.77428    0.000
 3855.00    1.57172   0.75267    0.000
 3856.00    1.59451   0.75031    0.000
 3857.00    2.03346   0.74165    0.000
 3858.00    1.97075   0.70096    0.000
 3859.00    1.29676   0.67761    0.000
 3860.00    1.24790   0.71620    0.000
 3861.00    1.87054   0.78281    0.000
 3862.00    1.94857   0.82508    0.000
 3863.00    1.51058   0.83102    0.000
 3864.00    1.24232   0.81538    0.000
 3865.00    1.11585   0.80093    0.000
 3866.00    1.38289   0.80025    0.000
 3867.00    1.93936   0.80692    0.000
 3868.00    1.87780   0.80793    0.000
 3869.00    1.41705   0.78783    0.000
 3870.00    1.00589   0.74583    0.000
 3871.00    0.62275   0.69893    0.000
 3872.00    0.39492   0.68663    0.000
 3873.00    0.24348   0.72731    0.000
 3874.00    0.24399   0.78077    0.000
 3875.00    0.30911   0.79710    0.000
 3876.00    0.50147   0.75962    0.000
 3877.00    0.74018   0.69541    0.000
 3878.00    0.98872   0.67621    0.000
 3879.00    1.24028   0.71061    0.000
 3880.00    1.15015   0.71920    0.000
 3881.00    0.97229   0.68380   -1.000
 3882.00    0.80354   0.66456   -1.000
 3883.00    0.63670   0.67208   -1.000
 3884.00    0.92142   0.64376   -1.000
 3885.00    1.28060   0.57228   -1.000
 3886.00    1.22326   0.51537   -1.000
 3887.00    1.11435   0.48128   -1.000
 3888.00    0.66346   0.46064   -1.000
 3889.00    0.18331   0.48798   -1.000
 3890.00    0.28540   0.56463   -1.000
 3891.00    0.41652   0.64193   -1.000
 3892.00    1.05649   0.68417   -1.000
 3893.00    1.69157   0.69429   -1.000
 3894.00    1.47198   0.69195   -1.000
 3895.00    1.30026   0.70692   -1.000
 3896.00    2.10750   0.74274   -1.000
 3897.00    2.80637   0.75743   -1.000
 3898.00    2.22373   0.74569   -1.000
 3899.00    1.68322   0.74843   -1.000
 3900.00    1.48597   0.78290   -1.000
 3901.00    1.28875   0.80526   -1.000
 3902.00    1.09170   0.79348   -1.000
 3903.00    0.95707   0.78196   -1.000
 3904.00    1.12286   0.76304   -1.000
 3905.00    1.16245   0.74058   -1.000
 3906.00    0.70787   0.76222   -1.000
 3907.00    0.42057   0.81950   -1.000
 3908.00    0.67856   0.86409   -1.000
 3909.00    0.80242   0.88162    0.322
 3910.00    0.55641   0.89267    0.068
 3911.00    0.30394   0.90229    0.044
 3912.00    0.03622   0.88954    0.044
 3913.00    0.10027   0.86748    0.044
 3914.00    0.84143   0.86144    0.045
 3915.00    1.30628   0.85375    0.045
 3916.00    1.28036   0.84144    0.045
 3917.00    1.18320   0.83152    0.045
 3918.00    0.97531   0.81190    0.045
 3919.00    0.91581   0.78166    0.044
 3920.00    1.05875   0.76072    0.044
 3921.00    0.97358   0.76413    0.043
 3922.00    0.61440   0.77987    0.044
 3923.00    0.27059   0.79233    0.043
 3924.00   -0.05694   0.78274    0.000
 3925.00   -0.16409   0.74704    0.000
 3926.00   -0.06538   0.69992    0.000
 3927.00   -0.12667   0.64440    0.000
 3928.00   -0.31974   0.58620    0.000
 3929.00   -0.15465   0.53207    0.000
 3930.00    0.27008   0.47837    0.043
 3931.00    0.53710   0.41880    0.043
 3932.00    0.70376   0.36033    0.043
 3933.00    0.26502   0.33323    0.044
 3934.00   -0.51064   0.36009    0.000
 3935.00   -0.84021   0.42667    0.000
 3936.00   -0.95382   0.50165    0.000
 3937.00   -0.81297   0.57061    0.000
 3938.00   -0.56573   0.63473    0.000
 3939.00   -0.12273   0.68738    0.000
 3940.00    0.39030   0.71478    0.044
 3941.00    0.75937   0.72293    0.045
 3942.00    1.08492   0.71705    0.045
 3943.00    1.43805   0.70911    0.046
 3944.00    1.79812   0.73915    0.047
 3945.00    1.12851   0.80041    0.046
 3946.00    0.24892   0.82771    0.045
 3947.00   -0.09481   0.81078    0.000
 3948.00   -0.35274   0.80508    0.000
 3949.00   -0.03405   0.83277    0.000
 3950.00    0.35348   0.85517    0.045
 3951.00    0.54643   0.83965    0.046
 3952.00    0.72354   0.82514    0.046
 3953.00    0.75141   0.85139    0.046
 3954.00    0.77243   0.86685    0.045
 3955.00    0.43872   0.82990    0.045
 3956.00    0.10750   0.79214    0.044
 3957.00    0.14254   0.79773    0.044
 3958.00    0.19338   0.81858    0.044
 3959.00    0.54341   0.79799    0.044
 3960.00    0.83091   0.72006    0.000
 3961.00    0.41376   0.63950    0.000
 3962.00    0.09080   0.59893    0.000
 3963.00    0.50828   0.57158    0.000
 3964.00    0.87073   0.52279    0.000
 3965.00    0.90676   0.44723    0.000
 3966.00    0.85997   0.35988    0.000
 3967.00    0.42435   0.28493    0.000
 3968.00    0.05476   0.24776    0.000
 3969.00   -0.06177   0.26177    0.000
 3970.00   -0.08589   0.32106    0.000
 3971.00    0.18536   0.40078    0.000
 3972.00    0.41472   0.47531    0.000
 3973.00    0.53062   0.54401    0.000
 3974.00    0.54510   0.61417    0.000
 3975.00    0.32405   0.67195    0.000
 3976.00    0.24448   0.71583    0.000
 3977.00    0.44906   0.76410    0.000
 3978.00    0.58348   0.81826    0.000
 3979.00    0.59519   0.86079    0.000
 3980.00    0.52202   0.86898    0.000
 3981.00    0.31892   0.84978    0.042
 3982.00    0.39091   0.84207    0.043
 3983.00    0.83286   0.85915    0.044
 3984.00    1.13468   0.88451    0.045
 3985.00    1.27057   0.89826    0.045
 3986.00    1.23477   0.90710    0.045
 3987.00    1.01967   0.93121    0.045
 3988.00    0.90544   0.94244    0.044
 3989.00    0.88411   0.93161    0.044
 3990.00    0.83263   0.93728    0.044
 3991.00    0.75667   0.96387    0.044
 3992.00    0.71828   0.98495    0.043
 3993.00    0.70675   0.98048    0.043
 3994.00    0.77807   0.95855    0.043
 3995.00    0.90135   0.93173    0.044
 3996.00    0.74779   0.90332    0.044
 3997.00    0.44252   0.89590    0.043
 3998.00    0.51851   0.93545    0.043
 3999.00    0.77610   0.98837    0.042
 4000.00    0.80358   1.00741    0.042
 4001.00    0.73647   1.01142    0.043
 4002.00    1.04573   1.02132    0.043
 4003.00    1.48717   0.99482    0.043
 4004.00    1.42787   0.91963    0.043
 4005.00    1.22022   0.87605    0.043
 4006.00    0.85382   0.91183    0.042
 4007.00    0.44842   0.97106    0.041
 4008.00    0.30183   0.99963    0.040
 4009.00    0.20669   1.00630    0.040
 4010.00    0.41814   1.01292    0.040
 4011.00    0.67723   1.01449    0.040
 4012.00    0.84375   1.01284    0.040
 4013.00    0.99963   1.01479    0.040
 4014.00    0.93307   1.02724    0.041
 4015.00    0.84931   1.03768    0.041
 4016.00    1.24435   1.02279    0.041
 4017.00    1.65956   1.01282    0.041
 4018.00    1.54430   1.03926    0.041
 4019.00    1.41756   1.06094    0.041
 4020.00    1.00000   1.04872    0.040
 4021.00    0.62023   1.03068    0.040
 4022.00    0.90661   1.01976    0.040
 4023.00    1.18222   0.99675    0.040
 4024.00    1.34186   0.98152    0.040
 4025.00    1.48887   1.00803    0.040
 4026.00    1.53997   1.05244    0.041
 4027.00    1.54442   1.07656    0.042
 4028.00    1.27980   1.05951    0.041
 4029.00    1.00252   0.99156    0.040
 4030.00    0.66723   0.92003    0.040
 4031.00    0.47774   0.89396    0.040
 4032.00    0.83519   0.89684    0.039
 4033.00    1.13090   0.91419    0.039
 4034.00    1.23307   0.94922    0.040
 4035.00    1.19166   1.00287    0.041
 4036.00    0.76831   1.06361    0.040
 4037.00    0.56918   1.10083    0.040
 4038.00    0.88204   1.09712    0.040
 4039.00    1.12836   1.06317    0.040
 4040.00    1.24311   1.03602    0.040
 4041.00    1.41979   1.04572    0.041
 4042.00    1.70318   1.05131    0.042
 4043.00    1.75107   0.98999    0.042
 4044.00    1.44369   0.88289    0.041
 4045.00    1.20879   0.83515    0.041
 4046.00    1.06995   0.90474    0.042
 4047.00    0.80489   1.00230    0.041
 4048.00    0.39247   1.04417    0.041
 4049.00    0.50704   1.05831    0.040
 4050.00    1.16417   1.06603    0.041
 4051.00    1.30633   1.05131    0.041
 4052.00    0.98083   1.02170    0.040
 4053.00    0.90565   0.99245    0.040
 4054.00    1.03082   0.97659    0.040
 4055.00    0.98814   0.97938    0.040
 4056.00    0.82728   0.97219    0.040
 4057.00    0.70209   0.95489    0.040
 4058.00    0.59893   0.97081    0.040
 4059.00    0.69376   1.01867    0.040
 4060.00    0.89542   1.04452    0.039
 4061.00    0.95210   1.00267    0.039
 4062.00    0.94084   0.91285    0.038
 4063.00    1.10568   0.87059    0.038
 4064.00    1.34166   0.91872    0.038
 4065.00    1.28798   0.96638    0.038
 4066.00    1.13442   0.96631    0.038
 4067.00    1.20698   0.98248    0.038
 4068.00    1.34521   1.03307    0.038
 4069.00    1.22561   1.04150    0.038
 4070.00    1.04408   0.97615    0.039
 4071.00    0.84139   0.92625    0.039
 4072.00    0.63459   0.96082    0.038
 4073.00    0.94678   1.01303    0.038
 4074.00    1.33717   1.00502    0.037
 4075.00    1.35714   0.93943    0.037
 4076.00    1.33615   0.86504    0.037
 4077.00    1.07912   0.84503    0.037
 4078.00    0.80481   0.89485    0.037
 4079.00    0.88789   0.97270    0.037
 4080.00    0.98466   1.03609    0.036
 4081.00    1.18877   1.05067    0.037
 4082.00    1.38855   1.01771    0.037
 4083.00    1.40268   0.97873    0.038
 4084.00    1.41409   0.96193    0.038
 4085.00    1.38077   0.97325    0.038
 4086.00    1.35714   1.01183    0.038
 4087.00    1.43331   1.05554    0.038
 4088.00    1.47601   1.07150    0.039
 4089.00    1.27307   1.05647    0.038
 4090.00    1.10767   1.03055    0.038
 4091.00    1.15288   1.00389    0.039
 4092.00    1.23301   0.99451    0.000
 4093.00    1.46943   0.99472    0.000
 4094.00    1.49676   0.95895    0.000
 4095.00    0.75619   0.89793    0.000
 4096.00    0.28441   0.85763    0.000
 4097.00    0.63926   0.83729    0.000
 4098.00    0.84529   0.80750    0.000
 4099.00    0.66236   0.73963    0.000
 4100.00    0.67138   0.64039    0.000
 4101.00    1.11151   0.59125    0.000
 4102.00    1.29445   0.64072    0.000
 4103.00    0.97693   0.73311    0.000
 4104.00    0.93442   0.81525    0.000
 4105.00    1.35852   0.87696    0.000
 4106.00    1.50017   0.91065    0.000
 4107.00    1.22196   0.92131    0.000
 4108.00    1.13232   0.91814    0.000
 4109.00    1.28906   0.91087    0.000
 4110.00    1.13107   0.91475    0.000
 4111.00    0.61082   0.93495    0.000
 4112.00    0.69653   0.96725    0.000
 4113.00    1.39735   0.99875    0.038
 4114.00    1.55627   1.01973    0.038
 4115.00    1.23003   1.03707    0.037
 4116.00    0.99619   1.03840    0.036
 4117.00    0.83525   1.00152    0.037
 4118.00    0.96565   0.96159    0.037
 4119.00    1.29822   0.96653    0.037
 4120.00    1.52859   0.98847    0.037
 4121.00    1.69679   0.98902    0.037
 4122.00    1.54541   0.98504    0.037
 4123.00    1.22425   1.00483    0.036
 4124.00    1.07920   1.03418    0.036
 4125.00    1.01535   1.03657    0.036
 4126.00    1.09847   1.00996    0.036
 4127.00    1.23994   0.98011    0.036
 4128.00    1.15162   0.97178    0.036
 4129.00    0.98553   0.97761    0.035
 4130.00    0.96694   0.96675    0.035
 4131.00    0.99031   0.93068    0.035
 4132.00    1.03169   0.91119    0.035
 4133.00    1.07730   0.92794    0.035
 4134.00    1.09504   0.97458    0.035
 4135.00    1.10752   1.02890    0.035
 4136.00    1.07270   1.04980    0.034
 4137.00    1.03096   1.05868    0.034
 4138.00    1.00596   1.07857    0.034
 4139.00    0.98273   1.08982    0.035
 4140.00    0.88675   1.07334    0.035
 4141.00    0.78574   1.00834    0.035
 4142.00    0.75397   0.91491    0.035
 4143.00    0.72460   0.87985    0.035
 4144.00    1.05969   0.93574    0.035
 4145.00    1.38479   1.00654    0.036
 4146.00    1.35557   1.03877    0.036
 4147.00    1.32058   1.03958    0.036
 4148.00    1.19631   1.01955    0.036
 4149.00    1.08003   0.99957    0.036
 4150.00    1.04258   1.00190    0.036
 4151.00    0.99594   1.00916    0.036
 4152.00    0.88409   1.00194    0.036
 4153.00    0.76433   0.98077    0.036
 4154.00    0.60138   0.96786    0.035
 4155.00    0.51222   0.96902    0.035
 4156.00    0.74564   0.97806    0.036
 4157.00    1.03464   1.00490    0.036
 4158.00    1.52354   1.03678    0.036
 4159.00    1.80468   1.04977    0.036
 4160.00    1.45886   1.04551    0.035
 4161.00    1.22040   1.05560    0.035
 4162.00    1.25763   1.07609    0.036
 4163.00    1.20475   1.07511    0.036
 4164.00    0.95285   1.06366    0.036
 4165.00    0.71869   1.04993    0.036
 4166.00    0.51849   1.02389    0.036
 4167.00    0.63099   1.01202    0.036
 4168.00    1.26611   1.03415    0.036
 4169.00    1.58308   1.04882    0.036
 4170.00    1.43402   1.01262    0.036
 4171.00    1.19816   0.93683    0.035
 4172.00    0.85052   0.88484    0.035
 4173.00    0.76347   0.89586    0.035
 4174.00    0.97215   0.94095    0.036
 4175.00    1.07024   0.97253    0.036
 4176.00    1.05763   0.96804    0.036
 4177.00    1.06837   0.95095    0.036
 4178.00    1.09972   0.96615    0.036
 4179.00    1.04193   1.00617    0.036
 4180.00    0.91479   1.01702    0.035
 4181.00    0.85848   0.99360    0.034
 4182.00    0.85060   0.98356    0.035
 4183.00    0.87220   1.00136    0.035
 4184.00    0.91148   1.03171    0.035
 4185.00    0.79946   1.03213    0.035
 4186.00    0.60830   0.98429    0.034
 4187.00    0.68440   0.95987    0.034
 4188.00    0.88173   0.99544    0.034
 4189.00    1.00948   1.02899    0.033
 4190.00    1.11007   1.02364    0.033
 4191.00    1.02424   1.02931    0.032
 4192.00    0.87648   1.07226    0.032
 4193.00    1.04724   1.09135    0.032
 4194.00    1.30677   1.05040    0.033
 4195.00    1.33277   0.99755    0.033
 4196.00    1.30518   0.96772    0.033
 4197.00    1.17726   0.93766    0.033
 4198.00    1.03089   0.92354    0.034
 4199.00    1.10394   0.94749    0.033
 4200.00    1.20801   0.95901    0.032
 4201.00    1.07925   0.94519    0.032
 4202.00    0.92674   0.95418    0.031
 4203.00    0.80148   0.97838    0.032
 4204.00    0.67800   0.99246    0.032
 4205.00    0.72713   1.01336    0.032
 4206.00    0.78188   1.04253    0.032
 4207.00    1.03979   1.06395    0.033
 4208.00    1.29187   1.06170    0.033
 4209.00    1.37261   1.04417    0.033
 4210.00    1.43313   1.04722    0.033
 4211.00    1.19931   1.07156    0.032
 4212.00    0.99960   1.08077    0.031
 4213.00    1.12231   1.05197    0.032
 4214.00    1.22273   0.98822    0.032
 4215.00    1.16994   0.94998    0.032
 4216.00    1.12494   0.99093    0.032
 4217.00    1.12138   1.05640    0.032
 4218.00    1.18364   1.08650    0.032
 4219.00    1.52700   1.09610    0.032
 4220.00    1.71303   1.10401    0.032
 4221.00    1.34471   1.08560    0.032
 4222.00    1.07086   1.03760    0.032
 4223.00    1.07673   0.97645    0.032
 4224.00    1.05907   0.89390    0.032
 4225.00    0.98201   0.79299    0.032
 4226.00    0.91288   0.74808    0.032
 4227.00    0.86095   0.83154    0.032
 4228.00    0.83275   0.96687    0.031
 4229.00    0.84928   1.05084    0.032
 4230.00    0.94252   1.08207    0.032
 4231.00    1.16205   1.06384    0.032
 4232.00    1.36857   1.01168    0.032
 4233.00    1.55630   0.99084    0.032
 4234.00    1.49645   0.99415    0.031
 4235.00    1.12226   0.97726    0.031
 4236.00    0.94356   0.97461    0.030
 4237.00    0.98358   0.99162    0.030
 4238.00    1.00127   0.99684    0.030
 4239.00    0.99691   1.00801    0.030
 4240.00    1.04351   1.04262    0.031
 4241.00    1.13444   1.06322    0.031
 4242.00    1.18548   1.06550    0.031
 4243.00    1.20596   1.09056    0.030
 4244.00    1.30774   1.11136    0.031
 4245.00    1.46432   1.08038    0.033
 4246.00    1.34937   1.02420    0.033
 4247.00    1.07410   0.99588    0.033
 4248.00    0.74020   0.98916    0.032
 4249.00    0.37612   0.96594    0.032
 4250.00    0.32045   0.96320    0.032
 4251.00    0.40238   1.00915    0.032
 4252.00    0.69160   1.03355    0.032
 4253.00    1.06030   1.00163    0.032
 4254.00    1.28491   0.97736    0.032
 4255.00    1.46256   1.01312    0.032
 4256.00    1.59725   1.06657    0.032
 4257.00    1.72021   1.06128    0.032
 4258.00    1.56027   1.00336    0.032
 4259.00    1.33694   0.94331    0.032
 4260.00    1.35135   0.92843    0.032
 4261.00    1.40829   0.98486    0.032
 4262.00    1.46145   1.06369    0.032
 4263.00    1.51410   1.10740    0.032
 4264.00    1.24917   1.12361    0.031
 4265.00    0.95322   1.12909    0.031
 4266.00    1.02693   1.10524    0.031
 4267.00    1.12325   1.06456    0.031
 4268.00    1.19428   1.03433    0.030
 4269.00    1.26356   0.98993    0.030
 4270.00    1.12366   0.91071    0.030
 4271.00    0.98781   0.86318    0.030
 4272.00    0.95865   0.88910    0.030
 4273.00    0.92352   0.91601    0.029
 4274.00    0.80638   0.92668    0.029
 4275.00    0.71411   0.97573    0.030
 4276.00    0.84777   1.04740    0.030
 4277.00    0.97806   1.09079    0.031
 4278.00    1.08588   1.08294    0.030
 4279.00    1.16795   1.03812    0.030
 4280.00    1.11670   1.01091    0.030
 4281.00    1.11912   1.01183    0.030
 4282.00    1.34565   1.02201   -2.000
 4283.00    1.54505   1.03252   -2.000
 4284.00    1.65082   1.01763   -2.000
 4285.00    1.69704   0.99221   -2.000
 4286.00    1.57015   0.98604   -2.000
 4287.00    1.33352   0.97047   -2.000
 4288.00    0.82468   0.91057   -2.000
 4289.00    0.40652   0.85321   -2.000
 4290.00    0.18224   0.87188   -2.000
 4291.00    0.21781   0.95165   -2.000
 4292.00    0.73584   1.01084   -2.000
 4293.00    1.12025   1.00301   -2.000
 4294.00    1.28793   0.97906   -2.000
 4295.00    1.24800   0.97404   -2.000
 4296.00    0.91273   0.95822   -2.000
 4297.00    0.69350   0.91271   -2.000
 4298.00    0.61951   0.83394    0.029
 4299.00    0.68068   0.77553    0.029
 4300.00    0.89094   0.78336    0.029
 4301.00    0.98925   0.80521    0.029
 4302.00    0.97863   0.81626    0.029
 4303.00    0.94455   0.84318    0.029
 4304.00    0.89034   0.86207    0.030
 4305.00    0.86275   0.85348    0.030
 4306.00    0.85527   0.82102    0.030
 4307.00    0.75267   0.77517    0.030
 4308.00    0.58690   0.76515    0.030
 4309.00    0.61265   0.80755    0.030
 4310.00    0.74977   0.86476    0.030
 4311.00    0.92033   0.90460    0.030
 4312.00    1.10785   0.92280    0.029
 4313.00    1.20234   0.93118    0.029
 4314.00    1.25601   0.97274    0.029
 4315.00    1.23291   1.06992    0.029
 4316.00    1.18089   1.15027    0.029
 4317.00    1.15823   1.16518    0.029
 4318.00    1.14496   1.14663    0.029
 4319.00    1.11286   1.11944    0.029
 4320.00    1.07573   1.08874    0.030
 4321.00    1.30781   1.07124    0.030
 4322.00    1.59880   1.03201    0.030
 4323.00    1.53663   0.94557    0.030
 4324.00    1.41303   0.85041    0.030
 4325.00    1.19002   0.82112    0.030
 4326.00    0.95387   0.90171    0.029
 4327.00    1.00589   1.02383    0.030
 4328.00    1.08484   1.08758    0.030
 4329.00    0.94423   1.07301    0.030
 4330.00    0.79107   1.04411    0.000
 4331.00    0.98605   1.04748    0.000
 4332.00    1.18231   1.05679    0.000
 4333.00    0.59469   1.05817    0.000
 4334.00    0.03904   1.06059    0.000
 4335.00    0.25122   1.02585    0.000
 4336.00    0.49586   0.91894    0.000
 4337.00    1.16321   0.79969    0.000
 4338.00    1.67834   0.71409    0.000
 4339.00    0.86360   0.64262    0.000
 4340.00    0.26412   0.63935    0.000
 4341.00    1.05502   0.73917    0.000
 4342.00    1.65005   0.84106    0.000
 4343.00    1.25692   0.89050    0.000
 4344.00    0.96431   0.93988    0.000
 4345.00    1.08193   0.98860    0.000
 4346.00    1.21927   1.01080    0.000
 4347.00    1.42331   1.04005    0.000
 4348.00    1.52985   1.08441    0.000
 4349.00    1.35818   1.07539    0.000
 4350.00    1.26200   0.98059    0.000
 4351.00    1.34990   0.89866    0.030
 4352.00    1.38804   0.92334    0.030
 4353.00    1.32151   0.99626    0.030
 4354.00    1.25526   1.03936    0.030
 4355.00    1.18953   1.07408    0.030
 4356.00    1.16239   1.10680    0.029
 4357.00    1.19689   1.09529    0.030
 4358.00    1.24226   1.05412    0.030
 4359.00    1.30289   1.05362    0.030
 4360.00    1.25692   1.10249    0.030
 4361.00    1.07944   1.14027    0.029
 4362.00    1.11097   1.14531    0.029
 4363.00    1.36979   1.15833    0.029
 4364.00    1.50614   1.18436    0.029
 4365.00    1.52499   1.17430    0.029
 4366.00    1.37986   1.11741    0.029
 4367.00    1.09602   1.07081    0.028
 4368.00    1.03533   1.06984    0.028
 4369.00    1.14087   1.08267    0.029
 4370.00    1.27322   1.09332    0.029
 4371.00    1.42313   1.10492    0.028
 4372.00    1.33569   1.08616    0.028
 4373.00    1.11232   1.02185    0.028
 4374.00    1.11781   0.97056    0.028
 4375.00    1.23745   0.99603    0.028
 4376.00    1.21906   1.07634    0.028
 4377.00    1.14111   1.13656    0.028
 4378.00    1.06994   1.14232    0.028
 4379.00    1.00128   1.12260    0.028
 4380.00    1.03055   1.10434    0.028
 4381.00    1.09053   1.04311    0.028
 4382.00    1.14345   0.91035    0.028
 4383.00    1.19453   0.80736    0.028
 4384.00    1.02165   0.83535    0.028
 4385.00    0.80092   0.94862    0.027
 4386.00    0.80946   1.03000    0.027
 4387.00    0.85677   1.04777    0.028
 4388.00    0.96272   1.04314    0.027
 4389.00    1.07617   1.03300    0.027
 4390.00    1.00957   1.03391    0.027
 4391.00    0.92691   1.06534    0.026
 4392.00    0.95506   1.08960    0.026
 4393.00    0.98910   1.06410    0.026
 4394.00    0.92309   1.02877    0.026
 4395.00    0.85895   1.05779    0.026
 4396.00    1.10540   1.12900    0.026
 4397.00    1.33980   1.15495    0.027
 4398.00    1.30950   1.11641    0.027
 4399.00    1.26339   1.05148    0.027
 4400.00    1.02189   1.03039    0.026
 4401.00    0.82659   1.08096    0.026
 4402.00    1.01994   1.10244    0.026
 4403.00    1.20393   1.02693    0.027
 4404.00    1.32923   0.96081    0.027
 4405.00    1.35945   0.99346    0.027
 4406.00    0.92203   1.03857    0.027
 4407.00    0.52476   1.02944    0.028
 4408.00    0.28783   1.03554    0.029
 4409.00    0.17104   1.09381    0.031
 4410.00    0.45272   1.14992    0.032
 4411.00    0.63740   1.18010    0.033
 4412.00    0.55029   1.18349    0.033
 4413.00    0.37413   1.12344    0.032
 4414.00   -0.01545   1.03002    0.000
 4415.00   -0.12924   1.00088    0.000
 4416.00    0.32777   1.03484    0.031
 4417.00    0.77995   1.08351    0.030
 4418.00    1.22342   1.14425    0.028
 4419.00    1.38718   1.18548    0.027
 4420.00    1.11068   1.16831    0.026
 4421.00    0.99060   1.11415    0.026
 4422.00    1.08667   1.08641    0.026
 4423.00    1.14555   1.10545    0.026
 4424.00    1.15917   1.12339    0.027
 4425.00    1.18127   1.11691    0.027
 4426.00    1.21244   1.10838    0.027
 4427.00    1.22526   1.12162    0.027
 4428.00    1.22073   1.13222    0.027
 4429.00    1.19266   1.10557    0.027
 4430.00    1.14498   1.09313    0.027
 4431.00    1.09173   1.11967    0.027
 4432.00    1.03442   1.12002    0.027
 4433.00    1.02089   1.06847    0.027
 4434.00    1.03559   1.01375    0.027
 4435.00    1.19811   1.02194    0.027
 4436.00    1.44401   1.09637    0.028
 4437.00    1.22518   1.17384    0.028
 4438.00    0.77821   1.21379    0.028
 4439.00    0.83007   1.20214    0.027
 4440.00    1.09360   1.14370    0.027
 4441.00    1.24053   1.07094    0.027
 4442.00    1.34508   1.02620    0.028
 4443.00    1.30458   1.04502    0.028
 4444.00    1.21948   1.12071    0.027
 4445.00    1.11930   1.18002    0.027
 4446.00    1.01528   1.17953    0.027
 4447.00    1.16690   1.17270    0.027
 4448.00    1.37180   1.17581    0.027
 4449.00    1.25440   1.15512    0.027
 4450.00    1.08404   1.14090    0.027
 4451.00    1.11206   1.15380    0.027
 4452.00    1.16455   1.14507    0.027
 4453.00    1.12111   1.08546    0.027
 4454.00    1.06951   1.01761    0.026
 4455.00    1.23827   1.00913    0.026
 4456.00    1.41790   1.04334    0.026
 4457.00    1.17148   1.05807    0.026
 4458.00    0.92182   1.05003    0.026
 4459.00    0.89526   1.04555    0.026
 4460.00    0.86967   1.03006    0.026
 4461.00    0.86392   1.02055    0.000
 4462.00    0.86531   1.06635    0.000
 4463.00    0.95057   1.11928    0.000
 4464.00    1.02442   1.12873    0.000
 4465.00    1.00580   1.12236    0.000
 4466.00    0.98659   1.11814    0.000
 4467.00    0.96379   1.10197    0.000
 4468.00    0.95645   1.07370    0.000
 4469.00    1.02325   1.06927    0.000
 4470.00    1.05000   1.09709    0.000
 4471.00    0.92040   1.13852    0.000
 4472.00    0.88441   1.18263    0.000
 4473.00    1.15281   1.21285    0.000
 4474.00    1.38321   1.21163    0.000
 4475.00    1.50907   1.20761    0.000
 4476.00    1.54150   1.23104    0.000
 4477.00    1.35380   1.24765    0.000
 4478.00    1.21277   1.21225    0.000
 4479.00    1.16680   1.13372    0.000
 4480.00    1.19068   1.06191    0.000
 4481.00    1.33839   1.04540    0.000
 4482.00    1.41742   1.09871    0.027
 4483.00    1.38993   1.17391    0.027
 4484.00    1.30644   1.22353    0.027
 4485.00    1.14667   1.24428    0.027
 4486.00    1.10028   1.23367    0.027
 4487.00    1.18986   1.18344    0.027
 4488.00    1.21903   1.12042    0.026
 4489.00    1.18434   1.09606    0.026
 4490.00    1.22151   1.12674    0.026
 4491.00    1.32570   1.17607    0.027
 4492.00    1.36919   1.18889    0.027
 4493.00    1.36278   1.14881    0.027
 4494.00    1.24839   1.10991    0.026
 4495.00    1.05585   1.10917    0.026
 4496.00    0.99893   1.13913    0.026
 4497.00    1.02815   1.18510    0.026
 4498.00    0.96048   1.21798    0.026
 4499.00    0.83898   1.21097    0.026
 4500.00    1.00574   1.17308    0.026
 4501.00    1.31175   1.17174    0.026
 4502.00    1.32218   1.23266    0.026
 4503.00    1.20930   1.28801    0.026
 4504.00    1.07953   1.29719    0.026
 4505.00    0.94374   1.27700    0.026
 4506.00    1.07535   1.24803    0.026
 4507.00    1.28758   1.22779    0.026
 4508.00    1.47209   1.23261    0.026
 4509.00    1.64965   1.25600    0.025
 4510.00    1.47627   1.26668    0.025
 4511.00    1.23155   1.24615    0.025
 4512.00    1.31865   1.21463    0.025
 4513.00    1.45868   1.18967    0.026
 4514.00    1.36525   1.17962    0.026
 4515.00    1.24408   1.19037    0.025
 4516.00    1.24698   1.19251    0.025
 4517.00    1.25992   1.17738    0.025
 4518.00    1.24919   1.18322    0.025
 4519.00    1.23738   1.21086    0.025
 4520.00    1.24265   1.23110    0.025
 4521.00    1.24746   1.20900    0.025
 4522.00    1.21828   1.16861    0.025
 4523.00    1.20177   1.15974    0.025
 4524.00    1.42289   1.15222    0.026
 4525.00    1.59328   1.12091    0.026
 4526.00    1.19521   1.08301    0.025
 4527.00    0.87195   1.05189    0.025
 4528.00    1.13419   1.04111    0.025
 4529.00    1.33485   1.05839    0.025
 4530.00    1.17145   1.08853    0.025
 4531.00    1.03521   1.11928    0.025
 4532.00    1.02618   1.11069    0.025
 4533.00    1.03858   1.06196    0.025
 4534.00    1.13288   1.03398    0.025
 4535.00    1.16914   1.07573    0.025
 4536.00    1.02030   1.17393    0.025
 4537.00    0.93468   1.23898    0.025
 4538.00    1.01990   1.23165    0.025
 4539.00    1.10236   1.19035    0.025
 4540.00    1.17844   1.16059    0.025
 4541.00    1.26850   1.17261    0.025
 4542.00    1.38660   1.19977    0.025
 4543.00    1.38506   1.18863    0.025
 4544.00    1.17464   1.15649    0.025
 4545.00    1.04699   1.15557    0.025
 4546.00    1.04583   1.17088    0.025
 4547.00    1.04752   1.15631    0.025
 4548.00    1.05303   1.10654    0.025
 4549.00    1.03280   1.09126    0.025
 4550.00    0.98213   1.13618    0.000
 4551.00    1.02811   1.16239    0.000
 4552.00    1.17483   1.14435    0.000
 4553.00    1.26777   1.11183    0.000
 4554.00    1.31127   1.09383    0.000
 4555.00    1.27065   1.11941    0.000
 4556.00    1.16186   1.17959    0.000
 4557.00    1.13786   1.22224    0.000
 4558.00    1.17433   1.23300    0.000
 4559.00    1.20536   1.23596    0.000
 4560.00    1.23297   1.24336    0.000
 4561.00    1.21711   1.24308    0.000
 4562.00    1.17746   1.20596    0.000
 4563.00    1.20579   1.15229    0.000
 4564.00    1.26643   1.13093    0.000
 4565.00    1.34851   1.15785    0.000
 4566.00    1.43937   1.21391    0.000
 4567.00    1.47611   1.25175    0.000
 4568.00    1.49388   1.25676    0.000
 4569.00    1.41764   1.23454    0.000
 4570.00    1.31361   1.17706    0.000
 4571.00    1.24196   1.14601    0.000
 4572.00    1.17822   1.19289    0.000
 4573.00    1.23356   1.24120    0.000
 4574.00    1.31248   1.24089    0.000
 4575.00    1.33842   1.23148    0.000
 4576.00    1.35616   1.23084    0.000
 4577.00    1.30129   1.22111    0.000
 4578.00    1.23811   1.18507    0.000
 4579.00    1.25403   1.14080    0.000
 4580.00    1.27603   1.12333    0.000
 4581.00    1.30795   1.13664    0.000
 4582.00    1.34028   1.14622    0.000
 4583.00    1.24371   1.14323    0.000
 4584.00    1.14967   1.14522    0.000
 4585.00    1.21252   1.15136    0.000
 4586.00    1.26700   1.17371    0.000
 4587.00    1.17525   1.20833    0.000
 4588.00    1.08811   1.23024    0.000
 4589.00    1.05030   1.22556    0.000
 4590.00    1.03328   1.19586    0.000
 4591.00    1.17338   1.16381    0.000
 4592.00    1.26559   1.15766    0.000
 4593.00    1.08255   1.16816    0.000
 4594.00    0.94274   1.16903    0.000
 4595.00    1.00042   1.16936    0.000
 4596.00    1.07126   1.17764    0.000
 4597.00    1.19136   1.18786    0.000
 4598.00    1.27271   1.19560    0.000
 4599.00    1.23288   1.17936    0.000
 4600.00    1.18974   1.16137    0.000
 4601.00    1.13784   1.17120    0.000
 4602.00    1.13061   1.18604    0.000
 4603.00    1.22518   1.19119    0.000
 4604.00    1.28912   1.18508    0.000
 4605.00    1.29260   1.18629    0.000
 4606.00    1.31791   1.20940    0.000
 4607.00    1.38077   1.24920    0.000
 4608.00    1.37843   1.28252    0.000
 4609.00    1.27793   1.28185    0.000
 4610.00    1.23568   1.25513    0.000
 4611.00    1.27050   1.23268    0.000
 4612.00    1.35948   1.21946    0.000
 4613.00    1.51160   1.22471    0.000
 4614.00    1.53681   1.24137    0.000
 4615.00    1.43159   1.23806    0.000
 4616.00    1.37206   1.23623    0.000
 4617.00    1.35394   1.23560    0.000
 4618.00    1.35235   1.21431    0.000
 4619.00    1.36396   1.21218    0.000
 4620.00    1.33074   1.24308    0.000
 4621.00    1.26602   1.25965    0.000
 4622.00    1.24236   1.25822    0.000
 4623.00    1.24401   1.25688    0.000
 4624.00    1.29199   1.24395    0.000
 4625.00    1.36491   1.23052    0.000
 4626.00    1.37854   1.23718    0.000
 4627.00    1.36444   1.23743    0.000
 4628.00    1.29755   1.21422    0.000
 4629.00    1.20939   1.21162    0.000
 4630.00    1.25131   1.24585    0.000
 4631.00    1.33797   1.25700    0.000
 4632.00    1.32589   1.22522    0.000
 4633.00    1.28522   1.20014    0.000
 4634.00    1.27859   1.20169    0.000
 4635.00    1.28013   1.20649    0.000
 4636.00    1.16005   1.19435    0.000
 4637.00    1.01647   1.17709    0.000
 4638.00    0.97095   1.16976    0.000
 4639.00    0.94015   1.17204    0.000
 4640.00    1.06723   1.19778    0.000
 4641.00    1.21170   1.22709    0.000
 4642.00    1.30530   1.22715    0.000
 4643.00    1.39521   1.20956    0.000
 4644.00    1.15985   1.18337    0.000
 4645.00    0.91219   1.13670    0.000
 4646.00    1.13831   1.10162    0.000
 4647.00    1.36110   1.10745    0.000
 4648.00    1.37155   1.14232    0.000
 4649.00    1.38421   1.18291    0.000
 4650.00    1.43302   1.20585    0.000
 4651.00    1.46261   1.21612    0.000
 4652.00    1.29546   1.22149    0.000
 4653.00    1.15004   1.19767    0.000
 4654.00    1.16351   1.16034    0.000
 4655.00    1.16996   1.14599    0.000
 4656.00    1.13724   1.16408    0.000
 4657.00    1.12839   1.21848    0.000
 4658.00    1.22600   1.27669    0.000
 4659.00    1.32237   1.29944    0.000
 4660.00    1.41414   1.27969    0.000
 4661.00    1.45117   1.23820    0.000
 4662.00    1.32025   1.20208    0.000
 4663.00    1.21336   1.19182    0.000
 4664.00    1.16917   1.18984    0.000
 4665.00    1.16160   1.14477    0.000
 4666.00    1.23613   1.06773    0.000
 4667.00    1.27127   1.03877    0.000
 4668.00    1.22995   1.07868    0.000
 4669.00    1.21769   1.13950    0.000
 4670.00    1.25466   1.18942    0.000
 4671.00    1.22697   1.20901    0.000
 4672.00    1.10332   1.20013    0.000
 4673.00    1.13658   1.19316    0.000
 4674.00    1.37452   1.20684    0.000
 4675.00    1.43715   1.23623    0.000
 4676.00    1.29837   1.24734    0.000
 4677.00    1.22943   1.22006    0.000
 4678.00    1.23128   1.18365    0.000
 4679.00    1.30302   1.16304    0.000
 4680.00    1.43723   1.15367    0.000
 4681.00    1.43161   1.15876    0.000
 4682.00    1.31586   1.18608    0.000
 4683.00    1.26969   1.21217    0.000
 4684.00    1.27171   1.21649    0.000
 4685.00    1.31800   1.21268    0.000
 4686.00    1.39117   1.20594    0.000
 4687.00    1.41197   1.20043    0.000
 4688.00    1.40501   1.20342    0.000
 4689.00    1.38515   1.20108    0.000
 4690.00    1.35934   1.18732    0.000
 4691.00    1.37744   1.18708    0.000
 4692.00    1.41294   1.20307    0.000
 4693.00    1.39400   1.22024    0.000
 4694.00    1.35667   1.23978    0.000
 4695.00    1.22652   1.25553    0.000
 4696.00    1.07003   1.24168    0.000
 4697.00    1.06332   1.19315    0.000
 4698.00    1.09167   1.15687    0.000
 4699.00    1.06799   1.16199    0.000
 4700.00    1.03452   1.17017    0.000
 4701.00    1.19597   1.15057    0.000
 4702.00    1.38578   1.12616    0.000
 4703.00    1.38236   1.14174    0.000
 4704.00    1.35852   1.18137    0.000
 4705.00    1.23685   1.19120    0.000
 4706.00    1.10846   1.16330    0.000
 4707.00    1.09200   1.13445    0.000
 4708.00    1.07934   1.12816    0.000
 4709.00    1.16520   1.15297    0.000
 4710.00    1.25054   1.20109    0.000
 4711.00    1.31414   1.22752    0.000
 4712.00    1.36743   1.21220    0.000
 4713.00    1.26265   1.17556    0.000
 4714.00    1.17271   1.16266    0.000
 4715.00    1.22831   1.19726    0.000
 4716.00    1.27840   1.23702    0.000
 4717.00    1.28949   1.25192    0.000
 4718.00    1.30597   1.26120    0.000
 4719.00    1.35179   1.27237    0.000
 4720.00    1.36550   1.26975    0.000
 4721.00    1.23924   1.25234    0.000
 4722.00    1.19474   1.24552    0.000
 4723.00    1.44354   1.26416    0.000
 4724.00    1.60596   1.28342    0.000
 4725.00    1.50832   1.26875    0.000
 4726.00    1.42259   1.20999    0.000
 4727.00    1.36738   1.15326    0.000
 4728.00    1.28062   1.13937    0.000
 4729.00    1.12430   1.14832    0.000
 4730.00    1.07057   1.15759    0.000
 4731.00    1.21299   1.17737    0.000
 4732.00    1.31609   1.20004    0.000
 4733.00    1.35361   1.21547    0.000
 4734.00    1.33564   1.22474    0.000
 4735.00    1.23653   1.20593    0.000
 4736.00    1.26250   1.18421    0.000
 4737.00    1.44927   1.20971    0.000
 4738.00    1.46627   1.24104    0.000
 4739.00    1.29095   1.23369    0.000
 4740.00    1.23186   1.21519    0.000
 4741.00    1.28889   1.21852    0.000
 4742.00    1.29216   1.23914    0.000
 4743.00    1.24806   1.24574    0.000
 4744.00    1.28966   1.23660    0.000
 4745.00    1.39779   1.24320    0.000
 4746.00    1.40295   1.25873    0.000
 4747.00    1.33781   1.25785    0.000
 4748.00    1.30908   1.25381    0.000
 4749.00    1.30213   1.25942    0.000
 4750.00    1.28074   1.25862    0.000
 4751.00    1.25181   1.24040    0.000
 4752.00    1.32368   1.21932    0.000
 4753.00    1.44118   1.20441    0.000
 4754.00    1.35573   1.19864    0.000
 4755.00    1.19125   1.19785    0.000
 4756.00    1.19037   1.20142    0.000
 4757.00    1.24369   1.21262    0.000
 4758.00    1.22571   1.22876    0.000
 4759.00    1.18792   1.23973    0.000
 4760.00    1.21539   1.22006    0.000
 4761.00    1.25779   1.17242    0.022
 4762.00    1.20597   1.14198    0.022
 4763.00    1.13689   1.13619    0.022
 4764.00    1.22596   1.12915    0.022
 4765.00    1.33730   1.12569    0.022
 4766.00    1.26069   1.14512    0.022
 4767.00    1.16503   1.17811    0.022
 4768.00    1.18563   1.21215    0.022
 4769.00    1.21375   1.23065    0.022
 4770.00    1.19393   1.21331    0.022
 4771.00    1.17290   1.18795    0.022
 4772.00    1.27352   1.19664    0.022
 4773.00    1.36931   1.23331    0.022
 4774.00    1.32492   1.25405    0.022
 4775.00    1.28468   1.24848    0.022
 4776.00    1.30422   1.25061    0.022
 4777.00    1.33153   1.25496    0.022
 4778.00    1.43198   1.23945    0.021
 4779.00    1.49811   1.22363    0.021
 4780.00    1.32935   1.22556    0.021
 4781.00    1.19436   1.21845    0.021
 4782.00    1.23822   1.19239    0.021
 4783.00    1.28117   1.18876    0.021
 4784.00    1.32020   1.20332    0.020
 4785.00    1.36977   1.18788    0.020
 4786.00    1.45637   1.17476    0.021
 4787.00    1.47860   1.18559    0.021
 4788.00    1.31069   1.18463    0.021
 4789.00    1.16214   1.18468    0.020
 4790.00    1.06237   1.20086    0.020
 4791.00    1.05122   1.21670    0.021
 4792.00    1.23221   1.24177    0.021
 4793.00    1.35257   1.27731    0.021
 4794.00    1.35880   1.29725    0.021
 4795.00    1.35797   1.28820    0.021
 4796.00    1.34554   1.26207    0.021
 4797.00    1.31359   1.22836    0.021
 4798.00    1.25353   1.19935    0.021
 4799.00    1.21001   1.19471    0.021
 4800.00    1.18748   1.21981    0.021
 4801.00    1.21356   1.25580    0.021
 4802.00    1.29395   1.27033    0.021
 4803.00    1.30771   1.24963    0.021
 4804.00    1.25582   1.21543    0.021
 4805.00    1.25766   1.20491    0.021
 4806.00    1.30619   1.20497    0.021
 4807.00    1.29608   1.20008    0.021
 4808.00    1.24109   1.20781    0.020
 4809.00    1.23644   1.22275    0.020
 4810.00    1.26564   1.22827    0.021
 4811.00    1.27811   1.22784    0.021
 4812.00    1.28071   1.22964    0.021
 4813.00    1.31792   1.23596    0.020
 4814.00    1.37291   1.24420    0.020
 4815.00    1.43353   1.25467    0.021
 4816.00    1.49666   1.26558    0.021
 4817.00    1.48632   1.27268    0.021
 4818.00    1.44789   1.27860    0.020
 4819.00    1.35931   1.27738    0.021
 4820.00    1.25443   1.26867    0.021
 4821.00    1.21286   1.24289    0.021
 4822.00    1.18853   1.18732    0.021
 4823.00    1.26123   1.15408    0.020
 4824.00    1.35561   1.18433    0.020
 4825.00    1.38779   1.22764    0.020
 4826.00    1.40889   1.23848    0.020
 4827.00    1.35511   1.22302    0.020
 4828.00    1.29114   1.20975    0.020
 4829.00    1.31032   1.21311    0.020
 4830.00    1.33759   1.20536    0.020
 4831.00    1.32749   1.18395    0.020
 4832.00    1.31511   1.18873    0.020
 4833.00    1.27721   1.21545    0.020
 4834.00    1.23879   1.22771    0.020
 4835.00    1.23071   1.22213    0.020
 4836.00    1.22366   1.22171    0.020
 4837.00    1.24385   1.21495    0.020
 4838.00    1.26904   1.18704    0.020
 4839.00    1.36265   1.16466    0.020
 4840.00    1.44340   1.17277    0.020
 4841.00    1.40801   1.18504    0.020
 4842.00    1.36826   1.17626    0.020
 4843.00    1.29964   1.17871    0.020
 4844.00    1.25874   1.20718    0.020
 4845.00    1.36084   1.22418    0.020
 4846.00    1.43546   1.20551    0.020
 4847.00    1.39563   1.16314    0.020
 4848.00    1.34734   1.14372    0.000
 4849.00    1.26988   1.16608    0.000
 4850.00    1.22019   1.18328    0.000
 4851.00    1.25105   1.17608    0.000
 4852.00    1.25549   1.16289    0.000
 4853.00    1.19451   1.12341    0.000
 4854.00    1.14738   1.05722    0.000
 4855.00    1.12980   1.03014    0.000
 4856.00    1.10994   1.05394    0.000
 4857.00    1.08583   1.05310    0.000
 4858.00    1.06682   0.98402    0.000
 4859.00    1.05609   0.85867    0.000
 4860.00    1.05588   0.74475    0.000
 4861.00    1.07062   0.75362    0.000
 4862.00    1.08808   0.86744    0.000
 4863.00    1.10894   0.95944    0.000
 4864.00    1.11419   1.01181    0.000
 4865.00    1.10225   1.05780    0.000
 4866.00    1.08310   1.09055    0.000
 4867.00    1.05693   1.10803    0.000
 4868.00    1.06116   1.12109    0.000
 4869.00    1.09142   1.10019    0.000
 4870.00    1.12148   1.03834    0.000
 4871.00    1.15138   1.01491    0.000
 4872.00    1.13760   1.06390    0.000
 4873.00    1.09487   1.11607    0.000
 4874.00    1.13243   1.13174    0.000
 4875.00    1.21661   1.13826   -1.000
 4876.00    1.23457   1.15071   -1.000
 4877.00    1.21904   1.16451   -1.000
 4878.00    1.22768   1.19944   -1.000
 4879.00    1.24690   1.22311   -1.000
 4880.00    1.20542   1.19508   -1.000
 4881.00    1.14111   1.16696   -1.000
 4882.00    1.14233   1.17335   -1.000
 4883.00    1.16444   1.17190   -1.000
 4884.00    1.13627   1.14412    0.049
 4885.00    1.09471   1.12279    0.022
 4886.00    1.08994   1.13105    0.020
 4887.00    1.09320   1.14911    0.020
 4888.00    1.17905   1.14757    0.020
 4889.00    1.27921   1.11079    0.020
 4890.00    1.19564   1.06650    0.020
 4891.00    1.08787   1.09599    0.020
 4892.00    1.20563   1.18293    0.020
 4893.00    1.34435   1.25109    0.021
 4894.00    1.36757   1.28835    0.020
 4895.00    1.38425   1.29940    0.020
 4896.00    1.27118   1.29550    0.021
 4897.00    1.15650   1.28485    0.021
 4898.00    1.18895   1.25202    0.021
 4899.00    1.22340   1.21712    0.020
 4900.00    1.30536   1.22068    0.021
 4901.00    1.37844   1.22978    0.021
 4902.00    1.33661   1.20970    0.021
 4903.00    1.30230   1.20120    0.020
 4904.00    1.33341   1.23518    0.021
 4905.00    1.37214   1.27586    0.021
 4906.00    1.45991   1.27790    0.021
 4907.00    1.49994   1.24648    0.021
 4908.00    1.29990   1.20070    0.021
 4909.00    1.15373   1.15659    0.021
 4910.00    1.22679   1.15008    0.021
 4911.00    1.29519   1.18515    0.021
 4912.00    1.34785   1.21896    0.021
 4913.00    1.36950   1.23943    0.021
 4914.00    1.30293   1.26365    0.021
 4915.00    1.26553   1.27513    0.020
 4916.00    1.29911   1.24323    0.020
 4917.00    1.28088   1.16578    0.020
 4918.00    1.15389   1.07916    0.020
 4919.00    1.07768   1.02926    0.020
 4920.00    1.09411   1.04437    0.020
 4921.00    1.10082   1.10848    0.020
 4922.00    1.09201   1.14836    0.020
 4923.00    1.06886   1.14110    0.020
 4924.00    1.02563   1.14876    0.020
 4925.00    0.99447   1.19908    0.020
 4926.00    0.97815   1.24085    0.020
 4927.00    1.03585   1.25988    0.020
 4928.00    1.17389   1.27943    0.020
 4929.00    1.26785   1.28773    0.020
 4930.00    1.31959   1.28270    0.020
 4931.00    1.31977   1.25862    0.020
 4932.00    1.27642   1.19602    0.020
 4933.00    1.22067   1.15360    0.020
 4934.00    1.15569   1.18390    0.020
 4935.00    1.15679   1.21785    0.020
 4936.00    1.20105   1.19148    0.020
 4937.00    1.24736   1.13090    0.020
 4938.00    1.29484   1.10234    0.020
 4939.00    1.22071   1.14743    0.020
 4940.00    1.08604   1.22023    0.000
 4941.00    1.11343   1.25451    0.000
 4942.00    1.21060   1.26858    0.000
 4943.00    1.24711   1.28003    0.000
 4944.00    1.26123   1.26462    0.000
 4945.00    1.27230   1.24202    0.000
 4946.00    1.28242   1.25064    0.000
 4947.00    1.27259   1.27438    0.000
 4948.00    1.25755   1.28348    0.000
 4949.00    1.26390   1.28592    0.000
 4950.00    1.27481   1.29263    0.000
 4951.00    1.18104   1.28505    0.000
 4952.00    1.06964   1.26437    0.000
 4953.00    1.17119   1.25342    0.000
 4954.00    1.29982   1.24445    0.000
 4955.00    1.33748   1.19256    0.000
 4956.00    1.36707   1.08837    0.000
 4957.00    1.25753   1.05259    0.000
 4958.00    1.14065   1.14134    0.000
 4959.00    1.15124   1.23414    0.000
 4960.00    1.16514   1.25833    0.000
 4961.00    1.24713   1.24999    0.000
 4962.00    1.32440   1.25107    0.000
 4963.00    1.29903   1.24410    0.000
 4964.00    1.27436   1.20795    0.000
 4965.00    1.25823   1.17756    0.000
 4966.00    1.23493   1.17561    0.000
 4967.00    1.15164   1.18032    0.000
 4968.00    1.08689   1.18627    0.000
 4969.00    1.13789   1.19461    0.000
 4970.00    1.19558   1.20969    0.000
 4971.00    1.28606   1.23182    0.000
 4972.00    1.34946   1.24641    0.000
 4973.00    1.30504   1.25858    0.000
 4974.00    1.26141   1.26226    0.000
 4975.00    1.22034   1.25315    0.000
 4976.00    1.21371   1.23712    0.000
 4977.00    1.30334   1.20835    0.000
 4978.00    1.32924   1.18496    0.000
 4979.00    1.20271   1.17693    0.000
 4980.00    1.12774   1.14692    0.000
 4981.00    1.15928   1.08374    0.000
 4982.00    1.15038   1.04290    0.000
 4983.00    1.06882   1.05856    0.000
 4984.00    1.03600   1.09879    0.000
 4985.00    1.07980   1.14506    0.000
 4986.00    1.13265   1.19708    0.000
 4987.00    1.19801   1.22274    0.000
 4988.00    1.21562   1.21177    0.000
 4989.00    1.17524   1.18760    0.000
 4990.00    1.12623   1.17176    0.000
 4991.00    1.06796   1.18393    0.000
 4992.00    1.04389   1.19278    0.000
 4993.00    1.05212   1.18498    0.000
 4994.00    1.10082   1.20055    0.000
 4995.00    1.18321   1.22011    0.000
 4996.00    1.20794   1.22152    0.000
 4997.00    1.19042   1.20864    0.000
 4998.00    1.23927   1.17138    0.000
 4999.00    1.33083   1.13238    0.000
 5000.00    1.36384   1.11950    0.000
 5001.00    1.36389   1.12687    0.000
 5002.00    1.25895   1.14414    0.000
 5003.00    1.10258   1.14727    0.000
 5004.00    1.05428   1.11077    0.000
 5005.00    1.05175   1.06694    0.000
 5006.00    1.05047   1.08055    0.000
 5007.00    1.04965   1.14512    0.000
 5008.00    1.06045   1.19025    0.000
 5009.00    1.07480   1.19009    0.000
 5010.00    1.10411   1.16219    0.000
 5011.00    1.13723   1.11332    0.000
 5012.00    1.10646   1.06721    0.000
 5013.00    1.06242   1.04745    0.000
 5014.00    1.09083   1.06920    0.000
 5015.00    1.13109   1.10708    0.000
 5016.00    1.05527   1.10697    0.000
 5017.00    0.96519   1.08344    0.000
 5018.00    1.07048   1.09405    0.000
 5019.00    1.19229   1.13086    0.000
 5020.00    1.18436   1.14250    0.000
 5021.00    1.17010   1.12399    0.000
 5022.00    1.05424   1.12746    0.000
 5023.00    0.93960   1.16050    0.000
 5024.00    0.99423   1.18153    0.000
 5025.00    1.04681   1.17659    0.000
 5026.00    1.05829   1.14657    0.000
 5027.00    1.07478   1.13405    0.000
 5028.00    1.14973   1.16471    0.000
 5029.00    1.22068   1.19051    0.019
 5030.00    1.25933   1.20085    0.019
 5031.00    1.29251   1.22400    0.019
 5032.00    1.29256   1.25026    0.020
 5033.00    1.28312   1.24287    0.020
 5034.00    1.22824   1.18489    0.019
 5035.00    1.18644   1.13082    0.019
 5036.00    1.19552   1.13700    0.019
 5037.00    1.20303   1.14982    0.019
 5038.00    1.20545   1.11511    0.019
 5039.00    1.21012   1.04760    0.019
 5040.00    1.22099   0.99397    0.019
 5041.00    1.19300   1.02773    0.019
 5042.00    1.07359   1.12394    0.019
 5043.00    1.03290   1.19371    0.019
 5044.00    1.15221   1.23411    0.019
 5045.00    1.18985   1.26018    0.019
 5046.00    1.08298   1.24638    0.019
 5047.00    1.06601   1.19008    0.019
 5048.00    1.18823   1.13786    0.019
 5049.00    1.23597   1.12326    0.019
 5050.00    1.18243   1.12645    0.019
 5051.00    1.14278   1.13566    0.019
 5052.00    1.11975   1.16666    0.019
 5053.00    1.09348   1.20401    0.019
 5054.00    1.06381   1.22375    0.019
 5055.00    1.11482   1.22540    0.019
 5056.00    1.24094   1.22605    0.019
 5057.00    1.30427   1.23480    0.019
 5058.00    1.31608   1.23854    0.019
 5059.00    1.26086   1.24226    0.019
 5060.00    1.15724   1.25588    0.018
 5061.00    1.14889   1.26352    0.018
 5062.00    1.20092   1.24012    0.018
 5063.00    1.20003   1.17590    0.018
 5064.00    1.16978   1.12483    0.018
 5065.00    1.13842   1.13846    0.018
 5066.00    1.10652   1.16301    0.018
 5067.00    1.15171   1.15672    0.018
 5068.00    1.22899   1.15932    0.018
 5069.00    1.16427   1.18708    0.018
 5070.00    1.04900   1.18797    0.018
 5071.00    1.04984   1.15578    0.018
 5072.00    1.08560   1.15361    0.018
 5073.00    1.08767   1.17636    0.018
 5074.00    1.08132   1.17618    0.018
 5075.00    1.07275   1.17037    0.018
 5076.00    1.06373   1.18284    0.018
 5077.00    1.10210   1.16902    0.018
 5078.00    1.14799   1.09691    0.018
 5079.00    1.10004   1.04448    0.018
 5080.00    1.04098   1.06631    0.018
 5081.00    1.05173   1.10656    0.018
 5082.00    1.06808   1.11721    0.018
 5083.00    1.09721   1.12995    0.018
 5084.00    1.12692   1.16420    0.018
 5085.00    1.07504   1.18765    0.018
 5086.00    1.02437   1.18491    0.018
 5087.00    1.08222   1.18214    0.018
 5088.00    1.14269   1.19221    0.018
 5089.00    1.25167   1.19754    0.018
 5090.00    1.34478   1.19868    0.018
 5091.00    1.26125   1.21362    0.018
 5092.00    1.18788   1.23620    0.018
 5093.00    1.19370   1.23999    0.018
 5094.00    1.19888   1.21842    0.019
 5095.00    1.20024   1.18594    0.018
 5096.00    1.18459   1.15104    0.018
 5097.00    1.08951   1.10880    0.018
 5098.00    1.02419   1.07747    0.018
 5099.00    1.07235   1.09972    0.018
 5100.00    1.12348   1.15612    0.018
 5101.00    1.18408   1.19075    0.018
 5102.00    1.19283   1.19034    0.018
 5103.00    1.06182   1.17664    0.018
 5104.00    1.00193   1.16694    0.018
 5105.00    1.10646   1.15497    0.018
 5106.00    1.16604   1.12869    0.019
 5107.00    1.13570   1.11609    0.019
 5108.00    1.12871   1.12191    0.019
 5109.00    1.16243   1.11929    0.019
 5110.00    1.16282   1.13586    0.019
 5111.00    1.11239   1.17025    0.019
 5112.00    1.12223   1.18680    0.019
 5113.00    1.21282   1.19445    0.019
 5114.00    1.21426   1.20034    0.019
 5115.00    1.11049   1.20758    0.019
 5116.00    1.05748   1.22617    0.019
 5117.00    1.05727   1.23784    0.019
 5118.00    1.05880   1.22800    0.019
 5119.00    1.06192   1.20465    0.019
 5120.00    1.13789   1.18022    0.019
 5121.00    1.27280   1.15485    0.019
 5122.00    1.24062   1.11617    0.019
 5123.00    1.08950   1.08621    0.018
 5124.00    1.01446   1.09188    0.018
 5125.00    0.98694   1.11046    0.018
 5126.00    1.02878   1.11610    0.018
 5127.00    1.10847   1.11111    0.018
 5128.00    1.10166   1.10403    0.019
 5129.00    1.05382   1.11031    0.019
 5130.00    1.03586   1.13525    0.018
 5131.00    1.03013   1.15407    0.018
 5132.00    1.05073   1.15671    0.018
 5133.00    1.08053   1.16563    0.018
 5134.00    1.10859   1.19141    0.018
 5135.00    1.13614   1.18892    0.018
 5136.00    1.04116   1.15278    0.018
 5137.00    0.91625   1.11973    0.018
 5138.00    1.01530   1.09504    0.018
 5139.00    1.15859   1.11235    0.018
 5140.00    1.12286   1.14195    0.018
 5141.00    1.05952   1.11458    0.018
 5142.00    1.04827   1.09457    0.018
 5143.00    1.04296   1.12772    0.018
 5144.00    1.10834   1.14290    0.018
 5145.00    1.17911   1.12134    0.018
 5146.00    1.14499   1.10399    0.018
 5147.00    1.10655   1.11072    0.018
 5148.00    1.05748   1.13545    0.018
 5149.00    1.00948   1.13976    0.018
 5150.00    1.01002   1.11672    0.018
 5151.00    1.01222   1.09983    0.018
 5152.00    1.04312   1.09328    0.018
 5153.00    1.06887   1.09306    0.018
 5154.00    1.03975   1.11636    0.018
 5155.00    1.01368   1.15622    0.018
 5156.00    1.01060   1.19253    0.018
 5157.00    1.02075   1.20963    0.018
 5158.00    1.10665   1.20654    0.018
 5159.00    1.16468   1.20693    0.018
 5160.00    1.09573   1.20226    0.018
 5161.00    1.05362   1.17523    0.018
 5162.00    1.11166   1.15911    0.018
 5163.00    1.14386   1.14979    0.018
 5164.00    1.09540   1.09588    0.018
 5165.00    1.03343   0.99175    0.018
 5166.00    0.93566   0.88491    0.018
 5167.00    0.84935   0.85070    0.018
 5168.00    0.78907   0.91368    0.018
 5169.00    0.76811   0.99715    0.018
 5170.00    0.82457   0.98208    0.018
 5171.00    0.85158   0.87707    0.018
 5172.00    0.82803   0.84413    0.018
 5173.00    0.78816   0.95182    0.018
 5174.00    0.72375   1.07957    0.018
 5175.00    0.72209   1.13310    0.018
 5176.00    0.80329   1.14687    0.018
 5177.00    0.85512   1.15748    0.018
 5178.00    0.87276   1.15559    0.018
 5179.00    0.89533   1.13784    0.018
 5180.00    0.92298   1.10040    0.018
 5181.00    0.96061   1.01112    0.018
 5182.00    1.00728   0.87897    0.018
 5183.00    0.97295   0.83333    0.018
 5184.00    0.87402   0.93917    0.018
 5185.00    0.87523   1.07305    0.018
 5186.00    0.94670   1.13635    0.018
 5187.00    0.92600   1.13687    0.018
 5188.00    0.84859   1.14265    0.018
 5189.00    0.85720   1.16530    0.018
 5190.00    0.91205   1.12660    0.000
 5191.00    0.92507   1.05279    0.000
 5192.00    0.91857   1.04933    0.000
 5193.00    1.01020   1.09115    0.000
 5194.00    1.14131   1.10073    0.000
 5195.00    1.08603   1.10474    0.000
 5196.00    0.96678   1.12856    0.000
 5197.00    1.04978   1.15123    0.000
 5198.00    1.19120   1.17404    0.000
 5199.00    1.20287   1.18950    0.000
 5200.00    1.18355   1.18504    0.000
 5201.00    1.21947   1.16900    0.000
 5202.00    1.26603   1.15109    0.000
 5203.00    1.23915   1.10828    0.000
 5204.00    1.20130   1.04558    0.000
 5205.00    1.08431   1.02252    0.000
 5206.00    0.95865   1.03487    0.000
 5207.00    0.89654   1.02384    0.000
 5208.00    0.83901   1.02169    0.000
 5209.00    0.90304   1.06122    0.000
 5210.00    0.97160   1.11478    0.000
 5211.00    0.98630   1.17143    0.018
 5212.00    1.00102   1.21073    0.018
 5213.00    1.02552   1.20805    0.018
 5214.00    1.05276   1.16386    0.018
 5215.00    1.12427   1.12485    0.018
 5216.00    1.18734   1.12973    0.018
 5217.00    1.16457   1.16841    0.018
 5218.00    1.13766   1.20693    0.018
 5219.00    1.08065   1.22640    0.018
 5220.00    1.04053   1.23600    0.018
 5221.00    1.09447   1.23351    0.018
 5222.00    1.13018   1.20700    0.018
 5223.00    1.08474   1.15876    0.018
 5224.00    1.05419   1.09429    0.018
 5225.00    1.07800   1.02138    0.018
 5226.00    1.07294   0.98990    0.018
 5227.00    0.97952   1.05626    0.018
 5228.00    0.91777   1.14924    0.018
 5229.00    0.93845   1.19340    0.018
 5230.00    0.94560   1.20766    0.018
 5231.00    0.92249   1.18183    0.018
 5232.00    0.95025   1.12984    0.018
 5233.00    1.07658   1.11333    0.018
 5234.00    1.16420   1.13596    0.018
 5235.00    1.18639   1.17955    0.018
 5236.00    1.18575   1.21883    0.018
 5237.00    1.15129   1.23270    0.018
 5238.00    1.14174   1.22879    0.018
 5239.00    1.16462   1.22362    0.018
 5240.00    1.15514   1.22746    0.018
 5241.00    1.10855   1.22405    0.018
 5242.00    1.13167   1.21775    0.018
 5243.00    1.22530   1.23514    0.018
 5244.00    1.27362   1.24970    0.018
 5245.00    1.28149   1.21216    0.018
 5246.00    1.22585   1.15393    0.018
 5247.00    1.12027   1.14594    0.018
 5248.00    1.05729   1.15854    0.018
 5249.00    1.02376   1.13904    0.018
 5250.00    0.99819   1.13180    0.018
 5251.00    0.97746   1.16150    0.018
 5252.00    1.03132   1.18439    0.018
 5253.00    1.12465   1.17298    0.018
 5254.00    1.09658   1.15129    0.018
 5255.00    1.01274   1.17502    0.018
 5256.00    0.98206   1.23054    0.018
 5257.00    0.97240   1.26553    0.018
 5258.00    1.11338   1.26752    0.018
 5259.00    1.30510   1.24144    0.018
 5260.00    1.21493   1.18997    0.018
 5261.00    1.04496   1.12306    0.018
 5262.00    1.03997   1.06570    0.018
 5263.00    1.07349   1.02596    0.018
 5264.00    1.05380   0.99824    0.018
 5265.00    1.02414   0.99898    0.018
 5266.00    0.96323   1.05166    0.018
 5267.00    0.89779   1.07450    0.018
 5268.00    0.86754   0.99603    0.018
 5269.00    0.84098   0.94016    0.019
 5270.00    0.92164   1.01405    0.019
 5271.00    1.00961   1.11327    0.018
 5272.00    1.04977   1.14283    0.019
 5273.00    1.08833   1.13497    0.019
 5274.00    1.08398   1.11608    0.019
 5275.00    1.07974   1.12434    0.018
 5276.00    1.08059   1.18952    0.018
 5277.00    1.08153   1.24699    0.018
 5278.00    1.08377   1.25042    0.018
 5279.00    1.09234   1.21895    0.018
 5280.00    1.16266   1.18276    0.018
 5281.00    1.23017   1.15457    0.018
 5282.00    1.27798   1.12937    0.018
 5283.00    1.30182   1.12836    0.018
 5284.00    1.19568   1.18530    0.018
 5285.00    1.12141   1.25647    0.017
 5286.00    1.18562   1.28137    0.018
 5287.00    1.23059   1.26906    0.018
 5288.00    1.20674   1.26211    0.018
 5289.00    1.19542   1.27388    0.018
 5290.00    1.22175   1.28197    0.018
 5291.00    1.24493   1.27083    0.018
 5292.00    1.26008   1.25376    0.018
 5293.00    1.25391   1.25000    0.018
 5294.00    1.20083   1.24182    0.018
 5295.00    1.15736   1.19655    0.018
 5296.00    1.13221   1.12506    0.018
 5297.00    1.11916   1.08955    0.018
 5298.00    1.12625   1.12812    0.018
 5299.00    1.15117   1.17995    0.018
 5300.00    1.20211   1.18589    0.018
 5301.00    1.21382   1.18138    0.018
 5302.00    1.17519   1.20857    0.018
 5303.00    1.17109   1.25383    0.018
 5304.00    1.20603   1.27768    0.018
 5305.00    1.23696   1.26669    0.018
 5306.00    1.26391   1.24167    0.018
 5307.00    1.27224   1.23868    0.018
 5308.00    1.26421   1.26087    0.018
 5309.00    1.25748   1.27791    0.018
 5310.00    1.25176   1.27592    0.018
 5311.00    1.23376   1.26516    0.018
 5312.00    1.20740   1.25228    0.018
 5313.00    1.19822   1.24541    0.018
 5314.00    1.19930   1.23624    0.018
 5315.00    1.22342   1.20937    0.018
 5316.00    1.25955   1.19590    0.018
 5317.00    1.25842   1.21535    0.018
 5318.00    1.24047   1.23253    0.017
 5319.00    1.21911   1.23367    0.017
 5320.00    1.19642   1.23153    0.018
 5321.00    1.17772   1.22335    0.018
 5322.00    1.16035   1.19443    0.017
 5323.00    1.14829   1.15555    0.018
 5324.00    1.13772   1.15401    0.018
 5325.00    1.15509   1.16367    0.018
 5326.00    1.17885   1.10089    0.017
 5327.00    1.11545   0.99727    0.017
 5328.00    1.03614   0.99671    0.017
 5329.00    1.03880   1.10207    0.017
 5330.00    1.05296   1.18804    0.017
 5331.00    1.13733   1.20392    0.017
 5332.00    1.22880   1.19678    0.018
 5333.00    1.19636   1.21562    0.017
 5334.00    1.15597   1.23972    0.017
 5335.00    1.12233   1.23546    0.017
 5336.00    1.08878   1.21983    0.017
 5337.00    1.01425   1.21500    0.017
 5338.00    0.94704   1.19067    0.017
 5339.00    1.08930   1.13736    0.017
 5340.00    1.22506   1.12219    0.017
 5341.00    1.26771   1.17017    0.017
 5342.00    1.30446   1.21667    0.017
 5343.00    1.28591   1.22838    0.017
 5344.00    1.26744   1.21136    0.018
 5345.00    1.24949   1.19376    0.018
 5346.00    1.22188   1.19792    0.018
 5347.00    1.14328   1.18885    0.018
 5348.00    1.09601   1.16679    0.017
 5349.00    1.18173   1.18024    0.017
 5350.00    1.23594   1.22494    0.017
 5351.00    1.17971   1.25253    0.018
 5352.00    1.16267   1.25333    0.018
 5353.00    1.26117   1.26428    0.018
 5354.00    1.31408   1.28862    0.018
 5355.00    1.25242   1.29904    0.018
 5356.00    1.22651   1.29873    0.018
 5357.00    1.27795   1.29920    0.018
 5358.00    1.30895   1.29932    0.018
 5359.00    1.30157   1.28985    0.018
 5360.00    1.27182   1.26308    0.018
 5361.00    1.20540   1.23161    0.018
 5362.00    1.19427   1.21776    0.018
 5363.00    1.26267   1.21076    0.018
 5364.00    1.28781   1.19758    0.017
 5365.00    1.25822   1.19689    0.017
 5366.00    1.19601   1.20241    0.018
 5367.00    1.09743   1.19969    0.018
 5368.00    1.05450   1.17383   -2.000
 5369.00    1.06630   1.11714   -2.000
 5370.00    1.08776   1.07575   -2.000
 5371.00    1.11761   1.10509   -2.000
 5372.00    1.04220   1.18500   -2.000
 5373.00    0.88637   1.24470   -2.000
 5374.00    0.83890   1.26846   -2.000
 5375.00    0.86420   1.26606   -2.000
 5376.00    1.07820   1.25391   -2.000
 5377.00    1.40319   1.25390   -2.000
 5378.00    1.47450   1.25421   -2.000
 5379.00    1.41573   1.23863   -2.000
 5380.00    1.27743   1.22314   -2.000
 5381.00    1.10380   1.21540   -2.000
 5382.00    1.10358   1.20610   -2.000
 5383.00    1.16954   1.21436    0.017
 5384.00    1.23742   1.24100    0.017
 5385.00    1.30591   1.25340    0.017
 5386.00    1.28836   1.25001    0.017
 5387.00    1.24743   1.23907    0.017
 5388.00    1.17336   1.21712    0.017
 5389.00    1.09191   1.19472    0.017
 5390.00    1.11679   1.18550    0.017
 5391.00    1.16057   1.18149    0.017
 5392.00    1.20738   1.17786    0.017
 5393.00    1.25461   1.17924    0.017
 5394.00    1.12284   1.17842    0.017
 5395.00    0.97377   1.14393    0.017
 5396.00    1.02354   1.10146    0.017
 5397.00    1.08527   1.12323    0.017
 5398.00    1.19232   1.17840    0.017
 5399.00    1.29928   1.19825    0.017
 5400.00    1.19462   1.20102    0.017
 5401.00    1.09355   1.21057    0.017
 5402.00    1.08487   1.18851    0.017
 5403.00    1.07698   1.12447    0.018
 5404.00    1.07967   1.06806    0.018
 5405.00    1.08600   1.06650    0.018
 5406.00    1.12504   1.11667    0.017
 5407.00    1.16087   1.15555    0.017
 5408.00    1.17548   1.14040    0.017
 5409.00    1.17955   1.11521    0.017
 5410.00    1.12934   1.14112    0.018
 5411.00    1.09229   1.19453    0.018
 5412.00    1.10988   1.22104    0.017
 5413.00    1.12730   1.21254    0.017
 5414.00    1.14415   1.20454    0.017
 5415.00    1.15535   1.22535    0.017
 5416.00    1.15025   1.25041    0.017
 5417.00    1.16213   1.25049    0.017
 5418.00    1.21595   1.23304    0.017
 5419.00    1.24441   1.21467    0.017
 5420.00    1.21887   1.21340    0.017
 5421.00    1.20180   1.22710    0.017
 5422.00    1.20038   1.21345    0.017
 5423.00    1.18400   1.17807    0.017
 5424.00    1.14346   1.18373    0.017
 5425.00    1.12602   1.23060    0.017
 5426.00    1.14132   1.26399    0.017
 5427.00    1.13873   1.23462    0.017
 5428.00    1.11382   1.15397    0.017
 5429.00    1.10317   1.12234    0.017
 5430.00    1.10821   1.16644    0.017
 5431.00    1.09401   1.18871    0.017
 5432.00    1.06116   1.16300    0.017
 5433.00    1.05010   1.13292    0.017
 5434.00    1.05767   1.12729    0.017
 5435.00    1.09386   1.15180    0.017
 5436.00    1.15160   1.19200    0.017
 5437.00    1.16397   1.23602    0.017
 5438.00    1.14632   1.26672    0.017
 5439.00    1.17973   1.27859    0.017
 5440.00    1.24272   1.28021    0.017
 5441.00    1.26928   1.27997    0.017
 5442.00    1.27745   1.27699    0.017
 5443.00    1.27442   1.25214    0.017
 5444.00    1.26648   1.19573    0.017
 5445.00    1.24556   1.12431    0.017
 5446.00    1.21977   1.09710    0.017
 5447.00    1.17783   1.14644    0.017
 5448.00    1.13075   1.20947    0.017
 5449.00    1.13967   1.23700    0.017
 5450.00    1.16348   1.23788    0.017
 5451.00    1.09572   1.22980    0.017
 5452.00    1.00804   1.21321    0.017
 5453.00    1.00685   1.17063    0.017
 5454.00    1.02061   1.11231    0.017
 5455.00    1.03867   1.10615    0.017
 5456.00    1.05730   1.16856    0.017
 5457.00    1.08686   1.22817    0.017
 5458.00    1.11742   1.24543    0.017
 5459.00    1.15103   1.23222    0.017
 5460.00    1.18481   1.20852    0.017
 5461.00    1.17769   1.17593    0.017
 5462.00    1.16874   1.14900    0.017
 5463.00    1.06441   1.16462    0.017
 5464.00    0.96975   1.19938    0.017
 5465.00    1.10206   1.20839    0.017
 5466.00    1.22296   1.21050    0.017
 5467.00    1.19737   1.22216    0.017
 5468.00    1.16908   1.22143    0.017
 5469.00    1.11734   1.20597    0.017
 5470.00    1.07948   1.19944    0.017
 5471.00    1.13052   1.19772    0.017
 5472.00    1.16241   1.18058    0.017
 5473.00    1.09831   1.16949    0.017
 5474.00    1.03246   1.15740    0.017
 5475.00    0.95948   1.10893    0.017
 5476.00    0.91931   1.08220    0.017
 5477.00    0.98959   1.13062    0.017
 5478.00    1.03951   1.18959   -2.000
 5479.00    1.03161   1.18909   -2.000
 5480.00    1.03178   1.15358   -2.000
 5481.00    1.05153   1.14598   -2.000
 5482.00    1.04621   1.17315   -2.000
 5483.00    0.98837   1.20972   -2.000
 5484.00    0.85389   1.23611   -2.000
 5485.00    0.57983   1.22779   -2.000
 5486.00    0.16620   1.19145   -2.000
 5487.00   -0.46960   1.17500   -2.000
 5488.00   -0.62310   1.18938   -2.000
 5489.00   -0.10285   1.20043   -2.000
 5490.00    0.56023   1.20946   -2.000
 5491.00    1.39890   1.21676   -2.000
 5492.00    1.92638   1.20607   -2.000
 5493.00    2.11663   1.20024   -2.000
 5494.00    2.13371   1.21201   -2.000
 5495.00    1.98526   1.20732   -2.000
 5496.00    1.81761   1.18078   -2.000
 5497.00    1.63376   1.18417   -2.000
 5498.00    1.40353   1.21933   -2.000
 5499.00    1.13887   1.22228   -2.000
 5500.00    1.05375   1.18654   -2.000
 5501.00    1.08566   1.16434   -2.000
 5502.00    1.08254   1.17488   -1.000
 5503.00    1.05943   1.19172   -1.000
 5504.00    1.07814   1.18549   -1.000
 5505.00    1.11762   1.15570   -1.000
 5506.00    1.11707   1.15168   -1.000
 5507.00    1.09930   1.18370   -1.000
 5508.00    1.11753   1.20142    0.045
 5509.00    1.14901   1.19550    0.019
 5510.00    1.17433   1.17632    0.017
 5511.00    1.19772   1.14710    0.017
 5512.00    1.16303   1.13327    0.016
 5513.00    1.11323   1.14473    0.016
 5514.00    1.08870   1.16670    0.017
 5515.00    1.06955   1.18608    0.017
 5516.00    1.12746   1.20402    0.017
 5517.00    1.19831   1.22827    0.017
 5518.00    1.15422   1.24329    0.016
 5519.00    1.09557   1.23973    0.016
 5520.00    1.13291   1.23204    0.016
 5521.00    1.17872   1.22916    0.017
 5522.00    1.21848   1.23014    0.017
 5523.00    1.25793   1.22673    0.016
 5524.00    1.17990   1.21070    0.017
 5525.00    1.10056   1.18438    0.017
 5526.00    1.08815   1.14747    0.016
 5527.00    1.07589   1.11910    0.016
 5528.00    1.06675   1.13895    0.016
 5529.00    1.06222   1.19066    0.016
 5530.00    1.11390   1.21985    0.016
 5531.00    1.15557   1.21781    0.016
 5532.00    1.11388   1.20620    0.016
 5533.00    1.08005   1.19032    0.016
 5534.00    1.09520   1.17719    0.016
 5535.00    1.11415   1.18827    0.016
 5536.00    1.15163   1.20572    0.016
 5537.00    1.16018   1.20956    0.017
 5538.00    1.05388   1.21779    0.016
 5539.00    0.99643   1.23539    0.016
 5540.00    1.10016   1.24508    0.016
 5541.00    1.18041   1.23277    0.016
 5542.00    1.19517   1.20913    0.016
 5543.00    1.19200   1.20074    0.017
 5544.00    1.14606   1.20483    0.017
 5545.00    1.13723   1.20583    0.017
 5546.00    1.20493   1.21559    0.017
 5547.00    1.22708   1.23815    0.017
 5548.00    1.16753   1.25170    0.017
 5549.00    1.15899   1.25338    0.016
 5550.00    1.23043   1.25048    0.016
 5551.00    1.27129   1.24048    0.016
 5552.00    1.27004   1.22198    0.016
 5553.00    1.24541   1.20469    0.016
 5554.00    1.19242   1.20510    0.016
 5555.00    1.15609   1.21642    0.016
 5556.00    1.13757   1.21846    0.016
 5557.00    1.15205   1.21581    0.016
 5558.00    1.19764   1.21939    0.016
 5559.00    1.18134   1.22102    0.016
 5560.00    1.11361   1.21451    0.016
 5561.00    1.10890   1.19949    0.016
 5562.00    1.15029   1.18563    0.016
 5563.00    1.19761   1.18612    0.016
 5564.00    1.24874   1.18484    0.016
 5565.00    1.20776   1.17678    0.016
 5566.00    1.11503   1.17844    0.016
 5567.00    1.11394   1.18194    0.016
 5568.00    1.15766   1.17385    0.016
 5569.00    1.15935   1.17710    0.016
 5570.00    1.14329   1.19300    0.016
 5571.00    1.16895   1.17847    0.016
 5572.00    1.20970   1.16139    0.016
 5573.00    1.21477   1.18455    0.016
 5574.00    1.20893   1.20413    0.016
 5575.00    1.17691   1.20009    0.016
 5576.00    1.13823   1.20566    0.016
 5577.00    1.16589   1.21299    0.016
 5578.00    1.20731   1.21442    0.016
 5579.00    1.22158   1.21954    0.016
 5580.00    1.23143   1.21264    0.016
 5581.00    1.19730   1.19969    0.016
 5582.00    1.15780   1.20213    0.016
 5583.00    1.14991   1.20403    0.016
 5584.00    1.14467   1.18492    0.016
 5585.00    1.09642   1.14311    0.016
 5586.00    1.04609   1.09897    0.016
 5587.00    1.03257   1.07999    0.016
 5588.00    1.01967   1.08824    0.016
 5589.00    1.01052   1.11806    0.016
 5590.00    1.00213   1.15121    0.016
 5591.00    1.00864   1.16423    0.016
 5592.00    1.01498   1.15751    0.016
 5593.00    1.01946   1.14627    0.017
 5594.00    1.02383   1.16507    0.017
 5595.00    1.02725   1.20516    0.017
 5596.00    1.02022   1.20463    0.016
 5597.00    0.94998   1.16449    0.016
 5598.00    0.90345   1.14455    0.016
 5599.00    0.96997   1.14528    0.016
 5600.00    1.02409   1.13285    0.017
 5601.00    1.03005   1.11562    0.017
 5602.00    1.04523   1.12401    0.017
 5603.00    1.09018   1.16907    0.017
 5604.00    1.12617   1.21729    0.016
 5605.00    1.13761   1.24193    0.016
 5606.00    1.16033   1.24719    0.016
 5607.00    1.20952   1.24296    0.016
 5608.00    1.21541   1.23885    0.016
 5609.00    1.13344   1.23751    0.016
 5610.00    1.10809   1.24242    0.016
 5611.00    1.18269   1.24918    0.016
 5612.00    1.22096   1.23986    0.015
 5613.00    1.20309   1.18710    0.015
 5614.00    1.17916   1.11407    0.015
 5615.00    1.14698   1.10152    0.015
 5616.00    1.12643   1.15082    0.015
 5617.00    1.11977   1.18494    0.015
 5618.00    1.12463   1.18560    0.015
 5619.00    1.14162   1.18591    0.015
 5620.00    1.14397   1.20081    0.015
 5621.00    1.13269   1.21310    0.015
 5622.00    1.13392   1.19405    0.015
 5623.00    1.14541   1.14788    0.015
 5624.00    1.18189   1.12872    0.015
 5625.00    1.23638   1.15492    0.016
 5626.00    1.22605   1.18350    0.016
 5627.00    1.17469   1.19834    0.016
 5628.00    1.10639   1.21509    0.016
 5629.00    1.02872   1.22867    0.016
 5630.00    1.04242   1.23198    0.016
 5631.00    1.10010   1.22766    0.016
 5632.00    1.13578   1.21848    0.016
 5633.00    1.16232   1.20718    0.016
 5634.00    1.14672   1.19744    0.015
 5635.00    1.11615   1.18430    0.015
 5636.00    1.11376   1.17015    0.015
 5637.00    1.11983   1.16970    0.016
 5638.00    1.15327   1.18212    0.016
 5639.00    1.19353   1.18132    0.016
 5640.00    1.21642   1.16600    0.016
 5641.00    1.23580   1.16701    0.016
 5642.00    1.20865   1.18039    0.015
 5643.00    1.17414   1.18707    0.015
 5644.00    1.17603   1.19237    0.015
 5645.00    1.18221   1.19927    0.015
 5646.00    1.18434   1.20661    0.015
 5647.00    1.18614   1.20768    0.015
 5648.00    1.16572   1.19936    0.015
 5649.00    1.14432   1.19479    0.015
 5650.00    1.14108   1.20611    0.015
 5651.00    1.13804   1.22151    0.015
 5652.00    1.13441   1.22012    0.015
 5653.00    1.13227   1.19736    0.015
 5654.00    1.15776   1.18082    0.015
 5655.00    1.17678   1.18444    0.015
 5656.00    1.12418   1.16075    0.015
 5657.00    1.07722   1.10415    0.015
 5658.00    1.07393   1.09705    0.015
 5659.00    1.08235   1.14720    0.015
 5660.00    1.15951   1.16973    0.015
 5661.00    1.21349   1.15054    0.015
 5662.00    1.15961   1.14745    0.015
 5663.00    1.12865   1.17602    0.015
 5664.00    1.18478   1.20113    0.015
 5665.00    1.23482   1.19952    0.015
 5666.00    1.26548   1.17978    0.015
 5667.00    1.27090   1.16837    0.015
 5668.00    1.20838   1.17314    0.015
 5669.00    1.15424   1.18360    0.015
 5670.00    1.11943   1.19450    0.015
 5671.00    1.10649   1.21343    0.015
 5672.00    1.13723   1.23233    0.015
 5673.00    1.13912   1.23310    0.015
 5674.00    1.09085   1.22071    0.015
 5675.00    1.05980   1.22180    0.015
 5676.00    1.05495   1.23243    0.016
 5677.00    1.07688   1.22795    0.016
 5678.00    1.13460   1.21616    0.016
 5679.00    1.14620   1.21401    0.015
 5680.00    1.10348   1.20626    0.015
 5681.00    1.08853   1.17827    0.015
 5682.00    1.10245   1.16127    0.015
 5683.00    1.10391   1.17186    0.015
 5684.00    1.09397   1.18777    0.015
 5685.00    1.08960   1.18333    0.015
 5686.00    1.08972   1.16411    0.015
 5687.00    1.09855   1.15505    0.015
 5688.00    1.11357   1.16864    0.015
 5689.00    1.11768   1.19347    0.015
 5690.00    1.11498   1.21238    0.015
 5691.00    1.13274   1.22608    0.015
 5692.00    1.16165   1.23055    0.015
 5693.00    1.21562   1.22330    0.015
 5694.00    1.28146   1.21930    0.015
 5695.00    1.27762   1.22224    0.015
 5696.00    1.24532   1.21663    0.015
 5697.00    1.20581   1.19660    0.015
 5698.00    1.16378   1.18564    0.015
 5699.00    1.14968   1.17867    0.015
 5700.00    1.14379   1.16072    0.015
 5701.00    1.15943   1.15483    0.015
 5702.00    1.18032   1.17204    0.015
 5703.00    1.12744   1.19019    0.015
 5704.00    1.06005   1.18472    0.015
 5705.00    1.06772   1.16141    0.015
 5706.00    1.08692   1.14210    0.015
 5707.00    1.12281   1.12211    0.015
 5708.00    1.16059   1.10473    0.015
 5709.00    1.12999   1.11000    0.015
 5710.00    1.09422   1.11898    0.015
 5711.00    1.11352   1.13132    0.015
 5712.00    1.13507   1.16736    0.015
 5713.00    1.15420   1.19694    0.015
 5714.00    1.17298   1.20522    0.015
 5715.00    1.17756   1.21128    0.015
 5716.00    1.18138   1.21192    0.015
 5717.00    1.17196   1.21017    0.015
 5718.00    1.16361   1.21862    0.015
 5719.00    1.16653   1.22777    0.015
 5720.00    1.16420   1.23501    0.015
 5721.00    1.12260   1.24410    0.015
 5722.00    1.09054   1.24848    0.015
 5723.00    1.11290   1.24542    0.015
 5724.00    1.14251   1.23742    0.014
 5725.00    1.20497   1.21847    0.015
 5726.00    1.24629   1.19774    0.015
 5727.00    1.20898   1.20273    0.015
 5728.00    1.18095   1.22297    0.015
 5729.00    1.18182   1.22327    0.015
 5730.00    1.18239   1.20201    0.014
 5731.00    1.18215   1.19615    0.015
 5732.00    1.18341   1.21497    0.015
 5733.00    1.18804   1.23315    0.015
 5734.00    1.19369   1.23806    0.015
 5735.00    1.20134   1.23192    0.015
 5736.00    1.22033   1.22465    0.015
 5737.00    1.25877   1.22304    0.015
 5738.00    1.26670   1.22302    0.015
 5739.00    1.22887   1.22335    0.015
 5740.00    1.19504   1.22236    0.000
 5741.00    1.16648   1.21692    0.000
 5742.00    1.15313   1.21287    0.000
 5743.00    1.15746   1.22170    0.000
 5744.00    1.16862   1.23744    0.000
 5745.00    1.18676   1.24087    0.000
 5746.00    1.19914   1.21917    0.000
 5747.00    1.20631   1.19644    0.000
 5748.00    1.20923   1.20479    0.000
 5749.00    1.20877   1.22905    0.000
 5750.00    1.21252   1.23215    0.000
 5751.00    1.21922   1.20429    0.000
 5752.00    1.20506   1.16772    0.000
 5753.00    1.17809   1.15489    0.000
 5754.00    1.16908   1.18021    0.000
 5755.00    1.16970   1.21761    0.000
 5756.00    1.13289   1.23869    0.000
 5757.00    1.07865   1.24357    0.000
 5758.00    1.08360   1.23263    0.000
 5759.00    1.11230   1.21095    0.000
 5760.00    1.12879   1.18593    0.000
 5761.00    1.14109   1.16377    0.000
 5762.00    1.13441   1.16392    0.000
 5763.00    1.12227   1.19794    0.000
 5764.00    1.13972   1.23058    0.000
 5765.00    1.16422   1.24032    0.000
 5766.00    1.19830   1.24124    0.000
 5767.00    1.23421   1.24007    0.000
 5768.00    1.25560   1.23588    0.000
 5769.00    1.27483   1.23136    0.000
 5770.00    1.31539   1.22463    0.000
 5771.00    1.35827   1.21503    0.000
 5772.00    1.35783   1.21224    0.000
 5773.00    1.35428   1.21012    0.000
 5774.00    1.30157   1.20870    0.000
 5775.00    1.24705   1.21743    0.000
 5776.00    1.26016   1.22626    0.000
 5777.00    1.27306   1.22428    0.000
 5778.00    1.26840   1.20815    0.000
 5779.00    1.26328   1.17272    0.000
 5780.00    1.25060   1.13637    0.000
 5781.00    1.23731   1.13049    0.000
 5782.00    1.21781   1.14515    0.000
 5783.00    1.19631   1.14634    0.000
 5784.00    1.16029   1.13656    0.000
 5785.00    1.12433   1.14970    0.000
 5786.00    1.08874   1.18119    0.000
 5787.00    1.05880   1.20177    0.000
 5788.00    1.05393   1.20924    0.000
 5789.00    1.05798   1.19860    0.000
 5790.00    1.09449   1.18400    0.000
 5791.00    1.12964   1.19168   -2.000
 5792.00    1.16061   1.20915   -2.000
 5793.00    1.16760   1.22342   -2.000
 5794.00    1.11233   1.23396   -2.000
 5795.00    1.06938   1.22766   -2.000
 5796.00    1.05391   1.20236   -2.000
 5797.00    1.05876   1.19023   -2.000
 5798.00    1.10290   1.21190   -2.000
 5799.00    1.13411   1.24025   -2.000
 5800.00    1.14349   1.25373   -2.000
 5801.00    1.12869   1.25636   -2.000
 5802.00    1.07814   1.24446   -2.000
 5803.00    1.08135   1.22019   -2.000
 5804.00    1.15442   1.20541   -2.000
 5805.00    1.19644   1.20601   -2.000
 5806.00    1.20290   1.21484   -2.000
 5807.00    1.21070   1.22143   -2.000
 5808.00    1.21985   1.22439   -2.000
 5809.00    1.21923   1.22998   -2.000
 5810.00    1.20991   1.23559   -2.000
 5811.00    1.17045   1.23548    0.000
 5812.00    1.10733   1.23230    0.000
 5813.00    1.09887   1.22363    0.000
 5814.00    1.12815   1.20579    0.000
 5815.00    1.16086   1.19135    0.000
 5816.00    1.19564   1.20085    0.000
 5817.00    1.17938   1.22719    0.000
 5818.00    1.13617   1.24427    0.000
 5819.00    1.12518   1.24808    0.000
 5820.00    1.12897   1.24725    0.000
 5821.00    1.17513   1.24147    0.000
 5822.00    1.23800   1.23522    0.000
 5823.00    1.24616   1.23520    0.000
 5824.00    1.23593   1.24062    0.000
 5825.00    1.21017   1.24265    0.000
 5826.00    1.18004   1.24099    0.000
 5827.00    1.16042   1.24145    0.000
 5828.00    1.14325   1.24505    0.000
 5829.00    1.14895   1.24614    0.000
 5830.00    1.15894   1.24272    0.000
 5831.00    1.15290   1.24114    0.000
 5832.00    1.14456   1.23812    0.000
 5833.00    1.15818   1.22946    0.000
 5834.00    1.17410   1.22551    0.000
 5835.00    1.22194   1.23320    0.000
 5836.00    1.27193   1.23589    0.000
 5837.00    1.23156   1.22733    0.000
 5838.00    1.18819   1.22642    0.000
 5839.00    1.17277   1.23798    0.000
 5840.00    1.15699   1.24929    0.000
 5841.00    1.12940   1.25345    0.000
 5842.00    1.10551   1.25219    0.000
 5843.00    1.13759   1.24561    0.000
 5844.00    1.16891   1.23577    0.000
 5845.00    1.19281   1.22335    0.000
 5846.00    1.21380   1.21178    0.000
 5847.00    1.21439   1.20918    0.000
 5848.00    1.21583   1.21515    0.000
 5849.00    1.22185   1.21916    0.000
 5850.00    1.21573   1.21332    0.000
 5851.00    1.15702   1.19292    0.000
 5852.00    1.11917   1.16963    0.000
 5853.00    1.15572   1.16970    0.000
 5854.00    1.18731   1.18398    0.000
 5855.00    1.20401   1.17532    0.000
 5856.00    1.20554   1.14254    0.000
 5857.00    1.16838   1.12977    0.000
 5858.00    1.13398   1.15257    0.000
 5859.00    1.10566   1.18105    0.000
 5860.00    1.09093   1.19540    0.000
 5861.00    1.10209   1.19003    0.000
 5862.00    1.10758   1.18694    0.000
 5863.00    1.10366   1.19862    0.000
 5864.00    1.09896   1.20401    0.000
 5865.00    1.09312   1.19107    0.000
 5866.00    1.10783   1.18248    0.000
 5867.00    1.14887   1.19573    0.000
 5868.00    1.16377   1.21408    0.000
 5869.00    1.14917   1.22370    0.000
 5870.00    1.14460   1.22411    0.000
 5871.00    1.15002   1.21682    0.000
 5872.00    1.13665   1.20998    0.000
 5873.00    1.10678   1.21123    0.000
 5874.00    1.11422   1.21327    0.000
 5875.00    1.15052   1.20825    0.000
 5876.00    1.16166   1.20123    0.000
 5877.00    1.15568   1.19524    0.000
 5878.00    1.14673   1.18512    0.000
 5879.00    1.13599   1.17429    0.000
 5880.00    1.14701   1.17661    0.000
 5881.00    1.16935   1.18514    0.000
 5882.00    1.17602   1.18052    0.000
 5883.00    1.17565   1.17033    0.000
 5884.00    1.14739   1.17180    0.000
 5885.00    1.10832   1.17527    0.000
 5886.00    1.07999   1.15316    0.000
 5887.00    1.05520   1.07444    0.000
 5888.00    1.04180   0.93877    0.000
 5889.00    1.03156   0.85236    0.000
 5890.00    1.02797   0.90871    0.000
 5891.00    1.02589   1.01501    0.000
 5892.00    0.99946   1.06857    0.000
 5893.00    0.96860   1.05516    0.000
 5894.00    0.97516   0.97177    0.000
 5895.00    0.98696   0.90889    0.000
 5896.00    1.00334   0.96629    0.000
 5897.00    1.02018   1.06392    0.000
 5898.00    1.01620   1.11219    0.000
 5899.00    1.01090   1.13700    0.000
 5900.00    1.03362   1.16000    0.000
 5901.00    1.05720   1.17139    0.014
 5902.00    1.09075   1.17641    0.014
 5903.00    1.12203   1.17829    0.014
 5904.00    1.08921   1.17313    0.014
 5905.00    1.05883   1.16940    0.014
 5906.00    1.06325   1.17697    0.014
 5907.00    1.07202   1.18718    0.014
 5908.00    1.12134   1.18780    0.014
 5909.00    1.15888   1.18756    0.014
 5910.00    1.11646   1.19502    0.014
 5911.00    1.08008   1.19540    0.014
 5912.00    1.07550   1.17438    0.014
 5913.00    1.08430   1.14694    0.014
 5914.00    1.14978   1.14019    0.014
 5915.00    1.20338   1.14986    0.014
 5916.00    1.21541   1.16620    0.014
 5917.00    1.21188   1.17951    0.014
 5918.00    1.16262   1.18642    0.014
 5919.00    1.11622   1.19185    0.014
 5920.00    1.07700   1.18827    0.013
 5921.00    1.06359   1.17997    0.013
 5922.00    1.10592   1.18103    0.013
 5923.00    1.14362   1.18864    0.014
 5924.00    1.17262   1.19587    0.013
 5925.00    1.20406   1.20040    0.013
 5926.00    1.23950   1.19560    0.013
 5927.00    1.26554   1.18277    0.013
 5928.00    1.27807   1.16573    0.013
 5929.00    1.27459   1.15605    0.013
 5930.00    1.25090   1.17133    0.013
 5931.00    1.21551   1.19413    0.013
 5932.00    1.16712   1.19356    0.013
 5933.00    1.15070   1.17408    0.013
 5934.00    1.16567   1.16623    0.013
 5935.00    1.17815   1.18142    0.013
 5936.00    1.18846   1.19633    0.013
 5937.00    1.17944   1.20236    0.013
 5938.00    1.15568   1.20355    0.014
 5939.00    1.15652   1.19201    0.014
 5940.00    1.17385   1.17303    0.014
 5941.00    1.17894   1.16915    0.014
 5942.00    1.17686   1.17938    0.014
 5943.00    1.16458   1.19084    0.014
 5944.00    1.14709   1.20159    0.014
 5945.00    1.15957   1.20638    0.014
 5946.00    1.18535   1.19551    0.014
 5947.00    1.16896   1.17097    0.014
 5948.00    1.13651   1.15709    0.014
 5949.00    1.13830   1.17087    0.014
 5950.00    1.15116   1.18535    0.013
 5951.00    1.15780   1.17365    0.013
 5952.00    1.16275   1.16004    0.013
 5953.00    1.16225   1.17292    0.013
 5954.00    1.16055   1.18640    0.013
 5955.00    1.16653   1.17624    0.013
 5956.00    1.17389   1.16352    0.013
 5957.00    1.15020   1.16745    0.013
 5958.00    1.12231   1.18136    0.013
 5959.00    1.14650   1.19650    0.013
 5960.00    1.17570   1.20727    0.013
 5961.00    1.15491   1.21101    0.013
 5962.00    1.13113   1.20949    0.013
 5963.00    1.18151   1.20454    0.013
 5964.00    1.23347   1.19400    0.013
 5965.00    1.23447   1.18713    0.013
 5966.00    1.23474   1.19466    0.013
 5967.00    1.21607   1.20441    0.013
 5968.00    1.20075   1.20912    0.013
 5969.00    1.23039   1.21401    0.013
 5970.00    1.25927   1.21694    0.013
 5971.00    1.28147   1.21573    0.013
 5972.00    1.29402   1.21265    0.013
 5973.00    1.24314   1.20471    0.013
 5974.00    1.20358   1.18749    0.013
 5975.00    1.22210   1.16846    0.013
 5976.00    1.23122   1.15976    0.013
 5977.00    1.20139   1.16435    0.013
 5978.00    1.16909   1.17873    0.013
 5979.00    1.12830   1.19514    0.013
 5980.00    1.10346   1.20203    0.013
 5981.00    1.12466   1.19334    0.013
 5982.00    1.13649   1.16743    0.013
 5983.00    1.12522   1.14189    0.013
 5984.00    1.11358   1.14461    0.013
 5985.00    1.10114   1.16554    0.013
 5986.00    1.09722   1.17674    0.013
 5987.00    1.10904   1.18215    0.013
 5988.00    1.13069   1.19075    0.013
 5989.00    1.16819   1.19253    0.013
 5990.00    1.20112   1.18240    0.013
 5991.00    1.22759   1.18193    0.013
 5992.00    1.22854   1.19943    0.013
 5993.00    1.19772   1.21336    0.013
 5994.00    1.18841   1.21000    0.013
 5995.00    1.20273   1.19519    0.013
 5996.00    1.19767   1.17772    0.013
 5997.00    1.17386   1.17035    0.013
 5998.00    1.16027   1.17659    0.013
 5999.00    1.15542   1.18746    0.013
 6000.00    1.14939   1.19072    0.013
 6001.00    1.14247   1.17840    0.013
 6002.00    1.15076   1.16693    0.013
 6003.00    1.16908   1.17549    0.013
 6004.00    1.17559   1.18405    0.013
 6005.00    1.17525   1.17435    0.013
 6006.00    1.16158   1.15161    0.013
 6007.00    1.14120   1.13389    0.013
 6008.00    1.14131   1.14893    0.013
 6009.00    1.15037   1.18319    0.013
 6010.00    1.14675   1.19574    0.013
 6011.00    1.13838   1.17985    0.013
 6012.00    1.14108   1.16051    0.013
 6013.00    1.14728   1.16256    0.013
 6014.00    1.14235   1.17267    0.013
 6015.00    1.13447   1.16755    0.013
 6016.00    1.13486   1.16290    0.013
 6017.00    1.13705   1.17040    0.013
 6018.00    1.13103   1.16695    0.013
 6019.00    1.12359   1.15084    0.013
 6020.00    1.10832   1.14574    0.013
 6021.00    1.09203   1.15422    0.013
 6022.00    1.12564   1.16163    0.013
 6023.00    1.16383   1.16516    0.013
 6024.00    1.14986   1.17706    0.013
 6025.00    1.13298   1.18628    0.013
 6026.00    1.15095   1.18464    0.013
 6027.00    1.16982   1.19166    0.013
 6028.00    1.20308   1.20334    0.013
 6029.00    1.23437   1.20512    0.013
 6030.00    1.21990   1.20347    0.013
 6031.00    1.20509   1.20863    0.013
 6032.00    1.18606   1.21443    0.013
 6033.00    1.17186   1.21452    0.013
 6034.00    1.19914   1.21233    0.013
 6035.00    1.22469   1.21230    0.013
 6036.00    1.23920   1.21343    0.013
 6037.00    1.24854   1.21207    0.013
 6038.00    1.23199   1.20570    0.013
 6039.00    1.21733   1.19959    0.013
 6040.00    1.21029   1.19702    0.013
 6041.00    1.19696   1.19625    0.013
 6042.00    1.16245   1.20505    0.013
 6043.00    1.14173   1.21504    0.013
 6044.00    1.16005   1.21707    0.013
 6045.00    1.17101   1.21696    0.013
 6046.00    1.16413   1.21943    0.013
 6047.00    1.16619   1.21919    0.013
 6048.00    1.18694   1.21676    0.013
 6049.00    1.20965   1.21962    0.013
 6050.00    1.23593   1.22179    0.013
 6051.00    1.25342   1.21482    0.013
 6052.00    1.25692   1.20359    0.013
 6053.00    1.24581   1.19621    0.013
 6054.00    1.21431   1.18945    0.013
 6055.00    1.20528   1.18197    0.013
 6056.00    1.22381   1.18365    0.013
 6057.00    1.22317   1.19407    0.013
 6058.00    1.20180   1.20621    0.013
 6059.00    1.18430   1.21268    0.013
 6060.00    1.17049   1.21200    0.013
 6061.00    1.17879   1.20369    0.013
 6062.00    1.20569   1.19005    0.013
 6063.00    1.20217   1.16956    0.013
 6064.00    1.17613   1.14684    0.013
 6065.00    1.15646   1.15557    0.013
 6066.00    1.14095   1.19232    0.013
 6067.00    1.13838   1.21775    0.013
 6068.00    1.14318   1.22457    0.013
 6069.00    1.16467   1.22492    0.013
 6070.00    1.19444   1.22565    0.013
 6071.00    1.22565   1.22725    0.013
 6072.00    1.25747   1.22803    0.013
 6073.00    1.29514   1.22682    0.013
 6074.00    1.33495   1.22481    0.013
 6075.00    1.32185   1.21770    0.013
 6076.00    1.29227   1.20296    0.013
 6077.00    1.26254   1.18251    0.013
 6078.00    1.23276   1.17456    0.013
 6079.00    1.20977   1.18262    0.013
 6080.00    1.18821   1.18130    0.013
 6081.00    1.14913   1.17049    0.013
 6082.00    1.10713   1.17194    0.013
 6083.00    1.11987   1.17814    0.013
 6084.00    1.13952   1.17595    0.013
 6085.00    1.18176   1.17690    0.013
 6086.00    1.22598   1.18670    0.013
 6087.00    1.21914   1.19437    0.013
 6088.00    1.20965   1.18526    0.013
 6089.00    1.19460   1.16855    0.013
 6090.00    1.17952   1.16556    0.013
 6091.00    1.16900   1.17119    0.013
 6092.00    1.15910   1.17558    0.013
 6093.00    1.16199   1.18744    0.013
 6094.00    1.16370   1.20334    0.013
 6095.00    1.15106   1.20409    0.013
 6096.00    1.14404   1.19531    0.013
 6097.00    1.18352   1.19580    0.013
 6098.00    1.21835   1.20443    0.013
 6099.00    1.22439   1.20682    0.013
 6100.00    1.22495   1.17815    0.013
 6101.00    1.19883   1.11758    0.013
 6102.00    1.17532   1.09072    0.013
 6103.00    1.16218   1.13304    0.013
 6104.00    1.16195   1.18237    0.013
 6105.00    1.20424   1.19645    0.013
 6106.00    1.23281   1.18795    0.013
 6107.00    1.22321   1.18173    0.013
 6108.00    1.21443   1.19290    0.013
 6109.00    1.20759   1.20074    0.013
 6110.00    1.19432   1.19129    0.013
 6111.00    1.16782   1.18686    0.013
 6112.00    1.14541   1.19805    0.013
 6113.00    1.13033   1.20956    0.013
 6114.00    1.13536   1.20608    0.013
 6115.00    1.17188   1.19192    0.013
 6116.00    1.18901   1.19054    0.013
 6117.00    1.17951   1.19834    0.013
 6118.00    1.15652   1.18991    0.013
 6119.00    1.11722   1.16538    0.013
 6120.00    1.10690   1.13076    0.013
 6121.00    1.12750   1.10323    0.013
 6122.00    1.13195   1.12343    0.013
 6123.00    1.12122   1.16873    0.013
 6124.00    1.12501   1.18515    0.013
 6125.00    1.14084   1.17892    0.013
 6126.00    1.17589   1.17159    0.013
 6127.00    1.22498   1.16751    0.013
 6128.00    1.24753   1.17314    0.013
 6129.00    1.25306   1.18860    0.013
 6130.00    1.25284   1.19932    0.013
 6131.00    1.24940   1.20079    0.013
 6132.00    1.24221   1.19977    0.013
 6133.00    1.23319   1.18663    0.013
 6134.00    1.20786   1.14798    0.013
 6135.00    1.17566   1.08566    0.013
 6136.00    1.13658   1.04298    0.013
 6137.00    1.09504   1.07520    0.013
 6138.00    1.07975   1.14811    0.013
 6139.00    1.07248   1.17931    0.013
 6140.00    1.05825   1.15557    0.013
 6141.00    1.04224   1.13881    0.013
 6142.00    1.03675   1.16477    0.013
 6143.00    1.03343   1.19713    0.013
 6144.00    1.05942   1.20619    0.013
 6145.00    1.09017   1.20178    0.013
 6146.00    1.13857   1.19101    0.013
 6147.00    1.18911   1.17280    0.013
 6148.00    1.19818   1.15765    0.013
 6149.00    1.20379   1.15503    0.013
 6150.00    1.19547   1.16556    0.013
 6151.00    1.18648   1.18089    0.013
 6152.00    1.18662   1.18749    0.013
 6153.00    1.18664   1.17333    0.013
 6154.00    1.17184   1.15857    0.013
 6155.00    1.15808   1.16178    0.013
 6156.00    1.16455   1.16639    0.013
 6157.00    1.16730   1.16446    0.013
 6158.00    1.12701   1.15740    0.013
 6159.00    1.08819   1.12308    0.013
 6160.00    1.06108   1.05497    0.013
 6161.00    1.03903   1.00542    0.013
 6162.00    1.04742   1.01629    0.013
 6163.00    1.05158   1.06409    0.013
 6164.00    1.03563   1.10311    0.013
 6165.00    1.02084   1.12033    0.013
 6166.00    1.01056   1.12970    0.013
 6167.00    1.00761   1.11600    0.013
 6168.00    1.02835   1.07204    0.013
 6169.00    1.04564   1.05642    0.013
 6170.00    1.05349   1.09608    0.013
 6171.00    1.06032   1.13474    0.013
 6172.00    1.06475   1.13874    0.013
 6173.00    1.07345   1.13646    0.013
 6174.00    1.09078   1.13928    0.013
 6175.00    1.09588   1.13702    0.013
 6176.00    1.07940   1.13749    0.013
 6177.00    1.04536   1.15048    0.013
 6178.00    0.98420   1.15733    0.013
 6179.00    0.95448   1.15297    0.013
 6180.00    0.96731   1.15865    0.013
 6181.00    0.98585   1.16902    0.013
 6182.00    1.01117   1.17051    0.013
 6183.00    1.03273   1.16787    0.013
 6184.00    1.05035   1.16138    0.013
 6185.00    1.04909   1.14499    0.013
 6186.00    1.03032   1.13049    0.013
 6187.00    1.03065   1.12618    0.013
 6188.00    1.04660   1.12466    0.013
 6189.00    1.05946   1.10465    0.013
 6190.00    1.07008   1.06744    0.013
 6191.00    1.04915   1.06784    0.013
 6192.00    1.00829   1.11290    0.013
 6193.00    1.00782   1.14565    0.013
 6194.00    1.02966   1.15385    0.013
 6195.00    1.05872   1.15984    0.013
 6196.00    1.09124   1.16486   -2.000
 6197.00    0.91498   1.15439   -2.000
 6198.00    0.65216   1.12711   -2.000
 6199.00    0.43028   1.11157   -2.000
 6200.00    0.22290   1.12725   -2.000
 6201.00    0.34985   1.15299   -2.000
 6202.00    0.57685   1.16470   -2.000
 6203.00    0.90590   1.16333   -2.000
 6204.00    1.26029   1.16224   -2.000
 6205.00    1.32738   1.16626   -2.000
 6206.00    1.33661   1.16902   -2.000
 6207.00    1.23230   1.16832   -2.000
 6208.00    1.11007   1.16576    0.013
 6209.00    1.09747   1.15869    0.013
 6210.00    1.09772   1.14995    0.013
 6211.00    1.08853   1.13522    0.013
 6212.00    1.07860   1.10547    0.012
 6213.00    1.07341   1.08079    0.013
 6214.00    1.06843   1.07620    0.013
 6215.00    1.06817   1.08836    0.013
 6216.00    1.06754   1.11082    0.012
 6217.00    1.04653   1.11848    0.012
 6218.00    1.02580   1.10076    0.012
 6219.00    1.01032   1.08830    0.012
 6220.00    0.99712   1.09824    0.013
 6221.00    1.00912   1.11621    0.012
 6222.00    1.02145   1.12394    0.012
 6223.00    1.03636   1.12005    0.012
 6224.00    1.05224   1.12147    0.012
 6225.00    1.07379   1.12768    0.012
 6226.00    1.08377   1.12974    0.012
 6227.00    1.04005   1.12460    0.013
 6228.00    0.99945   1.09958    0.013
 6229.00    0.97068   1.05920    0.013
 6230.00    0.94801   1.04369    0.013
 6231.00    0.94466   1.06377    0.013
 6232.00    0.96261   1.09314    0.013
 6233.00    1.03773   1.12599    0.013
 6234.00    1.09728   1.14917    0.013
 6235.00    1.12097   1.14752    0.013
 6236.00    1.12652   1.12999    0.013
 6237.00    1.09588   1.11047    0.012
 6238.00    1.07224   1.09493    0.012
 6239.00    1.06071   1.08792    0.013
 6240.00    1.04344   1.09654    0.013
 6241.00    1.01744   1.09659    0.013
 6242.00    0.99775   1.07840    0.012
 6243.00    0.98647   1.07231    0.012
 6244.00    0.97969   1.07513    0.012
 6245.00    0.97819   1.07478    0.012
 6246.00    0.99081   1.08982    0.012
 6247.00    1.01807   1.11789    0.012
 6248.00    1.03153   1.13534    0.012
 6249.00    1.03239   1.13521    0.012
 6250.00    1.03872   1.11492    0.012
 6251.00    1.04947   1.08026    0.012
 6252.00    1.04272   1.06116    0.012
 6253.00    1.02357   1.06540    0.012
 6254.00    1.00311   1.07375    0.012
 6255.00    0.98184   1.06840    0.012
 6256.00    0.97452   1.05310    0.012
 6257.00    0.97479   1.04282    0.012
 6258.00    0.97693   1.05612    0.013
 6259.00    0.97996   1.08582    0.013
 6260.00    0.91979   1.10480    0.014
 6261.00    0.83387   1.12227    0.015
 6262.00    0.80721   1.13969    0.015
 6263.00    0.80117   1.13281    0.016
 6264.00    0.84152   1.11176    0.016
 6265.00    0.89548   1.11253    0.015
 6266.00    1.00452   1.12872    0.015
 6267.00    1.12694   1.13070    0.014
 6268.00    1.14955   1.12082    0.013
 6269.00    1.15259   1.11690    0.013
 6270.00    1.13383   1.12326    0.013
 6271.00    1.11174   1.13455    0.013
 6272.00    1.11514   1.14084    0.012
 6273.00    1.12142   1.13847    0.012
 6274.00    1.12146   1.13691    0.012
 6275.00    1.12104   1.13873    0.013
 6276.00    1.09938   1.13748    0.012
 6277.00    1.07687   1.13146    0.012
 6278.00    1.09048   1.11789    0.012
 6279.00    1.10441   1.10034    0.012
 6280.00    1.12077   1.09807    0.000
 6281.00    1.13668   1.11182    0.000
 6282.00    1.14488   1.12751    0.000
 6283.00    1.15244   1.13703    0.000
 6284.00    1.15335   1.13695    0.000
 6285.00    1.15222   1.14078    0.000
 6286.00    1.13583   1.15290    0.000
 6287.00    1.12088   1.16354    0.000
 6288.00    1.11403   1.16503    0.000
 6289.00    1.11306   1.15297    0.000
 6290.00    1.13870   1.13813    0.000
 6291.00    1.16080   1.13196    0.000
 6292.00    1.16978   1.13360    0.000
 6293.00    1.17570   1.14024    0.000
 6294.00    1.17211   1.13834    0.000
 6295.00    1.16713   1.11854    0.000
 6296.00    1.15846   1.10102    0.000
 6297.00    1.15376   1.10397    0.000
 6298.00    1.15806   1.11587    0.000
 6299.00    1.16417   1.11326    0.000
 6300.00    1.17383   1.09450    0.000
 6301.00    1.18442   1.08612    0.000
 6302.00    1.19660   1.10267    0.000
 6303.00    1.19669   1.12417    0.000
 6304.00    1.17868   1.13151    0.000
 6305.00    1.16271   1.13736    0.000
 6306.00    1.14942   1.15337    0.000
 6307.00    1.14202   1.16383    0.000
 6308.00    1.14144   1.15786    0.000
 6309.00    1.13464   1.14311    0.000
 6310.00    1.12148   1.13150    0.000
 6311.00    1.11340   1.13106    0.000
 6312.00    1.10990   1.13489    0.000
 6313.00    1.10106   1.12269    0.000
 6314.00    1.08797   1.10477    0.000
 6315.00    1.08273   1.10578    0.000
 6316.00    1.08295   1.10348    0.000
 6317.00    1.10747   1.08556    0.000
 6318.00    1.14689   1.08918    0.000
 6319.00    1.15544   1.11538    0.000
 6320.00    1.14746   1.12985    0.000
 6321.00    1.11989   1.12944    0.012
 6322.00    1.08321   1.13503    0.012
 6323.00    1.09302   1.14898    0.012
 6324.00    1.12145   1.15690    0.012
 6325.00    1.15163   1.15613    0.012
 6326.00    1.18241   1.15118    0.012
 6327.00    1.18465   1.15286    0.012
 6328.00    1.17869   1.15534    0.012
 6329.00    1.19298   1.14849    0.012
 6330.00    1.21208   1.14831    0.012
 6331.00    1.21393   1.15986    0.012
 6332.00    1.21249   1.16624    0.012
 6333.00    1.17901   1.14756    0.012
 6334.00    1.14077   1.10797    0.012
 6335.00    1.14234   1.08653    0.012
 6336.00    1.14824   1.10012    0.012
 6337.00    1.14621   1.12146    0.012
 6338.00    1.14363   1.13309    0.012
 6339.00    1.13267   1.14667    0.012
 6340.00    1.12141   1.15656    0.012
 6341.00    1.15186   1.14791    0.012
 6342.00    1.18138   1.12513    0.013
 6343.00    1.17246   1.10829    0.013
 6344.00    1.16374   1.11431    0.013
 6345.00    1.15818   1.12569    0.013
 6346.00    1.15502   1.13104    0.012
 6347.00    1.17603   1.14180    0.012
 6348.00    1.19384   1.15450    0.012
 6349.00    1.18852   1.15916    0.012
 6350.00    1.18392   1.15981    0.012
 6351.00    1.18327   1.15830    0.012
 6352.00    1.18485   1.14768    0.012
 6353.00    1.19627   1.12801    0.012
 6354.00    1.20291   1.11613    0.012
 6355.00    1.19223   1.12260    0.012
 6356.00    1.18507   1.12327    0.012
 6357.00    1.18864   1.10335    0.012
 6358.00    1.18609   1.08784    0.012
 6359.00    1.16769   1.08855    0.012
 6360.00    1.14062   1.08574    0.012
 6361.00    1.09424   1.07665    0.012
 6362.00    1.06636   1.07932    0.012
 6363.00    1.07421   1.09527    0.013
 6364.00    1.08924   1.11178    0.013
 6365.00    1.11635   1.12372    0.013
 6366.00    1.12915   1.13649    0.013
 6367.00    1.12083   1.14758    0.013
 6368.00    1.12186   1.14620    0.013
 6369.00    1.13501   1.13773    0.013
 6370.00    1.15650   1.13818    0.013
 6371.00    1.18752   1.15217    0.013
 6372.00    1.21242   1.16540    0.013
 6373.00    1.23115   1.16660    0.012
 6374.00    1.22664   1.16325    0.012
 6375.00    1.20145   1.16298    0.012
 6376.00    1.19166   1.15909    0.012
 6377.00    1.19392   1.14554    0.012
 6378.00    1.19868   1.13444    0.012
 6379.00    1.20516   1.13252    0.012
 6380.00    1.20584   1.13574    0.012
 6381.00    1.20303   1.14442    0.012
 6382.00    1.19164   1.14870    0.012
 6383.00    1.17574   1.14335    0.012
 6384.00    1.15683   1.14241    0.012
 6385.00    1.13655   1.15118    0.012
 6386.00    1.14487   1.15806    0.012
 6387.00    1.16444   1.15744    0.012
 6388.00    1.16525   1.15584    0.012
 6389.00    1.15978   1.15562    0.012
 6390.00    1.16058   1.14900    0.012
 6391.00    1.16316   1.12385    0.012
 6392.00    1.15741   1.09215    0.013
 6393.00    1.14973   1.09322    0.013
 6394.00    1.14827   1.12777    0.013
 6395.00    1.14798   1.15725    0.013
 6396.00    1.13698   1.16668    0.013
 6397.00    1.12445   1.15256    0.013
 6398.00    1.15439   1.11000    0.013
 6399.00    1.18876   1.07699    0.013
 6400.00    1.20599   1.10209    0.013
 6401.00    1.22206   1.14938    0.012
 6402.00    1.20433   1.17091    0.012
 6403.00    1.18551   1.17354    0.012
 6404.00    1.19619   1.16799    0.012
 6405.00    1.20584   1.15277    0.012
 6406.00    1.18325   1.12986    0.012
 6407.00    1.16133   1.11991    0.012
 6408.00    1.14947   1.13687    0.012
 6409.00    1.13909   1.14605    0.012
 6410.00    1.14299   1.12725    0.012
 6411.00    1.14905   1.11845    0.012
 6412.00    1.17013   1.13129    0.012
 6413.00    1.18790   1.14036    0.012
 6414.00    1.18783   1.14348    0.012
 6415.00    1.18739   1.14872    0.012
 6416.00    1.18537   1.15025    0.012
 6417.00    1.18563   1.14535    0.012
 6418.00    1.19400   1.12906    0.012
 6419.00    1.19820   1.10326    0.012
 6420.00    1.18992   1.09518    0.012
 6421.00    1.18837   1.12261    0.012
 6422.00    1.20397   1.15817    0.012
 6423.00    1.21109   1.16891    0.012
 6424.00    1.19965   1.16521    0.012
 6425.00    1.18846   1.16787    0.012
 6426.00    1.17774   1.17506    0.012
 6427.00    1.16530   1.17445    0.012
 6428.00    1.15001   1.15476    0.012
 6429.00    1.14611   1.11935    0.012
 6430.00    1.15877   1.09927    0.012
 6431.00    1.17531   1.11356    0.012
 6432.00    1.19678   1.13963    0.012
 6433.00    1.20925   1.15786    0.012
 6434.00    1.21156   1.16766    0.012
 6435.00    1.21323   1.16880    0.012
 6436.00    1.21425   1.15366    0.012
 6437.00    1.21768   1.11717    0.012
 6438.00    1.22321   1.09486    0.013
 6439.00    1.22112   1.12078    0.013
 6440.00    1.21316   1.16150    0.013
 6441.00    1.21882   1.17937    0.013
 6442.00    1.23372   1.18206    0.013
 6443.00    1.23364   1.18215    0.013
 6444.00    1.22464   1.18427    0.013
 6445.00    1.20021   1.18647    0.013
 6446.00    1.16777   1.17867    0.013
 6447.00    1.16304   1.14571    0.013
 6448.00    1.17078   1.08987    0.013
 6449.00    1.17941   1.06156    0.013
 6450.00    1.18838   1.09227    0.013
 6451.00    1.18684   1.13805    0.013
 6452.00    1.18184   1.16125    0.012
 6453.00    1.18187   1.15671    0.012
 6454.00    1.18330   1.13149    0.012
 6455.00    1.18010   1.11625    0.012
 6456.00    1.17586   1.13398    0.012
 6457.00    1.16110   1.16481    0.012
 6458.00    1.14443   1.18228    0.012
 6459.00    1.12245   1.17922    0.012
 6460.00    1.09973   1.14671    0.012
 6461.00    1.09758   1.09443    0.012
 6462.00    1.09748   1.07924    0.012
 6463.00    1.13250   1.11463    0.012
 6464.00    1.16974   1.15046    0.013
 6465.00    1.17772   1.16712    0.013
 6466.00    1.18486   1.17370    0.013
 6467.00    1.19525   1.17067    0.013
 6468.00    1.20629   1.15885    0.012
 6469.00    1.23542   1.14618    0.012
 6470.00    1.26172   1.13463    0.013
 6471.00    1.24805   1.13608    0.013
 6472.00    1.23316   1.15025    0.013
 6473.00    1.20689   1.15086    0.013
 6474.00    1.17967   1.13912    0.013
 6475.00    1.14598   1.14070    0.012
 6476.00    1.11357   1.15406    0.012
 6477.00    1.08794   1.15975    0.012
 6478.00    1.07455   1.15839    0.012
 6479.00    1.11279   1.14924    0.012
 6480.00    1.14940   1.12402    0.012
 6481.00    1.18030   1.09926    0.012
 6482.00    1.20519   1.10083    0.012
 6483.00    1.21245   1.12176    0.012
 6484.00    1.21889   1.13883    0.012
 6485.00    1.22329   1.14580    0.012
 6486.00    1.22834   1.14922    0.012
 6487.00    1.23479   1.15034    0.012
 6488.00    1.22742   1.14392    0.012
 6489.00    1.19418   1.13036    0.012
 6490.00    1.16119   1.11734    0.012
 6491.00    1.12861   1.10067    0.012
 6492.00    1.11174   1.06054    0.012
 6493.00    1.11735   1.00462    0.012
 6494.00    1.10951   0.97752    0.012
 6495.00    1.08469   0.98860    0.012
 6496.00    1.05882   1.01653    0.012
 6497.00    1.03179   1.04525    0.012
 6498.00    1.02399   1.06216    0.012
 6499.00    1.03501   1.08165    0.012
 6500.00    1.04526   1.10581    0.012
 6501.00    1.05485   1.12248    0.012
 6502.00    1.06567   1.13152    0.012
 6503.00    1.07743   1.13736    0.012
 6504.00    1.10381   1.14329    0.012
 6505.00    1.13997   1.14702    0.012
 6506.00    1.16783   1.14298    0.012
 6507.00    1.19083   1.13381    0.012
 6508.00    1.20843   1.13155    0.012
 6509.00    1.22327   1.13903    0.012
 6510.00    1.23280   1.14525    0.012
 6511.00    1.23998   1.14526    0.012
 6512.00    1.20728   1.14291    0.012
 6513.00    1.15942   1.13564    0.012
 6514.00    1.17121   1.12118    0.012
 6515.00    1.20225   1.10834    0.012
 6516.00    1.22468   1.10356    0.013
 6517.00    1.24479   1.10138    0.013
 6518.00    1.22835   1.10741    0.013
 6519.00    1.20382   1.12628    0.013
 6520.00    1.20247   1.14126    0.012
 6521.00    1.20520   1.14418    0.012
 6522.00    1.20825   1.14256    0.012
 6523.00    1.21134   1.14393    0.013
 6524.00    1.18626   1.14180    0.012
 6525.00    1.15849   1.12831    0.012
 6526.00    1.12101   1.11743    0.012
 6527.00    1.08296   1.12354    0.012
 6528.00    1.09171   1.13673    0.000
 6529.00    1.10185   1.14163    0.000
 6530.00    1.14257   1.13437    0.000
 6531.00    1.18227   1.12236    0.000
 6532.00    1.19649   1.11688    0.000
 6533.00    1.20842   1.12400    0.000
 6534.00    1.18962   1.13691    0.000
 6535.00    1.17294   1.14168    0.000
 6536.00    1.17516   1.13701    0.000
 6537.00    1.17702   1.13617    0.000
 6538.00    1.17661   1.14377    0.000
 6539.00    1.18070   1.14924    0.000
 6540.00    1.20780   1.14369    0.000
 6541.00    1.23204   1.13126    0.000
 6542.00    1.24452   1.12082    0.000
 6543.00    1.25145   1.11162    0.000
 6544.00    1.23937   1.09325    0.000
 6545.00    1.23087   1.07353    0.000
 6546.00    1.23266   1.07781    0.000
 6547.00    1.23199   1.09801    0.000
 6548.00    1.22528   1.10848    0.000
 6549.00    1.21494   1.10388    0.000
 6550.00    1.19693   1.09366    0.000
 6551.00    1.18839   1.08618    0.000
 6552.00    1.19730   1.07624    0.000
 6553.00    1.19859   1.05813    0.000
 6554.00    1.18762   1.04112    0.000
 6555.00    1.17996   1.03708    0.000
 6556.00    1.17697   1.04318    0.000
 6557.00    1.17121   1.04252    0.000
 6558.00    1.16201   1.02592    0.000
 6559.00    1.15348   0.98531    0.000
 6560.00    1.14570   0.88871    0.000
 6561.00    1.14414   0.74832    0.000
 6562.00    1.14860   0.70006    0.000
 6563.00    1.14017   0.81038    0.000
 6564.00    1.12076   0.94897    0.000
 6565.00    1.12028   1.02126    0.000
 6566.00    1.13400   1.04981    0.000
 6567.00    1.12391   1.05480    0.000
 6568.00    1.09813   1.04898    0.000
 6569.00    1.09266   1.05388    0.000
 6570.00    1.09892   1.06343    0.000
 6571.00    1.12512   1.05909    0.000
 6572.00    1.16135   1.04703    0.000
 6573.00    1.16776   1.04208    0.000
 6574.00    1.16120   1.05280    0.000
 6575.00    1.15544   1.07945    0.000
 6576.00    1.14997   1.10449    0.000
 6577.00    1.14732   1.11491    0.000
 6578.00    1.14557   1.11162    0.000
 6579.00    1.14961   1.09987    0.000
 6580.00    1.15517   1.09216    0.000
 6581.00    1.18555   1.09955    0.000
 6582.00    1.22130   1.11094    0.000
 6583.00    1.28396   1.11416    0.000
 6584.00    1.35124   1.10937    0.000
 6585.00    1.39366   1.10360    0.000
 6586.00    1.43285   1.10906    0.000
 6587.00    1.39525   1.12197    0.000
 6588.00    1.35063   1.12941    0.000
 6589.00    1.31002   1.12799    0.000
 6590.00    1.26963   1.10910    0.000
 6591.00    1.24650   1.06880    0.000
 6592.00    1.22397   1.03633    0.000
 6593.00    1.22439   1.04892    0.000
 6594.00    1.22294   1.08701    0.000
 6595.00    1.17881   1.10755    0.000
 6596.00    1.13677   1.10537    0.000
 6597.00    1.12104   1.09755    0.000
 6598.00    1.11026   1.10133    0.000
 6599.00    1.14179   1.11818    0.000
 6600.00    1.17203   1.13185    0.000
 6601.00    1.19403   1.13250    0.000
 6602.00    1.21309   1.12407    0.000
 6603.00    1.21750   1.11189    0.000
 6604.00    1.21313   1.10298    0.000
 6605.00    1.17330   1.10004    0.000
 6606.00    1.13904   1.09517    0.000
 6607.00    1.12339   1.08370    0.000
 6608.00    1.11812   1.07726    0.000
 6609.00    1.14222   1.09344    0.013
 6610.00    1.15365   1.11842    0.013
 6611.00    1.13442   1.12542    0.013
 6612.00    1.11637   1.11699    0.012
 6613.00    1.10077   1.11465    0.012
 6614.00    1.10536   1.12509    0.012
 6615.00    1.14659   1.13108    0.012
 6616.00    1.17365   1.12747    0.012
 6617.00    1.17826   1.12526    0.012
 6618.00    1.18302   1.12931    0.012
 6619.00    1.18797   1.13414    0.012
 6620.00    1.19560   1.13492    0.012
 6621.00    1.20650   1.12954    0.012
 6622.00    1.21812   1.11598    0.012
 6623.00    1.23053   1.09888    0.012
 6624.00    1.23249   1.09329    0.012
 6625.00    1.22450   1.10365    0.012
 6626.00    1.21361   1.11270    0.012
 6627.00    1.20026   1.11428    0.012
 6628.00    1.18664   1.11285    0.012
 6629.00    1.17282   1.10945    0.012
 6630.00    1.17026   1.10311    0.012
 6631.00    1.17502   1.09079    0.013
 6632.00    1.16481   1.07389    0.013
 6633.00    1.14609   1.06840    0.013
 6634.00    1.15677   1.08412    0.013
 6635.00    1.18200   1.10485    0.013
 6636.00    1.21550   1.11532    0.013
 6637.00    1.25255   1.11475    0.013
 6638.00    1.25728   1.10910    0.013
 6639.00    1.25015   1.10856    0.013
 6640.00    1.22428   1.11476    0.013
 6641.00    1.19259   1.10860    0.013
 6642.00    1.16358   1.08620    0.012
 6643.00    1.13526   1.07965    0.012
 6644.00    1.15457   1.09609    0.012
 6645.00    1.18393   1.10816    0.012
 6646.00    1.20082   1.10778    0.012
 6647.00    1.21564   1.10791    0.012
 6648.00    1.20997   1.11182    0.012
 6649.00    1.20174   1.11192    0.012
 6650.00    1.20833   1.10640    0.012
 6651.00    1.21623   1.10244    0.012
 6652.00    1.22241   1.10245    0.012
 6653.00    1.22850   1.10401    0.012
 6654.00    1.26408   1.10552    0.013
 6655.00    1.29907   1.10459    0.013
 6656.00    1.25507   1.10404    0.013
 6657.00    1.21137   1.10547    0.013
 6658.00    1.17416   1.10442    0.013
 6659.00    1.14057   1.09951    0.013
 6660.00    1.15062   1.09216    0.013
 6661.00    1.15965   1.07779    0.013
 6662.00    1.16029   1.06114    0.013
 6663.00    1.15755   1.06372    0.013
 6664.00    1.13383   1.07945    0.012
 6665.00    1.11723   1.08637    0.012
 6666.00    1.13519   1.08615    0.012
 6667.00    1.14520   1.08921    0.012
 6668.00    1.12377   1.09892    0.012
 6669.00    1.11638   1.10892    0.012
 6670.00    1.15507   1.11245    0.012
 6671.00    1.18389   1.11082    0.012
 6672.00    1.18528   1.11018    0.012
 6673.00    1.18751   1.11136    0.013
 6674.00    1.19175   1.11015    0.013
 6675.00    1.19460   1.09487    0.013
 6676.00    1.19458   1.05997    0.013
 6677.00    1.19540   1.03669    0.013
 6678.00    1.19769   1.05284    0.013
 6679.00    1.19833   1.08053    0.013
 6680.00    1.19641   1.09038    0.013
 6681.00    1.18674   1.09263    0.013
 6682.00    1.16645   1.09749    0.013
 6683.00    1.14157   1.10207    0.013
 6684.00    1.11116   1.10323    0.013
 6685.00    1.11340   1.10190    0.013
 6686.00    1.15041   1.09914    0.013
 6687.00    1.15646   1.09692    0.012
 6688.00    1.13344   1.09919    0.012
 6689.00    1.12899   1.10253    0.012
 6690.00    1.13994   1.10325    0.012
 6691.00    1.13829   1.10238    0.012
 6692.00    1.12746   1.10198    0.012
 6693.00    1.12804   1.09764    0.012
 6694.00    1.13592   1.08521    0.012
 6695.00    1.13963   1.07161    0.012
 6696.00    1.14102   1.07018    0.000
 6697.00    1.13130   1.07868    0.000
 6698.00    1.11618   1.08950    0.000
 6699.00    1.13396   1.10022    0.000
 6700.00    1.16558   1.10368    0.000
 6701.00    1.17339   1.09757    0.000
 6702.00    1.17263   1.08646    0.000
 6703.00    1.14136   1.07882    0.000
 6704.00    1.10080   1.08177    0.000
 6705.00    1.06618   1.09084    0.000
 6706.00    1.03307   1.09602    0.000
 6707.00    1.05752   1.09622    0.000
 6708.00    1.09381   1.09402    0.000
 6709.00    1.12775   1.08970    0.000
 6710.00    1.16131   1.08909    0.000
 6711.00    1.12066   1.08870    0.000
 6712.00    1.07103   1.08142    0.000
 6713.00    1.09012   1.07211    0.000
 6714.00    1.11491   1.06163    0.000
 6715.00    1.13446   1.04556    0.000
 6716.00    1.15376   1.02984    0.000
 6717.00    1.14762   1.03453    0.000
 6718.00    1.14149   1.05901    0.000
 6719.00    1.15616   1.07557    0.000
 6720.00    1.17005   1.07558    0.000
 6721.00    1.16889   1.07528    0.000
 6722.00    1.16618   1.08282    0.000
 6723.00    1.14566   1.08707    0.000
 6724.00    1.12557   1.08017    0.000
 6725.00    1.10896   1.07242    0.000
 6726.00    1.09364   1.07550    0.000
 6727.00    1.08610   1.08347    0.000
 6728.00    1.08514   1.08834    0.000
 6729.00    1.11538   1.09139    0.000
 6730.00    1.14343   1.09157    0.000
 6731.00    1.16304   1.08799    0.000
 6732.00    1.18060   1.08390    0.000
 6733.00    1.19157   1.08393    0.000
 6734.00    1.19246   1.08714    0.000
 6735.00    1.16590   1.08907    0.000
 6736.00    1.13144   1.08332    0.000
 6737.00    1.07854   1.07259    0.000
 6738.00    1.05482   1.06758    0.000
 6739.00    1.09007   1.07211    0.000
 6740.00    1.11231   1.07659    0.000
 6741.00    1.11165   1.07092    0.000
 6742.00    1.10071   1.06427    0.000
 6743.00    1.07397   1.06851    0.000
 6744.00    1.07431   1.07509    0.000
 6745.00    1.11127   1.07454    0.000
 6746.00    1.12831   1.07011    0.000
 6747.00    1.12163   1.06416    0.000
 6748.00    1.12985   1.05685    0.000
 6749.00    1.15371   1.05385    0.000
 6750.00    1.12286   1.05955    0.000
 6751.00    1.04135   1.06217    0.000
 6752.00    1.01039   1.06153    0.000
 6753.00    1.02070   1.06914    0.014
 6754.00    1.05064   1.07749    0.014
 6755.00    1.09469   1.08189    0.015
 6756.00    1.10997   1.08665    0.015
 6757.00    1.10712   1.09200    0.015
 6758.00    1.09719   1.09624    0.015
 6759.00    1.08334   1.09752    0.015
 6760.00    1.14263   1.09502    0.015
 6761.00    1.23696   1.09152    0.015
 6762.00    1.29944   1.09214    0.015
 6763.00    1.34874   1.09280    0.015
 6764.00    1.34590   1.08771    0.016
 6765.00    1.32461   1.07485    0.016
 6766.00    1.28020   1.06178    0.016
 6767.00    1.22889   1.06176    0.015
 6768.00    1.22536   1.07130    0.015
 6769.00    1.23366   1.07307    0.015
 6770.00    1.20413   1.06815    0.015
 6771.00    1.16701   1.07122    0.015
 6772.00    1.21333   1.08263    0.015
 6773.00    1.27276   1.09418    0.015
 6774.00    1.25367   1.10049    0.014
 6775.00    1.22542   1.10182    0.014
 6776.00    1.19531   1.10051    0.014
 6777.00    1.16504   1.10142    0.014
 6778.00    1.18508   1.10460    0.014
 6779.00    1.20730   1.10250    0.014
 6780.00    1.17785   1.09306    0.014
 6781.00    1.14803   1.07766    0.014
 6782.00    1.12579   1.06090    0.014
 6783.00    1.10625   1.05134    0.014
 6784.00    1.13542   1.05289    0.014
 6785.00    1.16000   1.06026    0.014
 6786.00    1.13430   1.07036    0.014
 6787.00    1.11071   1.07915    0.014
 6788.00    1.10326   1.08096    0.014
 6789.00    1.10110   1.07949    0.015
 6790.00    1.12979   1.08065    0.015
 6791.00    1.15493   1.07902    0.015
 6792.00    1.16368   1.07166    0.015
 6793.00    1.17676   1.06796    0.015
 6794.00    1.20621   1.07021    0.015
 6795.00    1.22110   1.07277    0.015
 6796.00    1.18998   1.07574    0.015
 6797.00    1.15588   1.07754    0.014
 6798.00    1.11380   1.07956    0.014
 6799.00    1.10688   1.08320    0.014
 6800.00    1.18072   1.08744    0.014
 6801.00    1.22176   1.08865    0.014
 6802.00    1.19754   1.08399    0.014
 6803.00    1.18852   1.07938    0.014
 6804.00    1.20583   1.07977    0.014
 6805.00    1.20647   1.07861    0.014
 6806.00    1.18180   1.07694    0.014
 6807.00    1.15864   1.07938    0.014
 6808.00    1.13750   1.07771    0.014
 6809.00    1.14408   1.07347    0.014
 6810.00    1.18321   1.07655    0.014
 6811.00    1.17659   1.08161    0.015
 6812.00    1.12262   1.07998    0.015
 6813.00    1.10924   1.07191    0.015
 6814.00    1.13293   1.06795    0.016
 6815.00    1.14492   1.07619    0.015
 6816.00    1.14750   1.08658    0.015
 6817.00    1.14477   1.08660    0.015
 6818.00    1.13828   1.07810    0.015
 6819.00    1.13361   1.07253    0.014
 6820.00    1.13007   1.07754    0.014
 6821.00    1.15128   1.08794    0.014
 6822.00    1.18591   1.09397    0.014
 6823.00    1.21493   1.09504    0.014
 6824.00    1.24131   1.09432    0.014
 6825.00    1.21694   1.09046    0.014
 6826.00    1.17195   1.07848    0.014
 6827.00    1.14679   1.06636    0.014
 6828.00    1.12852   1.06823    0.014
 6829.00    1.14645   1.08061    0.014
 6830.00    1.17497   1.08851    0.015
 6831.00    1.15711   1.08700    0.014
 6832.00    1.12802   1.08505    0.014
 6833.00    1.09860   1.08905    0.014
 6834.00    1.06910   1.09334    0.014
 6835.00    1.10255   1.09071    0.015
 6836.00    1.14558   1.08245    0.015
 6837.00    1.21216   1.07181    0.015
 6838.00    1.28139   1.05972    0.016
 6839.00    1.21297   1.04764    0.016
 6840.00    1.13426   1.03687    0.016
 6841.00    1.11728   1.03559    0.016
 6842.00    1.10274   1.04759    0.015
 6843.00    1.15455   1.06582    0.015
 6844.00    1.20646   1.07951    0.015
 6845.00    1.24376   1.08361    0.014
 6846.00    1.27475   1.08337    0.014
 6847.00    1.19910   1.08324    0.014
 6848.00    1.12980   1.08162    0.014
 6849.00    1.12680   1.08014    0.014
 6850.00    1.12535   1.08039    0.014
 6851.00    1.13551   1.08150    0.014
 6852.00    1.14244   1.07806    0.014
 6853.00    1.13110   1.06286    0.014
 6854.00    1.11366   1.04723    0.014
 6855.00    1.06870   1.04804    0.014
 6856.00    1.03844   1.05692    0.014
 6857.00    1.06254   1.06224    0.015
 6858.00    1.06879   1.06479    0.015
 6859.00    1.01973   1.05932    0.015
 6860.00    1.00150   1.04878    0.015
 6861.00    1.06441   1.05111    0.015
 6862.00    1.11366   1.06916    0.015
 6863.00    1.13205   1.08493    0.015
 6864.00    1.13888   1.08579    0.015
 6865.00    1.12306   1.07542    0.015
 6866.00    1.09134   1.06121    0.015
 6867.00    1.03248   1.05196    0.015
 6868.00    1.03265   1.05792    0.015
 6869.00    1.12103   1.06878    0.015
 6870.00    1.14652   1.06750    0.015
 6871.00    1.08937   1.06059    0.014
 6872.00    1.07609   1.06162    0.014
 6873.00    1.11356   1.06598    0.014
 6874.00    1.13415   1.06749    0.014
 6875.00    1.13753   1.07150    0.014
 6876.00    1.12476   1.07996    0.015
 6877.00    1.09747   1.08676    0.015
 6878.00    1.10151   1.08643    0.015
 6879.00    1.13041   1.08020    0.015
 6880.00    1.15636   1.06896    0.015
 6881.00    1.18026   1.05750    0.015
 6882.00    1.16921   1.05725    0.015
 6883.00    1.13677   1.06757    0.015
 6884.00    1.15110   1.07351    0.015
 6885.00    1.19042   1.07172    0.015
 6886.00    1.13093   1.07659    0.015
 6887.00    1.02560   1.08701    0.015
 6888.00    1.02629   1.09187    0.015
 6889.00    1.06937   1.09404    0.015
 6890.00    1.07247   1.09676    0.015
 6891.00    1.06195   1.09427    0.014
 6892.00    1.08385   1.08912    0.014
 6893.00    1.11504   1.08636    0.014
 6894.00    1.15236   1.08298    0.014
 6895.00    1.19113   1.08064    0.015
 6896.00    1.17714   1.08372    0.015
 6897.00    1.15310   1.08864    0.015
 6898.00    1.12048   1.08695    0.015
 6899.00    1.08660   1.08044    0.015
 6900.00    1.13365   1.08166    0.015
 6901.00    1.18944   1.09081    0.015
 6902.00    1.20019   1.09537    0.016
 6903.00    1.20776   1.09198    0.016
 6904.00    1.18564   1.08861    0.015
 6905.00    1.16245   1.09268    0.015
 6906.00    1.15759   1.10043    0.015
 6907.00    1.15288   1.10303    0.016
 6908.00    1.15094   1.10103    0.015
 6909.00    1.14953   1.09713    0.015
 6910.00    1.15637   1.09228    0.015
 6911.00    1.16011   1.08697    0.015
 6912.00    1.13270   1.07646    0.015
 6913.00    1.10730   1.06616    0.014
 6914.00    1.09631   1.06769    0.014
 6915.00    1.08782   1.07282    0.014
 6916.00    1.09319   1.07463    0.014
 6917.00    1.09672   1.07913    0.014
 6918.00    1.09221   1.08547    0.014
 6919.00    1.09260   1.09239    0.015
 6920.00    1.11077   1.09849    0.015
 6921.00    1.12711   1.09759    0.015
 6922.00    1.13791   1.08572    0.015
 6923.00    1.12988   1.06813    0.015
 6924.00    1.07319   1.05960    0.015
 6925.00    1.05432   1.06618    0.016
 6926.00    1.11951   1.08111    0.015
 6927.00    1.15800   1.09126    0.016
 6928.00    1.14506   1.09305    0.016
 6929.00    1.12995   1.09201    0.016
 6930.00    1.11119   1.08864    0.016
 6931.00    1.07499   1.08117    0.015
 6932.00    1.01310   1.07505    0.015
 6933.00    1.00754   1.07994    0.015
 6934.00    1.07491   1.08908    0.015
 6935.00    1.11811   1.09089    0.015
 6936.00    1.13374   1.08855    0.015
 6937.00    1.11024   1.08808    0.015
 6938.00    1.04736   1.09262    0.015
 6939.00    1.03074   1.09884    0.015
 6940.00    1.05516   1.10020    0.015
 6941.00    1.09176   1.09416    0.015
 6942.00    1.13788   1.08229    0.015
 6943.00    1.16485   1.06658    0.015
 6944.00    1.17865   1.05805    0.016
 6945.00    1.14426   1.06918    0.016
 6946.00    1.08082   1.08746    0.016
 6947.00    1.06419   1.09703    0.016
 6948.00    1.07219   1.09843    0.016
 6949.00    1.07003   1.09154    0.016
 6950.00    1.06325   1.07985    0.016
 6951.00    1.06773   1.07451    0.016
 6952.00    1.07662   1.07440    0.016
 6953.00    1.09624   1.07524    0.016
 6954.00    1.11944   1.08045    0.016
 6955.00    1.13461   1.08909    0.015
 6956.00    1.14753   1.09451    0.015
 6957.00    1.09094   1.09525    0.015
 6958.00    1.01827   1.09466    0.015
 6959.00    0.99872   1.09507    0.015
 6960.00    0.98901   1.09767    0.015
 6961.00    1.04609   1.10069    0.015
 6962.00    1.11273   1.10246    0.015
 6963.00    1.14405   1.10056    0.016
 6964.00    1.17170   1.09382    0.016
 6965.00    1.12397   1.09085    0.016
 6966.00    1.07121   1.09819    0.016
 6967.00    1.04994   1.10716    0.016
 6968.00    1.02969   1.10727    0.016
 6969.00    1.04003   1.10039    0.016
 6970.00    1.05001   1.09478    0.016
 6971.00    1.04935   1.09819    0.016
 6972.00    1.05121   1.10405    0.016
 6973.00    1.09060   1.09935    0.016
 6974.00    1.12242   1.08607    0.016
 6975.00    1.08150   1.07037    0.016
 6976.00    1.04184   1.04857    0.015
 6977.00    1.01090   1.02464    0.015
 6978.00    0.99229   1.02412    0.015
 6979.00    1.03981   1.05260    0.015
 6980.00    1.06661   1.08238    0.015
 6981.00    1.00413   1.09859    0.015
 6982.00    0.96126   1.10625    0.015
 6983.00    0.98799   1.10834    0.015
 6984.00    1.01460   1.10736    0.015
 6985.00    1.04091   1.10615    0.015
 6986.00    1.05356   1.10288    0.016
 6987.00    1.03156   1.09441    0.016
 6988.00    1.02962   1.08619    0.016
 6989.00    1.07154   1.08793    0.016
 6990.00    1.10475   1.09777    0.016
 6991.00    1.12144   1.10564    0.016
 6992.00    1.11861   1.10475    0.016
 6993.00    1.08345   1.09877    0.016
 6994.00    1.07456   1.09773    0.016
 6995.00    1.10380   1.10197    0.016
 6996.00    1.11156   1.10309    0.016
 6997.00    1.09191   1.09338    0.016
 6998.00    1.07200   1.07704    0.016
 6999.00    1.05178   1.07064    0.016
 7000.00    1.03042   1.08133    0.016
 7001.00    1.00794   1.09343    0.015
 7002.00    1.02521   1.08985    0.015
 7003.00    1.07728   1.07645    0.015
 7004.00    1.09172   1.06978    0.015
 7005.00    1.07715   1.07291    0.015
 7006.00    1.08295   1.08100    0.016
 7007.00    1.10254   1.09029    0.016
 7008.00    1.12867   1.09705    0.016
 7009.00    1.15866   1.09602    0.016
 7010.00    1.13875   1.09026    0.016
 7011.00    1.09299   1.09012    0.017
 7012.00    1.08118   1.09437    0.016
 7013.00    1.08460   1.08811    0.016
 7014.00    1.04226   1.06260    0.016
 7015.00    0.98225   1.03711    0.016
 7016.00    0.93345   1.04406    0.016
 7017.00    0.88833   1.07701    0.016
 7018.00    0.90535   1.10162    0.016
 7019.00    0.93946   1.10971    0.016
 7020.00    0.95601   1.10711    0.016
 7021.00    0.96859   1.09296    0.016
 7022.00    1.00420   1.07221    0.016
 7023.00    1.04397   1.06200    0.016
 7024.00    1.03568   1.07025    0.016
 7025.00    1.02074   1.08467    0.016
 7026.00    1.05758   1.09179    0.016
 7027.00    1.09957   1.09464    0.016
 7028.00    1.04592   1.09874    0.016
 7029.00    0.98629   1.10311    0.016
 7030.00    1.00820   1.10359    0.016
 7031.00    1.03219   1.09931    0.016
 7032.00    0.99707   1.09549    0.017
 7033.00    0.96410   1.09477    0.017
 7034.00    0.99062   1.09828    0.017
 7035.00    1.01729   1.10120    0.017
 7036.00    1.04616   1.08847    0.017
 7037.00    1.07464   1.06876    0.017
 7038.00    1.09955   1.07522    0.017
 7039.00    1.11907   1.10640    0.017
 7040.00    1.10223   1.13186    0.016
 7041.00    1.08308   1.14087    0.016
 7042.00    1.05186   1.13698    0.016
 7043.00    1.03564   1.12409    0.016
 7044.00    1.08255   1.11432    0.016
 7045.00    1.11967   1.11895    0.016
 7046.00    1.12279   1.13177    0.016
 7047.00    1.12382   1.14102    0.016
 7048.00    1.11877   1.14132    0.016
 7049.00    1.11104   1.13375    0.016
 7050.00    1.09665   1.11821   -2.000
 7051.00    1.08225   1.09280   -2.000
 7052.00    1.06784   1.06730   -2.000
 7053.00    1.07080   1.05412   -2.000
 7054.00    1.10620   1.05482   -2.000
 7055.00    1.10085   1.06595   -2.000
 7056.00    1.02903   1.07689   -2.000
 7057.00    1.02400   1.07500   -2.000
 7058.00    1.11451   1.05926   -2.000
 7059.00    1.19159   1.04505   -2.000
 7060.00    1.25179   1.04608   -2.000
 7061.00    1.24388   1.05564   -2.000
 7062.00    1.16045   1.06408   -2.000
 7063.00    1.10075   1.07124   -2.000
 7064.00    1.06425   1.07020   -2.000
 7065.00    1.08446   1.05747   -2.000
 7066.00    1.15359   1.04110   -2.000
 7067.00    1.14801   1.03067   -2.000
 7068.00    1.08566   1.03768   -2.000
 7069.00    1.02659   1.05839   -2.000
 7070.00    0.96971   1.07338   -2.000
 7071.00    1.01197   1.07721   -2.000
 7072.00    1.11223   1.07827   -2.000
 7073.00    1.16237   1.07847   -2.000
 7074.00    1.18697   1.07620   -2.000
 7075.00    1.22041   1.07425   -2.000
 7076.00    1.25774   1.07540   -2.000
 7077.00    1.21610   1.07815   -2.000
 7078.00    1.14451   1.08043   -2.000
 7079.00    1.18622   1.08335   -2.000
 7080.00    1.26442   1.08323   -2.000
 7081.00    1.10873   1.07145   -2.000
 7082.00    0.89003   1.04711   -2.000
 7083.00    0.98455   1.02231   -2.000
 7084.00    1.14822   1.01495   -2.000
 7085.00    1.16411   1.02199   -2.000
 7086.00    1.15403   1.02219   -2.000
 7087.00    1.11148   1.01410   -2.000
 7088.00    1.06458   1.00672   -2.000
 7089.00    0.97792   1.00258   -2.000
 7090.00    0.88749   1.00466   -2.000
 7091.00    0.96750   1.00952   -2.000
 7092.00    1.05750   1.01023   -2.000
 7093.00    1.08255   1.01090   -2.000
 7094.00    1.10598   1.01118   -2.000
 7095.00    1.12800   1.01129   -2.000
 7096.00    1.14265   1.01345   -2.000
 7097.00    0.97442   1.02208   -2.000
 7098.00    0.82081   1.03674   -2.000
 7099.00    0.86129   1.04149   -2.000
 7100.00    0.89949   1.03712   -2.000
 7101.00    0.91748   1.02987   -2.000
 7102.00    0.93266   1.02952   -2.000
 7103.00    0.92943   1.03793   -2.000
 7104.00    0.93214   1.04523   -2.000
 7105.00    0.96511   1.04229   -2.000
 7106.00    0.97389   1.03591   -2.000
 7107.00    0.88311   1.03588   -2.000
 7108.00    0.82594   1.03633   -2.000
 7109.00    0.88333   1.02760   -2.000
 7110.00    0.91983   1.01656   -2.000
 7111.00    0.89629   1.01715   -2.000
 7112.00    0.89352   1.02790   -2.000
 7113.00    0.94172   1.03624   -2.000
 7114.00    0.96899   1.03970   -2.000
 7115.00    0.95196   1.04333   -2.000
 7116.00    0.93651   1.04539   -2.000
 7117.00    0.92398   1.04458   -2.000
 7118.00    0.94128   1.04278   -2.000
 7119.00    1.00651   1.03975   -2.000
 7120.00    1.05391   1.03324   -2.000
 7121.00    1.07619   1.02782   -2.000
 7122.00    1.06878   1.03367   -2.000
 7123.00    1.02452   1.03948   -2.000
 7124.00    0.91009   1.03027   -2.000
 7125.00    0.71893   1.01753   -2.000
 7126.00    0.68797   1.01490   -2.000
 7127.00    0.81152   1.01729   -2.000
 7128.00    0.88146   1.01082   -2.000
 7129.00    0.90582   0.99487   -2.000
 7130.00    0.88054   0.98810   -2.000
 7131.00    0.81808   0.99983   -2.000
 7132.00    0.82895   1.01643   -2.000
 7133.00    0.88805   1.02819   -2.000
 7134.00    0.98603   1.03343   -2.000
 7135.00    1.10640   1.03574   -2.000
 7136.00    1.08467   1.03815   -2.000
 7137.00    0.99163   1.03323   -2.000
 7138.00    0.94325   1.02549   -2.000
 7139.00    0.91427   1.02779   -2.000
 7140.00    0.83802   1.03633   -2.000
 7141.00    0.74417   1.03865   -2.000
 7142.00    0.86698   1.03720   -2.000
 7143.00    1.05824   1.03686   -2.000
 7144.00    0.93500   1.03585   -2.000
 7145.00    0.72881   1.03084   -2.000
 7146.00    0.76431   1.01355   -2.000
 7147.00    0.85191   0.99534   -2.000
 7148.00    0.85833   1.00181   -2.000
 7149.00    0.85088   1.02249   -2.000
 7150.00    0.88698   1.03711   -2.000
 7151.00    0.92871   1.04886   -2.000
 7152.00    0.86099   1.05726   -2.000
 7153.00    0.78332   1.05514   -2.000
 7154.00    0.79629   1.04950   -2.000
 7155.00    0.81422   1.05481   -2.000
 7156.00    0.91481   1.06569   -2.000
 7157.00    1.01492   1.06425   -2.000
 7158.00    0.91239   1.05306   -2.000
 7159.00    0.80274   1.04662   -2.000
 7160.00    0.53140   1.05062   -2.000
 7161.00    0.27899   1.05055   -2.000
 7162.00    0.26496   1.02653   -2.000
 7163.00    0.30241   0.99485   -2.000
 7164.00    0.77901   0.98314   -2.000
 7165.00    1.20521   1.00236   -2.000
 7166.00    1.31202   1.02981   -2.000
 7167.00    1.34320   1.04264   -2.000
 7168.00    0.99891   1.04189   -2.000
 7169.00    0.73053   1.04069   -2.000
 7170.00    0.76768   1.04573   -2.000
 7171.00    0.83024   1.05350   -2.000
 7172.00    0.97772   1.05665   -2.000
 7173.00    1.09105   1.05109   -2.000
 7174.00    1.10806   1.03890   -2.000
 7175.00    1.11720   1.03006   -2.000
 7176.00    1.10734   1.03538   -2.000
 7177.00    1.04193   1.04430   -2.000
 7178.00    0.86086   1.03636   -2.000
 7179.00    0.77644   1.01455   -2.000
 7180.00    0.86703   1.00196   -2.000
 7181.00    0.91447   1.01367   -2.000
 7182.00    0.89361   1.03844   -2.000
 7183.00    0.90054   1.05066   -2.000
 7184.00    0.94609   1.04429   -2.000
 7185.00    0.94887   1.02487   -2.000
 7186.00    0.89936   1.00046   -2.000
 7187.00    0.84922   0.99078   -2.000
 7188.00    0.79839   0.99929   -2.000
 7189.00    0.75817   1.01522   -2.000
 7190.00    0.72802   1.02762   -2.000
 7191.00    0.80227   1.02670   -2.000
 7192.00    0.96404   1.02215   -2.000
 7193.00    1.00328   1.02634   -2.000
 7194.00    0.95208   1.03486   -2.000
 7195.00    0.95002   1.03206   -2.000
 7196.00    0.97982   1.02337   -2.000
 7197.00    0.97114   1.02721   -2.000
 7198.00    0.94062   1.03717   -2.000
 7199.00    0.75736   1.03760   -2.000
 7200.00    0.49867   1.02647   -2.000
 7201.00    0.42097   1.01886   -2.000
 7202.00    0.42056   1.02956   -2.000
 7203.00    0.51876   1.04608   -2.000
 7204.00    0.65304   1.04418   -2.000
 7205.00    0.89070   1.01719   -2.000
 7206.00    1.16038   0.98788   -2.000
 7207.00    1.09149   0.98554   -2.000
 7208.00    0.93522   1.00519   -2.000
 7209.00    0.89209   1.02942   -2.000
 7210.00    0.87276   1.04627   -2.000
 7211.00    0.13812   1.04526   -2.000
 7212.00   -0.71532   1.03491   -2.000
 7213.00   -0.14284   1.02751   -2.000
 7214.00    0.60781   1.02629   -2.000
 7215.00    0.67490   1.03232   -2.000
 7216.00    0.68278   1.04421   -2.000
 7217.00    0.79483   1.05221   -2.000
 7218.00    0.91218   1.04941   -2.000
