###################################################################
## OUTPUT of StarlightChains_v04.for    [Cid@UFSC - 01/Apr/2007] ##
###################################################################

## Some input info
KUG0210-078._52_44.txt                   [arq_obs]
Base.CB07.vall.4m                        [arq_base]
Masks.EmLines.NEW.gm                     [arq_masks]
StCv04.C11.config                        [arq_config]
   66                                    [N_base]
    0                                    [N_YAV_components = # of components with extra extinction!]
    0                                    [i_FitPowerLaw (1/0 = Yes/No)]
-9.99                                    [alpha_PowerLaw]
CCM                                      [red_law_option]
 1.458241                                [q_norm = A(l_norm)/A(V)]

## (Re)Sampling Parameters
 3741.00                                 [l_ini (A)]
 7218.00                                 [l_fin (A)]
    1.00                                 [dl    (A)]     (OBS: dl_cushion =    50.00 A)

## Normalization info
 4020.00                                 [l_norm (A) - for base]
 4010.00                                 [llow_norm (A) - window for f_obs]
 4060.00                                 [lupp_norm (A) - window for f_obs]
6.762742E-18                             [fobs_norm (in input units)]

## S/N
 3691.00                                 [llow_SN (A) - window for S/N]
 7268.00                                 [lupp_SN (A) - window for S/N]
   2.338                                 [S/N in S/N window]
   3.126                                 [S/N in norm. window]
   0.006                                 [S/N_err in S/N window]
   0.008                                 [S/N_err in norm. window]
  1.0000                                 [fscale_chi2]

## etc...
    -2007987                             [idum_orig]
  2354                                   [NOl_eff]
  2169                                   [Nl_eff]
   185    NSIGMA                         [Ntot_cliped & clip_method]
 10345020                                [Nglobal_steps]
   7                                     [N_chains]
  24                                     [NEX0s_base = N_base in EX0s-fits]
 0   0   1      185   2.0   4.107E+03    [Clip-Bug, RC-Crash & Burn-In warning-flags, n_censored_weights, wei_nsig_threshold & wei_limit]
    78     77.968     77.373      0.595  [idt_all, wdt_TotTime, wdt_UsrTime & wdt_SysTime (sec)]

## Synthesis Results - Best model ##

 7.32566E-06                             [chi2/Nl_eff]
    22.17496                             [adev (%)]

   125.90853                             [sum-of-x (%)]
 1.00564E-17                             [Flux_tot (units of input spectrum!)]
 3.10687E-14                             [Mini_tot (???)]
 1.70179E-14                             [Mcor_tot (???)]

-156.50                                  [v0_min  (km/s)]
 109.87                                  [vd_min  (km/s)]
 0.1239                                  [AV_min  (mag)]
 0.0000                                  [YAV_min (mag)]

# j     x_j(%)      Mini_j(%)     Mcor_j(%)     age_j(yr)     Z_j      (L/M)_j    YAV?  Mstars   component_j        a/Fe...       SSP_chi2r SSP_adev(%)   SSP_AV   SSP_x(%)
  1     32.5863     7.6574E-01    1.3980E+00    1.000000E+06  0.00400  1.094E-02    0   1.0000   age020_m42            0.0000     7.5019E-06    24.1803   1.3150   122.1667
  2      0.0000     0.0000E+00    0.0000E+00    3.160000E+06  0.00400  4.007E-02    0   0.9999   age045_m42            0.0000     7.5102E-06    23.5261   0.7162   124.9784
  3      0.0000     0.0000E+00    0.0000E+00    5.010000E+06  0.00400  2.539E-02    0   0.9488   age055_m42            0.0000     7.4842E-06    23.7945   0.9719   124.5015
  4      0.0000     0.0000E+00    0.0000E+00    6.610000E+06  0.00400  2.620E-02    0   0.9220   age061_m42            0.0000     7.4962E-06    23.4004   0.6530   124.8998
  5      0.0000     0.0000E+00    0.0000E+00    1.000000E+07  0.00400  1.322E-02    0   0.8862   age070_m42            0.0000     7.3750E-06    22.6465   0.4316   126.3070
  6      0.0000     0.0000E+00    0.0000E+00    1.445000E+07  0.00400  7.883E-03    0   0.8571   age078_m42            0.0000     7.3879E-06    22.9002   0.7102   124.9626
  7     15.1173     7.4011E-01    1.1045E+00    2.512000E+07  0.00400  5.251E-03    0   0.8174   age090_m42            0.0000     7.3449E-06    22.4888   0.3264   126.2440
  8      0.0000     0.0000E+00    0.0000E+00    4.000000E+07  0.00400  3.649E-03    0   0.7851   age104_m42            0.0000     7.3845E-06    22.4765   0.1190   126.2865
  9      0.0000     0.0000E+00    0.0000E+00    5.500000E+07  0.00400  3.098E-03    0   0.7629   age110_m42            0.0000     7.4583E-06    22.7003   0.2641   126.0494
 10      0.0000     0.0000E+00    0.0000E+00    1.015200E+08  0.00400  2.228E-03    0   0.7207   age116_m42            0.0000     7.4841E-06    22.8251   0.2820   126.0078
 11      0.0000     0.0000E+00    0.0000E+00    2.861200E+08  0.00400  1.093E-03    0   0.6648   age125_m42            0.0000     7.4476E-06    22.7415  -0.2392   127.6668
 12      0.0000     0.0000E+00    0.0000E+00    5.088000E+08  0.00400  6.597E-04    0   0.6365   age130_m42            0.0000     7.5323E-06    22.9107  -0.2544   128.2612
 13      0.0000     0.0000E+00    0.0000E+00    1.434000E+09  0.00400  2.132E-04    0   0.5798   age139_m42            0.0000     7.8254E-06    22.5778  -1.0000   124.6499
 14      7.4997     3.2705E+01    3.2105E+01    4.250000E+09  0.00400  5.895E-05    0   0.5377   age158_m42            0.0000     8.9370E-06    26.6693  -1.0000   110.7384
 15      0.0000     0.0000E+00    0.0000E+00    7.500000E+09  0.00400  3.510E-05    0   0.5212   age171_m42            0.0000     9.8096E-06    29.7470  -1.0000   105.2532
 16      0.0000     0.0000E+00    0.0000E+00    1.300000E+10  0.00400  2.005E-05    0   0.5034   age193_m42            0.0000     1.0770E-05    32.8595  -1.0000   100.3228
 17      0.3499     5.8991E+00    5.3494E+00    1.800000E+10  0.00400  1.525E-05    0   0.4967   age213_m42            0.0000     1.0877E-05    33.4257  -1.0000    99.3807
 18      0.0000     0.0000E+00    0.0000E+00    1.000000E+06  0.00800  1.238E-02    0   1.0000   age020_m52            0.0000     7.5377E-06    24.2169   1.3068   122.5139
 19      0.0000     0.0000E+00    0.0000E+00    3.160000E+06  0.00800  3.074E-02    0   0.9966   age045_m52            0.0000     7.5552E-06    24.2058   1.2328   123.4430
 20      0.0000     0.0000E+00    0.0000E+00    5.010000E+06  0.00800  2.668E-02    0   0.9443   age055_m52            0.0000     7.5375E-06    23.8378   1.0400   124.1099
 21      0.0000     0.0000E+00    0.0000E+00    6.610000E+06  0.00800  2.136E-02    0   0.9177   age061_m52            0.0000     7.5188E-06    22.7694  -0.0727   127.6513
 22      0.2722     5.7590E-03    9.2806E-03    1.000000E+07  0.00800  1.215E-02    0   0.8827   age070_m52            0.0000     7.3810E-06    22.6259   0.5987   126.8329
 23      0.0000     0.0000E+00    0.0000E+00    1.445000E+07  0.00800  8.717E-03    0   0.8552   age078_m52            0.0000     7.4155E-06    22.7926   0.6924   126.1142
 24      0.0000     0.0000E+00    0.0000E+00    2.512000E+07  0.00800  5.592E-03    0   0.8162   age090_m52            0.0000     7.3876E-06    22.4649   0.3988   127.4231
 25      5.2939     3.4932E-01    5.0005E-01    4.000000E+07  0.00800  3.896E-03    0   0.7841   age104_m52            0.0000     7.4218E-06    22.5523   0.3240   127.4514
 26      0.0000     0.0000E+00    0.0000E+00    1.015200E+08  0.00800  2.148E-03    0   0.7226   age116_m52            0.0000     7.4545E-06    22.7395   0.2580   126.7671
 27      3.0871     7.9963E-01    9.7562E-01    2.861200E+08  0.00800  9.925E-04    0   0.6683   age125_m52            0.0000     7.5872E-06    22.7928  -0.1706   128.9133
 28      0.0000     0.0000E+00    0.0000E+00    9.047900E+08  0.00800  3.141E-04    0   0.6138   age135_m52            0.0000     7.9102E-06    23.0793  -0.9328   131.3824
 29      0.0000     0.0000E+00    0.0000E+00    1.434000E+09  0.00800  1.719E-04    0   0.5853   age139_m52            0.0000     8.6025E-06    25.3351  -1.0000   118.0261
 30      4.2193     1.3779E+01    1.4087E+01    2.500000E+09  0.00800  7.872E-05    0   0.5600   age150_m52            0.0000     9.7846E-06    29.2894  -1.0000   108.4775
 31      0.0000     0.0000E+00    0.0000E+00    4.250000E+09  0.00800  4.336E-05    0   0.5426   age158_m52            0.0000     9.8849E-06    29.5900  -1.0000   107.1002
 32      1.7239     1.4029E+01    1.3623E+01    6.250000E+09  0.00800  3.159E-05    0   0.5319   age166_m52            0.0000     1.1035E-05    33.2454  -1.0000   101.5569
 33      0.0000     0.0000E+00    0.0000E+00    1.300000E+10  0.00800  1.361E-05    0   0.5073   age193_m52            0.0000     1.4366E-05    42.5130  -1.0000    88.0508
 34      0.0000     0.0000E+00    0.0000E+00    1.800000E+10  0.00800  9.886E-06    0   0.4990   age213_m52            0.0000     1.5473E-05    44.2712  -1.0000    84.4282
 35      8.3480     1.3900E-01    2.5376E-01    1.000000E+06  0.02000  1.544E-02    0   1.0000   age020_m62            0.0000     7.5626E-06    24.2458   1.2986   122.9926
 36      0.0000     0.0000E+00    0.0000E+00    3.160000E+06  0.02000  3.762E-02    0   0.9858   age045_m62            0.0000     7.6130E-06    24.3248   1.2283   124.3679
 37      0.0000     0.0000E+00    0.0000E+00    5.010000E+06  0.02000  3.296E-02    0   0.9342   age055_m62            0.0000     7.5781E-06    23.7417   0.9533   125.1546
 38     27.0707     6.0306E-01    9.7557E-01    8.710000E+06  0.02000  1.154E-02    0   0.8861   age067_m62            0.0000     7.2476E-06    22.2240   0.1191   130.1555
 39      0.0000     0.0000E+00    0.0000E+00    1.445000E+07  0.02000  7.663E-03    0   0.8472   age078_m62            0.0000     7.3771E-06    22.5144   0.2876   128.6264
 40      0.0000     0.0000E+00    0.0000E+00    2.512000E+07  0.02000  4.532E-03    0   0.8099   age090_m62            0.0000     7.3364E-06    22.4973   0.2941   127.7407
 41      0.0000     0.0000E+00    0.0000E+00    5.500000E+07  0.02000  2.733E-03    0   0.7595   age110_m62            0.0000     7.4165E-06    22.6087   0.2930   127.0748
 42      0.0000     0.0000E+00    0.0000E+00    1.609000E+08  0.02000  1.369E-03    0   0.6985   age120_m62            0.0000     7.5203E-06    22.7115   0.1649   128.4510
 43      0.0000     0.0000E+00    0.0000E+00    2.861200E+08  0.02000  9.013E-04    0   0.6714   age125_m62            0.0000     7.6209E-06    22.6719  -0.0477   130.1742
 44      4.0159     2.0533E+00    2.4175E+00    5.088000E+08  0.02000  5.028E-04    0   0.6449   age130_m62            0.0000     7.8776E-06    22.9825  -0.4074   131.8071
 45      0.0000     0.0000E+00    0.0000E+00    9.047900E+08  0.02000  2.428E-04    0   0.6179   age135_m62            0.0000     7.9320E-06    23.2262  -1.0000   130.9694
 46      0.3499     7.1225E-01    7.6823E-01    1.434000E+09  0.02000  1.263E-04    0   0.5908   age139_m62            0.0000     8.5139E-06    24.3116  -1.0000   119.7790
 47      0.0000     0.0000E+00    0.0000E+00    2.500000E+09  0.02000  5.985E-05    0   0.5673   age150_m62            0.0000     1.0045E-05    29.4568  -1.0000   109.1608
 48      0.0000     0.0000E+00    0.0000E+00    4.250000E+09  0.02000  3.271E-05    0   0.5468   age158_m62            0.0000     1.2014E-05    35.0308  -1.0000    99.7999
 49      0.0000     0.0000E+00    0.0000E+00    1.000000E+10  0.02000  1.360E-05    0   0.5167   age181_m62            0.0000     1.4806E-05    41.5712  -1.0000    89.4055
 50      0.0000     0.0000E+00    0.0000E+00    1.800000E+10  0.02000  7.124E-06    0   0.5013   age213_m62            0.0000     1.6937E-05    45.1546  -1.0000    82.6242
 51      4.8593     4.8195E-02    8.7970E-02    1.000000E+06  0.05000  2.592E-02    0   0.9998   age020_m72            0.0000     7.5714E-06    24.3102   1.2757   123.6216
 52      0.0000     0.0000E+00    0.0000E+00    3.160000E+06  0.05000  4.845E-02    0   0.9577   age045_m72            0.0000     7.6219E-06    24.1880   1.1447   124.4767
 53      8.8967     7.4451E-02    1.2433E-01    5.010000E+06  0.05000  3.072E-02    0   0.9147   age055_m72            0.0000     7.4809E-06    23.2816   0.7701   126.9080
 54      0.0000     0.0000E+00    0.0000E+00    6.610000E+06  0.05000  1.455E-02    0   0.8877   age061_m72            0.0000     7.3496E-06    23.7440   0.1702   131.3358
 55      0.0000     0.0000E+00    0.0000E+00    1.000000E+07  0.05000  9.074E-03    0   0.8524   age070_m72            0.0000     7.5614E-06    24.0458   0.9372   126.6647
 56      0.0000     0.0000E+00    0.0000E+00    2.512000E+07  0.05000  4.250E-03    0   0.7902   age090_m72            0.0000     7.4572E-06    23.2532   0.7162   126.1523
 57      0.0000     0.0000E+00    0.0000E+00    4.000000E+07  0.05000  3.087E-03    0   0.7618   age104_m72            0.0000     7.4340E-06    23.0810   0.5265   126.8445
 58      0.0000     0.0000E+00    0.0000E+00    1.015200E+08  0.05000  1.700E-03    0   0.7096   age116_m72            0.0000     7.4628E-06    22.6473   0.3088   128.1650
 59      0.7081     2.4654E-01    2.9855E-01    2.861200E+08  0.05000  7.384E-04    0   0.6633   age125_m72            0.0000     7.7448E-06    22.8496  -0.1834   131.4542
 60      0.0000     0.0000E+00    0.0000E+00    5.088000E+08  0.05000  3.819E-04    0   0.6372   age130_m72            0.0000     7.9210E-06    23.1939  -0.6900   133.2387
 61      0.0000     0.0000E+00    0.0000E+00    9.047900E+08  0.05000  1.676E-04    0   0.6110   age135_m72            0.0000     8.5426E-06    23.6605  -1.0000   122.6994
 62      0.0000     0.0000E+00    0.0000E+00    1.434000E+09  0.05000  8.837E-05    0   0.5874   age139_m72            0.0000     1.0078E-05    29.3829  -1.0000   110.6180
 63      0.0000     0.0000E+00    0.0000E+00    2.500000E+09  0.05000  4.233E-05    0   0.5598   age150_m72            0.0000     1.2113E-05    35.0032  -1.0000   100.6481
 64      1.5099     2.7050E+01    2.5921E+01    6.250000E+09  0.05000  1.435E-05    0   0.5249   age166_m72            0.0000     1.5726E-05    43.4298  -1.0000    86.3665
 65      0.0000     0.0000E+00    0.0000E+00    1.300000E+10  0.05000  6.513E-06    0   0.5036   age193_m72            0.0000     1.8756E-05    47.8821  -1.0000    78.8822
 66      0.0000     0.0000E+00    0.0000E+00    1.800000E+10  0.05000  4.527E-06    0   0.4945   age213_m72            0.0000     2.0657E-05    50.0586  -1.0000    73.9896


## Synthesis Results - Average & Chains ##

# j      x_j: min, <> & last-chain-values for 1 ...  7 chains
  1     32.5863     49.9482     53.9225     53.9353     63.1285     53.4276     54.0134     53.2850     51.1152
  2      0.0000      0.1765      0.0628      0.0088      0.0000      0.0000      0.0296      0.0311      0.3076
  3      0.0000      0.1642      0.0439      0.0000      0.0170      0.1446      0.0538      0.0310      0.0725
  4      0.0000      0.1207      0.0396      0.0098      0.0899      0.1707      0.0092      0.0278      0.0000
  5      0.0000      0.1738      0.1138      0.0130      0.0000      0.2046      0.0106      0.0459      0.0000
  6      0.0000      0.1889      0.0000      0.0432      0.1384      0.0510      0.0780      0.0000      0.1247
  7     15.1173      0.1582      0.0000      0.0000      0.0580      0.0000      0.0521      0.0461      0.5568
  8      0.0000      0.2145      0.0739      0.0258      0.0414      0.0425      0.0461      0.0597      0.0000
  9      0.0000      0.1084      0.0062      0.0466      0.0436      0.0606      0.0352      0.0150      0.0000
 10      0.0000      0.1846      0.0775      0.0000      0.1602      0.1213      0.0207      0.0159      0.7086
 11      0.0000      0.2095      0.0100      0.0545      0.0181      0.1181      0.0000      0.0000      0.0000
 12      0.0000      0.1137      0.0698      0.0788      0.0331      0.0000      0.0385      0.0074      0.0000
 13      0.0000      0.1463      0.0000      0.0000      0.0031      0.0231      0.0572      0.0303      0.0000
 14      7.4997      0.1849      0.1438      0.0107      0.0040      0.1891      0.0226      0.0293      0.2512
 15      0.0000      0.2080      0.0166      0.0327      0.0186      0.1806      0.0600      0.0563      0.0764
 16      0.0000      0.1891      0.0452      0.0000      0.1365      0.0468      0.0243      0.0144      0.0592
 17      0.3499     11.5861     12.0578     11.1596     11.3638     11.3238     11.9195     14.7939     10.7762
 18      0.0000      0.1406      0.1500      0.0731      0.0110      0.0374      0.0096      0.0194      0.0000
 19      0.0000      0.1312      0.0696      0.0080      0.0000      0.0662      0.0325      0.0122      0.0000
 20      0.0000      0.1875      0.0000      0.0000      0.0475      0.0197      0.0743      0.0317      0.0000
 21      0.0000      0.1884      0.0020      0.0293      0.0744      0.0557      0.0000      0.0211      0.0986
 22      0.2722      0.1149      0.0479      0.0000      0.0026      0.2977      0.0110      0.0015      0.3235
 23      0.0000      0.1790      0.1406      0.0300      0.0000      0.0507      0.0263      0.0416      0.0000
 24      0.0000      0.1617      0.1153      0.0093      0.0029      0.1055      0.1614      0.0172      0.0000
 25      5.2939      0.1691      0.0000      0.0000      0.0000      0.0019      0.0526      0.0000      0.3195
 26      0.0000      0.1186      0.0000      0.0496      0.0614      0.0000      0.0396      0.0000      0.0000
 27      3.0871      0.1276      0.0009      0.0380      0.0000      0.0000      0.0028      0.0000      0.2300
 28      0.0000      0.1600      0.0166      0.0374      0.1403      0.0096      0.0480      0.0045      0.0212
 29      0.0000      0.1302      0.0005      0.0000      0.0782      0.0509      0.0304      0.0086      0.0140
 30      4.2193      0.1546      0.0236      0.0000      0.0000      0.0550      0.0600      0.0000      0.3872
 31      0.0000      0.1663      0.0055      0.0026      0.0055      0.0639      0.0180      0.0014      0.8993
 32      1.7239      0.1659      0.0501      0.0224      0.0000      0.2182      0.0470      0.0726      0.8298
 33      0.0000      0.1352      0.0264      0.0447      0.0616      0.0228      0.0972      0.0043      0.1801
 34      0.0000      0.2189      0.1566      0.2287      0.1677      0.1500      0.2087      0.3626      0.1185
 35      8.3480      0.1491      0.0766      0.0447      0.1014      0.0867      0.0478      0.0112      0.2850
 36      0.0000      0.1376      0.0056      0.0356      0.0287      0.0752      0.0618      0.0457      0.3068
 37      0.0000      0.1500      0.0556      0.0028      0.0000      0.2005      0.0000      0.0339      0.0473
 38     27.0707      0.1604      0.0446      0.0176      0.0202      0.1853      0.0000      0.0270      0.4459
 39      0.0000      0.1770      0.1169      0.0073      0.0000      0.0000      0.0062      0.0023      0.0019
 40      0.0000      0.1448      0.0096      0.0000      0.0848      0.0516      0.0780      0.0250      0.0518
 41      0.0000      0.1497      0.0316      0.0600      0.0088      0.1422      0.0000      0.0000      0.0000
 42      0.0000      0.1627      0.0441      0.0000      0.0552      0.1016      0.0000      0.0000      0.0983
 43      0.0000      0.1713      0.1117      0.0000      0.0318      0.0000      0.0614      0.0221      0.1929
 44      4.0159      0.1461      0.0110      0.0034      0.0563      0.0216      0.0245      0.0000      0.2581
 45      0.0000      0.1600      0.0107      0.0508      0.0000      0.0623      0.0145      0.0083      0.1418
 46      0.3499      0.1880      0.0000      0.0000      0.0018      0.0466      0.0496      0.0000      0.2638
 47      0.0000      0.1700      0.0611      0.0378      0.0000      0.0000      0.0385      0.0081      0.0000
 48      0.0000      0.1622      0.0066      0.0000      0.0134      0.0292      0.0566      0.0000      0.0000
 49      0.0000      0.1409      0.0470      0.0439      0.0000      0.0840      0.0321      0.0000      0.1148
 50      0.0000      0.1574      0.0656      0.0136      0.1301      0.2450      0.0419      0.0000      0.2169
 51      4.8593     16.8242     19.1063     20.4087      9.4075     18.3751     18.9105     19.5853     17.2609
 52      0.0000      0.1450      0.0004      0.0191      0.0000      0.1589      0.0340      0.0000      0.0000
 53      8.8967      0.1683      0.0000      0.1153      0.0093      0.0946      0.0808      0.0292      0.4794
 54      0.0000      0.2110      0.0000      0.0290      0.0520      0.0648      0.0951      0.0268      0.0648
 55      0.0000      0.1645      0.0058      0.0054      0.0707      0.0000      0.0000      0.0487      0.0000
 56      0.0000      0.1394      0.0340      0.0172      0.0000      0.0000      0.0475      0.0210      0.1018
 57      0.0000      0.1114      0.0000      0.0000      0.0000      0.0159      0.0000      0.0000      0.1132
 58      0.0000      0.1671      0.0474      0.0026      0.1040      0.1057      0.0353      0.0149      0.0416
 59      0.7081      0.2177      0.0000      0.0126      0.0000      0.0803      0.0737      0.0399      0.3813
 60      0.0000      0.1307      0.0655      0.0390      0.0538      0.0319      0.0869      0.0238      0.0000
 61      0.0000      0.1525      0.0389      0.0159      0.0000      0.0000      0.0178      0.0343      0.0000
 62      0.0000      0.1434      0.0018      0.0149      0.0000      0.0411      0.0228      0.0006      0.3740
 63      0.0000      0.1878      0.0000      0.0672      0.0268      0.0000      0.0365      0.0258      0.0126
 64      1.5099     10.1370     10.9419     11.3766     12.2871     10.8741     11.1634      9.2740      9.5712
 65      0.0000      0.1664      0.0000      0.0254      0.0138      0.0000      0.0216      0.0000      0.0303
 66      0.0000      0.1618      0.0441      0.0075      0.0157      0.0000      0.0108      0.0337      0.4508

# j      m_j: min, <> & last-chain-values for 1 ...  7 chains
  1  1.3980E+00  5.4066E-01  5.9825E-01  6.1104E-01  6.7585E-01  6.0039E-01  5.9509E-01  5.7140E-01  5.6350E-01
  2  0.0000E+00  5.2151E-04  1.9021E-04  2.7230E-05  0.0000E+00  0.0000E+00  8.9061E-05  9.0906E-05  9.2582E-04
  3  0.0000E+00  7.2650E-04  1.9912E-04  0.0000E+00  7.4559E-05  6.6420E-04  2.4226E-04  1.3604E-04  3.2675E-04
  4  0.0000E+00  5.0306E-04  1.6911E-04  4.2635E-05  3.7043E-04  7.3833E-04  3.9227E-05  1.1465E-04  0.0000E+00
  5  0.0000E+00  1.3797E-03  9.2584E-04  1.0827E-04  0.0000E+00  1.6861E-03  8.5610E-05  3.6069E-04  0.0000E+00
  6  0.0000E+00  2.4319E-03  0.0000E+00  5.8280E-04  1.7623E-03  6.8139E-04  1.0223E-03  0.0000E+00  1.6355E-03
  7  1.1045E+00  2.9170E-03  0.0000E+00  0.0000E+00  1.0567E-03  0.0000E+00  9.7748E-04  8.4274E-04  1.0454E-02
  8  0.0000E+00  5.4648E-03  1.9311E-03  6.8888E-04  1.0428E-03  1.1236E-03  1.1962E-03  1.5071E-03  0.0000E+00
  9  0.0000E+00  3.1618E-03  1.8562E-04  1.4230E-03  1.2584E-03  1.8345E-03  1.0442E-03  4.3243E-04  0.0000E+00
 10  0.0000E+00  7.0730E-03  3.0434E-03  0.0000E+00  6.0712E-03  4.8235E-03  8.0517E-04  6.0266E-04  2.7642E-02
 11  0.0000E+00  1.5088E-02  7.3906E-04  4.1109E-03  1.2864E-03  8.8335E-03  0.0000E+00  0.0000E+00  0.0000E+00
 12  0.0000E+00  1.2993E-02  8.1722E-03  9.4269E-03  3.7390E-03  0.0000E+00  4.4748E-03  8.3227E-04  0.0000E+00
 13  0.0000E+00  4.7100E-02  0.0000E+00  0.0000E+00  1.0022E-03  7.7109E-03  1.8753E-02  9.6683E-03  0.0000E+00
 14  3.2105E+01  1.9969E-01  1.5920E-01  1.2114E-02  4.2552E-03  2.1202E-01  2.4875E-02  3.1371E-02  2.7628E-01
 15  0.0000E+00  3.6571E-01  2.9870E-02  6.0222E-02  3.2311E-02  3.2973E-01  1.0739E-01  9.8049E-02  1.3684E-01
 16  0.0000E+00  5.6221E-01  1.3780E-01  0.0000E+00  4.0137E-01  1.4442E-01  7.3651E-02  4.2273E-02  1.7914E-01
 17  5.3494E+00  4.4687E+01  4.7668E+01  4.5049E+01  4.3350E+01  4.5342E+01  4.6793E+01  5.6527E+01  4.2330E+01
 18  0.0000E+00  1.3445E-03  1.4702E-03  7.3209E-04  1.0429E-04  3.7174E-04  9.3287E-05  1.8414E-04  0.0000E+00
 19  0.0000E+00  5.0357E-04  2.7394E-04  3.2339E-05  0.0000E+00  2.6390E-04  1.2703E-04  4.6312E-05  0.0000E+00
 20  0.0000E+00  7.8573E-04  0.0000E+00  0.0000E+00  1.9676E-04  8.5531E-05  3.1714E-04  1.3170E-04  0.0000E+00
 21  0.0000E+00  9.5846E-04  1.0354E-05  1.5578E-04  3.7443E-04  2.9421E-04  0.0000E+00  1.0628E-04  5.1071E-04
 22  9.2806E-03  9.8840E-04  4.2195E-04  0.0000E+00  2.2472E-05  2.6591E-03  9.6372E-05  1.2483E-05  2.8348E-03
 23  0.0000E+00  2.0794E-03  1.6738E-03  3.6537E-04  0.0000E+00  6.1164E-04  3.1093E-04  4.7905E-04  0.0000E+00
 24  0.0000E+00  2.7954E-03  2.0431E-03  1.6879E-04  4.8775E-05  1.8938E-03  2.8391E-03  2.9482E-04  0.0000E+00
 25  5.0005E-01  4.0290E-03  0.0000E+00  0.0000E+00  0.0000E+00  4.7909E-05  1.2752E-03  0.0000E+00  7.7550E-03
 26  0.0000E+00  4.7266E-03  0.0000E+00  2.0700E-03  2.4206E-03  0.0000E+00  1.6054E-03  0.0000E+00  0.0000E+00
 27  9.7562E-01  1.0175E-02  7.3417E-05  3.1712E-03  0.0000E+00  0.0000E+00  2.2397E-04  0.0000E+00  1.8682E-02
 28  0.0000E+00  3.7032E-02  3.9411E-03  9.0650E-03  3.2107E-02  2.3088E-03  1.1300E-02  1.0202E-03  4.9994E-03
 29  0.0000E+00  5.2485E-02  1.9425E-04  0.0000E+00  3.1192E-02  2.1323E-02  1.2469E-02  3.4510E-03  5.7480E-03
 30  1.4087E+01  1.3027E-01  2.0393E-02  0.0000E+00  0.0000E+00  4.8132E-02  5.1458E-02  0.0000E+00  3.3219E-01
 31  0.0000E+00  2.4642E-01  8.3492E-03  4.0680E-03  8.1195E-03  9.8293E-02  2.7175E-02  2.0688E-03  1.3573E+00
 32  1.3623E+01  3.3069E-01  1.0238E-01  4.6721E-02  0.0000E+00  4.5174E-01  9.5309E-02  1.4348E-01  1.6850E+00
 33  0.0000E+00  5.9681E-01  1.1942E-01  2.0650E-01  2.6879E-01  1.0461E-01  4.3685E-01  1.8752E-02  8.0969E-01
 34  0.0000E+00  1.3086E+00  9.5968E-01  1.4306E+00  9.9118E-01  9.3083E-01  1.2695E+00  2.1474E+00  7.2135E-01
 35  2.5376E-01  1.1433E-03  6.0200E-04  3.5917E-04  7.6925E-04  6.9057E-04  3.7302E-04  8.4987E-05  2.2263E-03
 36  0.0000E+00  4.2685E-04  1.7948E-05  1.1567E-04  8.7932E-05  2.4219E-04  1.9510E-04  1.4038E-04  9.6947E-04
 37  0.0000E+00  5.0355E-04  1.9129E-04  9.7544E-06  0.0000E+00  6.9853E-04  0.0000E+00  1.1266E-04  1.6159E-04
 38  9.7557E-01  1.4586E-03  4.1522E-04  1.6733E-04  1.8126E-04  1.7492E-03  0.0000E+00  2.4307E-04  4.1294E-03
 39  0.0000E+00  2.3176E-03  1.5685E-03  9.9659E-05  0.0000E+00  0.0000E+00  8.2371E-05  2.9510E-05  2.5909E-05
 40  0.0000E+00  3.0642E-03  2.0789E-04  0.0000E+00  1.7748E-03  1.1326E-03  1.6800E-03  5.2460E-04  1.1160E-03
 41  0.0000E+00  4.9264E-03  1.0675E-03  2.0652E-03  2.8603E-04  4.8597E-03  0.0000E+00  0.0000E+00  0.0000E+00
 42  0.0000E+00  9.8305E-03  2.7338E-03  0.0000E+00  3.2995E-03  6.3732E-03  0.0000E+00  0.0000E+00  6.0469E-03
 43  0.0000E+00  1.5113E-02  1.0100E-02  0.0000E+00  2.7779E-03  0.0000E+00  5.5132E-03  1.9328E-03  1.7329E-02
 44  2.4175E+00  2.2184E-02  1.7049E-03  5.4044E-04  8.4506E-03  3.4039E-03  3.7825E-03  0.0000E+00  3.9928E-02
 45  0.0000E+00  4.8227E-02  3.3155E-03  1.6016E-02  0.0000E+00  1.9493E-02  4.4491E-03  2.4781E-03  4.3517E-02
 46  7.6823E-01  1.0415E-01  0.0000E+00  0.0000E+00  1.0046E-03  2.6780E-02  2.7948E-02  0.0000E+00  1.4883E-01
 47  0.0000E+00  1.9080E-01  7.0268E-02  4.4381E-02  0.0000E+00  0.0000E+00  4.3936E-02  8.9815E-03  0.0000E+00
 48  0.0000E+00  3.2106E-01  1.3353E-02  0.0000E+00  2.6190E-02  6.0053E-02  1.1411E-01  0.0000E+00  0.0000E+00
 49  0.0000E+00  6.3401E-01  2.1651E-01  2.0653E-01  0.0000E+00  3.9235E-01  1.4682E-01  0.0000E+00  5.2616E-01
 50  0.0000E+00  1.3116E+00  5.6050E-01  1.1823E-01  1.0723E+00  2.1193E+00  3.5499E-01  0.0000E+00  1.8408E+00
 51  8.7970E-02  7.6849E-02  8.9451E-02  9.7567E-02  4.2501E-02  8.7135E-02  8.7918E-02  8.8626E-02  8.0297E-02
 52  0.0000E+00  3.3934E-04  1.0613E-06  4.6867E-05  0.0000E+00  3.8619E-04  8.0939E-05  0.0000E+00  0.0000E+00
 53  1.2433E-01  5.9356E-04  0.0000E+00  4.2533E-04  3.2390E-05  3.4632E-04  2.8984E-04  1.0199E-04  1.7216E-03
 54  0.0000E+00  1.5244E-03  0.0000E+00  2.1958E-04  3.7174E-04  4.8599E-04  6.9948E-04  1.9168E-04  4.7706E-04
 55  0.0000E+00  1.8295E-03  6.6206E-05  6.2588E-05  7.7756E-04  0.0000E+00  0.0000E+00  5.3697E-04  0.0000E+00
 56  0.0000E+00  3.0701E-03  7.6809E-04  3.9730E-04  0.0000E+00  0.0000E+00  1.0648E-03  4.5832E-04  2.2836E-03
 57  0.0000E+00  3.2553E-03  0.0000E+00  0.0000E+00  0.0000E+00  4.8306E-04  0.0000E+00  0.0000E+00  3.3687E-03
 58  0.0000E+00  8.2604E-03  2.4020E-03  1.3369E-04  5.0829E-03  5.4238E-03  1.7783E-03  7.3137E-04  2.0933E-03
 59  2.9855E-01  2.3154E-02  0.0000E+00  1.4029E-03  0.0000E+00  8.8715E-03  7.9815E-03  4.2037E-03  4.1312E-02
 60  0.0000E+00  2.5823E-02  1.3260E-02  8.0745E-03  1.0513E-02  6.5507E-03  1.7479E-02  4.6548E-03  0.0000E+00
 61  0.0000E+00  6.5826E-02  1.7210E-02  7.1969E-03  0.0000E+00  0.0000E+00  7.8230E-03  1.4662E-02  0.0000E+00
 62  0.0000E+00  1.1291E-01  1.4422E-03  1.2253E-02  0.0000E+00  3.3609E-02  1.8247E-02  4.8949E-04  2.9984E-01
 63  0.0000E+00  2.9403E-01  0.0000E+00  1.1019E-01  4.1525E-02  0.0000E+00  5.8205E-02  3.9962E-02  2.0053E-02
 64  2.5921E+01  4.3909E+01  4.8579E+01  5.1576E+01  5.2640E+01  4.8899E+01  4.9217E+01  3.9796E+01  4.2223E+01
 65  0.0000E+00  1.5235E+00  0.0000E+00  2.4301E-01  1.2470E-01  0.0000E+00  2.0148E-01  0.0000E+00  2.8217E-01
 66  0.0000E+00  2.0932E+00  5.8521E-01  1.0163E-01  2.0079E-01  0.0000E+00  1.4206E-01  4.3224E-01  5.9391E+00

# AV, chi2 & Mass for <> & i_chain = 1 ...  7 solutions
AV       0.1239      0.3855      0.3957      0.4160      0.3520      0.3944      0.3803      0.3809      0.3504
chi2 7.3257E-06  9.8222E-06  9.7641E-06  9.7659E-06  9.7711E-06  9.7679E-06  9.7620E-06  9.7533E-06  9.7466E-06
Mass 1.7018E-14  9.5839E-14  9.4799E-14  9.5397E-14  9.2635E-14  9.3430E-14  9.3503E-14  9.6151E-14  8.9779E-14
-156.50                                  [v0_min (km/s) before EX0s...]
 109.87                                  [vd_min (km/s) before EX0s...]


## Synthetic spectrum (Best Model) ##l_obs f_obs f_syn wei
 3478    [Nl_obs]
 3741.00    2.91490   1.21944    0.000
 3742.00    3.24186   1.19826    0.000
 3743.00    3.11990   1.16753    0.000
 3744.00    2.44123   1.12762    0.000
 3745.00    1.43819   1.07910   -1.000
 3746.00    1.52643   1.02670   -1.000
 3747.00    2.16882   0.98422   -1.000
 3748.00    2.00798   0.96960   -1.000
 3749.00    1.49393   0.99069   -1.000
 3750.00    1.24634   1.03823   -1.000
 3751.00    1.09935   1.09461   -1.000
 3752.00    1.02368   1.14574   -1.000
 3753.00    0.97086   1.18443   -1.000
 3754.00    0.93676   1.20852   -1.000
 3755.00    0.90768   1.22022   -1.000
 3756.00    1.31518   1.22546   -1.000
 3757.00    1.81852   1.23027   -1.000
 3758.00    1.52615   1.23713   -1.000
 3759.00    1.09488   1.24385   -1.000
 3760.00    1.10130   1.24582   -1.000
 3761.00    1.16586   1.23967   -1.000
 3762.00    1.14724   1.22409   -1.000
 3763.00    1.12079   1.19781   -1.000
 3764.00    0.85789   1.15964   -1.000
 3765.00    0.58135   1.11069   -1.000
 3766.00    1.08438   1.05515   -1.000
 3767.00    1.60259   1.00192   -1.000
 3768.00    1.71863   0.96646   -1.000
 3769.00    1.80245   0.96426   -1.000
 3770.00    1.10370   0.99714   -1.000
 3771.00    0.46271   1.05106   -1.000
 3772.00    0.57860   1.10869   -1.000
 3773.00    0.65939   1.15995   -1.000
 3774.00    0.43195   1.20215   -1.000
 3775.00    0.19319   1.23606   -1.000
 3776.00   -0.11898   1.26366    0.000
 3777.00   -0.33963   1.28684    0.000
 3778.00   -0.09708   1.30582    0.000
 3779.00    0.24763   1.31934   -1.000
 3780.00    1.01051   1.32688   -1.000
 3781.00    1.53840   1.32880   -1.000
 3782.00    1.26929   1.32509   -1.000
 3783.00    1.11823   1.31610   -1.000
 3784.00    1.30480   1.30379   -1.000
 3785.00    1.31843   1.29040   -1.000
 3786.00    0.90950   1.27640   -1.000
 3787.00    0.00225   1.26053   -1.000
 3788.00   -1.95534   1.24121    0.000
 3789.00   -3.68272   1.21693    0.000
 3790.00   -4.98843   1.18545    0.000
 3791.00   -5.34053   1.14359    0.000
 3792.00   -4.16614   1.08965    0.000
 3793.00   -2.17940   1.02602    0.000
 3794.00    0.94841   0.96119   -1.000
 3795.00    2.86413   0.91131   -1.000
 3796.00    3.28169   0.89556   -1.000
 3797.00    2.52089   0.92244   -1.000
 3798.00    0.47630   0.98132   -1.000
 3799.00   -0.88965   1.05133    0.000
 3800.00   -1.60344   1.11579    0.000
 3801.00   -2.11048   1.16683    0.000
 3802.00   -2.44233   1.20234    0.000
 3803.00   -2.26588   1.22462    0.000
 3804.00   -1.71014   1.24065    0.000
 3805.00   -1.25066   1.25826    0.000
 3806.00   -0.85429   1.27948    0.000
 3807.00   -0.84118   1.29988    0.000
 3808.00   -1.04800   1.31413    0.000
 3809.00   -0.59650   1.31954    0.000
 3810.00    0.18403   1.31674   -1.000
 3811.00   -0.95733   1.30905    0.000
 3812.00   -2.92980   1.30042    0.000
 3813.00   -3.16108   1.29209    0.000
 3814.00   -2.74662   1.28110    0.000
 3815.00   -3.43464   1.26177    0.000
 3816.00   -4.46922   1.23221    0.000
 3817.00   -2.92470   1.20280    0.000
 3818.00   -0.70362   1.19224    0.000
 3819.00   -0.45491   1.20676    0.000
 3820.00   -0.62879   1.23172    0.000
 3821.00   -1.04004   1.24838    0.000
 3822.00   -1.49157   1.24958    0.000
 3823.00   -0.21003   1.23952    0.000
 3824.00    1.29391   1.22442   -1.000
 3825.00    1.17498   1.20638   -1.000
 3826.00    0.91038   1.18419   -1.000
 3827.00   -0.20841   1.15549    0.000
 3828.00   -1.37311   1.11727    0.000
 3829.00   -1.32004   1.06647    0.000
 3830.00   -1.23845   1.00335    0.000
 3831.00   -0.81038   0.93490    0.000
 3832.00   -0.35879   0.87526    0.000
 3833.00    0.61532   0.84259   -1.000
 3834.00    1.52897   0.84908   -1.000
 3835.00    1.69075   0.89042   -1.000
 3836.00    1.80038   0.95059   -1.000
 3837.00    1.46909   1.01454   -1.000
 3838.00    1.11945   1.07368   -1.000
 3839.00    0.65435   1.12513   -1.000
 3840.00    0.21163   1.16849   -1.000
 3841.00   -0.12076   1.20335    0.000
 3842.00   -0.52344   1.22983    0.000
 3843.00   -1.20748   1.24930    0.000
 3844.00   -1.39125   1.26383    0.000
 3845.00    0.08817   1.27466   -1.000
 3846.00    1.00081   1.28172   -1.000
 3847.00    0.32187   1.28565    0.000
 3848.00   -0.11649   1.28901    0.000
 3849.00    0.02301   1.29405    0.000
 3850.00    0.52517   1.29953    0.000
 3851.00    1.77948   1.30195    0.000
 3852.00    2.35499   1.29975    0.000
 3853.00    1.70618   1.29476    0.000
 3854.00    1.36037   1.29029    0.000
 3855.00    1.49241   1.28827    0.000
 3856.00    1.68065   1.28734    0.000
 3857.00    1.94669   1.28638    0.000
 3858.00    1.82456   1.28722    0.000
 3859.00    1.22944   1.29125    0.000
 3860.00    0.28811   1.29636    0.000
 3861.00   -1.02510   1.29920    0.000
 3862.00   -1.32309   1.29820    0.000
 3863.00   -0.65916   1.29375    0.000
 3864.00   -0.18145   1.28753    0.000
 3865.00    0.14069   1.28228    0.000
 3866.00    0.31027   1.28009    0.000
 3867.00    0.36763   1.27823    0.000
 3868.00   -0.01267   1.27123    0.000
 3869.00   -0.67568   1.25956    0.000
 3870.00   -0.92747   1.25037    0.000
 3871.00   -0.94687   1.24891    0.000
 3872.00   -0.77256   1.25159    0.000
 3873.00   -0.50296   1.25071    0.000
 3874.00   -0.61551   1.24287    0.000
 3875.00   -0.89056   1.23060    0.000
 3876.00   -0.52550   1.21787    0.000
 3877.00    0.07273   1.20621    0.000
 3878.00    0.14854   1.19301    0.000
 3879.00    0.06329   1.17413    0.000
 3880.00   -0.30906   1.14838    0.000
 3881.00   -0.75511   1.11616    0.000
 3882.00    0.13545   1.07495   -1.000
 3883.00    1.30544   1.02054   -1.000
 3884.00    0.44331   0.95394   -1.000
 3885.00   -0.75392   0.88519    0.000
 3886.00   -1.35190   0.83213    0.000
 3887.00   -1.87567   0.81476    0.000
 3888.00   -1.03739   0.84198    0.000
 3889.00   -0.08255   0.90212    0.000
 3890.00    0.25844   0.97241   -1.000
 3891.00    0.56884   1.03555   -1.000
 3892.00    0.85295   1.08562   -1.000
 3893.00    1.12341   1.12419   -1.000
 3894.00    0.54010   1.15442   -1.000
 3895.00   -0.00644   1.17775    0.000
 3896.00    0.19912   1.19484   -1.000
 3897.00    0.38497   1.20835   -1.000
 3898.00    0.33783   1.22165   -1.000
 3899.00    0.23716   1.23493   -1.000
 3900.00   -0.29953   1.24555    0.000
 3901.00   -0.75160   1.25199    0.000
 3902.00   -0.68686   1.25534    0.000
 3903.00   -0.46773   1.25777    0.000
 3904.00    0.49436   1.26219   -1.000
 3905.00    1.14061   1.27037   -1.000
 3906.00    0.54994   1.28045   -1.000
 3907.00   -0.06516   1.28873    0.000
 3908.00   -0.75990   1.29292    0.000
 3909.00   -1.19278   1.29344    0.000
 3910.00   -0.90355   1.29226    0.000
 3911.00   -0.32097   1.29117    0.000
 3912.00    0.95431   1.29050   -1.000
 3913.00    1.73425   1.28899   -1.000
 3914.00    1.50323   1.28436   -1.000
 3915.00    0.85353   1.27504   -1.000
 3916.00   -0.53980   1.26160    0.000
 3917.00   -0.65214   1.24755    0.000
 3918.00    1.22593   1.23800   -1.000
 3919.00    2.13390   1.23553   -1.000
 3920.00    1.71821   1.23743   -1.000
 3921.00    1.33420   1.23794   -1.000
 3922.00    0.98825   1.23349   -1.000
 3923.00    0.32317   1.22443   -1.000
 3924.00   -0.67989   1.21380    0.000
 3925.00   -0.88316   1.20552    0.000
 3926.00   -0.33928   1.20013    0.000
 3927.00    0.29852   1.19395   -1.000
 3928.00    1.01368   1.18310   -1.000
 3929.00    0.58080   1.16636   -1.000
 3930.00   -0.68432   1.14681    0.000
 3931.00   -0.84763   1.13188    0.000
 3932.00   -0.30974   1.12963    0.000
 3933.00    0.07802   1.14228   -1.000
 3934.00    0.38222   1.16453   -1.000
 3935.00    0.01717   1.18865   -1.000
 3936.00   -0.67185   1.20939    0.000
 3937.00   -1.20953   1.22481    0.000
 3938.00   -1.68393   1.23461    0.000
 3939.00   -1.07612   1.23896    0.000
 3940.00   -0.08119   1.23892    0.000
 3941.00    0.52997   1.23692   -1.000
 3942.00    1.02513   1.23604   -1.000
 3943.00    1.21091   1.23831   -1.000
 3944.00    1.31899   1.24253   -1.000
 3945.00    0.93604   1.24556   -1.000
 3946.00    0.45296   1.24657   -1.000
 3947.00    0.62208   1.24691   -1.000
 3948.00    0.89564   1.24673   -1.000
 3949.00    0.88167   1.24457   -1.000
 3950.00    0.83338   1.23979   -1.000
 3951.00    0.47453   1.23361   -1.000
 3952.00    0.09039   1.22713   -1.000
 3953.00    0.14541   1.22009   -1.000
 3954.00    0.22060   1.21231   -1.000
 3955.00    1.44395   1.20416   -1.000
 3956.00    2.63782   1.19454   -1.000
 3957.00    1.52773   1.17996   -1.000
 3958.00    0.47854   1.15744   -1.000
 3959.00    0.58300   1.12732   -1.000
 3960.00    0.69267   1.09260    0.000
 3961.00    0.86108   1.05467    0.000
 3962.00    0.98736   1.01192    0.000
 3963.00    0.78240   0.96274    0.000
 3964.00    0.54383   0.90604    0.000
 3965.00    0.10583   0.84230    0.000
 3966.00   -0.14974   0.77927    0.000
 3967.00    0.45122   0.73359    0.000
 3968.00    0.93777   0.72274    0.000
 3969.00    0.98588   0.75286    0.000
 3970.00    1.01101   0.81318    0.000
 3971.00    0.96267   0.88467    0.000
 3972.00    1.19583   0.95292    0.000
 3973.00    2.19139   1.01144    0.000
 3974.00    2.36917   1.05889    0.000
 3975.00    0.64804   1.09685    0.000
 3976.00   -0.28285   1.12746    0.000
 3977.00    0.37351   1.15153    0.000
 3978.00    0.89355   1.16884    0.000
 3979.00    1.17515   1.17990    0.000
 3980.00    1.10803   1.18722    0.000
 3981.00    0.50702   1.19445   -1.000
 3982.00   -0.05576   1.20361    0.000
 3983.00   -0.56711   1.21391    0.000
 3984.00   -0.60037   1.22350    0.000
 3985.00   -0.06746   1.23153    0.000
 3986.00    0.15133   1.23779   -1.000
 3987.00    0.04210   1.24211   -1.000
 3988.00    0.06564   1.24528   -1.000
 3989.00    0.21147   1.24833   -1.000
 3990.00    0.67889   1.25060   -1.000
 3991.00    1.40742   1.25031   -1.000
 3992.00    1.42842   1.24694   -1.000
 3993.00    0.94392   1.24239   -1.000
 3994.00    1.06677   1.23932   -1.000
 3995.00    1.57043   1.23915   -1.000
 3996.00    1.67422   1.24223   -1.000
 3997.00    1.55888   1.24789   -1.000
 3998.00    1.18047   1.25374   -1.000
 3999.00    0.67675   1.25678   -1.000
 4000.00    0.92260   1.25541   -1.000
 4001.00    1.47652   1.24945   -1.000
 4002.00    0.44379   1.23999   -1.000
 4003.00   -1.14621   1.22972    0.000
 4004.00   -0.72868   1.22154    0.000
 4005.00    0.28368   1.21604   -1.000
 4006.00    0.87457   1.21243   -1.000
 4007.00    1.36193   1.21204   -1.000
 4008.00    0.87587   1.21747   -1.000
 4009.00    0.19627   1.22782   -1.000
 4010.00    0.72955   1.23873   -1.000
 4011.00    1.45129   1.24708   -1.000
 4012.00    1.44227   1.25237   -1.000
 4013.00    1.34922   1.25501   -1.000
 4014.00    0.97222   1.25563   -1.000
 4015.00    0.57325   1.25516   -1.000
 4016.00    0.37993   1.25459   -1.000
 4017.00    0.19527   1.25341   -1.000
 4018.00    0.26529   1.24906   -1.000
 4019.00    0.34650   1.23857   -1.000
 4020.00    0.81629   1.21986   -1.000
 4021.00    1.23479   1.19222   -1.000
 4022.00    0.74893   1.15930   -1.000
 4023.00    0.35264   1.13190   -1.000
 4024.00    0.92006   1.12327   -1.000
 4025.00    1.40963   1.13805   -1.000
 4026.00    1.30825   1.16588   -1.000
 4027.00    1.17088   1.19029   -1.000
 4028.00    0.82592   1.20311   -1.000
 4029.00    0.53151   1.20704   -1.000
 4030.00    0.46873   1.20839   -1.000
 4031.00    0.49747   1.21136   -1.000
 4032.00    0.86944   1.21776   -1.000
 4033.00    1.05716   1.22784   -1.000
 4034.00    0.66724   1.23990   -1.000
 4035.00    0.46627   1.25034   -1.000
 4036.00    0.76797   1.25549   -1.000
 4037.00    1.05543   1.25461    0.112
 4038.00    1.31037   1.24997    0.026
 4039.00    1.38554   1.24408    0.017
 4040.00    1.10528   1.23716    0.017
 4041.00    1.00000   1.22769    0.017
 4042.00    1.19614   1.21620    0.017
 4043.00    1.53582   1.20755    0.017
 4044.00    2.09203   1.20701    0.017
 4045.00    2.17030   1.21495    0.017
 4046.00    1.61501   1.22632    0.017
 4047.00    1.27130   1.23552    0.017
 4048.00    1.17462   1.24011    0.017
 4049.00    0.82040   1.23992    0.017
 4050.00    0.20103   1.23572    0.017
 4051.00    0.07914   1.22936    0.017
 4052.00    0.40899   1.22321    0.017
 4053.00    0.68618   1.21875    0.017
 4054.00    0.92121   1.21616    0.017
 4055.00    1.22050   1.21491    0.017
 4056.00    1.56505   1.21467    0.017
 4057.00    1.61454   1.21502    0.017
 4058.00    1.48177   1.21407    0.017
 4059.00    1.31017   1.20961    0.018
 4060.00    1.11763   1.20206    0.017
 4061.00    0.93185   1.19511    0.017
 4062.00    0.74923   1.19253    0.017
 4063.00    0.75774   1.19426    0.017
 4064.00    0.84346   1.19642    0.017
 4065.00    1.03010   1.19574    0.017
 4066.00    1.25153   1.19207    0.017
 4067.00    1.56027   1.18636    0.017
 4068.00    1.89438   1.17996    0.017
 4069.00    2.20967   1.17556    0.017
 4070.00    2.52043   1.17517    0.017
 4071.00    2.20200   1.17696    0.017
 4072.00    1.76165   1.17600    0.017
 4073.00    1.62149   1.16957    0.017
 4074.00    1.52658   1.16127    0.017
 4075.00    1.75030   1.15746    0.017
 4076.00    2.00927   1.16120    0.017
 4077.00    1.72517   1.17057    0.016
 4078.00    1.40130   1.18057    0.016
 4079.00    1.54851   1.18608    0.016
 4080.00    1.71374   1.18469    0.016
 4081.00    1.24945   1.17807    0.016
 4082.00    0.79752   1.17036    0.016
 4083.00    0.94322   1.16495    0.016
 4084.00    1.07621   1.16212    0.016
 4085.00    0.99974   1.15976    0.016
 4086.00    0.95869   1.15595    0.016
 4087.00    1.28205   1.15029    0.016
 4088.00    1.54821   1.14297    0.016
 4089.00    1.39463   1.13328    0.016
 4090.00    1.32428   1.11976    0.016
 4091.00    1.72083   1.10113    0.016
 4092.00    2.04267   1.07627    0.000
 4093.00    2.03020   1.04414    0.000
 4094.00    1.95074   1.00508    0.000
 4095.00    1.62527   0.96007    0.000
 4096.00    1.37040   0.90824    0.000
 4097.00    1.33272   0.84961    0.000
 4098.00    1.30302   0.79226    0.000
 4099.00    1.29421   0.75341    0.000
 4100.00    1.22475   0.74969    0.000
 4101.00    1.01911   0.78427    0.000
 4102.00    0.97882   0.84323    0.000
 4103.00    1.26029   0.90685    0.000
 4104.00    1.50403   0.96217    0.000
 4105.00    1.68376   1.00470    0.000
 4106.00    1.73808   1.03519    0.000
 4107.00    1.60596   1.05695    0.000
 4108.00    1.50064   1.07377    0.000
 4109.00    1.43031   1.08870    0.000
 4110.00    1.45852   1.10297    0.000
 4111.00    1.60014   1.11585    0.000
 4112.00    1.35540   1.12599    0.000
 4113.00    0.71847   1.13264    0.015
 4114.00    0.64518   1.13539    0.014
 4115.00    1.07652   1.13381    0.014
 4116.00    1.07109   1.12789    0.014
 4117.00    0.72107   1.12015    0.015
 4118.00    0.80943   1.11601    0.021
 4119.00    1.20202   1.11966    0.076
 4120.00    1.20735   1.13090   -1.000
 4121.00    0.97704   1.14539   -1.000
 4122.00    0.92464   1.15732   -1.000
 4123.00    0.96676   1.16306   -1.000
 4124.00    1.04652   1.16214   -1.000
 4125.00    1.14365   1.15681   -1.000
 4126.00    1.49081   1.15027   -1.000
 4127.00    1.93724   1.14448   -1.000
 4128.00    1.74674   1.13954    0.039
 4129.00    1.34067   1.13555    0.017
 4130.00    1.42593   1.13431    0.015
 4131.00    1.65098   1.13784    0.015
 4132.00    1.76873   1.14581    0.015
 4133.00    1.86128   1.15533    0.015
 4134.00    1.94198   1.16338    0.015
 4135.00    2.02043   1.16827    0.014
 4136.00    1.75681   1.16961    0.014
 4137.00    1.44324   1.16658    0.014
 4138.00    1.27241   1.15620    0.014
 4139.00    1.11674   1.13640    0.014
 4140.00    1.20146   1.11165    0.014
 4141.00    1.30280   1.09280    0.014
 4142.00    1.38949   1.08974    0.014
 4143.00    1.47567   1.10353    0.014
 4144.00    1.10626   1.12450    0.014
 4145.00    0.75578   1.14105    0.014
 4146.00    1.06056   1.14905    0.014
 4147.00    1.35084   1.15067    0.014
 4148.00    1.41703   1.14927    0.014
 4149.00    1.43502   1.14694    0.014
 4150.00    0.97795   1.14430    0.014
 4151.00    0.60623   1.14166    0.014
 4152.00    0.84037   1.14003    0.014
 4153.00    1.01065   1.14051    0.014
 4154.00    0.83235   1.14327    0.014
 4155.00    0.70236   1.14780    0.014
 4156.00    0.78358   1.15305    0.014
 4157.00    0.92907   1.15738    0.014
 4158.00    1.30576   1.15956    0.014
 4159.00    1.49197   1.15973    0.014
 4160.00    1.10339   1.15878    0.014
 4161.00    0.73036   1.15733    0.014
 4162.00    0.39724   1.15520    0.014
 4163.00    0.22418   1.15187    0.014
 4164.00    0.40470   1.14739    0.014
 4165.00    0.61375   1.14264    0.014
 4166.00    0.87746   1.13878    0.014
 4167.00    1.03871   1.13578    0.014
 4168.00    1.02868   1.13201    0.014
 4169.00    1.02376   1.12627    0.014
 4170.00    1.02631   1.11995    0.014
 4171.00    1.16140   1.11629    0.014
 4172.00    1.46720   1.11693    0.014
 4173.00    1.71437   1.12005    0.014
 4174.00    1.89500   1.12292    0.014
 4175.00    1.82835   1.12492    0.014
 4176.00    1.51421   1.12714    0.014
 4177.00    1.30395   1.13007    0.014
 4178.00    1.18536   1.13275    0.014
 4179.00    1.19266   1.13395    0.014
 4180.00    1.29788   1.13368    0.014
 4181.00    1.36170   1.13303    0.014
 4182.00    1.39722   1.13205    0.014
 4183.00    1.32220   1.12959    0.014
 4184.00    1.18094   1.12574    0.014
 4185.00    1.24221   1.12212    0.014
 4186.00    1.40941   1.12063    0.014
 4187.00    1.42297   1.12206    0.014
 4188.00    1.36684   1.12555    0.014
 4189.00    1.15634   1.13003    0.014
 4190.00    0.88559   1.13410    0.014
 4191.00    1.09537   1.13536    0.014
 4192.00    1.46474   1.13169    0.014
 4193.00    1.61392   1.12262    0.014
 4194.00    1.70174   1.10990    0.014
 4195.00    1.12687   1.09641    0.014
 4196.00    0.39998   1.08504    0.014
 4197.00    0.54195   1.07818    0.014
 4198.00    0.84359   1.07729    0.014
 4199.00    1.14266   1.08196    0.014
 4200.00    1.44136   1.08999    0.014
 4201.00    1.46547   1.09914    0.013
 4202.00    1.46158   1.10804    0.013
 4203.00    1.20797   1.11588    0.013
 4204.00    0.93809   1.12238    0.013
 4205.00    1.18347   1.12718    0.013
 4206.00    1.44363   1.12960    0.013
 4207.00    1.04031   1.12988    0.013
 4208.00    0.65632   1.12905    0.013
 4209.00    0.84012   1.12787    0.013
 4210.00    1.01745   1.12587    0.013
 4211.00    1.10050   1.12163    0.013
 4212.00    1.16914   1.11558    0.013
 4213.00    1.10142   1.11086    0.013
 4214.00    1.03412   1.11063    0.013
 4215.00    0.96968   1.11549    0.013
 4216.00    0.95984   1.12249    0.013
 4217.00    1.24025   1.12753    0.013
 4218.00    1.44626   1.12825    0.013
 4219.00    1.33453   1.12398    0.013
 4220.00    1.17486   1.11472    0.013
 4221.00    0.84631   1.10086    0.013
 4222.00    0.61681   1.08411    0.013
 4223.00    0.68064   1.06819    0.013
 4224.00    0.74906   1.05890    0.013
 4225.00    0.82905   1.06065    0.013
 4226.00    0.89352   1.07266    0.013
 4227.00    0.92429   1.08875    0.013
 4228.00    0.99513   1.10106    0.013
 4229.00    1.14155   1.10560    0.013
 4230.00    1.31176   1.10380    0.013
 4231.00    1.52116   1.09925    0.012
 4232.00    1.47246   1.09486    0.012
 4233.00    1.05118   1.09206    0.012
 4234.00    0.81944   1.09083    0.012
 4235.00    0.82835   1.09111    0.012
 4236.00    0.65871   1.09318    0.012
 4237.00    0.28932   1.09635    0.012
 4238.00    0.31151   1.09972    0.012
 4239.00    0.72010   1.10327    0.012
 4240.00    1.09269   1.10727    0.012
 4241.00    1.43394   1.11109    0.012
 4242.00    1.65236   1.11299    0.012
 4243.00    1.77662   1.11107    0.012
 4244.00    1.65679   1.10514    0.012
 4245.00    1.37248   1.09737    0.013
 4246.00    1.31448   1.09025    0.013
 4247.00    1.39009   1.08508    0.013
 4248.00    1.24327   1.08210    0.013
 4249.00    0.98192   1.08051    0.013
 4250.00    0.79454   1.07921    0.013
 4251.00    0.64016   1.07789    0.013
 4252.00    1.00428   1.07783    0.013
 4253.00    1.56721   1.08078    0.013
 4254.00    1.48734   1.08550    0.013
 4255.00    1.19799   1.08787    0.012
 4256.00    1.62820   1.08542    0.012
 4257.00    2.25482   1.07997    0.013
 4258.00    1.80779   1.07653    0.013
 4259.00    1.12015   1.07877    0.013
 4260.00    1.24858   1.08600    0.013
 4261.00    1.52297   1.09383    0.013
 4262.00    1.64049   1.09691    0.013
 4263.00    1.73654   1.09271    0.013
 4264.00    1.39088   1.08364    0.013
 4265.00    1.00206   1.07447    0.013
 4266.00    1.25539   1.06790    0.013
 4267.00    1.54798   1.06296    0.013
 4268.00    1.50927   1.05702    0.013
 4269.00    1.46229   1.05023    0.013
 4270.00    1.54542   1.04537    0.013
 4271.00    1.62274   1.04411    0.013
 4272.00    1.54636   1.04643    0.012
 4273.00    1.45112   1.05180    0.012
 4274.00    1.09651   1.06001    0.012
 4275.00    0.75610   1.06927    0.012
 4276.00    0.54476   1.07592    0.013
 4277.00    0.37215   1.07761    0.013
 4278.00    0.45751   1.07494    0.013
 4279.00    0.54279   1.07038    0.013
 4280.00    0.62766   1.06634    0.013
 4281.00    0.79043   1.06339    0.013
 4282.00    1.27837   1.06109   -2.000
 4283.00    1.69700   1.05898   -2.000
 4284.00    1.87632   1.05595   -2.000
 4285.00    1.97019   1.05083   -2.000
 4286.00    1.81565   1.04355   -2.000
 4287.00    1.52432   1.03670   -2.000
 4288.00    0.89373   1.03441   -2.000
 4289.00    0.46978   1.03817   -2.000
 4290.00    0.48756   1.04480   -2.000
 4291.00    0.59137   1.04947   -2.000
 4292.00    0.85489   1.05015   -2.000
 4293.00    1.07615   1.04744   -2.000
 4294.00    1.22888   1.04240   -2.000
 4295.00    1.49885   1.03460   -2.000
 4296.00    1.93562   1.02409   -2.000
 4297.00    1.90482   1.01354   -2.000
 4298.00    1.28884   1.00584    0.013
 4299.00    0.85303   1.00210    0.013
 4300.00    0.61595   1.00160    0.012
 4301.00    0.77672   1.00268    0.012
 4302.00    1.32456   1.00384    0.012
 4303.00    1.48214   1.00353    0.012
 4304.00    1.30487   1.00038    0.013
 4305.00    1.23047   0.99568    0.012
 4306.00    1.23380   0.99297    0.012
 4307.00    1.18747   0.99492    0.012
 4308.00    1.10814   1.00123    0.012
 4309.00    1.08464   1.00900    0.012
 4310.00    1.09360   1.01590    0.012
 4311.00    1.05074   1.02235    0.012
 4312.00    0.98163   1.03052    0.012
 4313.00    0.99480   1.04112    0.012
 4314.00    1.04409   1.05181    0.012
 4315.00    0.96807   1.05899    0.012
 4316.00    0.84486   1.06049    0.012
 4317.00    1.08751   1.05728    0.012
 4318.00    1.44714   1.05132    0.012
 4319.00    1.44164   1.04309    0.012
 4320.00    1.33856   1.03128    0.012
 4321.00    1.09380   1.01548    0.012
 4322.00    0.81803   0.99856    0.012
 4323.00    0.81893   0.98670    0.012
 4324.00    0.86796   0.98459    0.012
 4325.00    0.81776   0.99083    0.012
 4326.00    0.75442   0.99883    0.012
 4327.00    0.92202   1.00173    0.012
 4328.00    1.11119   0.99736    0.012
 4329.00    1.04750   0.98761    0.012
 4330.00    0.96936   0.97474    0.000
 4331.00    1.12212   0.95865    0.000
 4332.00    1.27865   0.93630    0.000
 4333.00    1.25116   0.90342    0.000
 4334.00    1.23041   0.85737    0.000
 4335.00    1.37148   0.80051    0.000
 4336.00    1.48286   0.74140    0.000
 4337.00    1.20778   0.69444    0.000
 4338.00    0.97216   0.67474    0.000
 4339.00    1.08126   0.68869    0.000
 4340.00    1.16873   0.72989    0.000
 4341.00    1.11643   0.78301    0.000
 4342.00    1.08214   0.83344    0.000
 4343.00    1.13871   0.87486    0.000
 4344.00    1.20270   0.90741    0.000
 4345.00    1.29699   0.93253    0.000
 4346.00    1.36205   0.95048    0.000
 4347.00    1.32824   0.96068    0.000
 4348.00    1.34830   0.96391    0.000
 4349.00    1.52210   0.96475    0.000
 4350.00    1.53122   0.96912    0.000
 4351.00    1.13885   0.97977    0.012
 4352.00    0.87692   0.99459    0.012
 4353.00    0.88937   1.00896    0.012
 4354.00    1.07310   1.01951    0.014
 4355.00    1.56996   1.02533    0.038
 4356.00    1.79188   1.02766   -1.000
 4357.00    1.57452   1.02927   -1.000
 4358.00    1.33980   1.03255   -1.000
 4359.00    1.08074   1.03794   -1.000
 4360.00    0.88167   1.04386   -1.000
 4361.00    0.75664   1.04848   -1.000
 4362.00    0.91575   1.05033   -1.000
 4363.00    1.38389   1.04834   -1.000
 4364.00    1.60853   1.04312    0.046
 4365.00    1.59959   1.03708    0.016
 4366.00    1.48841   1.03310    0.012
 4367.00    1.29075   1.03209    0.012
 4368.00    1.14717   1.03238    0.012
 4369.00    1.04388   1.03134    0.012
 4370.00    0.93887   1.02757    0.012
 4371.00    0.83273   1.02189    0.012
 4372.00    0.88565   1.01742    0.012
 4373.00    1.02968   1.01749    0.012
 4374.00    1.15256   1.02282    0.012
 4375.00    1.26490   1.03040    0.012
 4376.00    1.36909   1.03570    0.012
 4377.00    1.46977   1.03555    0.012
 4378.00    1.40974   1.02861    0.012
 4379.00    1.29025   1.01484    0.012
 4380.00    1.24796   0.99653    0.012
 4381.00    1.22989   0.97905    0.012
 4382.00    1.11602   0.96773    0.012
 4383.00    0.97708   0.96370    0.012
 4384.00    0.99780   0.96366    0.012
 4385.00    1.05261   0.96557    0.012
 4386.00    1.03205   0.97068    0.012
 4387.00    0.99874   0.98050    0.012
 4388.00    0.85848   0.99389    0.012
 4389.00    0.70455   1.00666    0.012
 4390.00    0.87648   1.01520    0.012
 4391.00    1.07748   1.01898    0.012
 4392.00    1.24541   1.02018    0.012
 4393.00    1.41157   1.02256    0.012
 4394.00    1.35445   1.02740    0.012
 4395.00    1.29255   1.03209    0.012
 4396.00    1.19851   1.03308    0.012
 4397.00    1.10061   1.02977    0.011
 4398.00    0.91775   1.02522    0.012
 4399.00    0.75648   1.02154    0.012
 4400.00    0.86186   1.01741    0.012
 4401.00    0.95157   1.01104    0.012
 4402.00    0.90940   1.00380    0.012
 4403.00    0.86630   0.99934    0.012
 4404.00    0.81739   0.99966    0.012
 4405.00    0.78070   1.00387    0.012
 4406.00    0.80415   1.01031    0.012
 4407.00    0.83722   1.01807    0.012
 4408.00    0.90864   1.02583    0.012
 4409.00    0.90666   1.03085    0.012
 4410.00    0.66123   1.02978    0.012
 4411.00    0.53820   1.02151    0.012
 4412.00    0.75807   1.00947    0.012
 4413.00    0.93096   0.99990    0.012
 4414.00    0.99124   0.99792    0.012
 4415.00    1.01306   1.00437    0.012
 4416.00    0.95525   1.01510    0.012
 4417.00    0.90254   1.02443    0.012
 4418.00    0.85900   1.02880    0.011
 4419.00    0.82580   1.02795    0.011
 4420.00    0.80886   1.02488    0.011
 4421.00    0.98534   1.02238    0.011
 4422.00    1.42911   1.02112    0.011
 4423.00    1.52191   1.02028    0.011
 4424.00    1.18784   1.01918    0.011
 4425.00    1.00466   1.01817    0.011
 4426.00    0.98330   1.01731    0.011
 4427.00    0.88564   1.01610    0.011
 4428.00    0.71581   1.01465    0.011
 4429.00    0.87447   1.01268    0.011
 4430.00    1.30705   1.00932    0.011
 4431.00    1.59469   1.00403    0.011
 4432.00    1.77590   0.99813    0.012
 4433.00    1.65701   0.99522    0.012
 4434.00    1.34464   0.99803    0.012
 4435.00    1.35954   1.00592    0.012
 4436.00    1.55903   1.01473    0.012
 4437.00    1.62684   1.01920    0.012
 4438.00    1.63002   1.01680    0.012
 4439.00    1.20333   1.00952    0.012
 4440.00    0.59422   1.00268    0.012
 4441.00    0.48647   1.00106    0.012
 4442.00    0.56091   1.00537    0.012
 4443.00    0.69180   1.01210    0.012
 4444.00    0.84005   1.01730    0.011
 4445.00    0.92208   1.01959    0.011
 4446.00    0.98717   1.01965    0.011
 4447.00    0.76981   1.01849    0.011
 4448.00    0.49359   1.01663    0.011
 4449.00    0.69799   1.01343    0.011
 4450.00    0.98136   1.00822    0.011
 4451.00    1.03489   1.00095    0.011
 4452.00    1.06008   0.99311    0.011
 4453.00    1.08925   0.98754    0.011
 4454.00    1.11876   0.98533    0.011
 4455.00    1.11705   0.98541    0.011
 4456.00    1.11380   0.98557    0.011
 4457.00    0.80976   0.98477    0.011
 4458.00    0.51018   0.98365    0.011
 4459.00    0.79096   0.98391    0.011
 4460.00    1.05578   0.98677    0.011
 4461.00    0.99729   0.99091    0.000
 4462.00    0.94686   0.99384    0.000
 4463.00    0.99113   0.99324    0.000
 4464.00    1.00909   0.98803    0.000
 4465.00    0.81369   0.97792    0.000
 4466.00    0.65049   0.96322    0.000
 4467.00    0.68320   0.94632    0.000
 4468.00    0.72654   0.93294    0.000
 4469.00    0.82086   0.93103    0.000
 4470.00    0.90937   0.94361    0.000
 4471.00    0.97513   0.96554    0.000
 4472.00    1.06000   0.98803    0.000
 4473.00    1.20700   1.00456    0.000
 4474.00    1.29457   1.01327    0.000
 4475.00    1.21859   1.01411    0.000
 4476.00    1.12537   1.00697    0.000
 4477.00    0.99153   0.99368    0.000
 4478.00    0.86403   0.98032    0.000
 4479.00    0.74948   0.97439    0.000
 4480.00    0.78897   0.97938    0.000
 4481.00    1.10156   0.99210    0.000
 4482.00    1.27811   1.00593    0.011
 4483.00    1.24371   1.01478    0.011
 4484.00    1.15077   1.01624    0.011
 4485.00    0.97810   1.01132    0.011
 4486.00    0.98718   1.00373    0.011
 4487.00    1.21419   0.99795    0.011
 4488.00    1.16038   0.99649    0.011
 4489.00    0.80968   0.99828    0.011
 4490.00    0.71212   0.99988    0.011
 4491.00    0.85062   0.99870    0.011
 4492.00    0.83269   0.99565    0.011
 4493.00    0.68614   0.99358    0.011
 4494.00    0.62674   0.99486    0.011
 4495.00    0.63039   0.99912    0.011
 4496.00    0.75786   1.00380    0.011
 4497.00    0.96398   1.00669    0.011
 4498.00    1.09749   1.00792    0.011
 4499.00    1.19067   1.00996    0.011
 4500.00    1.17120   1.01462    0.011
 4501.00    1.09732   1.02059    0.011
 4502.00    0.82311   1.02488    0.011
 4503.00    0.46531   1.02529    0.011
 4504.00    0.43697   1.02247    0.011
 4505.00    0.52621   1.01892    0.010
 4506.00    0.63818   1.01654    0.011
 4507.00    0.75699   1.01537    0.011
 4508.00    0.93262   1.01380    0.011
 4509.00    1.12247   1.01032    0.011
 4510.00    1.16883   1.00515    0.011
 4511.00    1.18601   0.99979    0.011
 4512.00    0.74888   0.99601    0.011
 4513.00    0.23927   0.99450    0.011
 4514.00    0.41335   0.99454    0.011
 4515.00    0.66867   0.99539    0.011
 4516.00    0.64186   0.99691    0.011
 4517.00    0.59222   0.99854    0.010
 4518.00    0.69688   0.99925    0.011
 4519.00    0.80855   0.99742    0.011
 4520.00    0.84295   0.99294    0.011
 4521.00    0.87275   0.98711    0.011
 4522.00    0.71612   0.98070    0.011
 4523.00    0.57220   0.97378    0.011
 4524.00    0.66680   0.96610    0.011
 4525.00    0.75821   0.95860    0.011
 4526.00    0.81385   0.95342    0.011
 4527.00    0.86166   0.95218    0.011
 4528.00    0.84813   0.95425    0.011
 4529.00    0.83790   0.95721    0.011
 4530.00    0.84718   0.95798    0.011
 4531.00    0.84316   0.95645    0.011
 4532.00    0.77695   0.95558    0.011
 4533.00    0.75515   0.95866    0.011
 4534.00    0.90310   0.96576    0.011
 4535.00    0.97544   0.97243    0.011
 4536.00    0.80670   0.97398    0.011
 4537.00    0.65028   0.96935    0.011
 4538.00    0.52714   0.96223    0.011
 4539.00    0.48665   0.95785    0.011
 4540.00    0.63765   0.95837    0.011
 4541.00    0.77470   0.96209    0.011
 4542.00    0.88380   0.96616    0.011
 4543.00    0.89416   0.96876    0.011
 4544.00    0.73216   0.96921    0.011
 4545.00    0.63566   0.96752    0.011
 4546.00    0.63927   0.96434    0.011
 4547.00    0.64819   0.96152    0.011
 4548.00    0.66425   0.96009    0.011
 4549.00    0.69562   0.95904    0.011
 4550.00    0.74510   0.95771    0.000
 4551.00    0.74152   0.95642    0.000
 4552.00    0.68263   0.95717    0.000
 4553.00    0.73725   0.96157    0.000
 4554.00    0.89623   0.96912    0.000
 4555.00    0.78149   0.97753    0.000
 4556.00    0.44493   0.98452    0.000
 4557.00    0.45418   0.98859    0.000
 4558.00    0.71004   0.98948    0.000
 4559.00    0.83798   0.98726    0.000
 4560.00    0.88586   0.98228    0.000
 4561.00    0.68050   0.97638    0.000
 4562.00    0.33664   0.97214    0.000
 4563.00    0.43393   0.97146    0.000
 4564.00    0.74095   0.97409    0.000
 4565.00    0.84756   0.97768    0.000
 4566.00    0.87196   0.97968    0.000
 4567.00    0.85125   0.97870    0.000
 4568.00    0.81473   0.97546    0.000
 4569.00    0.71629   0.97267    0.000
 4570.00    0.59955   0.97245    0.000
 4571.00    0.72239   0.97445    0.000
 4572.00    0.90392   0.97699    0.000
 4573.00    0.61654   0.97834    0.000
 4574.00    0.23623   0.97770    0.000
 4575.00    0.38507   0.97483    0.000
 4576.00    0.61583   0.96983    0.000
 4577.00    0.47515   0.96400    0.000
 4578.00    0.29197   0.95929    0.000
 4579.00    0.51323   0.95684    0.000
 4580.00    0.76555   0.95625    0.000
 4581.00    0.66772   0.95656    0.000
 4582.00    0.55533   0.95739    0.000
 4583.00    0.67500   0.95898    0.000
 4584.00    0.79113   0.96174    0.000
 4585.00    0.66850   0.96494    0.000
 4586.00    0.55814   0.96709    0.000
 4587.00    0.66220   0.96669    0.000
 4588.00    0.77270   0.96379    0.000
 4589.00    0.95208   0.95990    0.000
 4590.00    1.06822   0.95672    0.000
 4591.00    0.70630   0.95478    0.000
 4592.00    0.41881   0.95377    0.000
 4593.00    0.55914   0.95363    0.000
 4594.00    0.71383   0.95451    0.000
 4595.00    0.93414   0.95607    0.000
 4596.00    1.06318   0.95713    0.000
 4597.00    0.85075   0.95658    0.000
 4598.00    0.74097   0.95481    0.000
 4599.00    0.95220   0.95327    0.000
 4600.00    1.00420   0.95298    0.000
 4601.00    0.63354   0.95400    0.000
 4602.00    0.44363   0.95562    0.000
 4603.00    0.66564   0.95789    0.000
 4604.00    0.72527   0.96123    0.000
 4605.00    0.46454   0.96562    0.000
 4606.00    0.40346   0.96975    0.000
 4607.00    0.68568   0.97199    0.000
 4608.00    0.84113   0.97169    0.000
 4609.00    0.80571   0.96962    0.000
 4610.00    0.80845   0.96734    0.000
 4611.00    0.86169   0.96616    0.000
 4612.00    0.82791   0.96608    0.000
 4613.00    0.69273   0.96606    0.000
 4614.00    0.72220   0.96512    0.000
 4615.00    0.92088   0.96278    0.000
 4616.00    1.03118   0.96021    0.000
 4617.00    1.06136   0.95920    0.000
 4618.00    0.90025   0.96043    0.000
 4619.00    0.58633   0.96314    0.000
 4620.00    0.55792   0.96569    0.000
 4621.00    0.73018   0.96670    0.000
 4622.00    0.72213   0.96607    0.000
 4623.00    0.60290   0.96433    0.000
 4624.00    0.52392   0.96203    0.000
 4625.00    0.46662   0.95937    0.000
 4626.00    0.51045   0.95670    0.000
 4627.00    0.60158   0.95475    0.000
 4628.00    0.68115   0.95393    0.000
 4629.00    0.75607   0.95364    0.000
 4630.00    0.89139   0.95279    0.000
 4631.00    1.04750   0.95101    0.000
 4632.00    1.06801   0.94868    0.000
 4633.00    1.04925   0.94612    0.000
 4634.00    0.90334   0.94286    0.000
 4635.00    0.72697   0.93885    0.000
 4636.00    0.78946   0.93504    0.000
 4637.00    0.89807   0.93292    0.000
 4638.00    0.95371   0.93331    0.000
 4639.00    1.00139   0.93544    0.000
 4640.00    0.83623   0.93739    0.000
 4641.00    0.64766   0.93695    0.000
 4642.00    0.62099   0.93268    0.000
 4643.00    0.60610   0.92502    0.000
 4644.00    0.39572   0.91657    0.000
 4645.00    0.17795   0.91054    0.000
 4646.00    0.21049   0.90906    0.000
 4647.00    0.24478   0.91212    0.000
 4648.00    0.29626   0.91803    0.000
 4649.00    0.35218   0.92448    0.000
 4650.00    0.48051   0.92925    0.000
 4651.00    0.60243   0.93109    0.000
 4652.00    0.65884   0.93106    0.000
 4653.00    0.69891   0.93152    0.000
 4654.00    0.61962   0.93489    0.000
 4655.00    0.56432   0.94130    0.000
 4656.00    0.64315   0.94830    0.000
 4657.00    0.67185   0.95262    0.000
 4658.00    0.47685   0.95221    0.000
 4659.00    0.39468   0.94769    0.000
 4660.00    0.72585   0.94118    0.000
 4661.00    0.95513   0.93435    0.000
 4662.00    0.87182   0.92716    0.000
 4663.00    0.82329   0.91908    0.000
 4664.00    0.86547   0.91118    0.000
 4665.00    0.89088   0.90630    0.000
 4666.00    0.87866   0.90679    0.000
 4667.00    0.88890   0.91240    0.000
 4668.00    0.94276   0.92000    0.000
 4669.00    0.95004   0.92595    0.000
 4670.00    0.87845   0.92875    0.000
 4671.00    0.70418   0.92929    0.000
 4672.00    0.37755   0.92944    0.000
 4673.00    0.35370   0.93011    0.000
 4674.00    0.72473   0.93051    0.000
 4675.00    0.98412   0.92943    0.000
 4676.00    1.11521   0.92638    0.000
 4677.00    1.05017   0.92211    0.000
 4678.00    0.78638   0.91772    0.000
 4679.00    0.78675   0.91375    0.000
 4680.00    1.02321   0.90963    0.000
 4681.00    1.08092   0.90451    0.000
 4682.00    0.99785   0.89906    0.000
 4683.00    0.87231   0.89573    0.000
 4684.00    0.71736   0.89667    0.000
 4685.00    0.72505   0.90186    0.000
 4686.00    0.83153   0.90876    0.000
 4687.00    0.62134   0.91449    0.000
 4688.00    0.24326   0.91820    0.000
 4689.00    0.09316   0.92079    0.000
 4690.00    0.04798   0.92338    0.000
 4691.00    0.07441   0.92644    0.000
 4692.00    0.12921   0.92905    0.000
 4693.00    0.34727   0.92962    0.000
 4694.00    0.62045   0.92693    0.000
 4695.00    0.85471   0.92126    0.000
 4696.00    1.07792   0.91469    0.000
 4697.00    1.06864   0.90937    0.000
 4698.00    1.00495   0.90606    0.000
 4699.00    0.65918   0.90422    0.000
 4700.00    0.26034   0.90326    0.000
 4701.00    0.23324   0.90323    0.000
 4702.00    0.26020   0.90397    0.000
 4703.00    0.36461   0.90460    0.000
 4704.00    0.47722   0.90427    0.000
 4705.00    0.41735   0.90316    0.000
 4706.00    0.34563   0.90227    0.000
 4707.00    0.41205   0.90213    0.000
 4708.00    0.48316   0.90176    0.000
 4709.00    0.65608   0.89974    0.000
 4710.00    0.82437   0.89671    0.000
 4711.00    0.83709   0.89505    0.000
 4712.00    0.84067   0.89735    0.000
 4713.00    0.70422   0.90377    0.000
 4714.00    0.59471   0.91216    0.000
 4715.00    0.74942   0.91986    0.000
 4716.00    0.87894   0.92554    0.000
 4717.00    0.83034   0.92865    0.000
 4718.00    0.75674   0.92956    0.000
 4719.00    0.54711   0.92911    0.000
 4720.00    0.39083   0.92837    0.000
 4721.00    0.46701   0.92768    0.000
 4722.00    0.55098   0.92608    0.000
 4723.00    0.66286   0.92200    0.000
 4724.00    0.73705   0.91500    0.000
 4725.00    0.69777   0.90689    0.000
 4726.00    0.67712   0.90034    0.000
 4727.00    0.70424   0.89718    0.000
 4728.00    0.75369   0.89756    0.000
 4729.00    0.85238   0.90026    0.000
 4730.00    0.82969   0.90378    0.000
 4731.00    0.57498   0.90691    0.000
 4732.00    0.40676   0.90870    0.000
 4733.00    0.38285   0.90903    0.000
 4734.00    0.50005   0.90895    0.000
 4735.00    0.82357   0.90917    0.000
 4736.00    0.88559   0.90970    0.000
 4737.00    0.61139   0.91002    0.000
 4738.00    0.43715   0.90980    0.000
 4739.00    0.37616   0.90965    0.000
 4740.00    0.36451   0.91019    0.000
 4741.00    0.40215   0.91130    0.000
 4742.00    0.37707   0.91265    0.000
 4743.00    0.29673   0.91396    0.000
 4744.00    0.40671   0.91502    0.000
 4745.00    0.66445   0.91571    0.000
 4746.00    0.78039   0.91575    0.000
 4747.00    0.79954   0.91493    0.000
 4748.00    0.80198   0.91313    0.000
 4749.00    0.79443   0.91040    0.000
 4750.00    0.71830   0.90706    0.000
 4751.00    0.60636   0.90379    0.000
 4752.00    0.65186   0.90123    0.000
 4753.00    0.76863   0.89967    0.000
 4754.00    0.68941   0.89916    0.000
 4755.00    0.53390   0.89936    0.000
 4756.00    0.54169   0.89962    0.000
 4757.00    0.60360   0.89886    0.000
 4758.00    0.77483   0.89612    0.000
 4759.00    0.97645   0.89148    0.000
 4760.00    1.00872   0.88601    0.000
 4761.00    1.00225   0.88114    0.010
 4762.00    0.79406   0.87810    0.010
 4763.00    0.54893   0.87745    0.010
 4764.00    0.63928   0.87924    0.010
 4765.00    0.77688   0.88287    0.010
 4766.00    0.79959   0.88696    0.010
 4767.00    0.81064   0.88984    0.010
 4768.00    0.84583   0.89088    0.010
 4769.00    0.88257   0.89095    0.010
 4770.00    0.58946   0.89151    0.010
 4771.00    0.28722   0.89331    0.009
 4772.00    0.41465   0.89567    0.010
 4773.00    0.53978   0.89742    0.010
 4774.00    0.59796   0.89778    0.010
 4775.00    0.65019   0.89666    0.010
 4776.00    0.61633   0.89454    0.009
 4777.00    0.57984   0.89184    0.009
 4778.00    0.51858   0.88891    0.009
 4779.00    0.45134   0.88598    0.009
 4780.00    0.34307   0.88332    0.009
 4781.00    0.28187   0.88119    0.009
 4782.00    0.47000   0.87948    0.009
 4783.00    0.63313   0.87819    0.009
 4784.00    0.68975   0.87727    0.009
 4785.00    0.75454   0.87666    0.009
 4786.00    0.84802   0.87689    0.009
 4787.00    0.89005   0.87821    0.009
 4788.00    0.78012   0.88069    0.009
 4789.00    0.74203   0.88458    0.009
 4790.00    0.88481   0.88945    0.009
 4791.00    0.92283   0.89417    0.009
 4792.00    0.73364   0.89731    0.009
 4793.00    0.65936   0.89763    0.009
 4794.00    0.80136   0.89495    0.009
 4795.00    0.91522   0.89043    0.009
 4796.00    0.98284   0.88610    0.009
 4797.00    0.99217   0.88377    0.009
 4798.00    0.91750   0.88396    0.009
 4799.00    0.84552   0.88561    0.009
 4800.00    0.77695   0.88680    0.009
 4801.00    0.76424   0.88609    0.010
 4802.00    0.81392   0.88364    0.009
 4803.00    0.90950   0.88056    0.009
 4804.00    1.05030   0.87802    0.009
 4805.00    1.05024   0.87678    0.009
 4806.00    0.92781   0.87671    0.009
 4807.00    0.79654   0.87727    0.009
 4808.00    0.65852   0.87786    0.009
 4809.00    0.66583   0.87809    0.009
 4810.00    0.77090   0.87811    0.010
 4811.00    0.86189   0.87843    0.010
 4812.00    0.94458   0.87947    0.009
 4813.00    0.88839   0.88126    0.009
 4814.00    0.76084   0.88322    0.009
 4815.00    0.74456   0.88462    0.009
 4816.00    0.77781   0.88490    0.009
 4817.00    0.78328   0.88367    0.009
 4818.00    0.77812   0.88075    0.009
 4819.00    0.64813   0.87615    0.009
 4820.00    0.47756   0.87102    0.009
 4821.00    0.42628   0.86718    0.009
 4822.00    0.40748   0.86572    0.009
 4823.00    0.44157   0.86627    0.009
 4824.00    0.48747   0.86705    0.009
 4825.00    0.41127   0.86658    0.009
 4826.00    0.31330   0.86497    0.009
 4827.00    0.49876   0.86291    0.009
 4828.00    0.72283   0.86104    0.009
 4829.00    0.80517   0.86001    0.009
 4830.00    0.87374   0.86000    0.009
 4831.00    0.77032   0.86086    0.009
 4832.00    0.65647   0.86191    0.009
 4833.00    0.94038   0.86208    0.009
 4834.00    1.23198   0.86061    0.009
 4835.00    1.01120   0.85749    0.009
 4836.00    0.79574   0.85342    0.009
 4837.00    0.71915   0.84938    0.009
 4838.00    0.67275   0.84608    0.009
 4839.00    1.03856   0.84375    0.009
 4840.00    1.34214   0.84244    0.009
 4841.00    1.08334   0.84189    0.009
 4842.00    0.84144   0.84133    0.009
 4843.00    0.71166   0.83974    0.009
 4844.00    0.62321   0.83610    0.009
 4845.00    0.74801   0.83065    0.009
 4846.00    0.81936   0.82469    0.009
 4847.00    0.66820   0.81895    0.009
 4848.00    0.55477   0.81299    0.000
 4849.00    0.57123   0.80535    0.000
 4850.00    0.60604   0.79421    0.000
 4851.00    0.69411   0.77902    0.000
 4852.00    0.75045   0.76066    0.000
 4853.00    0.72828   0.73970    0.000
 4854.00    0.73248   0.71523    0.000
 4855.00    0.79294   0.68549    0.000
 4856.00    0.82131   0.64988    0.000
 4857.00    0.79022   0.61326    0.000
 4858.00    0.72960   0.58655    0.000
 4859.00    0.62121   0.57964    0.000
 4860.00    0.61251   0.59489    0.000
 4861.00    0.74538   0.62669    0.000
 4862.00    0.80831   0.66441    0.000
 4863.00    0.78386   0.69905    0.000
 4864.00    0.72368   0.72682    0.000
 4865.00    0.62414   0.74714    0.000
 4866.00    0.65212   0.76043    0.000
 4867.00    0.80397   0.76804    0.000
 4868.00    0.80144   0.77271    0.000
 4869.00    0.66670   0.77741    0.000
 4870.00    0.64805   0.78395    0.000
 4871.00    0.71697   0.79243    0.000
 4872.00    0.68023   0.80150    0.000
 4873.00    0.57346   0.80981    0.000
 4874.00    0.50287   0.81703    0.000
 4875.00    0.45328   0.82356    0.009
 4876.00    0.65483   0.82879    0.009
 4877.00    0.98340   0.83177    0.009
 4878.00    1.03136   0.83269    0.009
 4879.00    0.95645   0.83205    0.009
 4880.00    0.87982   0.83051    0.009
 4881.00    0.80253   0.82868    0.009
 4882.00    0.65293   0.82675    0.015
 4883.00    0.48025   0.82504    0.087
 4884.00    0.42482   0.82386   -1.000
 4885.00    0.40064   0.82293   -1.000
 4886.00    0.48287   0.82144   -1.000
 4887.00    0.58831   0.81955   -1.000
 4888.00    0.55379   0.81967   -1.000
 4889.00    0.49500   0.82389   -1.000
 4890.00    0.43303   0.83258   -1.000
 4891.00    0.37064   0.84404   -1.000
 4892.00    0.48189   0.85459   -1.000
 4893.00    0.60927   0.86169   -1.000
 4894.00    0.71639   0.86451    0.020
 4895.00    0.82237   0.86324    0.010
 4896.00    0.69619   0.85936    0.010
 4897.00    0.56686   0.85491    0.010
 4898.00    0.67175   0.85101    0.010
 4899.00    0.76531   0.84832    0.009
 4900.00    0.58996   0.84729    0.010
 4901.00    0.43191   0.84788    0.010
 4902.00    0.49760   0.84965    0.010
 4903.00    0.56589   0.85142    0.010
 4904.00    0.65678   0.85153    0.010
 4905.00    0.76867   0.84896    0.010
 4906.00    1.01573   0.84437    0.010
 4907.00    1.18649   0.84006    0.010
 4908.00    0.97354   0.83802    0.010
 4909.00    0.78972   0.83890    0.010
 4910.00    0.72446   0.84210    0.009
 4911.00    0.70425   0.84588    0.009
 4912.00    0.83609   0.84787    0.010
 4913.00    0.90135   0.84587    0.010
 4914.00    0.77701   0.83823    0.010
 4915.00    0.67929   0.82497    0.009
 4916.00    0.64635   0.80834    0.009
 4917.00    0.60970   0.79221    0.010
 4918.00    0.56524   0.78155    0.010
 4919.00    0.58526   0.77883    0.010
 4920.00    0.72293   0.78388    0.010
 4921.00    0.76922   0.79457    0.009
 4922.00    0.66982   0.80817    0.009
 4923.00    0.72077   0.82186    0.009
 4924.00    0.98213   0.83425    0.009
 4925.00    0.92437   0.84436    0.009
 4926.00    0.47357   0.85095    0.009
 4927.00    0.40230   0.85381    0.009
 4928.00    0.74307   0.85278    0.009
 4929.00    0.83385   0.84808    0.009
 4930.00    0.68526   0.84179    0.010
 4931.00    0.69415   0.83627    0.010
 4932.00    0.83601   0.83232    0.009
 4933.00    0.79037   0.82939    0.009
 4934.00    0.60530   0.82615    0.009
 4935.00    0.62016   0.82249    0.009
 4936.00    0.76560   0.82049    0.009
 4937.00    0.90687   0.82196    0.009
 4938.00    1.04577   0.82667    0.009
 4939.00    0.96961   0.83309    0.009
 4940.00    0.78637   0.83894    0.000
 4941.00    0.72820   0.84281    0.000
 4942.00    0.72390   0.84497    0.000
 4943.00    0.69273   0.84622    0.000
 4944.00    0.65164   0.84731    0.000
 4945.00    0.60867   0.84883    0.000
 4946.00    0.56510   0.85063    0.000
 4947.00    0.66050   0.85191    0.000
 4948.00    0.79217   0.85186    0.000
 4949.00    0.94650   0.85006    0.000
 4950.00    1.10565   0.84628    0.000
 4951.00    0.92987   0.84022    0.000
 4952.00    0.69766   0.83172    0.000
 4953.00    0.58275   0.82142    0.000
 4954.00    0.48275   0.81242    0.000
 4955.00    0.55339   0.80826    0.000
 4956.00    0.63917   0.81036    0.000
 4957.00    0.67402   0.81734    0.000
 4958.00    0.70619   0.82516    0.000
 4959.00    0.76392   0.83021    0.000
 4960.00    0.82083   0.83130    0.000
 4961.00    0.77497   0.82901    0.000
 4962.00    0.73389   0.82494    0.000
 4963.00    0.79685   0.82066    0.000
 4964.00    0.84388   0.81756    0.000
 4965.00    0.69542   0.81657    0.000
 4966.00    0.57089   0.81747    0.000
 4967.00    0.64687   0.81985    0.000
 4968.00    0.70316   0.82319    0.000
 4969.00    0.63651   0.82676    0.000
 4970.00    0.59316   0.82997    0.000
 4971.00    0.66405   0.83199    0.000
 4972.00    0.74894   0.83227    0.000
 4973.00    0.88952   0.83061    0.000
 4974.00    0.99428   0.82697    0.000
 4975.00    0.98049   0.82194    0.000
 4976.00    0.92976   0.81589    0.000
 4977.00    0.77579   0.80875    0.000
 4978.00    0.70284   0.80083    0.000
 4979.00    0.82364   0.79331    0.000
 4980.00    0.87482   0.78805    0.000
 4981.00    0.78219   0.78683    0.000
 4982.00    0.71456   0.79019    0.000
 4983.00    0.69184   0.79662    0.000
 4984.00    0.63670   0.80345    0.000
 4985.00    0.53060   0.80854    0.000
 4986.00    0.52907   0.81077    0.000
 4987.00    0.67179   0.81055    0.000
 4988.00    0.77103   0.80949    0.000
 4989.00    0.81749   0.80867    0.000
 4990.00    0.89038   0.80876    0.000
 4991.00    0.99157   0.80980    0.000
 4992.00    0.98935   0.81097    0.000
 4993.00    0.88948   0.81164    0.000
 4994.00    0.79883   0.81084    0.000
 4995.00    0.71584   0.80752    0.000
 4996.00    0.69619   0.80204    0.000
 4997.00    0.72296   0.79577    0.000
 4998.00    0.73514   0.79041    0.000
 4999.00    0.73792   0.78710    0.000
 5000.00    0.84331   0.78521    0.000
 5001.00    1.00648   0.78350    0.000
 5002.00    1.15517   0.78154    0.000
 5003.00    1.29678   0.78037    0.000
 5004.00    1.17826   0.78141    0.000
 5005.00    0.94959   0.78468    0.000
 5006.00    1.01466   0.78838    0.000
 5007.00    1.18625   0.78974    0.000
 5008.00    1.07529   0.78698    0.000
 5009.00    0.87765   0.78048    0.000
 5010.00    0.86984   0.77177    0.000
 5011.00    0.91049   0.76334    0.000
 5012.00    0.79848   0.75796    0.000
 5013.00    0.65475   0.75674    0.000
 5014.00    0.62031   0.75960    0.000
 5015.00    0.60376   0.76513    0.000
 5016.00    0.64933   0.77121    0.000
 5017.00    0.70254   0.77627    0.000
 5018.00    0.68604   0.77999    0.000
 5019.00    0.66365   0.78263    0.000
 5020.00    0.66469   0.78470    0.000
 5021.00    0.66688   0.78672    0.000
 5022.00    0.62068   0.78844    0.000
 5023.00    0.57481   0.78910    0.000
 5024.00    0.59511   0.78915    0.000
 5025.00    0.62062   0.78968    0.000
 5026.00    0.75067   0.79148    0.000
 5027.00    0.86623   0.79484    0.000
 5028.00    0.81257   0.79879    0.000
 5029.00    0.78800   0.80191    0.009
 5030.00    0.99831   0.80289    0.009
 5031.00    1.16395   0.80078    0.009
 5032.00    1.05872   0.79589    0.009
 5033.00    0.91871   0.78947    0.009
 5034.00    0.61242   0.78254    0.009
 5035.00    0.43061   0.77549    0.009
 5036.00    0.73362   0.76785    0.009
 5037.00    0.95171   0.76064    0.010
 5038.00    0.89434   0.75696    0.009
 5039.00    0.83633   0.75916    0.009
 5040.00    0.77658   0.76722    0.009
 5041.00    0.71579   0.77821    0.009
 5042.00    0.65257   0.78727    0.009
 5043.00    0.60746   0.79140    0.009
 5044.00    0.59917   0.79040    0.009
 5045.00    0.66807   0.78588    0.009
 5046.00    0.87354   0.78063    0.009
 5047.00    0.95352   0.77718    0.009
 5048.00    0.83924   0.77676    0.009
 5049.00    0.66171   0.77889    0.009
 5050.00    0.39820   0.78243    0.009
 5051.00    0.43078   0.78617    0.009
 5052.00    0.81777   0.78927    0.009
 5053.00    0.88461   0.79161    0.009
 5054.00    0.61360   0.79374    0.009
 5055.00    0.61094   0.79610    0.009
 5056.00    0.85810   0.79868    0.009
 5057.00    0.88504   0.80058    0.009
 5058.00    0.73126   0.80085    0.009
 5059.00    0.72891   0.79867    0.009
 5060.00    0.83593   0.79366    0.009
 5061.00    0.84284   0.78700    0.009
 5062.00    0.78627   0.78069    0.009
 5063.00    0.70121   0.77644    0.009
 5064.00    0.60035   0.77502    0.009
 5065.00    0.68406   0.77557    0.009
 5066.00    0.85675   0.77663    0.009
 5067.00    0.89587   0.77737    0.009
 5068.00    0.87939   0.77764    0.009
 5069.00    0.78784   0.77743    0.009
 5070.00    0.66957   0.77698    0.009
 5071.00    0.61525   0.77686    0.009
 5072.00    0.58017   0.77695    0.008
 5073.00    0.54698   0.77612    0.008
 5074.00    0.51427   0.77335    0.008
 5075.00    0.55124   0.76854    0.009
 5076.00    0.60232   0.76272    0.009
 5077.00    0.54812   0.75748    0.009
 5078.00    0.47717   0.75476    0.008
 5079.00    0.44407   0.75549    0.008
 5080.00    0.41545   0.75873    0.008
 5081.00    0.55076   0.76298    0.008
 5082.00    0.69924   0.76735    0.008
 5083.00    0.57979   0.77131    0.008
 5084.00    0.44828   0.77437    0.008
 5085.00    0.64471   0.77645    0.008
 5086.00    0.83997   0.77795    0.008
 5087.00    0.78352   0.77938    0.008
 5088.00    0.72636   0.78092    0.008
 5089.00    0.65602   0.78243    0.008
 5090.00    0.58939   0.78331    0.008
 5091.00    0.56398   0.78263    0.008
 5092.00    0.53696   0.77958    0.008
 5093.00    0.49735   0.77421    0.008
 5094.00    0.46998   0.76766    0.009
 5095.00    0.51480   0.76183    0.008
 5096.00    0.54325   0.75840    0.008
 5097.00    0.49535   0.75803    0.008
 5098.00    0.48510   0.76027    0.008
 5099.00    0.61836   0.76338    0.008
 5100.00    0.71408   0.76538    0.008
 5101.00    0.69041   0.76541    0.008
 5102.00    0.63569   0.76363    0.008
 5103.00    0.49724   0.76086    0.009
 5104.00    0.43848   0.75798    0.009
 5105.00    0.56398   0.75557    0.009
 5106.00    0.61354   0.75453    0.009
 5107.00    0.51118   0.75530    0.009
 5108.00    0.46609   0.75738    0.009
 5109.00    0.52081   0.76049    0.009
 5110.00    0.62531   0.76416    0.009
 5111.00    0.80575   0.76767    0.009
 5112.00    0.85887   0.77102    0.009
 5113.00    0.74140   0.77411    0.009
 5114.00    0.77374   0.77626    0.009
 5115.00    0.98287   0.77683    0.009
 5116.00    0.97440   0.77511    0.009
 5117.00    0.73952   0.77091    0.009
 5118.00    0.67864   0.76474    0.009
 5119.00    0.77747   0.75762    0.009
 5120.00    0.79622   0.75098    0.009
 5121.00    0.75018   0.74580    0.009
 5122.00    0.69549   0.74256    0.009
 5123.00    0.63464   0.74127    0.009
 5124.00    0.57051   0.74111    0.009
 5125.00    0.50433   0.74152    0.009
 5126.00    0.52364   0.74270    0.009
 5127.00    0.58963   0.74477    0.009
 5128.00    0.69066   0.74748    0.009
 5129.00    0.80833   0.75064    0.009
 5130.00    0.86257   0.75379    0.009
 5131.00    0.89084   0.75619    0.009
 5132.00    0.77313   0.75731    0.009
 5133.00    0.60437   0.75672    0.009
 5134.00    0.57128   0.75394    0.009
 5135.00    0.57818   0.75002    0.009
 5136.00    0.77260   0.74662    0.009
 5137.00    1.01282   0.74403    0.009
 5138.00    0.76907   0.74249    0.009
 5139.00    0.42970   0.74167    0.009
 5140.00    0.49926   0.74055    0.009
 5141.00    0.63188   0.73957    0.009
 5142.00    0.67186   0.73927    0.009
 5143.00    0.70130   0.73906    0.009
 5144.00    0.74355   0.73887    0.009
 5145.00    0.78679   0.73892    0.008
 5146.00    0.79308   0.73877    0.008
 5147.00    0.79786   0.73811    0.009
 5148.00    0.54509   0.73665    0.008
 5149.00    0.29922   0.73492    0.008
 5150.00    0.43308   0.73432    0.008
 5151.00    0.56559   0.73584    0.008
 5152.00    0.67469   0.73964    0.008
 5153.00    0.75517   0.74521    0.008
 5154.00    0.53134   0.75124    0.008
 5155.00    0.35086   0.75632    0.008
 5156.00    0.49668   0.75944    0.008
 5157.00    0.62068   0.76000    0.008
 5158.00    0.61960   0.75835    0.008
 5159.00    0.64742   0.75453    0.008
 5160.00    0.80688   0.74762    0.008
 5161.00    0.93981   0.73712    0.008
 5162.00    0.97371   0.72314    0.008
 5163.00    0.93510   0.70721    0.008
 5164.00    0.67029   0.69285    0.008
 5165.00    0.48888   0.68337    0.008
 5166.00    0.52838   0.67937    0.008
 5167.00    0.56569   0.67865    0.008
 5168.00    0.59805   0.67873    0.008
 5169.00    0.62545   0.67919    0.008
 5170.00    0.64308   0.68194    0.008
 5171.00    0.68481   0.68963    0.008
 5172.00    0.76792   0.70194    0.008
 5173.00    0.80067   0.71481    0.008
 5174.00    0.75771   0.72429    0.008
 5175.00    0.72662   0.72897    0.008
 5176.00    0.71122   0.72852    0.009
 5177.00    0.62946   0.72260    0.008
 5178.00    0.47050   0.71183    0.008
 5179.00    0.44171   0.69917    0.008
 5180.00    0.54649   0.68906    0.008
 5181.00    0.58017   0.68542    0.008
 5182.00    0.54952   0.69049    0.008
 5183.00    0.58179   0.70241    0.008
 5184.00    0.66422   0.71583    0.008
 5185.00    0.65701   0.72607    0.008
 5186.00    0.58689   0.73089    0.008
 5187.00    0.68127   0.73076    0.008
 5188.00    0.87686   0.72769    0.009
 5189.00    0.90959   0.72329    0.009
 5190.00    0.85478   0.71978    0.000
 5191.00    0.82498   0.71948    0.000
 5192.00    0.80685   0.72223    0.000
 5193.00    0.90098   0.72635    0.000
 5194.00    1.04027   0.73115    0.000
 5195.00    0.96832   0.73577    0.000
 5196.00    0.82386   0.73906    0.000
 5197.00    0.89604   0.74039    0.000
 5198.00    1.03081   0.73923    0.000
 5199.00    0.93216   0.73504    0.000
 5200.00    0.77776   0.72808    0.000
 5201.00    0.72569   0.71951    0.000
 5202.00    0.69333   0.71054    0.000
 5203.00    0.57648   0.70262    0.000
 5204.00    0.44699   0.69778    0.000
 5205.00    0.51665   0.69687    0.000
 5206.00    0.60813   0.69951    0.000
 5207.00    0.54641   0.70579    0.000
 5208.00    0.47364   0.71488    0.000
 5209.00    0.39103   0.72445    0.000
 5210.00    0.30806   0.73208    0.000
 5211.00    0.40137   0.73642    0.009
 5212.00    0.49415   0.73768    0.009
 5213.00    0.53794   0.73748    0.009
 5214.00    0.58030   0.73804    0.009
 5215.00    0.59948   0.74064    0.008
 5216.00    0.62205   0.74470    0.008
 5217.00    0.67928   0.74828    0.008
 5218.00    0.73531   0.74947    0.008
 5219.00    0.78266   0.74709    0.008
 5220.00    0.82541   0.74064    0.008
 5221.00    0.84254   0.73078    0.008
 5222.00    0.84173   0.72003    0.008
 5223.00    0.76110   0.71198    0.008
 5224.00    0.70266   0.70923    0.008
 5225.00    0.72528   0.71252    0.008
 5226.00    0.77720   0.72048    0.008
 5227.00    0.91874   0.72875    0.008
 5228.00    0.98182   0.73356    0.008
 5229.00    0.84072   0.73460    0.008
 5230.00    0.70401   0.73326    0.008
 5231.00    0.57715   0.73213    0.008
 5232.00    0.56029   0.73358    0.008
 5233.00    0.75664   0.73766    0.008
 5234.00    0.83880   0.74283    0.008
 5235.00    0.72795   0.74725    0.008
 5236.00    0.64778   0.74991    0.008
 5237.00    0.61307   0.75093    0.008
 5238.00    0.60117   0.75109    0.008
 5239.00    0.61898   0.75110    0.008
 5240.00    0.64956   0.75070    0.008
 5241.00    0.69477   0.74908    0.008
 5242.00    0.76507   0.74591    0.008
 5243.00    0.86072   0.74122    0.008
 5244.00    0.78136   0.73528    0.008
 5245.00    0.54585   0.72960    0.008
 5246.00    0.52677   0.72613    0.008
 5247.00    0.67784   0.72476    0.008
 5248.00    0.71158   0.72458    0.008
 5249.00    0.66419   0.72557    0.008
 5250.00    0.66873   0.72750    0.008
 5251.00    0.70474   0.72996    0.008
 5252.00    0.73611   0.73300    0.008
 5253.00    0.76502   0.73698    0.009
 5254.00    0.59943   0.74171    0.008
 5255.00    0.34453   0.74532    0.008
 5256.00    0.60895   0.74540    0.009
 5257.00    1.07869   0.74081    0.009
 5258.00    0.99686   0.73193    0.009
 5259.00    0.72924   0.72031    0.009
 5260.00    0.71407   0.70815    0.009
 5261.00    0.77035   0.69784    0.009
 5262.00    0.74843   0.69104    0.009
 5263.00    0.70826   0.68741    0.009
 5264.00    0.83309   0.68534    0.009
 5265.00    0.98887   0.68413    0.009
 5266.00    0.91066   0.68338    0.009
 5267.00    0.79856   0.68371    0.009
 5268.00    0.63688   0.68765    0.009
 5269.00    0.46999   0.69562    0.009
 5270.00    0.63596   0.70424    0.009
 5271.00    0.82462   0.71125    0.009
 5272.00    0.84649   0.71725    0.009
 5273.00    0.86277   0.72299    0.009
 5274.00    0.90644   0.72891    0.009
 5275.00    0.94478   0.73435    0.009
 5276.00    0.81131   0.73707    0.009
 5277.00    0.69360   0.73592    0.009
 5278.00    0.81571   0.73194    0.009
 5279.00    0.91984   0.72758    0.009
 5280.00    0.84851   0.72544    0.009
 5281.00    0.77891   0.72688    0.009
 5282.00    0.72152   0.73174    0.009
 5283.00    0.66777   0.73866    0.008
 5284.00    0.63376   0.74511    0.008
 5285.00    0.61131   0.74926    0.008
 5286.00    0.63905   0.75110    0.008
 5287.00    0.64094   0.75152    0.008
 5288.00    0.55029   0.75105    0.008
 5289.00    0.51319   0.74951    0.008
 5290.00    0.63689   0.74646    0.008
 5291.00    0.70839   0.74155    0.008
 5292.00    0.64645   0.73480    0.008
 5293.00    0.62282   0.72686    0.008
 5294.00    0.68349   0.71927    0.008
 5295.00    0.73586   0.71403    0.008
 5296.00    0.77241   0.71274    0.008
 5297.00    0.76622   0.71542    0.008
 5298.00    0.68886   0.72031    0.008
 5299.00    0.61790   0.72587    0.008
 5300.00    0.55629   0.73176    0.008
 5301.00    0.62207   0.73741    0.008
 5302.00    0.85134   0.74175    0.008
 5303.00    0.94618   0.74415    0.008
 5304.00    0.88900   0.74494    0.008
 5305.00    0.79320   0.74515    0.008
 5306.00    0.65887   0.74565    0.008
 5307.00    0.61409   0.74628    0.008
 5308.00    0.64809   0.74624    0.008
 5309.00    0.66561   0.74509    0.008
 5310.00    0.67036   0.74290    0.008
 5311.00    0.68363   0.73996    0.008
 5312.00    0.70271   0.73692    0.008
 5313.00    0.64623   0.73426    0.008
 5314.00    0.54464   0.73231    0.008
 5315.00    0.66201   0.73153    0.008
 5316.00    0.89345   0.73160    0.008
 5317.00    0.83134   0.73126    0.008
 5318.00    0.63662   0.72965    0.008
 5319.00    0.62715   0.72675    0.008
 5320.00    0.68964   0.72268    0.008
 5321.00    0.64712   0.71718    0.008
 5322.00    0.56990   0.71004    0.008
 5323.00    0.58993   0.70202    0.009
 5324.00    0.63693   0.69420    0.009
 5325.00    0.60719   0.68818    0.009
 5326.00    0.55996   0.68672    0.009
 5327.00    0.73377   0.69180    0.009
 5328.00    0.94792   0.70125    0.009
 5329.00    0.85979   0.71098    0.009
 5330.00    0.72925   0.71856    0.008
 5331.00    0.68500   0.72377    0.008
 5332.00    0.64946   0.72700    0.008
 5333.00    0.68754   0.72791    0.008
 5334.00    0.73034   0.72612    0.009
 5335.00    0.68361   0.72230    0.008
 5336.00    0.63389   0.71777    0.008
 5337.00    0.45498   0.71372    0.008
 5338.00    0.28687   0.71143    0.008
 5339.00    0.42699   0.71197    0.008
 5340.00    0.55785   0.71448    0.008
 5341.00    0.55597   0.71675    0.008
 5342.00    0.55565   0.71758    0.008
 5343.00    0.56986   0.71689    0.008
 5344.00    0.58714   0.71578    0.008
 5345.00    0.62540   0.71545    0.008
 5346.00    0.65715   0.71624    0.008
 5347.00    0.65451   0.71856    0.008
 5348.00    0.66663   0.72279    0.008
 5349.00    0.74139   0.72808    0.008
 5350.00    0.79403   0.73310    0.008
 5351.00    0.76908   0.73732    0.008
 5352.00    0.72878   0.74088    0.008
 5353.00    0.64323   0.74355    0.008
 5354.00    0.57053   0.74488    0.008
 5355.00    0.53015   0.74475    0.008
 5356.00    0.58640   0.74309    0.008
 5357.00    0.85177   0.73990    0.008
 5358.00    0.99292   0.73552    0.008
 5359.00    0.90074   0.73055    0.008
 5360.00    0.77353   0.72594    0.008
 5361.00    0.58890   0.72235    0.008
 5362.00    0.52988   0.71951    0.008
 5363.00    0.65150   0.71685    0.008
 5364.00    0.73646   0.71374    0.008
 5365.00    0.77502   0.70947    0.008
 5366.00    0.81679   0.70422    0.008
 5367.00    0.86212   0.69939    0.008
 5368.00    0.79896   0.69703   -2.000
 5369.00    0.62911   0.69904   -2.000
 5370.00    0.63909   0.70549   -2.000
 5371.00    0.80500   0.71396   -2.000
 5372.00    1.05547   0.72142   -2.000
 5373.00    1.37053   0.72632   -2.000
 5374.00    1.42009   0.72854   -2.000
 5375.00    1.29139   0.72881   -2.000
 5376.00    1.16707   0.72797   -2.000
 5377.00    1.04533   0.72619   -2.000
 5378.00    0.85308   0.72382   -2.000
 5379.00    0.62467   0.72170   -2.000
 5380.00    0.56783   0.72038   -2.000
 5381.00    0.58721   0.71999   -2.000
 5382.00    0.59294   0.72036   -2.000
 5383.00    0.59345   0.72071    0.008
 5384.00    0.65414   0.72001    0.009
 5385.00    0.73434   0.71797    0.009
 5386.00    0.79954   0.71486    0.009
 5387.00    0.86068   0.71124    0.009
 5388.00    0.77964   0.70782    0.008
 5389.00    0.66692   0.70504    0.008
 5390.00    0.75976   0.70241    0.008
 5391.00    0.88912   0.69937    0.008
 5392.00    0.79695   0.69613    0.008
 5393.00    0.67472   0.69333    0.008
 5394.00    0.71976   0.69169    0.008
 5395.00    0.78096   0.69231    0.008
 5396.00    0.75045   0.69545    0.008
 5397.00    0.71443   0.69893    0.008
 5398.00    0.71426   0.70023    0.008
 5399.00    0.71541   0.69858    0.008
 5400.00    0.78133   0.69417    0.008
 5401.00    0.84337   0.68783    0.008
 5402.00    0.80560   0.68141    0.008
 5403.00    0.76853   0.67684    0.008
 5404.00    0.74103   0.67477    0.008
 5405.00    0.71316   0.67443    0.008
 5406.00    0.68207   0.67453    0.008
 5407.00    0.66459   0.67508    0.008
 5408.00    0.73704   0.67744    0.008
 5409.00    0.78473   0.68258    0.008
 5410.00    0.70504   0.68967    0.008
 5411.00    0.65454   0.69701    0.008
 5412.00    0.72521   0.70340    0.008
 5413.00    0.77337   0.70844    0.008
 5414.00    0.74422   0.71196    0.008
 5415.00    0.72567   0.71363    0.008
 5416.00    0.73778   0.71359    0.008
 5417.00    0.72629   0.71246    0.008
 5418.00    0.65651   0.71086    0.008
 5419.00    0.59319   0.70942    0.008
 5420.00    0.54362   0.70833    0.008
 5421.00    0.57531   0.70750    0.008
 5422.00    0.75730   0.70706    0.008
 5423.00    0.87091   0.70674    0.008
 5424.00    0.87403   0.70544    0.008
 5425.00    0.84620   0.70217    0.008
 5426.00    0.77448   0.69706    0.008
 5427.00    0.76894   0.69184    0.008
 5428.00    0.84592   0.68849    0.008
 5429.00    0.84480   0.68680    0.008
 5430.00    0.75782   0.68549    0.008
 5431.00    0.71452   0.68485    0.008
 5432.00    0.71357   0.68608    0.008
 5433.00    0.74545   0.68986    0.008
 5434.00    0.80539   0.69597    0.008
 5435.00    0.78704   0.70328    0.008
 5436.00    0.70973   0.71025    0.008
 5437.00    0.67276   0.71547    0.008
 5438.00    0.66248   0.71809    0.008
 5439.00    0.70335   0.71768    0.008
 5440.00    0.77386   0.71403    0.008
 5441.00    0.81214   0.70752    0.008
 5442.00    0.83417   0.69937    0.008
 5443.00    0.84085   0.69174    0.008
 5444.00    0.84082   0.68710    0.008
 5445.00    0.80246   0.68693    0.008
 5446.00    0.74973   0.69026    0.008
 5447.00    0.70078   0.69412    0.008
 5448.00    0.65303   0.69593    0.008
 5449.00    0.63777   0.69468    0.008
 5450.00    0.63116   0.69095    0.008
 5451.00    0.75943   0.68630    0.008
 5452.00    0.91705   0.68277    0.008
 5453.00    0.79633   0.68217    0.008
 5454.00    0.62754   0.68507    0.008
 5455.00    0.64616   0.68976    0.008
 5456.00    0.68936   0.69341    0.008
 5457.00    0.65305   0.69445    0.008
 5458.00    0.60940   0.69320    0.008
 5459.00    0.61088   0.69100    0.008
 5460.00    0.61491   0.68918    0.008
 5461.00    0.73602   0.68881    0.008
 5462.00    0.85891   0.69013    0.008
 5463.00    0.89354   0.69208    0.008
 5464.00    0.92739   0.69361    0.008
 5465.00    0.94293   0.69445    0.008
 5466.00    0.95277   0.69429    0.008
 5467.00    0.88950   0.69283    0.008
 5468.00    0.81840   0.69043    0.007
 5469.00    0.67941   0.68752    0.008
 5470.00    0.56392   0.68392    0.008
 5471.00    0.59900   0.67985    0.008
 5472.00    0.64472   0.67622    0.008
 5473.00    0.74380   0.67363    0.008
 5474.00    0.80136   0.67258    0.008
 5475.00    0.69045   0.67370    0.008
 5476.00    0.64654   0.67630    0.008
 5477.00    0.82814   0.67858    0.008
 5478.00    0.96250   0.67992   -2.000
 5479.00    0.96263   0.68136   -2.000
 5480.00    0.91181   0.68380   -2.000
 5481.00    0.73727   0.68676   -2.000
 5482.00    0.59879   0.68909   -2.000
 5483.00    0.53586   0.68992   -2.000
 5484.00    0.79258   0.68924   -2.000
 5485.00    1.63141   0.68814   -2.000
 5486.00    2.19616   0.68780   -2.000
 5487.00    2.32464   0.68830   -2.000
 5488.00    2.57498   0.68907   -2.000
 5489.00    2.99559   0.68973   -2.000
 5490.00    3.00640   0.68984   -2.000
 5491.00    2.51342   0.68921   -2.000
 5492.00    2.05693   0.68833   -2.000
 5493.00    1.63999   0.68747   -2.000
 5494.00    1.23310   0.68662   -2.000
 5495.00    0.83582   0.68604   -2.000
 5496.00    0.65623   0.68586   -2.000
 5497.00    0.66013   0.68534   -2.000
 5498.00    0.61654   0.68383   -2.000
 5499.00    0.53771   0.68178   -2.000
 5500.00    0.62896   0.67998   -2.000
 5501.00    0.83109   0.67860   -2.000
 5502.00    0.83103   0.67741    0.008
 5503.00    0.71560   0.67645    0.007
 5504.00    0.71023   0.67622    0.007
 5505.00    0.75954   0.67688    0.007
 5506.00    0.76874   0.67747    0.007
 5507.00    0.76070   0.67679    0.007
 5508.00    0.80909   0.67471    0.007
 5509.00    0.87827   0.67203    0.007
 5510.00    0.79895   0.67006    0.007
 5511.00    0.67329   0.67001    0.007
 5512.00    0.68843   0.67222    0.007
 5513.00    0.74020   0.67618    0.007
 5514.00    0.84696   0.68096    0.007
 5515.00    0.96538   0.68561    0.007
 5516.00    0.92305   0.68928    0.008
 5517.00    0.85372   0.69137    0.008
 5518.00    0.81598   0.69191    0.008
 5519.00    0.78224   0.69130    0.007
 5520.00    0.80768   0.68969    0.008
 5521.00    0.83834   0.68697    0.008
 5522.00    0.79294   0.68313    0.007
 5523.00    0.74357   0.67870    0.007
 5524.00    0.75288   0.67472    0.007
 5525.00    0.76144   0.67240    0.007
 5526.00    0.63043   0.67258    0.008
 5527.00    0.50782   0.67491    0.008
 5528.00    0.56607   0.67775    0.008
 5529.00    0.62035   0.67955    0.007
 5530.00    0.62620   0.68001    0.008
 5531.00    0.63358   0.67964    0.008
 5532.00    0.65362   0.67923    0.008
 5533.00    0.67233   0.67954    0.008
 5534.00    0.68280   0.68086    0.008
 5535.00    0.70517   0.68276    0.007
 5536.00    0.78572   0.68475    0.008
 5537.00    0.84823   0.68635    0.008
 5538.00    0.83910   0.68698    0.008
 5539.00    0.81966   0.68632    0.008
 5540.00    0.76623   0.68480    0.008
 5541.00    0.75739   0.68338    0.008
 5542.00    0.87289   0.68287    0.008
 5543.00    0.94391   0.68345    0.008
 5544.00    0.90879   0.68502    0.007
 5545.00    0.91001   0.68716    0.007
 5546.00    0.98616   0.68903    0.007
 5547.00    0.96869   0.68987    0.007
 5548.00    0.78336   0.68943    0.007
 5549.00    0.73480   0.68790    0.007
 5550.00    0.90072   0.68573    0.007
 5551.00    0.98065   0.68357    0.007
 5552.00    0.94220   0.68202    0.007
 5553.00    0.87388   0.68121    0.007
 5554.00    0.76938   0.68082    0.007
 5555.00    0.71074   0.68049    0.007
 5556.00    0.70109   0.68007    0.007
 5557.00    0.70932   0.67929    0.007
 5558.00    0.73440   0.67790    0.007
 5559.00    0.75678   0.67596    0.007
 5560.00    0.77692   0.67378    0.007
 5561.00    0.79481   0.67180    0.007
 5562.00    0.81104   0.67016    0.007
 5563.00    0.82165   0.66889    0.007
 5564.00    0.82864   0.66814    0.007
 5565.00    0.87618   0.66785    0.007
 5566.00    0.94651   0.66776    0.007
 5567.00    0.94607   0.66784    0.007
 5568.00    0.91103   0.66813    0.007
 5569.00    0.83974   0.66837    0.007
 5570.00    0.75314   0.66867    0.007
 5571.00    0.66826   0.66960    0.007
 5572.00    0.58401   0.67104    0.007
 5573.00    0.54536   0.67237    0.007
 5574.00    0.52066   0.67345    0.007
 5575.00    0.57741   0.67426    0.007
 5576.00    0.65490   0.67466    0.007
 5577.00    0.70859   0.67460    0.008
 5578.00    0.75736   0.67391    0.008
 5579.00    0.73690   0.67233    0.008
 5580.00    0.70515   0.66979    0.007
 5581.00    0.75036   0.66604    0.008
 5582.00    0.80497   0.66091    0.008
 5583.00    0.87155   0.65488    0.008
 5584.00    0.93914   0.64920    0.007
 5585.00    0.75710   0.64530    0.007
 5586.00    0.56297   0.64400    0.007
 5587.00    0.67200   0.64510    0.007
 5588.00    0.78225   0.64766    0.007
 5589.00    0.69494   0.65068    0.007
 5590.00    0.61259   0.65361    0.007
 5591.00    0.62873   0.65634    0.007
 5592.00    0.64534   0.65875    0.007
 5593.00    0.66730   0.66030    0.007
 5594.00    0.70312   0.66004    0.007
 5595.00    0.85022   0.65780    0.007
 5596.00    0.97438   0.65471    0.007
 5597.00    0.96001   0.65207    0.007
 5598.00    0.93860   0.65058    0.007
 5599.00    0.88362   0.65090    0.007
 5600.00    0.83254   0.65355    0.007
 5601.00    0.79663   0.65838    0.007
 5602.00    0.75798   0.66425    0.007
 5603.00    0.71042   0.66966    0.007
 5604.00    0.68059   0.67364    0.007
 5605.00    0.69927   0.67598    0.007
 5606.00    0.72093   0.67692    0.007
 5607.00    0.74959   0.67673    0.007
 5608.00    0.77495   0.67537    0.007
 5609.00    0.79361   0.67251    0.007
 5610.00    0.82304   0.66790    0.007
 5611.00    0.87150   0.66192    0.007
 5612.00    0.89275   0.65602    0.007
 5613.00    0.87198   0.65240    0.007
 5614.00    0.84257   0.65197    0.007
 5615.00    0.80144   0.65365    0.007
 5616.00    0.76249   0.65586    0.007
 5617.00    0.72615   0.65770    0.007
 5618.00    0.75699   0.65867    0.007
 5619.00    0.85861   0.65837    0.007
 5620.00    0.91032   0.65668    0.007
 5621.00    0.91567   0.65441    0.007
 5622.00    0.89097   0.65313    0.007
 5623.00    0.84163   0.65394    0.007
 5624.00    0.78861   0.65648    0.007
 5625.00    0.73293   0.65976    0.007
 5626.00    0.76071   0.66298    0.007
 5627.00    0.84130   0.66550    0.007
 5628.00    0.91087   0.66686    0.007
 5629.00    0.97434   0.66694    0.007
 5630.00    1.02552   0.66585    0.007
 5631.00    1.07080   0.66387    0.007
 5632.00    1.06548   0.66132    0.007
 5633.00    1.03914   0.65859    0.007
 5634.00    0.89285   0.65613    0.007
 5635.00    0.70395   0.65429    0.007
 5636.00    0.62583   0.65312    0.007
 5637.00    0.58094   0.65238    0.007
 5638.00    0.70803   0.65204    0.007
 5639.00    0.87797   0.65235    0.007
 5640.00    0.90068   0.65321    0.007
 5641.00    0.89365   0.65422    0.007
 5642.00    0.82625   0.65517    0.007
 5643.00    0.74929   0.65600    0.007
 5644.00    0.76023   0.65674    0.007
 5645.00    0.78152   0.65745    0.007
 5646.00    0.78832   0.65822    0.007
 5647.00    0.79397   0.65916    0.007
 5648.00    0.85323   0.66016    0.007
 5649.00    0.91489   0.66075    0.007
 5650.00    0.91966   0.66021    0.007
 5651.00    0.92235   0.65815    0.007
 5652.00    0.85508   0.65479    0.007
 5653.00    0.78486   0.65068    0.007
 5654.00    0.66033   0.64618    0.007
 5655.00    0.54513   0.64205    0.007
 5656.00    0.53317   0.63980    0.007
 5657.00    0.51968   0.63991    0.007
 5658.00    0.49437   0.64123    0.007
 5659.00    0.49411   0.64280    0.007
 5660.00    0.64091   0.64468    0.007
 5661.00    0.76883   0.64686    0.007
 5662.00    0.80884   0.64869    0.007
 5663.00    0.81590   0.64961    0.007
 5664.00    0.69771   0.64977    0.008
 5665.00    0.62611   0.64984    0.008
 5666.00    0.70235   0.65048    0.008
 5667.00    0.74033   0.65185    0.008
 5668.00    0.67539   0.65384    0.008
 5669.00    0.65911   0.65619    0.008
 5670.00    0.75509   0.65839    0.007
 5671.00    0.83300   0.65982    0.007
 5672.00    0.87481   0.66032    0.007
 5673.00    0.89515   0.66022    0.007
 5674.00    0.87816   0.65962    0.007
 5675.00    0.87722   0.65834    0.007
 5676.00    0.90075   0.65645    0.007
 5677.00    0.87831   0.65433    0.007
 5678.00    0.79438   0.65218    0.007
 5679.00    0.71514   0.65009    0.007
 5680.00    0.64143   0.64842    0.007
 5681.00    0.63028   0.64741    0.007
 5682.00    0.68412   0.64668    0.007
 5683.00    0.71644   0.64589    0.007
 5684.00    0.72905   0.64531    0.007
 5685.00    0.70145   0.64563    0.007
 5686.00    0.64138   0.64724    0.007
 5687.00    0.60274   0.64991    0.007
 5688.00    0.57934   0.65284    0.007
 5689.00    0.57525   0.65522    0.007
 5690.00    0.58321   0.65643    0.007
 5691.00    0.67392   0.65623    0.007
 5692.00    0.80973   0.65487    0.007
 5693.00    0.88777   0.65281    0.007
 5694.00    0.93845   0.65031    0.007
 5695.00    0.83028   0.64752    0.007
 5696.00    0.65724   0.64485    0.007
 5697.00    0.64688   0.64251    0.007
 5698.00    0.69326   0.64068    0.007
 5699.00    0.77892   0.63964    0.007
 5700.00    0.87613   0.63931    0.007
 5701.00    0.86515   0.63894    0.007
 5702.00    0.82782   0.63762    0.007
 5703.00    0.81404   0.63505    0.007
 5704.00    0.80490   0.63177    0.007
 5705.00    0.83322   0.62860    0.007
 5706.00    0.86730   0.62648    0.007
 5707.00    0.77966   0.62626    0.007
 5708.00    0.67822   0.62799    0.007
 5709.00    0.63117   0.63136    0.007
 5710.00    0.58823   0.63601    0.007
 5711.00    0.61858   0.64082    0.007
 5712.00    0.65190   0.64484    0.007
 5713.00    0.80533   0.64784    0.007
 5714.00    0.95447   0.64997    0.007
 5715.00    0.88750   0.65162    0.007
 5716.00    0.82495   0.65317    0.007
 5717.00    0.83816   0.65465    0.007
 5718.00    0.84289   0.65590    0.007
 5719.00    0.75790   0.65669    0.007
 5720.00    0.68398   0.65666    0.007
 5721.00    0.69302   0.65566    0.007
 5722.00    0.70392   0.65384    0.007
 5723.00    0.72547   0.65157    0.007
 5724.00    0.75311   0.64952    0.007
 5725.00    0.80841   0.64840    0.007
 5726.00    0.84435   0.64811    0.007
 5727.00    0.80821   0.64804    0.007
 5728.00    0.79395   0.64806    0.007
 5729.00    0.84777   0.64861    0.007
 5730.00    0.87856   0.64977    0.007
 5731.00    0.84852   0.65095    0.007
 5732.00    0.82319   0.65161    0.007
 5733.00    0.80855   0.65149    0.007
 5734.00    0.80476   0.65076    0.007
 5735.00    0.82226   0.64975    0.007
 5736.00    0.83334   0.64883    0.007
 5737.00    0.83342   0.64828    0.007
 5738.00    0.85339   0.64819    0.007
 5739.00    0.90319   0.64848    0.007
 5740.00    0.92571   0.64899    0.000
 5741.00    0.91226   0.64967    0.000
 5742.00    0.90044   0.65012    0.000
 5743.00    0.89050   0.64987    0.000
 5744.00    0.87534   0.64884    0.000
 5745.00    0.85482   0.64762    0.000
 5746.00    0.83963   0.64680    0.000
 5747.00    0.82925   0.64604    0.000
 5748.00    0.85827   0.64462    0.000
 5749.00    0.91866   0.64252    0.000
 5750.00    0.91137   0.64065    0.000
 5751.00    0.85667   0.64022    0.000
 5752.00    0.79807   0.64174    0.000
 5753.00    0.73705   0.64437    0.000
 5754.00    0.66313   0.64659    0.000
 5755.00    0.58227   0.64725    0.000
 5756.00    0.62030   0.64592    0.000
 5757.00    0.71370   0.64315    0.000
 5758.00    0.79459   0.64018    0.000
 5759.00    0.87045   0.63837    0.000
 5760.00    0.87024   0.63865    0.000
 5761.00    0.84397   0.64095    0.000
 5762.00    0.86212   0.64407    0.000
 5763.00    0.89307   0.64682    0.000
 5764.00    0.86990   0.64861    0.000
 5765.00    0.83385   0.64928    0.000
 5766.00    0.82647   0.64897    0.000
 5767.00    0.82460   0.64803    0.000
 5768.00    0.78782   0.64674    0.000
 5769.00    0.74583   0.64537    0.000
 5770.00    0.63754   0.64419    0.000
 5771.00    0.52202   0.64325    0.000
 5772.00    0.60834   0.64252    0.000
 5773.00    0.70912   0.64176    0.000
 5774.00    0.62862   0.64040    0.000
 5775.00    0.54144   0.63790    0.000
 5776.00    0.53451   0.63405    0.000
 5777.00    0.52937   0.62926    0.000
 5778.00    0.57643   0.62460    0.000
 5779.00    0.61567   0.62129    0.000
 5780.00    0.52898   0.61970    0.000
 5781.00    0.46021   0.61961    0.000
 5782.00    0.57287   0.62087    0.000
 5783.00    0.67549   0.62343    0.000
 5784.00    0.70531   0.62666    0.000
 5785.00    0.73367   0.62959    0.000
 5786.00    0.75390   0.63175    0.000
 5787.00    0.77486   0.63312    0.000
 5788.00    0.79903   0.63429    0.000
 5789.00    0.81321   0.63589    0.000
 5790.00    0.79093   0.63779    0.000
 5791.00    0.78673   0.63943   -2.000
 5792.00    0.83777   0.64029   -2.000
 5793.00    0.89670   0.64020   -2.000
 5794.00    0.97615   0.63971   -2.000
 5795.00    1.02651   0.63988   -2.000
 5796.00    1.01195   0.64122   -2.000
 5797.00    0.97312   0.64311   -2.000
 5798.00    0.88732   0.64462   -2.000
 5799.00    0.82581   0.64512   -2.000
 5800.00    0.80526   0.64437   -2.000
 5801.00    0.76994   0.64278   -2.000
 5802.00    0.71278   0.64124   -2.000
 5803.00    0.64162   0.64036   -2.000
 5804.00    0.55227   0.64024   -2.000
 5805.00    0.50250   0.64063   -2.000
 5806.00    0.49803   0.64116   -2.000
 5807.00    0.53076   0.64153   -2.000
 5808.00    0.60104   0.64144   -2.000
 5809.00    0.69874   0.64075   -2.000
 5810.00    0.82085   0.63954   -2.000
 5811.00    0.85819   0.63808    0.000
 5812.00    0.82901   0.63684    0.000
 5813.00    0.76788   0.63648    0.000
 5814.00    0.68470   0.63737    0.000
 5815.00    0.65569   0.63917    0.000
 5816.00    0.65946   0.64108    0.000
 5817.00    0.66894   0.64250    0.000
 5818.00    0.68144   0.64316    0.000
 5819.00    0.72993   0.64313    0.000
 5820.00    0.79492   0.64277    0.000
 5821.00    0.84779   0.64249    0.000
 5822.00    0.89588   0.64246    0.000
 5823.00    0.85449   0.64259    0.000
 5824.00    0.78303   0.64276    0.000
 5825.00    0.78548   0.64289    0.000
 5826.00    0.80879   0.64286    0.000
 5827.00    0.79921   0.64257    0.000
 5828.00    0.78198   0.64197    0.000
 5829.00    0.69395   0.64115    0.000
 5830.00    0.59270   0.64016    0.000
 5831.00    0.63362   0.63916    0.000
 5832.00    0.69504   0.63842    0.000
 5833.00    0.72085   0.63804    0.000
 5834.00    0.74294   0.63788    0.000
 5835.00    0.72804   0.63798    0.000
 5836.00    0.71065   0.63857    0.000
 5837.00    0.82895   0.63956    0.000
 5838.00    0.95173   0.64051    0.000
 5839.00    1.01162   0.64090    0.000
 5840.00    1.06637   0.64045    0.000
 5841.00    0.95978   0.63911    0.000
 5842.00    0.86240   0.63712    0.000
 5843.00    0.90427   0.63488    0.000
 5844.00    0.94291   0.63281    0.000
 5845.00    0.95025   0.63115    0.000
 5846.00    0.94529   0.62969    0.000
 5847.00    0.85410   0.62801    0.000
 5848.00    0.78449   0.62583    0.000
 5849.00    0.83159   0.62326    0.000
 5850.00    0.87853   0.62074    0.000
 5851.00    0.92478   0.61860    0.000
 5852.00    0.96065   0.61668    0.000
 5853.00    0.95945   0.61476    0.000
 5854.00    0.94604   0.61324    0.000
 5855.00    0.89601   0.61293    0.000
 5856.00    0.86985   0.61403    0.000
 5857.00    0.90458   0.61599    0.000
 5858.00    0.92391   0.61799    0.000
 5859.00    0.90945   0.61947    0.000
 5860.00    0.86168   0.62036    0.000
 5861.00    0.75049   0.62075    0.000
 5862.00    0.69327   0.62072    0.000
 5863.00    0.72576   0.62067    0.000
 5864.00    0.76909   0.62116    0.000
 5865.00    0.82823   0.62228    0.000
 5866.00    0.84700   0.62341    0.000
 5867.00    0.81406   0.62368    0.000
 5868.00    0.82409   0.62225    0.000
 5869.00    0.88261   0.61879    0.000
 5870.00    0.89845   0.61358    0.000
 5871.00    0.87181   0.60768    0.000
 5872.00    0.82305   0.60296    0.000
 5873.00    0.75487   0.60099    0.000
 5874.00    0.71831   0.60193    0.000
 5875.00    0.70621   0.60441    0.000
 5876.00    0.62835   0.60693    0.000
 5877.00    0.50577   0.60889    0.000
 5878.00    0.46289   0.61013    0.000
 5879.00    0.46750   0.61044    0.000
 5880.00    0.48927   0.60956    0.000
 5881.00    0.51995   0.60705    0.000
 5882.00    0.53127   0.60209    0.000
 5883.00    0.53387   0.59366    0.000
 5884.00    0.57925   0.58139    0.000
 5885.00    0.64121   0.56662    0.000
 5886.00    0.66933   0.55290    0.000
 5887.00    0.68629   0.54441    0.000
 5888.00    0.67155   0.54248    0.000
 5889.00    0.64804   0.54475    0.000
 5890.00    0.63180   0.54767    0.000
 5891.00    0.61722   0.54902    0.000
 5892.00    0.60181   0.54936    0.000
 5893.00    0.58624   0.55155    0.000
 5894.00    0.62925   0.55738    0.000
 5895.00    0.68044   0.56614    0.000
 5896.00    0.69870   0.57613    0.000
 5897.00    0.71364   0.58573    0.000
 5898.00    0.73609   0.59368    0.000
 5899.00    0.75902   0.59950    0.000
 5900.00    0.76169   0.60339    0.000
 5901.00    0.76353   0.60578    0.006
 5902.00    0.68190   0.60726    0.006
 5903.00    0.60122   0.60841    0.006
 5904.00    0.54721   0.60951    0.006
 5905.00    0.50022   0.61046    0.006
 5906.00    0.55329   0.61108    0.006
 5907.00    0.60152   0.61115    0.006
 5908.00    0.60467   0.61041    0.006
 5909.00    0.61798   0.60871    0.006
 5910.00    0.70022   0.60639    0.006
 5911.00    0.77141   0.60428    0.007
 5912.00    0.78440   0.60310    0.007
 5913.00    0.77460   0.60314    0.006
 5914.00    0.66834   0.60414    0.006
 5915.00    0.59373   0.60556    0.006
 5916.00    0.62979   0.60691    0.006
 5917.00    0.65162   0.60785    0.006
 5918.00    0.63160   0.60830    0.006
 5919.00    0.63777   0.60857    0.006
 5920.00    0.70961   0.60892    0.006
 5921.00    0.78565   0.60933    0.007
 5922.00    0.87075   0.60964    0.007
 5923.00    0.88656   0.60953    0.007
 5924.00    0.77248   0.60886    0.007
 5925.00    0.68285   0.60781    0.007
 5926.00    0.63327   0.60681    0.006
 5927.00    0.61717   0.60636    0.006
 5928.00    0.64911   0.60646    0.006
 5929.00    0.70249   0.60667    0.006
 5930.00    0.78296   0.60662    0.006
 5931.00    0.84252   0.60652    0.006
 5932.00    0.87880   0.60677    0.006
 5933.00    0.86068   0.60738    0.006
 5934.00    0.78914   0.60799    0.006
 5935.00    0.75545   0.60818    0.006
 5936.00    0.75453   0.60757    0.006
 5937.00    0.74105   0.60633    0.006
 5938.00    0.71800   0.60525    0.006
 5939.00    0.68471   0.60493    0.006
 5940.00    0.64456   0.60545    0.006
 5941.00    0.65671   0.60647    0.006
 5942.00    0.69958   0.60735    0.006
 5943.00    0.74043   0.60746    0.006
 5944.00    0.78026   0.60661    0.006
 5945.00    0.77145   0.60521    0.006
 5946.00    0.74108   0.60394    0.006
 5947.00    0.68927   0.60301    0.007
 5948.00    0.62929   0.60221    0.007
 5949.00    0.58484   0.60152    0.006
 5950.00    0.54543   0.60106    0.006
 5951.00    0.57143   0.60071    0.006
 5952.00    0.61515   0.60027    0.007
 5953.00    0.61345   0.60002    0.006
 5954.00    0.60165   0.60042    0.006
 5955.00    0.70026   0.60170    0.006
 5956.00    0.81843   0.60370    0.007
 5957.00    0.89612   0.60590    0.007
 5958.00    0.96835   0.60772    0.006
 5959.00    0.92237   0.60876    0.006
 5960.00    0.86503   0.60894    0.006
 5961.00    0.80354   0.60849    0.006
 5962.00    0.74179   0.60793    0.006
 5963.00    0.69244   0.60781    0.006
 5964.00    0.64407   0.60826    0.006
 5965.00    0.69776   0.60913    0.006
 5966.00    0.75275   0.61015    0.006
 5967.00    0.84092   0.61093    0.006
 5968.00    0.91971   0.61113    0.006
 5969.00    0.87219   0.61054    0.006
 5970.00    0.83079   0.60902    0.006
 5971.00    0.84401   0.60665    0.006
 5972.00    0.85013   0.60383    0.006
 5973.00    0.80956   0.60121    0.006
 5974.00    0.76886   0.59938    0.006
 5975.00    0.72754   0.59866    0.006
 5976.00    0.69437   0.59886    0.006
 5977.00    0.69491   0.59926    0.006
 5978.00    0.68765   0.59911    0.006
 5979.00    0.65363   0.59812    0.006
 5980.00    0.64260   0.59668    0.006
 5981.00    0.69793   0.59570    0.006
 5982.00    0.74339   0.59572    0.006
 5983.00    0.76451   0.59662    0.006
 5984.00    0.76514   0.59802    0.006
 5985.00    0.72223   0.59953    0.006
 5986.00    0.68279   0.60080    0.006
 5987.00    0.64977   0.60174    0.006
 5988.00    0.64983   0.60262    0.006
 5989.00    0.70325   0.60364    0.006
 5990.00    0.75763   0.60453    0.006
 5991.00    0.81335   0.60483    0.006
 5992.00    0.81133   0.60429    0.006
 5993.00    0.73745   0.60304    0.006
 5994.00    0.64970   0.60153    0.006
 5995.00    0.54672   0.60024    0.006
 5996.00    0.51283   0.59936    0.006
 5997.00    0.54580   0.59873    0.006
 5998.00    0.59383   0.59806    0.006
 5999.00    0.65473   0.59733    0.006
 6000.00    0.69748   0.59664    0.006
 6001.00    0.72660   0.59579    0.006
 6002.00    0.76477   0.59462    0.006
 6003.00    0.80892   0.59328    0.006
 6004.00    0.81864   0.59224    0.006
 6005.00    0.80847   0.59210    0.006
 6006.00    0.79381   0.59287    0.006
 6007.00    0.77689   0.59388    0.006
 6008.00    0.74693   0.59448    0.006
 6009.00    0.71127   0.59448    0.006
 6010.00    0.71860   0.59411    0.006
 6011.00    0.74201   0.59356    0.007
 6012.00    0.74052   0.59286    0.007
 6013.00    0.73114   0.59217    0.007
 6014.00    0.69440   0.59157    0.007
 6015.00    0.65040   0.59095    0.007
 6016.00    0.67424   0.59036    0.007
 6017.00    0.71279   0.59005    0.007
 6018.00    0.78700   0.59019    0.007
 6019.00    0.86734   0.59080    0.007
 6020.00    0.84145   0.59187    0.007
 6021.00    0.80169   0.59337    0.006
 6022.00    0.75115   0.59505    0.006
 6023.00    0.69961   0.59672    0.006
 6024.00    0.72335   0.59836    0.006
 6025.00    0.75128   0.59981    0.006
 6026.00    0.79141   0.60095    0.006
 6027.00    0.83122   0.60181    0.006
 6028.00    0.81258   0.60253    0.006
 6029.00    0.79158   0.60317    0.006
 6030.00    0.71578   0.60370    0.006
 6031.00    0.64510   0.60405    0.006
 6032.00    0.63976   0.60413    0.006
 6033.00    0.63998   0.60387    0.006
 6034.00    0.68816   0.60328    0.006
 6035.00    0.72174   0.60246    0.006
 6036.00    0.66204   0.60166    0.006
 6037.00    0.61626   0.60117    0.006
 6038.00    0.64002   0.60119    0.006
 6039.00    0.67990   0.60178    0.006
 6040.00    0.78505   0.60274    0.006
 6041.00    0.87168   0.60378    0.006
 6042.00    0.89608   0.60465    0.006
 6043.00    0.88718   0.60519    0.006
 6044.00    0.78386   0.60537    0.006
 6045.00    0.70152   0.60526    0.006
 6046.00    0.66998   0.60497    0.006
 6047.00    0.63790   0.60440    0.006
 6048.00    0.60471   0.60345    0.006
 6049.00    0.57800   0.60211    0.006
 6050.00    0.56306   0.60049    0.006
 6051.00    0.57146   0.59879    0.006
 6052.00    0.61696   0.59732    0.006
 6053.00    0.66152   0.59640    0.006
 6054.00    0.70477   0.59620    0.006
 6055.00    0.69322   0.59658    0.006
 6056.00    0.61441   0.59712    0.006
 6057.00    0.55406   0.59722    0.006
 6058.00    0.51365   0.59646    0.006
 6059.00    0.52727   0.59478    0.006
 6060.00    0.59244   0.59261    0.006
 6061.00    0.63993   0.59089    0.006
 6062.00    0.67256   0.59060    0.006
 6063.00    0.69891   0.59206    0.006
 6064.00    0.72062   0.59476    0.006
 6065.00    0.73332   0.59791    0.006
 6066.00    0.74018   0.60075    0.006
 6067.00    0.75692   0.60285    0.006
 6068.00    0.77929   0.60410    0.006
 6069.00    0.74008   0.60458    0.006
 6070.00    0.67034   0.60436    0.006
 6071.00    0.65285   0.60345    0.006
 6072.00    0.65776   0.60184    0.006
 6073.00    0.67908   0.59961    0.006
 6074.00    0.70644   0.59702    0.006
 6075.00    0.67501   0.59449    0.006
 6076.00    0.62529   0.59222    0.006
 6077.00    0.55675   0.59031    0.006
 6078.00    0.48332   0.58892    0.006
 6079.00    0.49461   0.58817    0.006
 6080.00    0.52383   0.58794    0.006
 6081.00    0.59806   0.58811    0.006
 6082.00    0.67983   0.58854    0.006
 6083.00    0.65108   0.58896    0.006
 6084.00    0.60840   0.58900    0.006
 6085.00    0.58096   0.58845    0.006
 6086.00    0.55486   0.58749    0.006
 6087.00    0.56768   0.58659    0.006
 6088.00    0.58251   0.58618    0.006
 6089.00    0.55380   0.58657    0.006
 6090.00    0.52520   0.58775    0.006
 6091.00    0.56162   0.58926    0.006
 6092.00    0.59921   0.59060    0.006
 6093.00    0.66181   0.59148    0.006
 6094.00    0.72263   0.59171    0.006
 6095.00    0.76196   0.59107    0.006
 6096.00    0.79660   0.58918    0.006
 6097.00    0.79223   0.58589    0.006
 6098.00    0.77242   0.58195    0.006
 6099.00    0.65691   0.57881    0.006
 6100.00    0.55242   0.57754    0.006
 6101.00    0.50164   0.57827    0.006
 6102.00    0.47117   0.58038    0.006
 6103.00    0.52110   0.58291    0.006
 6104.00    0.58471   0.58520    0.006
 6105.00    0.69332   0.58689    0.006
 6106.00    0.76107   0.58793    0.006
 6107.00    0.71512   0.58859    0.006
 6108.00    0.67510   0.58921    0.006
 6109.00    0.64920   0.58987    0.006
 6110.00    0.65371   0.59039    0.006
 6111.00    0.72077   0.59050    0.006
 6112.00    0.74606   0.59006    0.006
 6113.00    0.69657   0.58895    0.006
 6114.00    0.66596   0.58696    0.006
 6115.00    0.66490   0.58400    0.006
 6116.00    0.64682   0.58025    0.006
 6117.00    0.60537   0.57631    0.006
 6118.00    0.57310   0.57332    0.006
 6119.00    0.55194   0.57209    0.006
 6120.00    0.58295   0.57255    0.006
 6121.00    0.66962   0.57411    0.006
 6122.00    0.73449   0.57602    0.006
 6123.00    0.77887   0.57774    0.006
 6124.00    0.77042   0.57928    0.006
 6125.00    0.71815   0.58093    0.006
 6126.00    0.69260   0.58273    0.006
 6127.00    0.68658   0.58430    0.006
 6128.00    0.68430   0.58494    0.006
 6129.00    0.68443   0.58381    0.006
 6130.00    0.67679   0.58036    0.006
 6131.00    0.66479   0.57487    0.006
 6132.00    0.73222   0.56867    0.006
 6133.00    0.83841   0.56389    0.006
 6134.00    0.89024   0.56204    0.006
 6135.00    0.91914   0.56312    0.006
 6136.00    0.88419   0.56607    0.006
 6137.00    0.82619   0.56974    0.007
 6138.00    0.75640   0.57342    0.006
 6139.00    0.68302   0.57678    0.006
 6140.00    0.66478   0.57968    0.006
 6141.00    0.66053   0.58197    0.006
 6142.00    0.74687   0.58326    0.006
 6143.00    0.85192   0.58324    0.006
 6144.00    0.91679   0.58202    0.006
 6145.00    0.97514   0.58013    0.006
 6146.00    0.93962   0.57837    0.006
 6147.00    0.89269   0.57731    0.006
 6148.00    0.82106   0.57700    0.006
 6149.00    0.74737   0.57705    0.006
 6150.00    0.71681   0.57699    0.006
 6151.00    0.68832   0.57653    0.006
 6152.00    0.72281   0.57542    0.006
 6153.00    0.75764   0.57350    0.006
 6154.00    0.75880   0.57046    0.006
 6155.00    0.75870   0.56586    0.006
 6156.00    0.73374   0.55958    0.006
 6157.00    0.70785   0.55243    0.006
 6158.00    0.67119   0.54600    0.006
 6159.00    0.64046   0.54183    0.006
 6160.00    0.65709   0.54069    0.006
 6161.00    0.66796   0.54219    0.006
 6162.00    0.64423   0.54505    0.006
 6163.00    0.63037   0.54765    0.006
 6164.00    0.66343   0.54897    0.006
 6165.00    0.68858   0.54927    0.006
 6166.00    0.68305   0.54950    0.006
 6167.00    0.67292   0.55044    0.006
 6168.00    0.64790   0.55232    0.006
 6169.00    0.63840   0.55487    0.006
 6170.00    0.67127   0.55750    0.006
 6171.00    0.70329   0.55970    0.006
 6172.00    0.73335   0.56139    0.006
 6173.00    0.73562   0.56278    0.006
 6174.00    0.68167   0.56401    0.006
 6175.00    0.61399   0.56516    0.006
 6176.00    0.52210   0.56629    0.006
 6177.00    0.45408   0.56731    0.006
 6178.00    0.42290   0.56803    0.006
 6179.00    0.42956   0.56826    0.006
 6180.00    0.48747   0.56775    0.006
 6181.00    0.54274   0.56634    0.006
 6182.00    0.59485   0.56407    0.006
 6183.00    0.62413   0.56115    0.006
 6184.00    0.62938   0.55781    0.006
 6185.00    0.62905   0.55426    0.006
 6186.00    0.62355   0.55095    0.006
 6187.00    0.62320   0.54863    0.006
 6188.00    0.62708   0.54799    0.006
 6189.00    0.63104   0.54922    0.006
 6190.00    0.63508   0.55197    0.006
 6191.00    0.60401   0.55536    0.006
 6192.00    0.55078   0.55829    0.006
 6193.00    0.65302   0.55990    0.006
 6194.00    0.84113   0.56000    0.006
 6195.00    1.27961   0.55915    0.006
 6196.00    1.83832   0.55826   -2.000
 6197.00    2.21262   0.55806   -2.000
 6198.00    2.51048   0.55883   -2.000
 6199.00    2.27464   0.56035   -2.000
 6200.00    1.84965   0.56211   -2.000
 6201.00    1.28261   0.56365   -2.000
 6202.00    0.67306   0.56469   -2.000
 6203.00    0.37453   0.56515   -2.000
 6204.00    0.15325   0.56493   -2.000
 6205.00    0.12500   0.56394   -2.000
 6206.00    0.13563   0.56203   -2.000
 6207.00    0.21390   0.55910   -2.000
 6208.00    0.30284   0.55526    0.006
 6209.00    0.36200   0.55096    0.006
 6210.00    0.41766   0.54690    0.006
 6211.00    0.41996   0.54380    0.006
 6212.00    0.41802   0.54204    0.006
 6213.00    0.44947   0.54146    0.006
 6214.00    0.48240   0.54156    0.006
 6215.00    0.51803   0.54191    0.006
 6216.00    0.55313   0.54229    0.006
 6217.00    0.56172   0.54273    0.006
 6218.00    0.57199   0.54334    0.006
 6219.00    0.61289   0.54415    0.006
 6220.00    0.64716   0.54504    0.006
 6221.00    0.60860   0.54575    0.006
 6222.00    0.58036   0.54597    0.006
 6223.00    0.63196   0.54532    0.006
 6224.00    0.67598   0.54351    0.006
 6225.00    0.67564   0.54074    0.006
 6226.00    0.67041   0.53772    0.006
 6227.00    0.64242   0.53546    0.006
 6228.00    0.61995   0.53491    0.006
 6229.00    0.61836   0.53640    0.006
 6230.00    0.60615   0.53938    0.006
 6231.00    0.56028   0.54272    0.006
 6232.00    0.52096   0.54521    0.006
 6233.00    0.49921   0.54603    0.006
 6234.00    0.49517   0.54510    0.006
 6235.00    0.53190   0.54294    0.006
 6236.00    0.55233   0.54026    0.006
 6237.00    0.54027   0.53763    0.006
 6238.00    0.52594   0.53550    0.006
 6239.00    0.50767   0.53407    0.006
 6240.00    0.50778   0.53342    0.006
 6241.00    0.53582   0.53372    0.006
 6242.00    0.55374   0.53503    0.006
 6243.00    0.55815   0.53707    0.006
 6244.00    0.51666   0.53932    0.006
 6245.00    0.42121   0.54100    0.006
 6246.00    0.36558   0.54139    0.006
 6247.00    0.35124   0.54029    0.006
 6248.00    0.37449   0.53796    0.006
 6249.00    0.43210   0.53500    0.006
 6250.00    0.46099   0.53200    0.006
 6251.00    0.46673   0.52930    0.006
 6252.00    0.46302   0.52703    0.006
 6253.00    0.45261   0.52542    0.006
 6254.00    0.46886   0.52483    0.006
 6255.00    0.50170   0.52558    0.006
 6256.00    0.57746   0.52785    0.006
 6257.00    0.67657   0.53130    0.006
 6258.00    0.82155   0.53515    0.006
 6259.00    0.98821   0.53853    0.006
 6260.00    1.09988   0.54094    0.007
 6261.00    1.18913   0.54228    0.007
 6262.00    1.04276   0.54278    0.007
 6263.00    0.81439   0.54288    0.008
 6264.00    0.60776   0.54294    0.007
 6265.00    0.40751   0.54315    0.007
 6266.00    0.40017   0.54357    0.007
 6267.00    0.43969   0.54421    0.007
 6268.00    0.50055   0.54495    0.006
 6269.00    0.56559   0.54566    0.006
 6270.00    0.60597   0.54617    0.006
 6271.00    0.64257   0.54638    0.006
 6272.00    0.66350   0.54622    0.006
 6273.00    0.68267   0.54561    0.006
 6274.00    0.67579   0.54456    0.006
 6275.00    0.66696   0.54323    0.006
 6276.00    0.68036   0.54193    0.006
 6277.00    0.69465   0.54109    0.006
 6278.00    0.70727   0.54102    0.006
 6279.00    0.71991   0.54180    0.006
 6280.00    0.73378   0.54328    0.000
 6281.00    0.74700   0.54519    0.000
 6282.00    0.74918   0.54726    0.000
 6283.00    0.74625   0.54919    0.000
 6284.00    0.68964   0.55068    0.000
 6285.00    0.63666   0.55146    0.000
 6286.00    0.61077   0.55134    0.000
 6287.00    0.58013   0.55042    0.000
 6288.00    0.52248   0.54897    0.000
 6289.00    0.47599   0.54727    0.000
 6290.00    0.48005   0.54547    0.000
 6291.00    0.49180   0.54365    0.000
 6292.00    0.53215   0.54190    0.000
 6293.00    0.57162   0.54036    0.000
 6294.00    0.60840   0.53919    0.000
 6295.00    0.66069   0.53843    0.000
 6296.00    0.75390   0.53804    0.000
 6297.00    0.80713   0.53791    0.000
 6298.00    0.76981   0.53809    0.000
 6299.00    0.73260   0.53871    0.000
 6300.00    0.69561   0.53993    0.000
 6301.00    0.67379   0.54172    0.000
 6302.00    0.67791   0.54386    0.000
 6303.00    0.65993   0.54597    0.000
 6304.00    0.60887   0.54764    0.000
 6305.00    0.56626   0.54850    0.000
 6306.00    0.53475   0.54842    0.000
 6307.00    0.52741   0.54749    0.000
 6308.00    0.54809   0.54601    0.000
 6309.00    0.56484   0.54430    0.000
 6310.00    0.57756   0.54256    0.000
 6311.00    0.57839   0.54085    0.000
 6312.00    0.56851   0.53930    0.000
 6313.00    0.57839   0.53809    0.000
 6314.00    0.60399   0.53746    0.000
 6315.00    0.62750   0.53759    0.000
 6316.00    0.64957   0.53857    0.000
 6317.00    0.63293   0.54026    0.000
 6318.00    0.59256   0.54234    0.000
 6319.00    0.57252   0.54446    0.000
 6320.00    0.56335   0.54635    0.000
 6321.00    0.57117   0.54787    0.006
 6322.00    0.58688   0.54897    0.006
 6323.00    0.53078   0.54966    0.006
 6324.00    0.44592   0.55007    0.006
 6325.00    0.44419   0.55032    0.006
 6326.00    0.47087   0.55049    0.006
 6327.00    0.47355   0.55048    0.006
 6328.00    0.46934   0.55005    0.006
 6329.00    0.47223   0.54891    0.006
 6330.00    0.47682   0.54699    0.006
 6331.00    0.51665   0.54456    0.006
 6332.00    0.56323   0.54230    0.006
 6333.00    0.56693   0.54097    0.006
 6334.00    0.56427   0.54095    0.006
 6335.00    0.56201   0.54201    0.006
 6336.00    0.55980   0.54345    0.006
 6337.00    0.56787   0.54448    0.006
 6338.00    0.57669   0.54459    0.006
 6339.00    0.59321   0.54375    0.006
 6340.00    0.61002   0.54241    0.006
 6341.00    0.56480   0.54126    0.006
 6342.00    0.52022   0.54088    0.006
 6343.00    0.50631   0.54151    0.006
 6344.00    0.49143   0.54300    0.006
 6345.00    0.46086   0.54492    0.006
 6346.00    0.43779   0.54667    0.005
 6347.00    0.49010   0.54773    0.006
 6348.00    0.54056   0.54778    0.006
 6349.00    0.57766   0.54676    0.006
 6350.00    0.60874   0.54489    0.006
 6351.00    0.60647   0.54249    0.006
 6352.00    0.60281   0.53987    0.006
 6353.00    0.59299   0.53721    0.006
 6354.00    0.58282   0.53457    0.006
 6355.00    0.57138   0.53207    0.006
 6356.00    0.55638   0.52991    0.006
 6357.00    0.53054   0.52834    0.006
 6358.00    0.50615   0.52760    0.006
 6359.00    0.48547   0.52787    0.006
 6360.00    0.47216   0.52920    0.006
 6361.00    0.47521   0.53146    0.006
 6362.00    0.49191   0.53431    0.006
 6363.00    0.53494   0.53728    0.006
 6364.00    0.58859   0.53995    0.006
 6365.00    0.66010   0.54204    0.006
 6366.00    0.71713   0.54358    0.006
 6367.00    0.75279   0.54478    0.006
 6368.00    0.75900   0.54591    0.006
 6369.00    0.72702   0.54704    0.006
 6370.00    0.68406   0.54797    0.006
 6371.00    0.62854   0.54843    0.006
 6372.00    0.60315   0.54820    0.006
 6373.00    0.60811   0.54726    0.006
 6374.00    0.63355   0.54580    0.006
 6375.00    0.67719   0.54421    0.006
 6376.00    0.68155   0.54285    0.006
 6377.00    0.65514   0.54202    0.006
 6378.00    0.59853   0.54176    0.006
 6379.00    0.52113   0.54196    0.006
 6380.00    0.48044   0.54242    0.006
 6381.00    0.46193   0.54298    0.006
 6382.00    0.43648   0.54353    0.006
 6383.00    0.40737   0.54395    0.006
 6384.00    0.40589   0.54404    0.006
 6385.00    0.41705   0.54358    0.006
 6386.00    0.46225   0.54242    0.006
 6387.00    0.52085   0.54057    0.006
 6388.00    0.49351   0.53838    0.006
 6389.00    0.43735   0.53648    0.006
 6390.00    0.46231   0.53549    0.006
 6391.00    0.51011   0.53564    0.006
 6392.00    0.57411   0.53651    0.006
 6393.00    0.64187   0.53731    0.006
 6394.00    0.62567   0.53736    0.006
 6395.00    0.59384   0.53665    0.006
 6396.00    0.59942   0.53586    0.006
 6397.00    0.61038   0.53587    0.006
 6398.00    0.59589   0.53709    0.006
 6399.00    0.57876   0.53918    0.006
 6400.00    0.57477   0.54128    0.006
 6401.00    0.57167   0.54257    0.006
 6402.00    0.64775   0.54270    0.006
 6403.00    0.72642   0.54188    0.006
 6404.00    0.79078   0.54060    0.006
 6405.00    0.85019   0.53933    0.006
 6406.00    0.75594   0.53830    0.006
 6407.00    0.66199   0.53757    0.006
 6408.00    0.57271   0.53720    0.006
 6409.00    0.49145   0.53726    0.006
 6410.00    0.48746   0.53775    0.006
 6411.00    0.48108   0.53845    0.006
 6412.00    0.45790   0.53898    0.006
 6413.00    0.43312   0.53894    0.006
 6414.00    0.39966   0.53815    0.006
 6415.00    0.37673   0.53682    0.006
 6416.00    0.39932   0.53553    0.006
 6417.00    0.41833   0.53498    0.006
 6418.00    0.42459   0.53562    0.006
 6419.00    0.42975   0.53742    0.006
 6420.00    0.43162   0.53984    0.006
 6421.00    0.44073   0.54214    0.006
 6422.00    0.46827   0.54368    0.006
 6423.00    0.49246   0.54402    0.006
 6424.00    0.50933   0.54304    0.006
 6425.00    0.51291   0.54098    0.006
 6426.00    0.49123   0.53845    0.006
 6427.00    0.48834   0.53633    0.006
 6428.00    0.51662   0.53533    0.006
 6429.00    0.52141   0.53562    0.006
 6430.00    0.49204   0.53678    0.006
 6431.00    0.48880   0.53798    0.006
 6432.00    0.51898   0.53849    0.006
 6433.00    0.58104   0.53806    0.006
 6434.00    0.67902   0.53709    0.006
 6435.00    0.76478   0.53638    0.006
 6436.00    0.83840   0.53667    0.006
 6437.00    0.84266   0.53821    0.006
 6438.00    0.78613   0.54066    0.006
 6439.00    0.70946   0.54325    0.006
 6440.00    0.61724   0.54522    0.006
 6441.00    0.56275   0.54595    0.006
 6442.00    0.53388   0.54503    0.006
 6443.00    0.52299   0.54238    0.006
 6444.00    0.52281   0.53836    0.006
 6445.00    0.55926   0.53389    0.006
 6446.00    0.61472   0.53020    0.006
 6447.00    0.61326   0.52831    0.006
 6448.00    0.58618   0.52847    0.006
 6449.00    0.52863   0.53010    0.006
 6450.00    0.45929   0.53225    0.006
 6451.00    0.44898   0.53423    0.006
 6452.00    0.45810   0.53587    0.006
 6453.00    0.48030   0.53730    0.006
 6454.00    0.50611   0.53849    0.006
 6455.00    0.48549   0.53902    0.006
 6456.00    0.45433   0.53840    0.006
 6457.00    0.45190   0.53654    0.006
 6458.00    0.45469   0.53401    0.006
 6459.00    0.52890   0.53190    0.006
 6460.00    0.61305   0.53115    0.006
 6461.00    0.57872   0.53203    0.006
 6462.00    0.53256   0.53405    0.006
 6463.00    0.43879   0.53627    0.006
 6464.00    0.34202   0.53787    0.006
 6465.00    0.31464   0.53845    0.006
 6466.00    0.28945   0.53809    0.006
 6467.00    0.31932   0.53722    0.006
 6468.00    0.35173   0.53626    0.006
 6469.00    0.45501   0.53554    0.006
 6470.00    0.55708   0.53517    0.006
 6471.00    0.64199   0.53515    0.006
 6472.00    0.71575   0.53539    0.006
 6473.00    0.68625   0.53568    0.006
 6474.00    0.65828   0.53568    0.006
 6475.00    0.64069   0.53504    0.006
 6476.00    0.61330   0.53359    0.006
 6477.00    0.53446   0.53156    0.006
 6478.00    0.46026   0.52955    0.006
 6479.00    0.40564   0.52824    0.006
 6480.00    0.37568   0.52806    0.006
 6481.00    0.43176   0.52893    0.006
 6482.00    0.47372   0.53030    0.006
 6483.00    0.47430   0.53147    0.006
 6484.00    0.49381   0.53179    0.006
 6485.00    0.56073   0.53084    0.006
 6486.00    0.62281   0.52837    0.006
 6487.00    0.67450   0.52433    0.006
 6488.00    0.70504   0.51885    0.006
 6489.00    0.69601   0.51238    0.006
 6490.00    0.67001   0.50580    0.006
 6491.00    0.61626   0.50029    0.006
 6492.00    0.56925   0.49690    0.006
 6493.00    0.53190   0.49620    0.006
 6494.00    0.49844   0.49810    0.006
 6495.00    0.46989   0.50193    0.006
 6496.00    0.46961   0.50687    0.005
 6497.00    0.50073   0.51210    0.005
 6498.00    0.52375   0.51703    0.005
 6499.00    0.53881   0.52127    0.006
 6500.00    0.53884   0.52460    0.006
 6501.00    0.52589   0.52695    0.006
 6502.00    0.52496   0.52837    0.006
 6503.00    0.53316   0.52905    0.006
 6504.00    0.53062   0.52927    0.006
 6505.00    0.52088   0.52932    0.006
 6506.00    0.49234   0.52939    0.006
 6507.00    0.45280   0.52948    0.006
 6508.00    0.43370   0.52940    0.006
 6509.00    0.42504   0.52894    0.006
 6510.00    0.43787   0.52796    0.006
 6511.00    0.46020   0.52654    0.006
 6512.00    0.45828   0.52495    0.006
 6513.00    0.44715   0.52361    0.006
 6514.00    0.45547   0.52289    0.006
 6515.00    0.47007   0.52300    0.006
 6516.00    0.47882   0.52387    0.006
 6517.00    0.48599   0.52518    0.006
 6518.00    0.55254   0.52649    0.006
 6519.00    0.63223   0.52740    0.006
 6520.00    0.62917   0.52769    0.006
 6521.00    0.61151   0.52738    0.006
 6522.00    0.56532   0.52668    0.006
 6523.00    0.51529   0.52588    0.006
 6524.00    0.49301   0.52522    0.006
 6525.00    0.47337   0.52475    0.006
 6526.00    0.48984   0.52440    0.006
 6527.00    0.50846   0.52404    0.006
 6528.00    0.53815   0.52369    0.000
 6529.00    0.56814   0.52349    0.000
 6530.00    0.59980   0.52359    0.000
 6531.00    0.62924   0.52402    0.000
 6532.00    0.60275   0.52464    0.000
 6533.00    0.57654   0.52525    0.000
 6534.00    0.55406   0.52566    0.000
 6535.00    0.52929   0.52574    0.000
 6536.00    0.48417   0.52530    0.000
 6537.00    0.44708   0.52416    0.000
 6538.00    0.46270   0.52222    0.000
 6539.00    0.47660   0.51952    0.000
 6540.00    0.48167   0.51633    0.000
 6541.00    0.49771   0.51307    0.000
 6542.00    0.55904   0.51019    0.000
 6543.00    0.61271   0.50799    0.000
 6544.00    0.64021   0.50648    0.000
 6545.00    0.67029   0.50529    0.000
 6546.00    0.70783   0.50389    0.000
 6547.00    0.73477   0.50182    0.000
 6548.00    0.73564   0.49883    0.000
 6549.00    0.71306   0.49491    0.000
 6550.00    0.64072   0.49025    0.000
 6551.00    0.57403   0.48498    0.000
 6552.00    0.51772   0.47902    0.000
 6553.00    0.48880   0.47191    0.000
 6554.00    0.50397   0.46280    0.000
 6555.00    0.56111   0.45091    0.000
 6556.00    0.67755   0.43632    0.000
 6557.00    0.81513   0.42067    0.000
 6558.00    0.97897   0.40718    0.000
 6559.00    1.06057   0.39962    0.000
 6560.00    1.05210   0.40048    0.000
 6561.00    1.03095   0.40969    0.000
 6562.00    0.99755   0.42452    0.000
 6563.00    0.90640   0.44106    0.000
 6564.00    0.76603   0.45600    0.000
 6565.00    0.66239   0.46753    0.000
 6566.00    0.58631   0.47544    0.000
 6567.00    0.50742   0.48044    0.000
 6568.00    0.42668   0.48354    0.000
 6569.00    0.38587   0.48571    0.000
 6570.00    0.36809   0.48778    0.000
 6571.00    0.38660   0.49027    0.000
 6572.00    0.42335   0.49331    0.000
 6573.00    0.46792   0.49663    0.000
 6574.00    0.51591   0.49973    0.000
 6575.00    0.54319   0.50220    0.000
 6576.00    0.56275   0.50393    0.000
 6577.00    0.56435   0.50512    0.000
 6578.00    0.56028   0.50611    0.000
 6579.00    0.62204   0.50718    0.000
 6580.00    0.70122   0.50843    0.000
 6581.00    0.74186   0.50979    0.000
 6582.00    0.77418   0.51116    0.000
 6583.00    0.72455   0.51236    0.000
 6584.00    0.66086   0.51313    0.000
 6585.00    0.61070   0.51312    0.000
 6586.00    0.56230   0.51202    0.000
 6587.00    0.56275   0.50987    0.000
 6588.00    0.56766   0.50713    0.000
 6589.00    0.56472   0.50464    0.000
 6590.00    0.56135   0.50320    0.000
 6591.00    0.53249   0.50316    0.000
 6592.00    0.50377   0.50430    0.000
 6593.00    0.54126   0.50611    0.000
 6594.00    0.57610   0.50809    0.000
 6595.00    0.55006   0.51000    0.000
 6596.00    0.51776   0.51174    0.000
 6597.00    0.40607   0.51318    0.000
 6598.00    0.30703   0.51407    0.000
 6599.00    0.31643   0.51418    0.000
 6600.00    0.33559   0.51342    0.000
 6601.00    0.41687   0.51196    0.000
 6602.00    0.48477   0.51015    0.000
 6603.00    0.48612   0.50842    0.000
 6604.00    0.47926   0.50720    0.000
 6605.00    0.43931   0.50682    0.000
 6606.00    0.41000   0.50736    0.000
 6607.00    0.41633   0.50865    0.000
 6608.00    0.42256   0.51031    0.000
 6609.00    0.42851   0.51196    0.006
 6610.00    0.44692   0.51337    0.006
 6611.00    0.49547   0.51449    0.006
 6612.00    0.51729   0.51536    0.006
 6613.00    0.48335   0.51600    0.006
 6614.00    0.46763   0.51641    0.006
 6615.00    0.48496   0.51655    0.006
 6616.00    0.52177   0.51631    0.006
 6617.00    0.58948   0.51559    0.006
 6618.00    0.62653   0.51433    0.006
 6619.00    0.62089   0.51267    0.006
 6620.00    0.62188   0.51092    0.006
 6621.00    0.63100   0.50947    0.006
 6622.00    0.62335   0.50858    0.006
 6623.00    0.59759   0.50822    0.006
 6624.00    0.56480   0.50811    0.006
 6625.00    0.52533   0.50789    0.006
 6626.00    0.54437   0.50729    0.006
 6627.00    0.61253   0.50628    0.006
 6628.00    0.65145   0.50508    0.006
 6629.00    0.66872   0.50408    0.006
 6630.00    0.62935   0.50364    0.006
 6631.00    0.55318   0.50395    0.006
 6632.00    0.53274   0.50488    0.006
 6633.00    0.54399   0.50610    0.006
 6634.00    0.59718   0.50716    0.006
 6635.00    0.67111   0.50778    0.006
 6636.00    0.69236   0.50782    0.006
 6637.00    0.69105   0.50736    0.006
 6638.00    0.65670   0.50658    0.006
 6639.00    0.61022   0.50574    0.006
 6640.00    0.58623   0.50515    0.006
 6641.00    0.56922   0.50498    0.006
 6642.00    0.54447   0.50524    0.006
 6643.00    0.51772   0.50576    0.006
 6644.00    0.53844   0.50630    0.006
 6645.00    0.56918   0.50666    0.006
 6646.00    0.53661   0.50675    0.006
 6647.00    0.49348   0.50660    0.006
 6648.00    0.44652   0.50631    0.006
 6649.00    0.39908   0.50598    0.006
 6650.00    0.38144   0.50570    0.006
 6651.00    0.36639   0.50547    0.006
 6652.00    0.43368   0.50526    0.006
 6653.00    0.50518   0.50495    0.006
 6654.00    0.53945   0.50443    0.006
 6655.00    0.57146   0.50357    0.006
 6656.00    0.49015   0.50232    0.006
 6657.00    0.41443   0.50072    0.006
 6658.00    0.45676   0.49899    0.006
 6659.00    0.50016   0.49745    0.006
 6660.00    0.55645   0.49641    0.006
 6661.00    0.60092   0.49609    0.006
 6662.00    0.54778   0.49649    0.006
 6663.00    0.49845   0.49752    0.006
 6664.00    0.47271   0.49899    0.006
 6665.00    0.45398   0.50067    0.006
 6666.00    0.46929   0.50229    0.006
 6667.00    0.49001   0.50355    0.006
 6668.00    0.53213   0.50411    0.006
 6669.00    0.55464   0.50367    0.006
 6670.00    0.51276   0.50201    0.006
 6671.00    0.46383   0.49910    0.006
 6672.00    0.39534   0.49527    0.006
 6673.00    0.33150   0.49128    0.006
 6674.00    0.27868   0.48810    0.006
 6675.00    0.24977   0.48658    0.006
 6676.00    0.26992   0.48696    0.006
 6677.00    0.30246   0.48887    0.006
 6678.00    0.35715   0.49152    0.006
 6679.00    0.40086   0.49414    0.006
 6680.00    0.42741   0.49625    0.006
 6681.00    0.45561   0.49768    0.006
 6682.00    0.48609   0.49853    0.006
 6683.00    0.49701   0.49897    0.006
 6684.00    0.48430   0.49921    0.006
 6685.00    0.49654   0.49940    0.006
 6686.00    0.53532   0.49956    0.006
 6687.00    0.57807   0.49963    0.006
 6688.00    0.62454   0.49946    0.006
 6689.00    0.61476   0.49894    0.006
 6690.00    0.55841   0.49808    0.006
 6691.00    0.51752   0.49702    0.006
 6692.00    0.48791   0.49602    0.006
 6693.00    0.44830   0.49539    0.006
 6694.00    0.40229   0.49531    0.006
 6695.00    0.37839   0.49570    0.006
 6696.00    0.36688   0.49632    0.000
 6697.00    0.37985   0.49683    0.000
 6698.00    0.40476   0.49700    0.000
 6699.00    0.38903   0.49683    0.000
 6700.00    0.35621   0.49651    0.000
 6701.00    0.34748   0.49625    0.000
 6702.00    0.34742   0.49617    0.000
 6703.00    0.44432   0.49622    0.000
 6704.00    0.57074   0.49624    0.000
 6705.00    0.63822   0.49607    0.000
 6706.00    0.69076   0.49560    0.000
 6707.00    0.68922   0.49479    0.000
 6708.00    0.67654   0.49360    0.000
 6709.00    0.66501   0.49198    0.000
 6710.00    0.65366   0.48998    0.000
 6711.00    0.65803   0.48777    0.000
 6712.00    0.66430   0.48571    0.000
 6713.00    0.58251   0.48421    0.000
 6714.00    0.49340   0.48362    0.000
 6715.00    0.43173   0.48400    0.000
 6716.00    0.37137   0.48514    0.000
 6717.00    0.34996   0.48663    0.000
 6718.00    0.32916   0.48808    0.000
 6719.00    0.31191   0.48924    0.000
 6720.00    0.29937   0.49003    0.000
 6721.00    0.37861   0.49051    0.000
 6722.00    0.45294   0.49082    0.000
 6723.00    0.47092   0.49112    0.000
 6724.00    0.48934   0.49151    0.000
 6725.00    0.51128   0.49197    0.000
 6726.00    0.53018   0.49238    0.000
 6727.00    0.53089   0.49264    0.000
 6728.00    0.53668   0.49268    0.000
 6729.00    0.56657   0.49254    0.000
 6730.00    0.59661   0.49226    0.000
 6731.00    0.62724   0.49186    0.000
 6732.00    0.64891   0.49132    0.000
 6733.00    0.64170   0.49062    0.000
 6734.00    0.61709   0.48981    0.000
 6735.00    0.54500   0.48896    0.000
 6736.00    0.49465   0.48818    0.000
 6737.00    0.49511   0.48754    0.000
 6738.00    0.49767   0.48704    0.000
 6739.00    0.50449   0.48666    0.000
 6740.00    0.52347   0.48636    0.000
 6741.00    0.56388   0.48608    0.000
 6742.00    0.57294   0.48573    0.000
 6743.00    0.53372   0.48524    0.000
 6744.00    0.50313   0.48463    0.000
 6745.00    0.48420   0.48396    0.000
 6746.00    0.48647   0.48339    0.000
 6747.00    0.51396   0.48307    0.000
 6748.00    0.52448   0.48312    0.000
 6749.00    0.51718   0.48363    0.000
 6750.00    0.52665   0.48460    0.000
 6751.00    0.55164   0.48597    0.000
 6752.00    0.59675   0.48757    0.000
 6753.00    0.65826   0.48918    0.006
 6754.00    0.63723   0.49059    0.007
 6755.00    0.55688   0.49162    0.007
 6756.00    0.48094   0.49220    0.007
 6757.00    0.40776   0.49232    0.007
 6758.00    0.40723   0.49202    0.007
 6759.00    0.44673   0.49135    0.007
 6760.00    0.47635   0.49034    0.007
 6761.00    0.50123   0.48906    0.007
 6762.00    0.61225   0.48763    0.007
 6763.00    0.75890   0.48628    0.007
 6764.00    0.73239   0.48523    0.007
 6765.00    0.64465   0.48467    0.007
 6766.00    0.59846   0.48468    0.007
 6767.00    0.56467   0.48523    0.007
 6768.00    0.59354   0.48626    0.007
 6769.00    0.63794   0.48764    0.007
 6770.00    0.64974   0.48918    0.007
 6771.00    0.65500   0.49067    0.007
 6772.00    0.61323   0.49189    0.007
 6773.00    0.56407   0.49267    0.007
 6774.00    0.54949   0.49288    0.006
 6775.00    0.53893   0.49242    0.006
 6776.00    0.51893   0.49123    0.006
 6777.00    0.49818   0.48936    0.006
 6778.00    0.48099   0.48702    0.006
 6779.00    0.46395   0.48458    0.006
 6780.00    0.51541   0.48253    0.006
 6781.00    0.56627   0.48125    0.006
 6782.00    0.55557   0.48088    0.007
 6783.00    0.54322   0.48128    0.007
 6784.00    0.50108   0.48210    0.006
 6785.00    0.46215   0.48297    0.006
 6786.00    0.45837   0.48361    0.006
 6787.00    0.46518   0.48390    0.006
 6788.00    0.55353   0.48389    0.007
 6789.00    0.62324   0.48372    0.007
 6790.00    0.58432   0.48353    0.007
 6791.00    0.55867   0.48348    0.007
 6792.00    0.59440   0.48364    0.007
 6793.00    0.61562   0.48399    0.007
 6794.00    0.58204   0.48448    0.007
 6795.00    0.55853   0.48504    0.007
 6796.00    0.56683   0.48556    0.007
 6797.00    0.58663   0.48596    0.006
 6798.00    0.63725   0.48616    0.006
 6799.00    0.67197   0.48614    0.006
 6800.00    0.67016   0.48593    0.006
 6801.00    0.65098   0.48558    0.006
 6802.00    0.59727   0.48518    0.006
 6803.00    0.55840   0.48481    0.006
 6804.00    0.54524   0.48451    0.006
 6805.00    0.53652   0.48428    0.006
 6806.00    0.53454   0.48409    0.006
 6807.00    0.57488   0.48390    0.006
 6808.00    0.67164   0.48367    0.006
 6809.00    0.67903   0.48341    0.007
 6810.00    0.58155   0.48317    0.006
 6811.00    0.51364   0.48303    0.007
 6812.00    0.47634   0.48307    0.007
 6813.00    0.47812   0.48325    0.007
 6814.00    0.51558   0.48349    0.007
 6815.00    0.53444   0.48377    0.007
 6816.00    0.53832   0.48408    0.007
 6817.00    0.49581   0.48448    0.007
 6818.00    0.42044   0.48498    0.006
 6819.00    0.37420   0.48546    0.006
 6820.00    0.34604   0.48574    0.006
 6821.00    0.37900   0.48567    0.006
 6822.00    0.44512   0.48520    0.006
 6823.00    0.46453   0.48445    0.006
 6824.00    0.46190   0.48365    0.006
 6825.00    0.47163   0.48306    0.006
 6826.00    0.48637   0.48281    0.006
 6827.00    0.52271   0.48290    0.006
 6828.00    0.56655   0.48320    0.006
 6829.00    0.60729   0.48356    0.006
 6830.00    0.64711   0.48379    0.006
 6831.00    0.62541   0.48373    0.007
 6832.00    0.58880   0.48321    0.007
 6833.00    0.60434   0.48213    0.007
 6834.00    0.63008   0.48052    0.006
 6835.00    0.62489   0.47859    0.007
 6836.00    0.61498   0.47673    0.007
 6837.00    0.59976   0.47535    0.007
 6838.00    0.58395   0.47478    0.007
 6839.00    0.54515   0.47512    0.007
 6840.00    0.50464   0.47620    0.007
 6841.00    0.55599   0.47765    0.007
 6842.00    0.61099   0.47908    0.007
 6843.00    0.63318   0.48020    0.007
 6844.00    0.65610   0.48088    0.006
 6845.00    0.71753   0.48114    0.006
 6846.00    0.77126   0.48103    0.006
 6847.00    0.69499   0.48059    0.006
 6848.00    0.62538   0.47982    0.006
 6849.00    0.62533   0.47875    0.006
 6850.00    0.62486   0.47750    0.006
 6851.00    0.62133   0.47625    0.006
 6852.00    0.60985   0.47521    0.006
 6853.00    0.55340   0.47449    0.006
 6854.00    0.50992   0.47405    0.006
 6855.00    0.52508   0.47383    0.007
 6856.00    0.51698   0.47379    0.007
 6857.00    0.42276   0.47399    0.007
 6858.00    0.35997   0.47448    0.007
 6859.00    0.39454   0.47522    0.007
 6860.00    0.41622   0.47598    0.007
 6861.00    0.40399   0.47647    0.007
 6862.00    0.42633   0.47651    0.007
 6863.00    0.52683   0.47613    0.007
 6864.00    0.65155   0.47552    0.007
 6865.00    0.82369   0.47492    0.008
 6866.00    0.90140   0.47448    0.009
 6867.00    0.81797   0.47424    0.010
 6868.00    0.73536   0.47423    0.010
 6869.00    0.65400   0.47448    0.010
 6870.00    0.60505   0.47502    0.009
 6871.00    0.59868   0.47585    0.008
 6872.00    0.58058   0.47684    0.008
 6873.00    0.54892   0.47777    0.007
 6874.00    0.48349   0.47838    0.006
 6875.00    0.38359   0.47846    0.006
 6876.00    0.33615   0.47795    0.006
 6877.00    0.33592   0.47701    0.007
 6878.00    0.35005   0.47598    0.007
 6879.00    0.37556   0.47521    0.007
 6880.00    0.39585   0.47495    0.007
 6881.00    0.41248   0.47526    0.007
 6882.00    0.39179   0.47605    0.007
 6883.00    0.34825   0.47712    0.007
 6884.00    0.40782   0.47826    0.007
 6885.00    0.52249   0.47931    0.007
 6886.00    0.57193   0.48015    0.007
 6887.00    0.59112   0.48069    0.007
 6888.00    0.51245   0.48092    0.007
 6889.00    0.39465   0.48088    0.007
 6890.00    0.40991   0.48067    0.006
 6891.00    0.47051   0.48039    0.006
 6892.00    0.49727   0.48015    0.006
 6893.00    0.51434   0.47998    0.006
 6894.00    0.47358   0.47991    0.006
 6895.00    0.41914   0.47992    0.006
 6896.00    0.49432   0.48003    0.007
 6897.00    0.59419   0.48026    0.007
 6898.00    0.64189   0.48059    0.007
 6899.00    0.68187   0.48101    0.007
 6900.00    0.65006   0.48148    0.007
 6901.00    0.61049   0.48196    0.007
 6902.00    0.56517   0.48242    0.007
 6903.00    0.51943   0.48279    0.007
 6904.00    0.51109   0.48295    0.007
 6905.00    0.50409   0.48277    0.007
 6906.00    0.56055   0.48214    0.007
 6907.00    0.61684   0.48110    0.006
 6908.00    0.66015   0.47978    0.007
 6909.00    0.69247   0.47843    0.007
 6910.00    0.55073   0.47732    0.007
 6911.00    0.41522   0.47665    0.006
 6912.00    0.34211   0.47651    0.006
 6913.00    0.28181   0.47685    0.006
 6914.00    0.31360   0.47752    0.006
 6915.00    0.35498   0.47827    0.006
 6916.00    0.44920   0.47886    0.006
 6917.00    0.52941   0.47906    0.006
 6918.00    0.54788   0.47877    0.007
 6919.00    0.55516   0.47804    0.007
 6920.00    0.52192   0.47713    0.007
 6921.00    0.48308   0.47639    0.007
 6922.00    0.42724   0.47609    0.007
 6923.00    0.38349   0.47634    0.007
 6924.00    0.37100   0.47695    0.007
 6925.00    0.38146   0.47766    0.007
 6926.00    0.44292   0.47818    0.007
 6927.00    0.49141   0.47838    0.007
 6928.00    0.51492   0.47834    0.007
 6929.00    0.51603   0.47822    0.007
 6930.00    0.47948   0.47821    0.007
 6931.00    0.45288   0.47839    0.007
 6932.00    0.44093   0.47874    0.007
 6933.00    0.45072   0.47919    0.007
 6934.00    0.48867   0.47963    0.007
 6935.00    0.51212   0.47996    0.007
 6936.00    0.51903   0.48003    0.007
 6937.00    0.51763   0.47973    0.007
 6938.00    0.50786   0.47901    0.007
 6939.00    0.49849   0.47801    0.007
 6940.00    0.48949   0.47700    0.007
 6941.00    0.46926   0.47633    0.007
 6942.00    0.44025   0.47621    0.007
 6943.00    0.48154   0.47658    0.007
 6944.00    0.57117   0.47717    0.007
 6945.00    0.52783   0.47762    0.007
 6946.00    0.40433   0.47768    0.007
 6947.00    0.40540   0.47735    0.007
 6948.00    0.47201   0.47682    0.007
 6949.00    0.48881   0.47637    0.007
 6950.00    0.48287   0.47626    0.007
 6951.00    0.48512   0.47656    0.007
 6952.00    0.49058   0.47721    0.007
 6953.00    0.43891   0.47803    0.007
 6954.00    0.36814   0.47884    0.007
 6955.00    0.41867   0.47950    0.007
 6956.00    0.50326   0.47999    0.007
 6957.00    0.42501   0.48032    0.007
 6958.00    0.30906   0.48052    0.007
 6959.00    0.37008   0.48063    0.007
 6960.00    0.46394   0.48069    0.007
 6961.00    0.53931   0.48075    0.007
 6962.00    0.61202   0.48084    0.007
 6963.00    0.53894   0.48097    0.007
 6964.00    0.45076   0.48108    0.007
 6965.00    0.49637   0.48107    0.007
 6966.00    0.55089   0.48087    0.007
 6967.00    0.45546   0.48043    0.007
 6968.00    0.35526   0.47967    0.007
 6969.00    0.48303   0.47849    0.008
 6970.00    0.60029   0.47675    0.008
 6971.00    0.39521   0.47443    0.007
 6972.00    0.21394   0.47172    0.007
 6973.00    0.38698   0.46908    0.007
 6974.00    0.53918   0.46716    0.007
 6975.00    0.49124   0.46650    0.007
 6976.00    0.44183   0.46733    0.007
 6977.00    0.38227   0.46943    0.007
 6978.00    0.34080   0.47222    0.007
 6979.00    0.39639   0.47502    0.007
 6980.00    0.43553   0.47727    0.007
 6981.00    0.40376   0.47867    0.007
 6982.00    0.38773   0.47918    0.007
 6983.00    0.42762   0.47901    0.007
 6984.00    0.47886   0.47845    0.007
 6985.00    0.56395   0.47785    0.007
 6986.00    0.61012   0.47747    0.007
 6987.00    0.55747   0.47739    0.008
 6988.00    0.47745   0.47756    0.008
 6989.00    0.33759   0.47780    0.008
 6990.00    0.22133   0.47794    0.008
 6991.00    0.14981   0.47785    0.008
 6992.00    0.12635   0.47747    0.008
 6993.00    0.18244   0.47682    0.008
 6994.00    0.27486   0.47597    0.007
 6995.00    0.41999   0.47509    0.007
 6996.00    0.48464   0.47434    0.007
 6997.00    0.44654   0.47380    0.007
 6998.00    0.43288   0.47346    0.007
 6999.00    0.44670   0.47324    0.007
 7000.00    0.42089   0.47307    0.007
 7001.00    0.35575   0.47298    0.007
 7002.00    0.33837   0.47305    0.007
 7003.00    0.36279   0.47334    0.007
 7004.00    0.40088   0.47380    0.007
 7005.00    0.44951   0.47429    0.007
 7006.00    0.42192   0.47461    0.007
 7007.00    0.34268   0.47457    0.008
 7008.00    0.30846   0.47402    0.008
 7009.00    0.30097   0.47295    0.008
 7010.00    0.32095   0.47152    0.008
 7011.00    0.35515   0.47010    0.008
 7012.00    0.33177   0.46918    0.008
 7013.00    0.28254   0.46914    0.008
 7014.00    0.43360   0.47000    0.008
 7015.00    0.66196   0.47137    0.008
 7016.00    0.59123   0.47267    0.008
 7017.00    0.42234   0.47337    0.008
 7018.00    0.39726   0.47331    0.008
 7019.00    0.41175   0.47268    0.008
 7020.00    0.38476   0.47193    0.007
 7021.00    0.34839   0.47147    0.007
 7022.00    0.39192   0.47154    0.007
 7023.00    0.44988   0.47211    0.007
 7024.00    0.39920   0.47301    0.007
 7025.00    0.33346   0.47400    0.007
 7026.00    0.41292   0.47489    0.007
 7027.00    0.50679   0.47554    0.008
 7028.00    0.42413   0.47590    0.008
 7029.00    0.33041   0.47598    0.008
 7030.00    0.42267   0.47580    0.008
 7031.00    0.51986   0.47544    0.008
 7032.00    0.52674   0.47502    0.008
 7033.00    0.52701   0.47481    0.008
 7034.00    0.34586   0.47509    0.008
 7035.00    0.19075   0.47612    0.008
 7036.00    0.40119   0.47784    0.008
 7037.00    0.58135   0.47996    0.008
 7038.00    0.48245   0.48199    0.008
 7039.00    0.40661   0.48355    0.008
 7040.00    0.48623   0.48451    0.008
 7041.00    0.56342   0.48500    0.008
 7042.00    0.62792   0.48521    0.008
 7043.00    0.66366   0.48520    0.007
 7044.00    0.57832   0.48482    0.007
 7045.00    0.47734   0.48378    0.007
 7046.00    0.32197   0.48187    0.007
 7047.00    0.22309   0.47908    0.007
 7048.00    0.28955   0.47571    0.008
 7049.00    0.38527   0.47227    0.008
 7050.00    0.55403   0.46927   -2.000
 7051.00    0.59117   0.46702   -2.000
 7052.00    0.34526   0.46554   -2.000
 7053.00    0.24536   0.46460   -2.000
 7054.00    0.41812   0.46388   -2.000
 7055.00    0.53429   0.46318   -2.000
 7056.00    0.55816   0.46250   -2.000
 7057.00    0.55332   0.46193   -2.000
 7058.00    0.50744   0.46151   -2.000
 7059.00    0.49803   0.46120   -2.000
 7060.00    0.53450   0.46082   -2.000
 7061.00    0.51681   0.46028   -2.000
 7062.00    0.43905   0.45961   -2.000
 7063.00    0.36853   0.45904   -2.000
 7064.00    0.30510   0.45891   -2.000
 7065.00    0.32858   0.45943   -2.000
 7066.00    0.42700   0.46063   -2.000
 7067.00    0.43375   0.46228   -2.000
 7068.00    0.37084   0.46401   -2.000
 7069.00    0.36224   0.46552   -2.000
 7070.00    0.38991   0.46663   -2.000
 7071.00    0.39172   0.46733   -2.000
 7072.00    0.37842   0.46771   -2.000
 7073.00    0.36949   0.46786   -2.000
 7074.00    0.36278   0.46781   -2.000
 7075.00    0.28592   0.46744   -2.000
 7076.00    0.17807   0.46657   -2.000
 7077.00    0.28132   0.46500   -2.000
 7078.00    0.46463   0.46267   -2.000
 7079.00    0.52508   0.45976   -2.000
 7080.00    0.54596   0.45656   -2.000
 7081.00    0.45212   0.45344   -2.000
 7082.00    0.32738   0.45069   -2.000
 7083.00    0.29123   0.44843   -2.000
 7084.00    0.27465   0.44668   -2.000
 7085.00    0.44289   0.44541   -2.000
 7086.00    0.64362   0.44458   -2.000
 7087.00    0.55760   0.44415   -2.000
 7088.00    0.43317   0.44403   -2.000
 7089.00    0.35336   0.44415   -2.000
 7090.00    0.27780   0.44444   -2.000
 7091.00    0.33519   0.44491   -2.000
 7092.00    0.40039   0.44558   -2.000
 7093.00    0.41894   0.44646   -2.000
 7094.00    0.43484   0.44746   -2.000
 7095.00    0.24518   0.44844   -2.000
 7096.00    0.07501   0.44926   -2.000
 7097.00    0.38964   0.44984   -2.000
 7098.00    0.66919   0.45020   -2.000
 7099.00    0.48287   0.45047   -2.000
 7100.00    0.31533   0.45071   -2.000
 7101.00    0.31422   0.45092   -2.000
 7102.00    0.33252   0.45101   -2.000
 7103.00    0.47766   0.45089   -2.000
 7104.00    0.58083   0.45050   -2.000
 7105.00    0.47023   0.44991   -2.000
 7106.00    0.37583   0.44931   -2.000
 7107.00    0.34807   0.44891   -2.000
 7108.00    0.34619   0.44890   -2.000
 7109.00    0.43255   0.44934   -2.000
 7110.00    0.48300   0.45014   -2.000
 7111.00    0.43028   0.45109   -2.000
 7112.00    0.40179   0.45197   -2.000
 7113.00    0.43276   0.45261   -2.000
 7114.00    0.47498   0.45291   -2.000
 7115.00    0.54099   0.45286   -2.000
 7116.00    0.56410   0.45250   -2.000
 7117.00    0.50831   0.45188   -2.000
 7118.00    0.46455   0.45101   -2.000
 7119.00    0.44011   0.44988   -2.000
 7120.00    0.54130   0.44848   -2.000
 7121.00    0.81960   0.44682   -2.000
 7122.00    0.93975   0.44502   -2.000
 7123.00    0.86371   0.44318   -2.000
 7124.00    0.66882   0.44149   -2.000
 7125.00    0.34398   0.44012   -2.000
 7126.00    0.34403   0.43924   -2.000
 7127.00    0.65739   0.43901   -2.000
 7128.00    0.68682   0.43946   -2.000
 7129.00    0.47480   0.44047   -2.000
 7130.00    0.54335   0.44179   -2.000
 7131.00    0.82201   0.44309   -2.000
 7132.00    0.77151   0.44412   -2.000
 7133.00    0.50444   0.44479   -2.000
 7134.00    0.54868   0.44516   -2.000
 7135.00    0.77226   0.44539   -2.000
 7136.00    0.63825   0.44563   -2.000
 7137.00    0.32482   0.44590   -2.000
 7138.00    0.22789   0.44613   -2.000
 7139.00    0.22498   0.44614   -2.000
 7140.00    0.25448   0.44579   -2.000
 7141.00    0.29604   0.44503   -2.000
 7142.00    0.33374   0.44396   -2.000
 7143.00    0.37023   0.44287   -2.000
 7144.00    0.39377   0.44213   -2.000
 7145.00    0.41390   0.44204   -2.000
 7146.00    0.35197   0.44272   -2.000
 7147.00    0.27235   0.44405   -2.000
 7148.00    0.18547   0.44575   -2.000
 7149.00    0.09735   0.44747   -2.000
 7150.00    0.09175   0.44895   -2.000
 7151.00    0.09684   0.45005   -2.000
 7152.00    0.16061   0.45072   -2.000
 7153.00    0.22970   0.45096   -2.000
 7154.00    0.24389   0.45080   -2.000
 7155.00    0.25507   0.45027   -2.000
 7156.00    0.31521   0.44940   -2.000
 7157.00    0.37942   0.44827   -2.000
 7158.00    0.72071   0.44697   -2.000
 7159.00    1.02582   0.44569   -2.000
 7160.00    0.50979   0.44469   -2.000
 7161.00    0.01787   0.44426   -2.000
 7162.00   -0.17043   0.44456   -2.000
 7163.00   -0.28428   0.44553   -2.000
 7164.00    0.23704   0.44696   -2.000
 7165.00    0.70188   0.44854   -2.000
 7166.00    0.80874   0.45002   -2.000
 7167.00    0.85282   0.45121   -2.000
 7168.00    0.58520   0.45200   -2.000
 7169.00    0.36914   0.45233   -2.000
 7170.00    0.36056   0.45221   -2.000
 7171.00    0.34222   0.45170   -2.000
 7172.00    0.29127   0.45090   -2.000
 7173.00    0.26823   0.44990   -2.000
 7174.00    0.32389   0.44881   -2.000
 7175.00    0.33204   0.44776   -2.000
 7176.00    0.22561   0.44696   -2.000
 7177.00    0.19566   0.44657   -2.000
 7178.00    0.32497   0.44660   -2.000
 7179.00    0.39932   0.44681   -2.000
 7180.00    0.37416   0.44682   -2.000
 7181.00    0.43307   0.44630   -2.000
 7182.00    0.62506   0.44519   -2.000
 7183.00    0.64399   0.44378   -2.000
 7184.00    0.42247   0.44252   -2.000
 7185.00    0.23413   0.44183   -2.000
 7186.00    0.08639   0.44190   -2.000
 7187.00    0.05220   0.44262   -2.000
 7188.00    0.14041   0.44368   -2.000
 7189.00    0.19753   0.44476   -2.000
 7190.00    0.22507   0.44563   -2.000
 7191.00    0.20612   0.44621   -2.000
 7192.00    0.14818   0.44650   -2.000
 7193.00    0.27512   0.44660   -2.000
 7194.00    0.53853   0.44658   -2.000
 7195.00    0.77172   0.44653   -2.000
 7196.00    0.98532   0.44650   -2.000
 7197.00    1.01496   0.44647   -2.000
 7198.00    0.94025   0.44638   -2.000
 7199.00    0.58922   0.44609   -2.000
 7200.00    0.10173   0.44545   -2.000
 7201.00    0.12169   0.44442   -2.000
 7202.00    0.35833   0.44316   -2.000
 7203.00    0.38740   0.44206   -2.000
 7204.00    0.34052   0.44151   -2.000
 7205.00    0.54743   0.44173   -2.000
 7206.00    0.83296   0.44264   -2.000
 7207.00    0.67887   0.44390   -2.000
 7208.00    0.41132   0.44514   -2.000
 7209.00    0.41616   0.44615   -2.000
 7210.00    0.47829   0.44692   -2.000
 7211.00    0.40419   0.44759   -2.000
 7212.00    0.30746   0.44830   -2.000
 7213.00   -0.01211   0.44907   -2.000
 7214.00   -0.35952   0.44980   -2.000
 7215.00   -0.15595   0.45035   -2.000
 7216.00    0.09535   0.45069   -2.000
 7217.00    0.10791   0.45088   -2.000
 7218.00    0.10833   0.45109   -2.000
