###################################################################
## OUTPUT of StarlightChains_v04.for    [Cid@UFSC - 01/Apr/2007] ##
###################################################################

## Some input info
KUG0210-078._24_33.txt                   [arq_obs]
Base.CB07.vall.4m                        [arq_base]
Masks.EmLines.NEW.gm                     [arq_masks]
StCv04.C11.config                        [arq_config]
   66                                    [N_base]
    0                                    [N_YAV_components = # of components with extra extinction!]
    0                                    [i_FitPowerLaw (1/0 = Yes/No)]
-9.99                                    [alpha_PowerLaw]
CCM                                      [red_law_option]
 1.458241                                [q_norm = A(l_norm)/A(V)]

## (Re)Sampling Parameters
 3741.00                                 [l_ini (A)]
 7218.00                                 [l_fin (A)]
    1.00                                 [dl    (A)]     (OBS: dl_cushion =    50.00 A)

## Normalization info
 4020.00                                 [l_norm (A) - for base]
 4010.00                                 [llow_norm (A) - window for f_obs]
 4060.00                                 [lupp_norm (A) - window for f_obs]
1.937446E-17                             [fobs_norm (in input units)]

## S/N
 3691.00                                 [llow_SN (A) - window for S/N]
 7268.00                                 [lupp_SN (A) - window for S/N]
   3.734                                 [S/N in S/N window]
   5.805                                 [S/N in norm. window]
   0.018                                 [S/N_err in S/N window]
   0.029                                 [S/N_err in norm. window]
  1.0000                                 [fscale_chi2]

## etc...
    -2007284                             [idum_orig]
  2430                                   [NOl_eff]
  2264                                   [Nl_eff]
   166    NSIGMA                         [Ntot_cliped & clip_method]
 10463880                                [Nglobal_steps]
   7                                     [N_chains]
  33                                     [NEX0s_base = N_base in EX0s-fits]
 0   0   1      166   2.0   1.093E+04    [Clip-Bug, RC-Crash & Burn-In warning-flags, n_censored_weights, wei_nsig_threshold & wei_limit]
    76     75.403     74.716      0.687  [idt_all, wdt_TotTime, wdt_UsrTime & wdt_SysTime (sec)]

## Synthesis Results - Best model ##

 3.51606E-05                             [chi2/Nl_eff]
    15.55204                             [adev (%)]

    88.04005                             [sum-of-x (%)]
 5.34068E-17                             [Flux_tot (units of input spectrum!)]
 2.92423E-13                             [Mini_tot (???)]
 1.53457E-13                             [Mcor_tot (???)]

-304.65                                  [v0_min  (km/s)]
 284.50                                  [vd_min  (km/s)]
 0.8498                                  [AV_min  (mag)]
 0.0000                                  [YAV_min (mag)]

# j     x_j(%)      Mini_j(%)     Mcor_j(%)     age_j(yr)     Z_j      (L/M)_j    YAV?  Mstars   component_j        a/Fe...       SSP_chi2r SSP_adev(%)   SSP_AV   SSP_x(%)
  1      0.0000     0.0000E+00    0.0000E+00    1.000000E+06  0.00400  1.094E-02    0   1.0000   age020_m42            0.0000     4.0337E-05    20.2884   2.0029    86.1183
  2      0.0000     0.0000E+00    0.0000E+00    3.160000E+06  0.00400  4.007E-02    0   0.9999   age045_m42            0.0000     4.2311E-05    19.6373   1.3401    89.6142
  3      2.3205     1.8959E-02    3.4279E-02    5.010000E+06  0.00400  2.539E-02    0   0.9488   age055_m42            0.0000     4.1428E-05    19.7959   1.6399    88.2728
  4      0.0000     0.0000E+00    0.0000E+00    6.610000E+06  0.00400  2.620E-02    0   0.9220   age061_m42            0.0000     4.2780E-05    19.3317   1.2816    89.3917
  5      0.1418     2.2253E-03    3.7578E-03    1.000000E+07  0.00400  1.322E-02    0   0.8862   age070_m42            0.0000     4.0214E-05    17.5811   1.0541    90.2068
  6      0.0000     0.0000E+00    0.0000E+00    1.445000E+07  0.00400  7.883E-03    0   0.8571   age078_m42            0.0000     3.9988E-05    18.0396   1.3542    88.7977
  7      0.0000     0.0000E+00    0.0000E+00    2.512000E+07  0.00400  5.251E-03    0   0.8174   age090_m42            0.0000     4.0120E-05    17.2318   0.9364    90.3612
  8      0.0000     0.0000E+00    0.0000E+00    4.000000E+07  0.00400  3.649E-03    0   0.7851   age104_m42            0.0000     4.0796E-05    17.2628   0.7176    90.7492
  9      0.0000     0.0000E+00    0.0000E+00    5.500000E+07  0.00400  3.098E-03    0   0.7629   age110_m42            0.0000     4.2752E-05    17.9471   0.8582    90.8332
 10      0.0000     0.0000E+00    0.0000E+00    1.015200E+08  0.00400  2.228E-03    0   0.7207   age116_m42            0.0000     4.4266E-05    18.2994   0.8751    90.8904
 11      0.0000     0.0000E+00    0.0000E+00    2.861200E+08  0.00400  1.093E-03    0   0.6648   age125_m42            0.0000     4.3976E-05    17.4562   0.3414    92.3698
 12      0.0000     0.0000E+00    0.0000E+00    5.088000E+08  0.00400  6.597E-04    0   0.6365   age130_m42            0.0000     4.5847E-05    18.0570   0.3238    93.0980
 13      0.0000     0.0000E+00    0.0000E+00    1.434000E+09  0.00400  2.132E-04    0   0.5798   age139_m42            0.0000     4.5474E-05    18.1792  -0.6463    94.6012
 14     10.9417     3.8504E+01    3.9452E+01    4.250000E+09  0.00400  5.895E-05    0   0.5377   age158_m42            0.0000     4.4921E-05    18.5440  -1.0000    90.0075
 15      0.1834     1.0841E+00    1.0767E+00    7.500000E+09  0.00400  3.510E-05    0   0.5212   age171_m42            0.0000     4.7323E-05    18.1295  -1.0000    85.9451
 16      0.0000     0.0000E+00    0.0000E+00    1.300000E+10  0.00400  2.005E-05    0   0.5034   age193_m42            0.0000     5.1113E-05    18.4263  -1.0000    82.1924
 17      0.0000     0.0000E+00    0.0000E+00    1.800000E+10  0.00400  1.525E-05    0   0.4967   age213_m42            0.0000     5.1308E-05    18.4327  -1.0000    81.4239
 18      0.0000     0.0000E+00    0.0000E+00    1.000000E+06  0.00800  1.238E-02    0   1.0000   age020_m52            0.0000     4.0303E-05    20.2881   1.9993    86.2825
 19      0.0000     0.0000E+00    0.0000E+00    3.160000E+06  0.00800  3.074E-02    0   0.9966   age045_m52            0.0000     4.0369E-05    20.2680   1.9284    86.8506
 20      0.0000     0.0000E+00    0.0000E+00    5.010000E+06  0.00800  2.668E-02    0   0.9443   age055_m52            0.0000     4.1034E-05    19.7733   1.7184    87.7031
 21      0.0000     0.0000E+00    0.0000E+00    6.610000E+06  0.00800  2.136E-02    0   0.9177   age061_m52            0.0000     3.8819E-05    17.7508   0.5457    91.4217
 22      0.0000     0.0000E+00    0.0000E+00    1.000000E+07  0.00800  1.215E-02    0   0.8827   age070_m52            0.0000     3.9047E-05    17.2268   1.2328    90.2141
 23      0.0000     0.0000E+00    0.0000E+00    1.445000E+07  0.00800  8.717E-03    0   0.8552   age078_m52            0.0000     3.9946E-05    17.8581   1.3274    89.7609
 24      0.0000     0.0000E+00    0.0000E+00    2.512000E+07  0.00800  5.592E-03    0   0.8162   age090_m52            0.0000     4.0159E-05    17.0207   1.0084    91.2125
 25      0.7401     3.9405E-02    5.8877E-02    4.000000E+07  0.00800  3.896E-03    0   0.7841   age104_m52            0.0000     4.1262E-05    17.2665   0.9217    91.6394
 26      0.0000     0.0000E+00    0.0000E+00    1.015200E+08  0.00800  2.148E-03    0   0.7226   age116_m52            0.0000     4.3014E-05    17.8650   0.8540    91.3721
 27      0.5217     1.0905E-01    1.3888E-01    2.861200E+08  0.00800  9.925E-04    0   0.6683   age125_m52            0.0000     4.6215E-05    17.8795   0.3963    93.7268
 28      0.0000     0.0000E+00    0.0000E+00    9.047900E+08  0.00800  3.141E-04    0   0.6138   age135_m52            0.0000     4.7420E-05    18.7068  -0.4176    97.4264
 29      0.0000     0.0000E+00    0.0000E+00    1.434000E+09  0.00800  1.719E-04    0   0.5853   age139_m52            0.0000     4.5599E-05    18.8562  -1.0000    95.7393
 30      0.0000     0.0000E+00    0.0000E+00    2.500000E+09  0.00800  7.872E-05    0   0.5600   age150_m52            0.0000     4.8452E-05    18.2935  -1.0000    88.6010
 31      0.0000     0.0000E+00    0.0000E+00    4.250000E+09  0.00800  4.336E-05    0   0.5426   age158_m52            0.0000     4.8492E-05    18.3671  -1.0000    87.5550
 32      1.4253     9.3599E+00    9.4869E+00    6.250000E+09  0.00800  3.159E-05    0   0.5319   age166_m52            0.0000     5.3738E-05    18.8378  -1.0000    83.3826
 33      3.2939     5.0205E+01    4.8533E+01    1.300000E+10  0.00800  1.361E-05    0   0.5073   age193_m52            0.0000     7.0327E-05    22.3074  -1.0000    72.4588
 34      0.0000     0.0000E+00    0.0000E+00    1.800000E+10  0.00800  9.886E-06    0   0.4990   age213_m52            0.0000     7.7232E-05    23.6184  -1.0000    69.5338
 35      0.0000     0.0000E+00    0.0000E+00    1.000000E+06  0.02000  1.544E-02    0   1.0000   age020_m62            0.0000     4.0109E-05    20.2855   1.9956    86.5092
 36     14.8679     8.1985E-02    1.5401E-01    3.160000E+06  0.02000  3.762E-02    0   0.9858   age045_m62            0.0000     4.0142E-05    20.3343   1.9335    87.2397
 37      0.0000     0.0000E+00    0.0000E+00    5.010000E+06  0.02000  3.296E-02    0   0.9342   age055_m62            0.0000     4.2455E-05    19.8067   1.6091    88.9568
 38      0.0000     0.0000E+00    0.0000E+00    8.710000E+06  0.02000  1.154E-02    0   0.8861   age067_m62            0.0000     3.4264E-05    14.3960   0.7458    91.8750
 39      0.0000     0.0000E+00    0.0000E+00    1.445000E+07  0.02000  7.663E-03    0   0.8472   age078_m62            0.0000     3.7447E-05    16.2650   0.9039    91.6799
 40      4.3969     2.0126E-01    3.1061E-01    2.512000E+07  0.02000  4.532E-03    0   0.8099   age090_m62            0.0000     3.7930E-05    16.0337   0.9084    91.0639
 41      0.0000     0.0000E+00    0.0000E+00    5.500000E+07  0.02000  2.733E-03    0   0.7595   age110_m62            0.0000     4.1203E-05    17.2963   0.9002    91.1342
 42      0.0000     0.0000E+00    0.0000E+00    1.609000E+08  0.02000  1.369E-03    0   0.6985   age120_m62            0.0000     4.5158E-05    17.7671   0.7531    92.7134
 43      0.0000     0.0000E+00    0.0000E+00    2.861200E+08  0.02000  9.013E-04    0   0.6714   age125_m62            0.0000     4.7586E-05    17.8934   0.5169    94.6048
 44      0.0000     0.0000E+00    0.0000E+00    5.088000E+08  0.02000  5.028E-04    0   0.6449   age130_m62            0.0000     4.9432E-05    18.8977   0.1183    97.2001
 45      0.0000     0.0000E+00    0.0000E+00    9.047900E+08  0.02000  2.428E-04    0   0.6179   age135_m62            0.0000     4.7620E-05    19.6737  -0.5104    97.6802
 46      0.0000     0.0000E+00    0.0000E+00    1.434000E+09  0.02000  1.263E-04    0   0.5908   age139_m62            0.0000     4.6841E-05    20.1716  -0.9799    96.9586
 47      0.0000     0.0000E+00    0.0000E+00    2.500000E+09  0.02000  5.985E-05    0   0.5673   age150_m62            0.0000     5.0562E-05    18.9187  -1.0000    89.3223
 48      0.0000     0.0000E+00    0.0000E+00    4.250000E+09  0.02000  3.271E-05    0   0.5468   age158_m62            0.0000     5.9653E-05    19.9317  -1.0000    82.0922
 49      0.0000     0.0000E+00    0.0000E+00    1.000000E+10  0.02000  1.360E-05    0   0.5167   age181_m62            0.0000     7.5267E-05    22.5563  -1.0000    73.7157
 50      0.0000     0.0000E+00    0.0000E+00    1.800000E+10  0.02000  7.124E-06    0   0.5013   age213_m62            0.0000     8.7811E-05    24.7542  -1.0000    68.1060
 51     49.2068     3.9382E-01    7.5030E-01    1.000000E+06  0.05000  2.592E-02    0   0.9998   age020_m72            0.0000     3.9612E-05    20.2665   1.9837    86.6813
 52      0.0000     0.0000E+00    0.0000E+00    3.160000E+06  0.05000  4.845E-02    0   0.9577   age045_m72            0.0000     4.1387E-05    20.2582   1.8367    87.6785
 53      0.0000     0.0000E+00    0.0000E+00    5.010000E+06  0.05000  3.072E-02    0   0.9147   age055_m72            0.0000     3.8447E-05    17.8397   1.4310    89.6945
 54      0.0000     0.0000E+00    0.0000E+00    6.610000E+06  0.05000  1.455E-02    0   0.8877   age061_m72            0.0000     3.3460E-05    14.5988   0.7957    92.3415
 55      0.0000     0.0000E+00    0.0000E+00    1.000000E+07  0.05000  9.074E-03    0   0.8524   age070_m72            0.0000     3.8848E-05    18.2538   1.6018    89.4692
 56      0.0000     0.0000E+00    0.0000E+00    2.512000E+07  0.05000  4.250E-03    0   0.7902   age090_m72            0.0000     4.0248E-05    17.5409   1.3438    89.9283
 57      0.0000     0.0000E+00    0.0000E+00    4.000000E+07  0.05000  3.087E-03    0   0.7618   age104_m72            0.0000     4.0675E-05    17.0809   1.1382    90.7395
 58      0.0000     0.0000E+00    0.0000E+00    1.015200E+08  0.05000  1.700E-03    0   0.7096   age116_m72            0.0000     4.3905E-05    17.3430   0.9008    92.3065
 59      0.0000     0.0000E+00    0.0000E+00    2.861200E+08  0.05000  7.384E-04    0   0.6633   age125_m72            0.0000     4.9251E-05    18.3945   0.3735    95.9684
 60      0.0000     0.0000E+00    0.0000E+00    5.088000E+08  0.05000  3.819E-04    0   0.6372   age130_m72            0.0000     4.9516E-05    19.5029  -0.1611    98.4605
 61      0.0000     0.0000E+00    0.0000E+00    9.047900E+08  0.05000  1.676E-04    0   0.6110   age135_m72            0.0000     4.9585E-05    21.2096  -0.9299    98.5128
 62      0.0000     0.0000E+00    0.0000E+00    1.434000E+09  0.05000  8.837E-05    0   0.5874   age139_m72            0.0000     5.1631E-05    19.0088  -1.0000    90.6312
 63      0.0000     0.0000E+00    0.0000E+00    2.500000E+09  0.05000  4.233E-05    0   0.5598   age150_m72            0.0000     6.1111E-05    20.2121  -1.0000    82.7843
 64      0.0000     0.0000E+00    0.0000E+00    6.250000E+09  0.05000  1.435E-05    0   0.5249   age166_m72            0.0000     8.0441E-05    23.6073  -1.0000    71.1544
 65      0.0000     0.0000E+00    0.0000E+00    1.300000E+10  0.05000  6.513E-06    0   0.5036   age193_m72            0.0000     9.7985E-05    26.4381  -1.0000    64.9536
 66      0.0000     0.0000E+00    0.0000E+00    1.800000E+10  0.05000  4.527E-06    0   0.4945   age213_m72            0.0000     1.0955E-04    27.9061  -1.0000    60.8611


## Synthesis Results - Average & Chains ##

# j      x_j: min, <> & last-chain-values for 1 ...  7 chains
  1      0.0000      0.1807      0.1059      0.4778      0.1070      0.2815      0.0000      1.2499      0.3518
  2      0.0000      0.1735      1.2508      0.4104      0.1313      0.0318      0.2462      1.0328      0.0000
  3      2.3205      0.2202      0.0000      1.2103      0.3538      0.2827      0.8638      0.0000      0.8449
  4      0.0000      0.1817      0.3182      0.2263      0.1573      0.2289      0.9525      0.0199      0.3892
  5      0.1418      0.2351      0.1554      0.2265      0.1899      0.4789      0.0000      0.5898      0.1737
  6      0.0000      0.2414      1.1309      0.7573      0.1129      0.1210      0.2678      0.1136      0.1735
  7      0.0000      0.1578      0.0907      1.5845      0.0000      0.3745      0.2378      0.3008      0.2621
  8      0.0000      0.1895      0.9589      1.0811      0.1873      0.1605      0.0000      0.4819      0.0000
  9      0.0000      0.1771      1.2306      1.3393      0.0000      0.2477      0.6760      0.0782      0.0000
 10      0.0000      0.1988      1.3040      0.0000      0.3860      0.6535      0.1633      0.5052      1.0980
 11      0.0000      0.1766      1.0311      0.0000      0.1664      0.3647      0.0566      0.7174      0.4623
 12      0.0000      0.1361      0.0000      0.4725      0.0000      0.0126      0.1817      0.7529      0.4334
 13      0.0000      0.1585      0.3675      0.0000      0.1060      0.7514      0.1281      0.0000      0.0000
 14     10.9417      0.1935      0.0000      0.5063      0.1829      0.2719      0.0000      0.2009      0.0000
 15      0.1834      0.2744      0.8271      0.0000      0.6559      0.0000      1.0370      0.2646      0.1672
 16      0.0000      0.1879      0.0000      0.0000      0.0887      0.2542      0.1498      1.1323      0.0000
 17      0.0000      0.1519      0.0000      0.0000      0.1296      0.2189      0.0000      0.0000      0.0000
 18      0.0000      0.2142      1.8517      1.8949      0.0908      1.2557      0.0991      0.6374      0.0000
 19      0.0000      0.1931      0.3539      0.4152      0.2906      0.4054      0.7485      0.0806      0.1178
 20      0.0000      0.1945      1.1260      0.5112      0.0000      0.4443      0.3196      0.2115      2.0476
 21      0.0000      0.2117      0.5846      0.0000      0.3287      0.4021      0.3899      0.5105      1.7593
 22      0.0000      0.2105      0.4958      0.9568      0.6086      0.4432      0.6942      0.1222      0.0000
 23      0.0000      0.2589      0.6382      0.0000      0.1334      0.6091      0.0548      0.6271      1.6689
 24      0.0000      0.1383      0.0000      0.8468      0.0000      0.5710      0.9903      0.0649      0.7888
 25      0.7401      0.1881      0.4127      0.9398      0.2375      0.1274      0.6339      0.1262      0.2665
 26      0.0000      0.1297      0.1777      0.0000      0.2118      0.0091      0.0587      0.0000      1.1437
 27      0.5217      0.2437      1.0174      0.0964      0.4372      0.9764      0.2332      0.2505      0.0000
 28      0.0000      0.2371      1.6696      1.2360      0.4126      0.6347      0.4647      0.3156      0.0000
 29      0.0000      0.1703      0.0961      0.1314      0.1725      0.2579      0.2402      0.0401      0.4667
 30      0.0000      0.2077      0.5804      1.3138      0.3883      0.2920      0.0000      0.5973      0.0696
 31      0.0000      0.1413      0.2157      0.4223      0.0000      0.0000      0.6906      0.0126      0.6351
 32      1.4253      0.2036      0.1112      0.5662      0.1794      0.0416      0.4839      0.0168      1.0782
 33      3.2939      0.2618      1.4600      0.5610      0.1695      0.1994      0.6406      0.7268      0.1884
 34      0.0000      0.1949      0.3540      0.7252      0.0720      0.9915      0.3639      0.1961      0.4905
 35      0.0000      0.1719      0.2614      0.2375      0.0626      0.0000      0.0843      0.2560      0.6105
 36     14.8679      0.2630      0.0000      0.0000      0.9421      0.8698      0.1100      0.6457      0.3678
 37      0.0000      0.1563      0.1840      0.6651      0.1899      0.0000      0.7751      0.0000      0.0000
 38      0.0000      0.1726      0.4992      0.3650      0.1198      0.1953      0.3722      0.4852      0.2211
 39      0.0000      0.2109      0.0000      0.0000      0.1245      1.3470      1.0927      0.4623      0.3324
 40      4.3969      0.1644      1.0822      0.5833      0.2387      0.2637      0.0366      0.3864      0.3715
 41      0.0000      0.1783      0.3694      0.0000      0.1901      0.0000      0.3375      0.8321      0.2154
 42      0.0000      0.2354      0.4183      0.0000      0.1322      0.9360      0.2467      0.6668      1.3805
 43      0.0000      0.2475      0.3527      0.0000      0.0000      0.7298      0.4005      0.2631      0.1512
 44      0.0000     60.3973     46.5275     51.5996     66.2512     51.8209     49.6740     54.1763     51.3990
 45      0.0000      0.2617      1.3001      0.1420      0.3683      0.2567      0.9612      0.5287      0.0000
 46      0.0000      0.1686      0.9118      0.1957      0.0681      0.0218      0.0000      0.0000      0.4782
 47      0.0000      0.1281      0.8518      0.0000      0.1568      0.4275      0.0771      0.2511      0.8467
 48      0.0000      0.2031      0.6782      0.0524      0.0646      0.4967      0.4165      0.0000      0.7207
 49      0.0000      0.1591      0.6626      0.0000      0.0000      0.2194      0.2054      0.0000      0.6315
 50      0.0000      3.3059      2.1148      2.9972      3.3404      3.3524      3.1853      3.2471      3.9631
 51     49.2068      0.2328      0.4712      0.4410      0.4689      0.0000      0.8273      0.4517      0.1251
 52      0.0000      0.2108      0.9977      0.6679      0.0000      1.3859      0.0000      0.2051      0.0000
 53      0.0000      0.1532      0.9339      0.3102      0.2060      0.4206      0.0000      0.0000      0.1072
 54      0.0000      0.1803      0.0000      0.6420      0.0000      0.3047      0.6954      0.3080      0.3289
 55      0.0000      0.1929      0.1724      0.0793      0.0000      0.1984      1.5797      0.1829      0.2914
 56      0.0000      0.1735      0.3997      0.2817      0.0000      0.2515      1.1755      0.3725      0.0000
 57      0.0000      0.1399      0.1997      0.0000      0.0779      0.5126      0.1148      0.0449      0.0000
 58      0.0000      0.2325      0.0000      0.0000      0.2420      0.9396      1.0351      0.0000      1.0044
 59      0.0000      2.1642      1.2513      1.3476      1.8875      2.3788      2.3108      2.0382      1.5247
 60      0.0000      0.2875      0.5358      0.3292      0.3424      0.9947      0.6794      0.7597      0.3401
 61      0.0000      0.1784      0.1420      0.9647      0.0000      0.0000      0.3231      0.7667      0.0000
 62      0.0000      0.1709      1.1693      1.0185      0.1816      0.1325      0.0335      0.3525      0.1942
 63      0.0000      0.1533      0.0000      0.6475      0.1102      0.2014      0.0000      0.4307      0.0000
 64      0.0000      0.1290      0.2852      0.0000      0.0522      0.0997      0.8667      0.1518      0.0000
 65      0.0000     20.0318     15.1259     16.2136     15.7019     17.7125     20.6744     19.2572     18.2718
 66      0.0000     13.7451     13.6125     12.7952     12.3268     12.5989     10.9384     11.8841     12.4439

# j      m_j: min, <> & last-chain-values for 1 ...  7 chains
  1  0.0000E+00  4.8190E-04  3.1852E-04  1.4355E-03  3.3408E-04  8.1302E-04  0.0000E+00  3.5837E-03  9.9474E-04
  2  0.0000E+00  1.2626E-04  1.0268E-03  3.3659E-04  1.1194E-04  2.5050E-05  1.9086E-04  8.0836E-04  0.0000E+00
  3  3.4279E-02  2.4005E-04  0.0000E+00  1.4864E-03  4.5160E-04  3.3387E-04  1.0029E-03  0.0000E+00  9.7672E-04
  4  0.0000E+00  1.8648E-04  3.6834E-04  2.6174E-04  1.8912E-04  2.5456E-04  1.0415E-03  2.1912E-05  4.2366E-04
  5  3.7578E-03  4.5973E-04  3.4260E-04  4.9903E-04  4.3474E-04  1.0144E-03  0.0000E+00  1.2401E-03  3.6012E-04
  6  0.0000E+00  7.6546E-04  4.0451E-03  2.7061E-03  4.1931E-04  4.1572E-04  9.0475E-04  3.8737E-04  5.8358E-04
  7  0.0000E+00  7.1666E-04  4.6429E-04  8.1062E-03  0.0000E+00  1.8422E-03  1.1500E-03  1.4685E-03  1.2621E-03
  8  0.0000E+00  1.1896E-03  6.7871E-03  7.6443E-03  1.3763E-03  1.0910E-03  0.0000E+00  3.2521E-03  0.0000E+00
  9  0.0000E+00  1.2723E-03  9.9694E-03  1.0839E-02  0.0000E+00  1.9278E-03  5.1722E-03  6.0439E-04  0.0000E+00
 10  0.0000E+00  1.8757E-03  1.3876E-02  0.0000E+00  4.2643E-03  6.6800E-03  1.6417E-03  5.1262E-03  1.0987E-02
 11  0.0000E+00  3.1332E-03  2.0632E-02  0.0000E+00  3.4573E-03  7.0093E-03  1.0701E-03  1.3687E-02  8.6985E-03
 12  0.0000E+00  3.8309E-03  0.0000E+00  1.4982E-02  0.0000E+00  3.8523E-04  5.4460E-03  2.2786E-02  1.2936E-02
 13  0.0000E+00  1.2573E-02  3.2879E-02  0.0000E+00  9.8424E-03  6.4574E-02  1.0826E-02  0.0000E+00  0.0000E+00
 14  3.9452E+01  5.1477E-02  0.0000E+00  1.5178E-01  5.6987E-02  7.8371E-02  0.0000E+00  5.7488E-02  0.0000E+00
 15  1.0767E+00  1.1885E-01  4.0406E-01  0.0000E+00  3.3268E-01  0.0000E+00  4.7843E-01  1.2323E-01  7.6791E-02
 16  0.0000E+00  1.3763E-01  0.0000E+00  0.0000E+00  7.6029E-02  2.0170E-01  1.1686E-01  8.9173E-01  0.0000E+00
 17  0.0000E+00  1.4434E-01  0.0000E+00  0.0000E+00  1.4422E-01  2.2530E-01  0.0000E+00  0.0000E+00  0.0000E+00
 18  0.0000E+00  5.0474E-04  4.9205E-03  5.0304E-03  2.5046E-04  3.2051E-03  2.4873E-04  1.6150E-03  0.0000E+00
 19  0.0000E+00  1.8259E-04  3.7747E-04  4.4236E-04  3.2185E-04  4.1528E-04  7.5394E-04  8.1960E-05  1.1814E-04
 20  0.0000E+00  2.0082E-04  1.3111E-03  5.9469E-04  0.0000E+00  4.9697E-04  3.5142E-04  2.3482E-04  2.2420E-03
 21  0.0000E+00  2.6531E-04  8.2623E-04  0.0000E+00  4.8239E-04  5.4590E-04  5.2049E-04  6.8796E-04  2.3383E-03
 22  0.0000E+00  4.4618E-04  1.1850E-03  2.2844E-03  1.5102E-03  1.0175E-03  1.5670E-03  2.7841E-04  0.0000E+00
 23  0.0000E+00  7.4094E-04  2.0599E-03  0.0000E+00  4.4707E-04  1.8882E-03  1.6701E-04  1.9296E-03  5.0653E-03
 24  0.0000E+00  5.8895E-04  0.0000E+00  4.0622E-03  0.0000E+00  2.6337E-03  4.4908E-03  2.9722E-04  3.5616E-03
 25  5.8877E-02  1.1043E-03  2.7324E-03  6.2163E-03  1.6324E-03  8.0991E-04  3.9637E-03  7.9639E-04  1.6594E-03
 26  0.0000E+00  1.2730E-03  1.9665E-03  0.0000E+00  2.4341E-03  9.6805E-05  6.1356E-04  0.0000E+00  1.1903E-02
 27  1.3888E-01  4.7859E-03  2.2538E-02  2.1329E-03  1.0054E-02  2.0776E-02  4.8787E-03  5.2915E-03  0.0000E+00
 28  0.0000E+00  1.3518E-02  1.0734E-01  7.9377E-02  2.7542E-02  3.9190E-02  2.8215E-02  1.9343E-02  0.0000E+00
 29  0.0000E+00  1.6918E-02  1.0762E-02  1.4699E-02  2.0057E-02  2.7749E-02  2.5410E-02  4.2838E-03  4.9160E-02
 30  0.0000E+00  4.3094E-02  1.3584E-01  3.0716E-01  9.4345E-02  6.5637E-02  0.0000E+00  1.3328E-01  1.5306E-02
 31  0.0000E+00  5.1581E-02  8.8782E-02  1.7368E-01  0.0000E+00  0.0000E+00  2.6849E-01  4.9398E-03  2.4586E-01
 32  9.4869E+00  1.0000E-01  6.1576E-02  3.1330E-01  1.0319E-01  2.2142E-02  2.5315E-01  8.8564E-03  5.6161E-01
 33  4.8533E+01  2.8462E-01  1.7903E+00  6.8725E-01  2.1575E-01  2.3490E-01  7.4187E-01  8.4976E-01  2.1728E-01
 34  0.0000E+00  2.8703E-01  5.8791E-01  1.2030E+00  1.2406E-01  1.5815E+00  5.7069E-01  3.1042E-01  7.6586E-01
 35  0.0000E+00  3.2480E-04  5.5699E-04  5.0558E-04  1.3842E-04  0.0000E+00  1.6970E-04  5.1998E-04  1.2233E-03
 36  1.5401E-01  2.0105E-04  0.0000E+00  0.0000E+00  8.4316E-04  7.2025E-04  8.9522E-05  5.3071E-04  2.9814E-04
 37  0.0000E+00  1.2924E-04  1.7154E-04  6.1957E-04  1.8383E-04  0.0000E+00  6.8256E-04  0.0000E+00  0.0000E+00
 38  0.0000E+00  3.8665E-04  1.2610E-03  9.2104E-04  3.1414E-04  4.7389E-04  8.8798E-04  1.1685E-03  5.2521E-04
 39  0.0000E+00  6.8004E-04  0.0000E+00  0.0000E+00  4.7000E-04  4.7059E-03  3.7533E-03  1.6031E-03  1.1370E-03
 40  3.1061E-01  8.5681E-04  6.3626E-03  3.4257E-03  1.4570E-03  1.4893E-03  2.0329E-04  2.1657E-03  2.0538E-03
 41  0.0000E+00  1.4456E-03  3.3768E-03  0.0000E+00  1.8040E-03  0.0000E+00  2.9145E-03  7.2535E-03  1.8521E-03
 42  0.0000E+00  3.5041E-03  7.0209E-03  0.0000E+00  2.3033E-03  1.5091E-02  3.9105E-03  1.0672E-02  2.1790E-02
 43  0.0000E+00  5.3774E-03  8.6442E-03  0.0000E+00  0.0000E+00  1.7178E-02  9.2705E-03  6.1487E-03  3.4839E-03
 44  0.0000E+00  2.2597E+00  1.9632E+00  2.1751E+00  2.9024E+00  2.1003E+00  1.9795E+00  2.1796E+00  2.0395E+00
 45  0.0000E+00  1.9428E-02  1.0884E-01  1.1879E-02  3.2016E-02  2.0645E-02  7.6000E-02  4.2201E-02  0.0000E+00
 46  0.0000E+00  2.3008E-02  1.4032E-01  3.0092E-02  1.0878E-02  3.2169E-03  0.0000E+00  0.0000E+00  6.9196E-02
 47  0.0000E+00  3.5431E-02  2.6563E-01  0.0000E+00  5.0773E-02  1.2804E-01  2.2702E-02  7.4657E-02  2.4827E-01
 48  0.0000E+00  9.9057E-02  3.7298E-01  2.8815E-02  3.6863E-02  2.6239E-01  2.1631E-01  0.0000E+00  3.7269E-01
 49  0.0000E+00  1.7637E-01  8.2816E-01  0.0000E+00  0.0000E+00  2.6335E-01  2.4249E-01  0.0000E+00  7.4227E-01
 50  0.0000E+00  6.7857E+00  4.8956E+00  6.9315E+00  8.0286E+00  7.4544E+00  6.9642E+00  7.1669E+00  8.6272E+00
 51  7.5030E-01  2.6191E-04  5.9790E-04  5.5903E-04  6.1770E-04  0.0000E+00  9.9149E-04  5.4656E-04  1.4932E-04
 52  0.0000E+00  1.2156E-04  6.4878E-04  4.3392E-04  0.0000E+00  8.6566E-04  0.0000E+00  1.2719E-04  0.0000E+00
 53  0.0000E+00  1.3309E-04  9.1477E-04  3.0352E-04  2.0953E-04  3.9577E-04  0.0000E+00  0.0000E+00  9.8716E-05
 54  0.0000E+00  3.2088E-04  0.0000E+00  1.2872E-03  0.0000E+00  5.8739E-04  1.3181E-03  5.8937E-04  6.2075E-04
 55  0.0000E+00  5.2859E-04  5.3266E-04  2.4480E-04  0.0000E+00  5.8890E-04  4.6106E-03  5.3884E-04  8.4672E-04
 56  0.0000E+00  9.4121E-04  2.4450E-03  1.7214E-03  0.0000E+00  1.4777E-03  6.7905E-03  2.1723E-03  0.0000E+00
 57  0.0000E+00  1.0069E-03  1.6209E-03  0.0000E+00  6.5652E-04  3.9975E-03  8.7993E-04  3.4745E-04  0.0000E+00
 58  0.0000E+00  2.8309E-03  0.0000E+00  0.0000E+00  3.4496E-03  1.2393E-02  1.3424E-02  0.0000E+00  1.2970E-02
 59  0.0000E+00  5.6707E-02  3.6978E-02  3.9784E-02  5.7913E-02  6.7524E-02  6.4494E-02  5.7430E-02  4.2372E-02
 60  0.0000E+00  1.3995E-02  2.9410E-02  1.8053E-02  1.9515E-02  5.2444E-02  3.5218E-02  3.9757E-02  1.7553E-02
 61  0.0000E+00  1.8975E-02  1.7026E-02  1.1558E-01  0.0000E+00  0.0000E+00  3.6594E-02  8.7669E-02  0.0000E+00
 62  0.0000E+00  3.3144E-02  2.5570E-01  2.2250E-01  4.1234E-02  2.7839E-02  6.9143E-03  7.3492E-02  3.9943E-02
 63  0.0000E+00  5.9140E-02  0.0000E+00  2.8144E-01  4.9789E-02  8.4163E-02  0.0000E+00  1.7867E-01  0.0000E+00
 64  0.0000E+00  1.3764E-01  3.4315E-01  0.0000E+00  6.5157E-02  1.1527E-01  9.8496E-01  1.7422E-01  0.0000E+00
 65  0.0000E+00  4.5181E+01  3.8476E+01  4.1202E+01  4.1469E+01  4.3278E+01  4.9668E+01  4.6705E+01  4.3707E+01
 66  0.0000E+00  4.3796E+01  4.8917E+01  4.5934E+01  4.5991E+01  4.3488E+01  3.7124E+01  4.0718E+01  4.2051E+01

# AV, chi2 & Mass for <> & i_chain = 1 ...  7 solutions
AV       0.8498     -0.9955     -1.0000     -1.0000     -1.0000     -1.0000     -1.0000     -1.0000     -1.0000
chi2 3.5161E-05  6.2223E-05  5.5888E-05  5.5754E-05  5.4934E-05  5.6961E-05  5.8222E-05  5.8261E-05  5.8355E-05
Mass 1.5346E-13  1.7443E-13  1.5373E-13  1.5389E-13  1.4807E-13  1.6005E-13  1.6278E-13  1.6124E-13  1.6348E-13
-304.65                                  [v0_min (km/s) before EX0s...]
 284.50                                  [vd_min (km/s) before EX0s...]


## Synthetic spectrum (Best Model) ##l_obs f_obs f_syn wei
 3478    [Nl_obs]
 3741.00    0.56808   0.83080    0.000
 3742.00    0.53188   0.81755    0.000
 3743.00    0.38926   0.80448    0.000
 3744.00    0.26690   0.79252    0.000
 3745.00    0.15633   0.78343   -1.000
 3746.00    0.16937   0.77918   -1.000
 3747.00    0.24518   0.78032   -1.000
 3748.00    0.36363   0.78562   -1.000
 3749.00    0.50084   0.79349   -1.000
 3750.00    0.42094   0.80413   -1.000
 3751.00    0.25908   0.81597   -1.000
 3752.00    0.20185   0.82583   -1.000
 3753.00    0.17814   0.83411   -1.000
 3754.00    0.36801   0.84202   -1.000
 3755.00    0.61511   0.84745   -1.000
 3756.00    0.78194   0.85072   -1.000
 3757.00    0.93115   0.85373   -1.000
 3758.00    0.91835   0.85344   -1.000
 3759.00    0.87728   0.84971   -1.000
 3760.00    0.71143   0.84470   -1.000
 3761.00    0.52899   0.83596   -1.000
 3762.00    0.48197   0.82319   -1.000
 3763.00    0.44767   0.80987   -1.000
 3764.00    0.51737   0.79779   -1.000
 3765.00    0.59308   0.78678   -1.000
 3766.00    0.55827   0.77917   -1.000
 3767.00    0.52125   0.77873   -1.000
 3768.00    0.53545   0.78443   -1.000
 3769.00    0.54669   0.79389   -1.000
 3770.00    0.48608   0.80843   -1.000
 3771.00    0.42889   0.82711   -1.000
 3772.00    0.41647   0.84555   -1.000
 3773.00    0.41453   0.86279   -1.000
 3774.00    0.50472   0.87903   -1.000
 3775.00    0.59361   0.89259   -1.000
 3776.00    0.67411   0.90293   -1.000
 3777.00    0.69392   0.91035   -1.000
 3778.00    0.40647   0.91489   -1.000
 3779.00    0.20869   0.91685   -1.000
 3780.00    0.37793   0.91624   -1.000
 3781.00    0.55443   0.91317   -1.000
 3782.00    0.75553   0.90806   -1.000
 3783.00    0.90143   0.90085   -1.000
 3784.00    0.88946   0.89162   -1.000
 3785.00    0.81289   0.88047   -1.000
 3786.00    0.57847   0.86676   -1.000
 3787.00    0.38581   0.85087   -1.000
 3788.00    0.28116   0.83390   -1.000
 3789.00    0.22497   0.81508   -1.000
 3790.00    0.25754   0.79532   -1.000
 3791.00    0.34918   0.77830   -1.000
 3792.00    0.53538   0.76485   -1.000
 3793.00    0.64526   0.75528   -1.000
 3794.00    0.64792   0.75285   -1.000
 3795.00    0.54798   0.75848   -1.000
 3796.00    0.32121   0.76961   -1.000
 3797.00    0.21327   0.78526   -1.000
 3798.00    0.23480   0.80484   -1.000
 3799.00    0.28656   0.82522   -1.000
 3800.00    0.36738   0.84398   -1.000
 3801.00    0.43842   0.86051   -1.000
 3802.00    0.50117   0.87430   -1.000
 3803.00    0.58196   0.88519   -1.000
 3804.00    0.67621   0.89332   -1.000
 3805.00    0.67146   0.89857   -1.000
 3806.00    0.60181   0.90163   -1.000
 3807.00    0.49986   0.90298   -1.000
 3808.00    0.37938   0.90199   -1.000
 3809.00    0.31014   0.89912   -1.000
 3810.00    0.26651   0.89548   -1.000
 3811.00    0.11562   0.89037   -1.000
 3812.00   -0.08166   0.88402    0.000
 3813.00   -0.02590   0.87882    0.000
 3814.00    0.12372   0.87414   -1.000
 3815.00    0.27615   0.86893   -1.000
 3816.00    0.42948   0.86613   -1.000
 3817.00    0.35729   0.86535   -1.000
 3818.00    0.22595   0.86351   -1.000
 3819.00    0.13685   0.86198   -1.000
 3820.00    0.05680   0.86069   -1.000
 3821.00    0.08467   0.85685   -1.000
 3822.00    0.13086   0.85033   -1.000
 3823.00    0.16115   0.84103   -1.000
 3824.00    0.18939   0.82805   -1.000
 3825.00    0.11329   0.81206   -1.000
 3826.00    0.02782   0.79384   -1.000
 3827.00    0.15557   0.77345   -1.000
 3828.00    0.29478   0.75319   -1.000
 3829.00    0.34378   0.73628   -1.000
 3830.00    0.39030   0.72298   -1.000
 3831.00    0.37988   0.71508   -1.000
 3832.00    0.37014   0.71601   -1.000
 3833.00    0.37544   0.72388   -1.000
 3834.00    0.37765   0.73686   -1.000
 3835.00    0.34148   0.75585   -1.000
 3836.00    0.31868   0.77768   -1.000
 3837.00    0.40876   0.79915   -1.000
 3838.00    0.49989   0.81994   -1.000
 3839.00    0.59758   0.83850   -1.000
 3840.00    0.68202   0.85393   -1.000
 3841.00    0.70109   0.86645   -1.000
 3842.00    0.69246   0.87597   -1.000
 3843.00    0.57295   0.88297   -1.000
 3844.00    0.46313   0.88803   -1.000
 3845.00    0.38554   0.89123   -1.000
 3846.00    0.30145   0.89300   -1.000
 3847.00    0.19911   0.89409    0.000
 3848.00    0.10904   0.89415    0.000
 3849.00    0.04842   0.89311    0.000
 3850.00    0.03676   0.89206    0.000
 3851.00    0.12665   0.89066    0.000
 3852.00    0.19671   0.88864    0.000
 3853.00    0.23100   0.88727    0.000
 3854.00    0.36416   0.88638    0.000
 3855.00    0.65322   0.88552    0.000
 3856.00    0.72483   0.88554    0.000
 3857.00    0.49538   0.88615    0.000
 3858.00    0.33114   0.88668    0.000
 3859.00    0.24633   0.88728    0.000
 3860.00    0.32434   0.88755    0.000
 3861.00    0.57722   0.88743    0.000
 3862.00    0.66853   0.88698    0.000
 3863.00    0.60674   0.88549    0.000
 3864.00    0.52002   0.88361    0.000
 3865.00    0.41249   0.88178    0.000
 3866.00    0.38274   0.87932    0.000
 3867.00    0.41020   0.87666    0.000
 3868.00    0.47815   0.87411    0.000
 3869.00    0.57227   0.87170    0.000
 3870.00    0.67973   0.86918    0.000
 3871.00    0.79472   0.86589    0.000
 3872.00    0.74182   0.86247    0.000
 3873.00    0.60633   0.85853    0.000
 3874.00    0.59409   0.85248    0.000
 3875.00    0.63427   0.84468    0.000
 3876.00    0.59619   0.83527    0.000
 3877.00    0.52961   0.82283    0.000
 3878.00    0.50030   0.80709    0.000
 3879.00    0.48248   0.78943    0.000
 3880.00    0.49657   0.77057    0.000
 3881.00    0.51885   0.75001   -1.000
 3882.00    0.46678   0.73090   -1.000
 3883.00    0.39915   0.71720   -1.000
 3884.00    0.32548   0.70753   -1.000
 3885.00    0.25081   0.70372   -1.000
 3886.00    0.75246   0.70956    0.161
 3887.00    1.32549   0.72132    0.076
 3888.00    1.73254   0.73659    0.074
 3889.00    2.12538   0.75673    0.075
 3890.00    1.66608   0.77812    0.076
 3891.00    1.16431   0.79726    0.076
 3892.00    1.07449   0.81476    0.075
 3893.00    0.99639   0.83020    0.074
 3894.00    1.23961   0.84220    0.074
 3895.00    1.46539   0.85133    0.074
 3896.00    1.33456   0.85885    0.073
 3897.00    1.19287   0.86487    0.073
 3898.00    0.92275   0.86892    0.070
 3899.00    0.66075   0.87227    0.067
 3900.00    0.46485   0.87588    0.065
 3901.00    0.32907   0.87844    0.062
 3902.00    0.56046   0.88059    0.061
 3903.00    0.72682   0.88338    0.060
 3904.00    0.58021   0.88557    0.058
 3905.00    0.51181   0.88718    0.058
 3906.00    0.74966   0.88866    0.058
 3907.00    0.96870   0.88941    0.067
 3908.00    1.12642   0.88932    0.158
 3909.00    1.16476   0.88826   -1.000
 3910.00    0.87392   0.88634   -1.000
 3911.00    0.71628   0.88360   -1.000
 3912.00    0.87320   0.87970   -1.000
 3913.00    0.94551   0.87514   -1.000
 3914.00    0.84517   0.87035   -1.000
 3915.00    0.64536   0.86508   -1.000
 3916.00    0.26887   0.85957   -1.000
 3917.00    0.31754   0.85473   -1.000
 3918.00    1.02683   0.85032   -1.000
 3919.00    1.50355   0.84546   -1.000
 3920.00    1.66297   0.84129   -1.000
 3921.00    1.48512   0.83756   -1.000
 3922.00    0.90213   0.83270   -1.000
 3923.00    0.56734   0.82788   -1.000
 3924.00    0.49544   0.82310   -1.000
 3925.00    0.55659   0.81755   -1.000
 3926.00    0.74203   0.81238   -1.000
 3927.00    0.88865   0.80791   -1.000
 3928.00    1.00328   0.80461   -1.000
 3929.00    0.77215   0.80324   -1.000
 3930.00    0.29037   0.80369   -1.000
 3931.00    0.34158   0.80645   -1.000
 3932.00    0.73200   0.81142   -1.000
 3933.00    0.65243   0.81751   -1.000
 3934.00    0.31130   0.82411   -1.000
 3935.00    0.29846   0.83118   -1.000
 3936.00    0.44453   0.83781   -1.000
 3937.00    0.58667   0.84293   -1.000
 3938.00    0.72717   0.84747   -1.000
 3939.00    0.80674   0.85166   -1.000
 3940.00    0.86453   0.85424   -1.000
 3941.00    0.97174   0.85642   -1.000
 3942.00    1.09389   0.85907   -1.000
 3943.00    1.22335   0.86068   -1.000
 3944.00    1.35465   0.86177   -1.000
 3945.00    1.33429   0.86316   -1.000
 3946.00    1.28301   0.86368   -1.000
 3947.00    1.43852   0.86343   -1.000
 3948.00    1.62715   0.86263   -1.000
 3949.00    1.18139   0.86086   -1.000
 3950.00    0.65989   0.85823   -1.000
 3951.00    0.64800   0.85421   -1.000
 3952.00    0.67760   0.84880   -1.000
 3953.00    0.41217   0.84211   -1.000
 3954.00    0.13318   0.83278   -1.000
 3955.00    0.33048   0.82150   -1.000
 3956.00    0.53411   0.80853   -1.000
 3957.00    0.75163   0.79166   -1.000
 3958.00    0.96109   0.77274   -1.000
 3959.00    1.01796   0.75278   -1.000
 3960.00    1.06768   0.72955    0.000
 3961.00    1.03689   0.70629    0.000
 3962.00    0.98507   0.68498    0.000
 3963.00    0.76793   0.66503    0.000
 3964.00    0.56145   0.65072    0.000
 3965.00    0.41831   0.64335    0.000
 3966.00    0.35534   0.64223    0.000
 3967.00    0.66877   0.65020    0.000
 3968.00    1.00196   0.66551    0.000
 3969.00    1.41085   0.68486    0.000
 3970.00    1.67832   0.70858    0.000
 3971.00    1.49375   0.73394    0.000
 3972.00    1.29816   0.75740    0.000
 3973.00    1.07272   0.77914    0.000
 3974.00    0.86200   0.79839    0.000
 3975.00    0.68547   0.81373    0.000
 3976.00    0.69874   0.82611    0.000
 3977.00    1.09323   0.83621    0.000
 3978.00    1.35001   0.84386    0.000
 3979.00    1.36591   0.84986    0.000
 3980.00    1.48991   0.85499    0.000
 3981.00    1.77942   0.85929   -1.000
 3982.00    1.65909   0.86271   -1.000
 3983.00    0.98759   0.86572   -1.000
 3984.00    0.65132   0.86849    0.251
 3985.00    0.71204   0.87037    0.079
 3986.00    0.79099   0.87170    0.058
 3987.00    0.88897   0.87271    0.058
 3988.00    0.90536   0.87293    0.056
 3989.00    0.84660   0.87288    0.055
 3990.00    0.82492   0.87252    0.054
 3991.00    0.83333   0.87173    0.055
 3992.00    0.92623   0.87146    0.055
 3993.00    1.07950   0.87113    0.056
 3994.00    1.08431   0.87040    0.055
 3995.00    0.99604   0.87032    0.054
 3996.00    1.02676   0.87013    0.054
 3997.00    1.12270   0.86915    0.054
 3998.00    1.06356   0.86824    0.053
 3999.00    0.93057   0.86721    0.052
 4000.00    0.98510   0.86582    0.052
 4001.00    1.11670   0.86447    0.053
 4002.00    0.99624   0.86345    0.052
 4003.00    0.78724   0.86322    0.051
 4004.00    0.76601   0.86344    0.051
 4005.00    0.80041   0.86395    0.051
 4006.00    0.89124   0.86558    0.051
 4007.00    0.99593   0.86754    0.051
 4008.00    1.02659   0.86905    0.051
 4009.00    1.04253   0.87095    0.052
 4010.00    1.00000   0.87245    0.051
 4011.00    0.94839   0.87288    0.051
 4012.00    0.78959   0.87282    0.050
 4013.00    0.61848   0.87143    0.049
 4014.00    0.88167   0.86860    0.051
 4015.00    1.17844   0.86478    0.052
 4016.00    1.11712   0.85923    0.052
 4017.00    1.04072   0.85267    0.052
 4018.00    0.97421   0.84579    0.052
 4019.00    0.91316   0.83865    0.051
 4020.00    1.08701   0.83288    0.052
 4021.00    1.25901   0.82873    0.052
 4022.00    1.39828   0.82615    0.053
 4023.00    1.50529   0.82677    0.054
 4024.00    1.26517   0.82930    0.052
 4025.00    1.04910   0.83263    0.051
 4026.00    1.01551   0.83775    0.052
 4027.00    0.98064   0.84334    0.053
 4028.00    0.93833   0.84834    0.053
 4029.00    0.86961   0.85324    0.053
 4030.00    0.67990   0.85787    0.052
 4031.00    0.55433   0.86171    0.052
 4032.00    0.66935   0.86489    0.050
 4033.00    0.74608   0.86737    0.049
 4034.00    0.70273   0.86869    0.050
 4035.00    0.73072   0.86921    0.050
 4036.00    0.94848   0.86880    0.050
 4037.00    1.10042   0.86736    0.051
 4038.00    1.10206   0.86575    0.051
 4039.00    1.11255   0.86395    0.052
 4040.00    1.14055   0.86228    0.052
 4041.00    1.17860   0.86130    0.052
 4042.00    1.23397   0.86087    0.052
 4043.00    1.26084   0.86120    0.052
 4044.00    1.24470   0.86185    0.051
 4045.00    1.09836   0.86241    0.051
 4046.00    0.77940   0.86319    0.050
 4047.00    0.71725   0.86348    0.050
 4048.00    0.95493   0.86287    0.051
 4049.00    1.09189   0.86211    0.051
 4050.00    1.12517   0.86102    0.051
 4051.00    1.02179   0.85933    0.051
 4052.00    0.79432   0.85783    0.049
 4053.00    0.79528   0.85637    0.049
 4054.00    0.97905   0.85456    0.049
 4055.00    1.06999   0.85296    0.048
 4056.00    1.09556   0.85109    0.048
 4057.00    1.01873   0.84869    0.048
 4058.00    0.87867   0.84616    0.048
 4059.00    0.81046   0.84302    0.048
 4060.00    0.78104   0.83941    0.048
 4061.00    0.86289   0.83589    0.048
 4062.00    0.99690   0.83213    0.049
 4063.00    0.97748   0.82841    0.048
 4064.00    0.89607   0.82563    0.047
 4065.00    0.85266   0.82362    0.047
 4066.00    0.82235   0.82210    0.047
 4067.00    0.79122   0.82181    0.047
 4068.00    0.75984   0.82233    0.048
 4069.00    0.73944   0.82330    0.048
 4070.00    0.72166   0.82499    0.048
 4071.00    0.72256   0.82660    0.048
 4072.00    0.72707   0.82842    0.048
 4073.00    0.60559   0.83071    0.047
 4074.00    0.46512   0.83243    0.047
 4075.00    0.82794   0.83409    0.048
 4076.00    1.24644   0.83574    0.049
 4077.00    1.12498   0.83656    0.048
 4078.00    0.96398   0.83695    0.048
 4079.00    0.76462   0.83650    0.048
 4080.00    0.56379   0.83518    0.047
 4081.00    0.59761   0.83357    0.047
 4082.00    0.63774   0.83095    0.047
 4083.00    0.86670   0.82803    0.048
 4084.00    1.06721   0.82466    0.048
 4085.00    0.79905   0.81984    0.047
 4086.00    0.55444   0.81477    0.047
 4087.00    0.55227   0.80775    0.047
 4088.00    0.59213   0.79756    0.047
 4089.00    0.94054   0.78600    0.048
 4090.00    1.25246   0.77152    0.049
 4091.00    1.35974   0.75365    0.050
 4092.00    1.38696   0.73456    0.000
 4093.00    1.05597   0.71479    0.000
 4094.00    0.86721   0.69589    0.000
 4095.00    1.20084   0.67990    0.000
 4096.00    1.40288   0.66824    0.000
 4097.00    1.20023   0.66256    0.000
 4098.00    1.04889   0.66365    0.000
 4099.00    1.03164   0.67132    0.000
 4100.00    1.08571   0.68395    0.000
 4101.00    1.29994   0.70059    0.000
 4102.00    1.38619   0.72002    0.000
 4103.00    1.22344   0.73911    0.000
 4104.00    1.07998   0.75675    0.000
 4105.00    0.96927   0.77262    0.000
 4106.00    0.90064   0.78524    0.000
 4107.00    0.89457   0.79498    0.000
 4108.00    0.92966   0.80253    0.000
 4109.00    1.01854   0.80733    0.000
 4110.00    1.07469   0.81064    0.000
 4111.00    1.09316   0.81287    0.000
 4112.00    0.98666   0.81373    0.000
 4113.00    0.75329   0.81497    0.045
 4114.00    0.75317   0.81591    0.045
 4115.00    0.96187   0.81647    0.045
 4116.00    0.97450   0.81844    0.045
 4117.00    0.83244   0.82041    0.044
 4118.00    0.76033   0.82226    0.044
 4119.00    0.73677   0.82463    0.044
 4120.00    0.78427   0.82657    0.044
 4121.00    0.87501   0.82809    0.044
 4122.00    0.88432   0.82907    0.044
 4123.00    0.85035   0.82930    0.045
 4124.00    1.05033   0.82914    0.045
 4125.00    1.35818   0.82871    0.045
 4126.00    1.33562   0.82822    0.046
 4127.00    1.18186   0.82799    0.046
 4128.00    1.00925   0.82808    0.046
 4129.00    0.83026   0.82872    0.045
 4130.00    0.83922   0.82953    0.045
 4131.00    0.90165   0.83010    0.045
 4132.00    0.96146   0.83082    0.045
 4133.00    1.02066   0.83075    0.045
 4134.00    1.04852   0.82962    0.045
 4135.00    1.07048   0.82821    0.045
 4136.00    1.17496   0.82610    0.045
 4137.00    1.29148   0.82349    0.046
 4138.00    1.24833   0.82129    0.046
 4139.00    1.18821   0.81955    0.046
 4140.00    1.15627   0.81845    0.046
 4141.00    1.12627   0.81851    0.046
 4142.00    0.96371   0.81901    0.045
 4143.00    0.79657   0.81980    0.044
 4144.00    0.85922   0.82130    0.044
 4145.00    0.91852   0.82250    0.045
 4146.00    0.85214   0.82312    0.045
 4147.00    0.79759   0.82375    0.046
 4148.00    0.92598   0.82412    0.045
 4149.00    1.05414   0.82430    0.045
 4150.00    1.17994   0.82478    0.046
 4151.00    1.28481   0.82539    0.047
 4152.00    1.24107   0.82603    0.047
 4153.00    1.15315   0.82699    0.047
 4154.00    0.82411   0.82813    0.045
 4155.00    0.57525   0.82892    0.044
 4156.00    0.67683   0.82957    0.044
 4157.00    0.74899   0.83007    0.045
 4158.00    0.71532   0.82999    0.044
 4159.00    0.74449   0.82948    0.043
 4160.00    0.96327   0.82870    0.043
 4161.00    1.12010   0.82756    0.043
 4162.00    1.11785   0.82606    0.043
 4163.00    1.02273   0.82422    0.044
 4164.00    0.72247   0.82240    0.043
 4165.00    0.60168   0.82062    0.043
 4166.00    0.82467   0.81873    0.043
 4167.00    0.93733   0.81711    0.043
 4168.00    0.86561   0.81584    0.043
 4169.00    0.90847   0.81498    0.043
 4170.00    1.11918   0.81465    0.043
 4171.00    1.14437   0.81461    0.043
 4172.00    0.93062   0.81484    0.042
 4173.00    0.79744   0.81542    0.042
 4174.00    0.75570   0.81606    0.043
 4175.00    0.74211   0.81642    0.043
 4176.00    0.75668   0.81668    0.042
 4177.00    0.76395   0.81650    0.042
 4178.00    0.76478   0.81581    0.042
 4179.00    0.72953   0.81545    0.042
 4180.00    0.66623   0.81456    0.041
 4181.00    0.67297   0.81339    0.041
 4182.00    0.72761   0.81296    0.041
 4183.00    0.75113   0.81234    0.041
 4184.00    0.75600   0.81211    0.041
 4185.00    0.71760   0.81201    0.041
 4186.00    0.65657   0.81122    0.041
 4187.00    0.61689   0.81067    0.041
 4188.00    0.58690   0.80945    0.041
 4189.00    0.69172   0.80687    0.041
 4190.00    0.84914   0.80369    0.041
 4191.00    0.94908   0.80006    0.042
 4192.00    1.02992   0.79613    0.042
 4193.00    0.93567   0.79228    0.042
 4194.00    0.79260   0.78920    0.042
 4195.00    0.81617   0.78746    0.042
 4196.00    0.87796   0.78722    0.042
 4197.00    0.80693   0.78856    0.042
 4198.00    0.71149   0.79098    0.041
 4199.00    0.72784   0.79455    0.041
 4200.00    0.76000   0.79890    0.042
 4201.00    0.80965   0.80288    0.042
 4202.00    0.86108   0.80671    0.042
 4203.00    0.87478   0.80981    0.041
 4204.00    0.88603   0.81189    0.040
 4205.00    0.88880   0.81348    0.040
 4206.00    0.89153   0.81397    0.041
 4207.00    1.03198   0.81408    0.041
 4208.00    1.16074   0.81418    0.041
 4209.00    0.94616   0.81364    0.041
 4210.00    0.75105   0.81338    0.040
 4211.00    0.83927   0.81342    0.041
 4212.00    0.91228   0.81324    0.041
 4213.00    0.84137   0.81318    0.040
 4214.00    0.78891   0.81266    0.040
 4215.00    0.86322   0.81157    0.040
 4216.00    0.91441   0.81009    0.040
 4217.00    0.84277   0.80778    0.040
 4218.00    0.79022   0.80483    0.040
 4219.00    0.81922   0.80202    0.040
 4220.00    0.83513   0.79917    0.041
 4221.00    0.80491   0.79661    0.040
 4222.00    0.78616   0.79550    0.040
 4223.00    0.80135   0.79520    0.039
 4224.00    0.74840   0.79549    0.039
 4225.00    0.52344   0.79673    0.039
 4226.00    0.40860   0.79806    0.039
 4227.00    0.53305   0.79945    0.039
 4228.00    0.67469   0.80096    0.039
 4229.00    0.84872   0.80175    0.039
 4230.00    0.94436   0.80209    0.038
 4231.00    0.91095   0.80255    0.038
 4232.00    0.89242   0.80270    0.038
 4233.00    0.89536   0.80295    0.038
 4234.00    0.81766   0.80352    0.037
 4235.00    0.63757   0.80408    0.037
 4236.00    0.48636   0.80468    0.036
 4237.00    0.36746   0.80530    0.036
 4238.00    0.37177   0.80581    0.036
 4239.00    0.49766   0.80585    0.036
 4240.00    0.58888   0.80551    0.036
 4241.00    0.64993   0.80465    0.036
 4242.00    0.64018   0.80348    0.036
 4243.00    0.57616   0.80246    0.037
 4244.00    0.60041   0.80093    0.037
 4245.00    0.68417   0.79953    0.038
 4246.00    0.76139   0.79876    0.038
 4247.00    0.83476   0.79785    0.039
 4248.00    0.67309   0.79732    0.039
 4249.00    0.39040   0.79692    0.039
 4250.00    0.26094   0.79673    0.039
 4251.00    0.19985   0.79711    0.039
 4252.00    0.38255   0.79689    0.038
 4253.00    0.65872   0.79671    0.038
 4254.00    0.89209   0.79680    0.038
 4255.00    1.11152   0.79675    0.038
 4256.00    1.05012   0.79706    0.038
 4257.00    0.91207   0.79711    0.038
 4258.00    0.99587   0.79675    0.038
 4259.00    1.12939   0.79650    0.038
 4260.00    1.06903   0.79564    0.038
 4261.00    0.97399   0.79399    0.038
 4262.00    0.74345   0.79245    0.038
 4263.00    0.49437   0.79049    0.038
 4264.00    0.48109   0.78809    0.038
 4265.00    0.49085   0.78562    0.038
 4266.00    0.50139   0.78327    0.038
 4267.00    0.51197   0.78206    0.037
 4268.00    0.56134   0.78121    0.037
 4269.00    0.61253   0.78060    0.038
 4270.00    0.81329   0.78104    0.038
 4271.00    1.00584   0.78187    0.038
 4272.00    0.98132   0.78328    0.038
 4273.00    0.94811   0.78453    0.039
 4274.00    0.79538   0.78507    0.039
 4275.00    0.66281   0.78596    0.038
 4276.00    0.71334   0.78616    0.039
 4277.00    0.73269   0.78578    0.040
 4278.00    0.54438   0.78517    0.038
 4279.00    0.42370   0.78359    0.038
 4280.00    0.65319   0.78208    0.038
 4281.00    0.83585   0.78072    0.038
 4282.00    0.82298   0.77905   -2.000
 4283.00    0.86051   0.77731   -2.000
 4284.00    1.07199   0.77578   -2.000
 4285.00    1.20640   0.77473   -2.000
 4286.00    1.11681   0.77412   -2.000
 4287.00    0.99189   0.77356   -2.000
 4288.00    0.77932   0.77218   -2.000
 4289.00    0.64637   0.77102   -2.000
 4290.00    0.68363   0.76987   -2.000
 4291.00    0.74237   0.76780   -2.000
 4292.00    0.84102   0.76549   -2.000
 4293.00    0.87934   0.76228   -2.000
 4294.00    0.81980   0.75901   -2.000
 4295.00    0.76907   0.75645   -2.000
 4296.00    0.73088   0.75342   -2.000
 4297.00    0.71049   0.75063   -2.000
 4298.00    0.71236   0.74868    0.038
 4299.00    0.67313   0.74705    0.038
 4300.00    0.58854   0.74617    0.038
 4301.00    0.55079   0.74559    0.038
 4302.00    0.55861   0.74526    0.038
 4303.00    0.52198   0.74603    0.038
 4304.00    0.44722   0.74755    0.038
 4305.00    0.52288   0.74971    0.038
 4306.00    0.71222   0.75258    0.038
 4307.00    0.80263   0.75604    0.038
 4308.00    0.82733   0.76012    0.037
 4309.00    0.66290   0.76470    0.037
 4310.00    0.38849   0.76947    0.036
 4311.00    0.38421   0.77364    0.036
 4312.00    0.51684   0.77696    0.036
 4313.00    0.67881   0.77935    0.036
 4314.00    0.85366   0.78047    0.036
 4315.00    0.83944   0.78040    0.036
 4316.00    0.75400   0.77935    0.036
 4317.00    0.77742   0.77696    0.036
 4318.00    0.83564   0.77398    0.036
 4319.00    0.81121   0.77073    0.036
 4320.00    0.76470   0.76756    0.036
 4321.00    0.75630   0.76529    0.036
 4322.00    0.75624   0.76289    0.036
 4323.00    0.72900   0.76046    0.036
 4324.00    0.69703   0.75772    0.037
 4325.00    0.71564   0.75391    0.037
 4326.00    0.74094   0.74882    0.037
 4327.00    0.77968   0.74131    0.037
 4328.00    0.81968   0.73119    0.037
 4329.00    0.61084   0.71831    0.036
 4330.00    0.38776   0.70336    0.000
 4331.00    0.54855   0.68698    0.000
 4332.00    0.71660   0.67003    0.000
 4333.00    0.69326   0.65443    0.000
 4334.00    0.66608   0.64113    0.000
 4335.00    0.54638   0.63276    0.000
 4336.00    0.44159   0.63038    0.000
 4337.00    0.53091   0.63264    0.000
 4338.00    0.62038   0.63989    0.000
 4339.00    0.71118   0.65135    0.000
 4340.00    0.77266   0.66540    0.000
 4341.00    0.64477   0.68111    0.000
 4342.00    0.53553   0.69642    0.000
 4343.00    0.52041   0.71023    0.000
 4344.00    0.52133   0.72243    0.000
 4345.00    0.58769   0.73241    0.000
 4346.00    0.65287   0.74065    0.000
 4347.00    0.71410   0.74784    0.000
 4348.00    0.73278   0.75368    0.000
 4349.00    0.63010   0.75864    0.000
 4350.00    0.55430   0.76319    0.000
 4351.00    0.54406   0.76734    0.037
 4352.00    0.56878   0.77131    0.037
 4353.00    0.66705   0.77474    0.036
 4354.00    0.77074   0.77786    0.036
 4355.00    0.88433   0.78060    0.036
 4356.00    0.94348   0.78270    0.036
 4357.00    0.91564   0.78434    0.037
 4358.00    0.84694   0.78539    0.037
 4359.00    0.72094   0.78602    0.037
 4360.00    0.64027   0.78601    0.037
 4361.00    0.61555   0.78533    0.036
 4362.00    0.62018   0.78442    0.036
 4363.00    0.65674   0.78324    0.037
 4364.00    0.67531   0.78175    0.037
 4365.00    0.67663   0.78021    0.036
 4366.00    0.69911   0.77865    0.036
 4367.00    0.73949   0.77723    0.036
 4368.00    0.79099   0.77593    0.037
 4369.00    0.85077   0.77479    0.037
 4370.00    0.84322   0.77395    0.037
 4371.00    0.79161   0.77307    0.037
 4372.00    0.74331   0.77193    0.037
 4373.00    0.69691   0.77047    0.036
 4374.00    0.65133   0.76875    0.036
 4375.00    0.60616   0.76669    0.037
 4376.00    0.53020   0.76394    0.037
 4377.00    0.44096   0.76071    0.036
 4378.00    0.41082   0.75785    0.036
 4379.00    0.40254   0.75536    0.036
 4380.00    0.48075   0.75357    0.036
 4381.00    0.58606   0.75241    0.036
 4382.00    0.70102   0.75200    0.036
 4383.00    0.81849   0.75318    0.036
 4384.00    0.71405   0.75513    0.036
 4385.00    0.56221   0.75761    0.036
 4386.00    0.56124   0.76056    0.036
 4387.00    0.58578   0.76328    0.036
 4388.00    0.57804   0.76614    0.036
 4389.00    0.56618   0.76878    0.035
 4390.00    0.69028   0.77089    0.036
 4391.00    0.82650   0.77270    0.036
 4392.00    0.72735   0.77357    0.036
 4393.00    0.61566   0.77389    0.036
 4394.00    0.66572   0.77396    0.036
 4395.00    0.71817   0.77360    0.036
 4396.00    0.70800   0.77303    0.036
 4397.00    0.69217   0.77200    0.036
 4398.00    0.55178   0.77084    0.036
 4399.00    0.41595   0.77017    0.036
 4400.00    0.33650   0.76988    0.035
 4401.00    0.28688   0.76986    0.035
 4402.00    0.48823   0.77015    0.035
 4403.00    0.65737   0.77064    0.036
 4404.00    0.62472   0.77157    0.036
 4405.00    0.59394   0.77254    0.036
 4406.00    0.57231   0.77314    0.036
 4407.00    0.53979   0.77350    0.036
 4408.00    0.46381   0.77346    0.036
 4409.00    0.45574   0.77330    0.035
 4410.00    0.67284   0.77331    0.035
 4411.00    0.80021   0.77324    0.035
 4412.00    0.67616   0.77333    0.035
 4413.00    0.57746   0.77378    0.036
 4414.00    0.53954   0.77419    0.035
 4415.00    0.50773   0.77505    0.035
 4416.00    0.48855   0.77594    0.035
 4417.00    0.52005   0.77653    0.036
 4418.00    0.64279   0.77712    0.036
 4419.00    0.67914   0.77713    0.036
 4420.00    0.57953   0.77706    0.035
 4421.00    0.59046   0.77685    0.035
 4422.00    0.75414   0.77618    0.036
 4423.00    0.82899   0.77565    0.036
 4424.00    0.79579   0.77475    0.036
 4425.00    0.79272   0.77380    0.035
 4426.00    0.82194   0.77303    0.035
 4427.00    0.80385   0.77188    0.035
 4428.00    0.74099   0.77111    0.036
 4429.00    0.63413   0.77042    0.035
 4430.00    0.49058   0.76998    0.035
 4431.00    0.45804   0.76999    0.035
 4432.00    0.50700   0.76989    0.035
 4433.00    0.55629   0.76995    0.035
 4434.00    0.60578   0.77004    0.035
 4435.00    0.63205   0.77024    0.036
 4436.00    0.64520   0.77061    0.035
 4437.00    0.57584   0.77104    0.035
 4438.00    0.46597   0.77137    0.035
 4439.00    0.42070   0.77172    0.035
 4440.00    0.40284   0.77216    0.035
 4441.00    0.51342   0.77263    0.035
 4442.00    0.67067   0.77306    0.035
 4443.00    0.71086   0.77333    0.035
 4444.00    0.71506   0.77318    0.035
 4445.00    0.66704   0.77263    0.036
 4446.00    0.60566   0.77168    0.036
 4447.00    0.64137   0.77023    0.036
 4448.00    0.69730   0.76886    0.035
 4449.00    0.61811   0.76723    0.035
 4450.00    0.51672   0.76569    0.035
 4451.00    0.56422   0.76426    0.035
 4452.00    0.63007   0.76293    0.035
 4453.00    0.70160   0.76200    0.034
 4454.00    0.77363   0.76121    0.034
 4455.00    0.65197   0.76094    0.034
 4456.00    0.52076   0.76057    0.034
 4457.00    0.54603   0.76017    0.034
 4458.00    0.57508   0.75939    0.034
 4459.00    0.68501   0.75831    0.034
 4460.00    0.78788   0.75714    0.034
 4461.00    0.74756   0.75529    0.000
 4462.00    0.70316   0.75329    0.000
 4463.00    0.61070   0.75070    0.000
 4464.00    0.53833   0.74891    0.000
 4465.00    0.62882   0.74823    0.000
 4466.00    0.70242   0.74815    0.000
 4467.00    0.67324   0.74923    0.000
 4468.00    0.66284   0.75074    0.000
 4469.00    0.74249   0.75347    0.000
 4470.00    0.80022   0.75685    0.000
 4471.00    0.77233   0.76001    0.000
 4472.00    0.72528   0.76279    0.000
 4473.00    0.61594   0.76475    0.000
 4474.00    0.56825   0.76626    0.000
 4475.00    0.69017   0.76759    0.000
 4476.00    0.77170   0.76855    0.000
 4477.00    0.75809   0.76938    0.000
 4478.00    0.74847   0.77017    0.000
 4479.00    0.74698   0.77101    0.000
 4480.00    0.71408   0.77203    0.000
 4481.00    0.62549   0.77288    0.000
 4482.00    0.59240   0.77370    0.034
 4483.00    0.64539   0.77426    0.033
 4484.00    0.68355   0.77451    0.033
 4485.00    0.70154   0.77450    0.033
 4486.00    0.66755   0.77414    0.033
 4487.00    0.57124   0.77388    0.033
 4488.00    0.52265   0.77377    0.033
 4489.00    0.52453   0.77386    0.033
 4490.00    0.57702   0.77431    0.033
 4491.00    0.67671   0.77479    0.033
 4492.00    0.70884   0.77546    0.033
 4493.00    0.68543   0.77624    0.033
 4494.00    0.61061   0.77736    0.033
 4495.00    0.49858   0.77898    0.032
 4496.00    0.51280   0.78044    0.033
 4497.00    0.60723   0.78176    0.033
 4498.00    0.63454   0.78277    0.033
 4499.00    0.62457   0.78352    0.033
 4500.00    0.65493   0.78409    0.033
 4501.00    0.70479   0.78422    0.033
 4502.00    0.78718   0.78384    0.033
 4503.00    0.88315   0.78293    0.033
 4504.00    0.87555   0.78149    0.033
 4505.00    0.83097   0.77989    0.034
 4506.00    0.74403   0.77797    0.033
 4507.00    0.64430   0.77602    0.033
 4508.00    0.64042   0.77442    0.032
 4509.00    0.66054   0.77283    0.032
 4510.00    0.70085   0.77144    0.032
 4511.00    0.74527   0.77048    0.033
 4512.00    0.77236   0.76970    0.033
 4513.00    0.79669   0.76930    0.033
 4514.00    0.74730   0.76868    0.033
 4515.00    0.68914   0.76776    0.033
 4516.00    0.77340   0.76703    0.033
 4517.00    0.86917   0.76574    0.033
 4518.00    0.80123   0.76417    0.033
 4519.00    0.72585   0.76219    0.033
 4520.00    0.73834   0.75984    0.033
 4521.00    0.75129   0.75759    0.033
 4522.00    0.73259   0.75547    0.033
 4523.00    0.71298   0.75348    0.032
 4524.00    0.67630   0.75200    0.032
 4525.00    0.64909   0.75050    0.032
 4526.00    0.72799   0.74926    0.033
 4527.00    0.79079   0.74865    0.033
 4528.00    0.72756   0.74820    0.033
 4529.00    0.67843   0.74836    0.033
 4530.00    0.71266   0.74803    0.033
 4531.00    0.73642   0.74749    0.033
 4532.00    0.71125   0.74685    0.033
 4533.00    0.70207   0.74596    0.032
 4534.00    0.75404   0.74558    0.033
 4535.00    0.77916   0.74533    0.033
 4536.00    0.71871   0.74503    0.033
 4537.00    0.68379   0.74483    0.033
 4538.00    0.71788   0.74493    0.033
 4539.00    0.71735   0.74558    0.033
 4540.00    0.63659   0.74682    0.033
 4541.00    0.61215   0.74798    0.033
 4542.00    0.70063   0.74922    0.033
 4543.00    0.74751   0.75060    0.033
 4544.00    0.72177   0.75142    0.032
 4545.00    0.64993   0.75232    0.032
 4546.00    0.50763   0.75309    0.032
 4547.00    0.49572   0.75401    0.032
 4548.00    0.65885   0.75531    0.032
 4549.00    0.72631   0.75650    0.032
 4550.00    0.68069   0.75809    0.000
 4551.00    0.64955   0.75973    0.000
 4552.00    0.63351   0.76144    0.000
 4553.00    0.63731   0.76311    0.000
 4554.00    0.65935   0.76466    0.000
 4555.00    0.69670   0.76578    0.000
 4556.00    0.74645   0.76643    0.000
 4557.00    0.81362   0.76677    0.000
 4558.00    0.89322   0.76670    0.000
 4559.00    0.85298   0.76650    0.000
 4560.00    0.73775   0.76597    0.000
 4561.00    0.68283   0.76535    0.000
 4562.00    0.66090   0.76492    0.000
 4563.00    0.78609   0.76453    0.000
 4564.00    0.98122   0.76434    0.000
 4565.00    0.95086   0.76436    0.000
 4566.00    0.82803   0.76434    0.000
 4567.00    0.72750   0.76441    0.000
 4568.00    0.63478   0.76439    0.000
 4569.00    0.74817   0.76424    0.000
 4570.00    0.92248   0.76425    0.000
 4571.00    0.94752   0.76379    0.000
 4572.00    0.93599   0.76319    0.000
 4573.00    0.84442   0.76244    0.000
 4574.00    0.73698   0.76153    0.000
 4575.00    0.78288   0.76061    0.000
 4576.00    0.85252   0.75955    0.000
 4577.00    0.82703   0.75879    0.000
 4578.00    0.79065   0.75811    0.000
 4579.00    0.82401   0.75781    0.000
 4580.00    0.86274   0.75758    0.000
 4581.00    0.88201   0.75745    0.000
 4582.00    0.90046   0.75743    0.000
 4583.00    0.88345   0.75727    0.000
 4584.00    0.86516   0.75727    0.000
 4585.00    0.80577   0.75709    0.000
 4586.00    0.74578   0.75697    0.000
 4587.00    0.67541   0.75664    0.000
 4588.00    0.61354   0.75627    0.000
 4589.00    0.64272   0.75605    0.000
 4590.00    0.67548   0.75584    0.000
 4591.00    0.73525   0.75581    0.000
 4592.00    0.77885   0.75573    0.000
 4593.00    0.72947   0.75577    0.000
 4594.00    0.68689   0.75600    0.000
 4595.00    0.67535   0.75621    0.000
 4596.00    0.66162   0.75664    0.000
 4597.00    0.63976   0.75701    0.000
 4598.00    0.62243   0.75749    0.000
 4599.00    0.61932   0.75820    0.000
 4600.00    0.60436   0.75882    0.000
 4601.00    0.55796   0.75964    0.000
 4602.00    0.55113   0.76032    0.000
 4603.00    0.63446   0.76094    0.000
 4604.00    0.70284   0.76150    0.000
 4605.00    0.74173   0.76204    0.000
 4606.00    0.76861   0.76237    0.000
 4607.00    0.77482   0.76261    0.000
 4608.00    0.78386   0.76263    0.000
 4609.00    0.79714   0.76267    0.000
 4610.00    0.77759   0.76263    0.000
 4611.00    0.71458   0.76259    0.000
 4612.00    0.69360   0.76274    0.000
 4613.00    0.72159   0.76262    0.000
 4614.00    0.72156   0.76276    0.000
 4615.00    0.69272   0.76274    0.000
 4616.00    0.65725   0.76268    0.000
 4617.00    0.61576   0.76270    0.000
 4618.00    0.64672   0.76267    0.000
 4619.00    0.73554   0.76234    0.000
 4620.00    0.78203   0.76178    0.000
 4621.00    0.79877   0.76108    0.000
 4622.00    0.81671   0.76014    0.000
 4623.00    0.83540   0.75901    0.000
 4624.00    0.83697   0.75791    0.000
 4625.00    0.82932   0.75671    0.000
 4626.00    0.80072   0.75554    0.000
 4627.00    0.76231   0.75431    0.000
 4628.00    0.77498   0.75324    0.000
 4629.00    0.80823   0.75230    0.000
 4630.00    0.81750   0.75128    0.000
 4631.00    0.81852   0.75038    0.000
 4632.00    0.86773   0.74938    0.000
 4633.00    0.93090   0.74840    0.000
 4634.00    0.85924   0.74712    0.000
 4635.00    0.75529   0.74568    0.000
 4636.00    0.74434   0.74381    0.000
 4637.00    0.75135   0.74163    0.000
 4638.00    0.60642   0.73944    0.000
 4639.00    0.43869   0.73701    0.000
 4640.00    0.53467   0.73443    0.000
 4641.00    0.65967   0.73188    0.000
 4642.00    0.65994   0.72980    0.000
 4643.00    0.65113   0.72798    0.000
 4644.00    0.62383   0.72663    0.000
 4645.00    0.59583   0.72657    0.000
 4646.00    0.64916   0.72746    0.000
 4647.00    0.70060   0.72884    0.000
 4648.00    0.66704   0.73109    0.000
 4649.00    0.63585   0.73381    0.000
 4650.00    0.64334   0.73682    0.000
 4651.00    0.65067   0.73937    0.000
 4652.00    0.65642   0.74182    0.000
 4653.00    0.66987   0.74407    0.000
 4654.00    0.73968   0.74539    0.000
 4655.00    0.79066   0.74629    0.000
 4656.00    0.73640   0.74619    0.000
 4657.00    0.67645   0.74543    0.000
 4658.00    0.59110   0.74407    0.000
 4659.00    0.55303   0.74243    0.000
 4660.00    0.68816   0.74091    0.000
 4661.00    0.76407   0.73950    0.000
 4662.00    0.65830   0.73852    0.000
 4663.00    0.58060   0.73784    0.000
 4664.00    0.57615   0.73770    0.000
 4665.00    0.58740   0.73808    0.000
 4666.00    0.63384   0.73895    0.000
 4667.00    0.66962   0.73992    0.000
 4668.00    0.68466   0.74081    0.000
 4669.00    0.70935   0.74136    0.000
 4670.00    0.75037   0.74134    0.000
 4671.00    0.77261   0.74108    0.000
 4672.00    0.76698   0.74024    0.000
 4673.00    0.71047   0.73894    0.000
 4674.00    0.58760   0.73702    0.000
 4675.00    0.53910   0.73455    0.000
 4676.00    0.57607   0.73192    0.000
 4677.00    0.64549   0.72939    0.000
 4678.00    0.74777   0.72717    0.000
 4679.00    0.79741   0.72536    0.000
 4680.00    0.79999   0.72440    0.000
 4681.00    0.74163   0.72418    0.000
 4682.00    0.63528   0.72455    0.000
 4683.00    0.67178   0.72605    0.000
 4684.00    0.80722   0.72867    0.000
 4685.00    0.82355   0.73163    0.000
 4686.00    0.76755   0.73432    0.000
 4687.00    0.76663   0.73697    0.000
 4688.00    0.79493   0.73890    0.000
 4689.00    0.73944   0.74046    0.000
 4690.00    0.64541   0.74142    0.000
 4691.00    0.68716   0.74160    0.000
 4692.00    0.78270   0.74135    0.000
 4693.00    0.80846   0.74046    0.000
 4694.00    0.81065   0.73939    0.000
 4695.00    0.72011   0.73789    0.000
 4696.00    0.60324   0.73646    0.000
 4697.00    0.62594   0.73533    0.000
 4698.00    0.68131   0.73429    0.000
 4699.00    0.65172   0.73343    0.000
 4700.00    0.60615   0.73258    0.000
 4701.00    0.47634   0.73216    0.000
 4702.00    0.33427   0.73180    0.000
 4703.00    0.37400   0.73157    0.000
 4704.00    0.43295   0.73152    0.000
 4705.00    0.66142   0.73160    0.000
 4706.00    0.90153   0.73205    0.000
 4707.00    0.64011   0.73263    0.000
 4708.00    0.36164   0.73391    0.000
 4709.00    0.52270   0.73503    0.000
 4710.00    0.67595   0.73647    0.000
 4711.00    0.55298   0.73819    0.000
 4712.00    0.44260   0.74040    0.000
 4713.00    0.52541   0.74221    0.000
 4714.00    0.61051   0.74405    0.000
 4715.00    0.71817   0.74524    0.000
 4716.00    0.79875   0.74616    0.000
 4717.00    0.68783   0.74651    0.000
 4718.00    0.58423   0.74639    0.000
 4719.00    0.52046   0.74580    0.000
 4720.00    0.47847   0.74486    0.000
 4721.00    0.53136   0.74384    0.000
 4722.00    0.57322   0.74258    0.000
 4723.00    0.57550   0.74138    0.000
 4724.00    0.58517   0.74012    0.000
 4725.00    0.61712   0.73916    0.000
 4726.00    0.63333   0.73870    0.000
 4727.00    0.60921   0.73845    0.000
 4728.00    0.61976   0.73847    0.000
 4729.00    0.70676   0.73866    0.000
 4730.00    0.72023   0.73907    0.000
 4731.00    0.59315   0.73950    0.000
 4732.00    0.52727   0.74000    0.000
 4733.00    0.56349   0.74050    0.000
 4734.00    0.60400   0.74091    0.000
 4735.00    0.65076   0.74161    0.000
 4736.00    0.65091   0.74215    0.000
 4737.00    0.59113   0.74263    0.000
 4738.00    0.57312   0.74309    0.000
 4739.00    0.60240   0.74355    0.000
 4740.00    0.64563   0.74393    0.000
 4741.00    0.70279   0.74418    0.000
 4742.00    0.70790   0.74418    0.000
 4743.00    0.66714   0.74409    0.000
 4744.00    0.61919   0.74383    0.000
 4745.00    0.56565   0.74328    0.000
 4746.00    0.54707   0.74264    0.000
 4747.00    0.55235   0.74179    0.000
 4748.00    0.63236   0.74094    0.000
 4749.00    0.75706   0.73983    0.000
 4750.00    0.76353   0.73881    0.000
 4751.00    0.70829   0.73764    0.000
 4752.00    0.60043   0.73655    0.000
 4753.00    0.46875   0.73537    0.000
 4754.00    0.52956   0.73417    0.000
 4755.00    0.66532   0.73303    0.000
 4756.00    0.66717   0.73187    0.000
 4757.00    0.62465   0.73084    0.000
 4758.00    0.58460   0.72992    0.000
 4759.00    0.54524   0.72915    0.000
 4760.00    0.59766   0.72877    0.000
 4761.00    0.67108   0.72872    0.030
 4762.00    0.70623   0.72901    0.030
 4763.00    0.73436   0.72951    0.030
 4764.00    0.66191   0.73028    0.030
 4765.00    0.57529   0.73117    0.029
 4766.00    0.61809   0.73203    0.029
 4767.00    0.67401   0.73289    0.029
 4768.00    0.73704   0.73354    0.029
 4769.00    0.80052   0.73405    0.030
 4770.00    0.77775   0.73445    0.029
 4771.00    0.75230   0.73457    0.029
 4772.00    0.69485   0.73449    0.029
 4773.00    0.63783   0.73402    0.029
 4774.00    0.59322   0.73343    0.029
 4775.00    0.55101   0.73261    0.029
 4776.00    0.54346   0.73169    0.029
 4777.00    0.54549   0.73070    0.029
 4778.00    0.63767   0.72979    0.029
 4779.00    0.71143   0.72900    0.029
 4780.00    0.65906   0.72837    0.029
 4781.00    0.61017   0.72797    0.028
 4782.00    0.57969   0.72794    0.028
 4783.00    0.56993   0.72812    0.028
 4784.00    0.64837   0.72854    0.028
 4785.00    0.68501   0.72937    0.028
 4786.00    0.57472   0.73016    0.028
 4787.00    0.50607   0.73109    0.028
 4788.00    0.56045   0.73203    0.029
 4789.00    0.62740   0.73272    0.029
 4790.00    0.72602   0.73332    0.029
 4791.00    0.77700   0.73357    0.029
 4792.00    0.72468   0.73365    0.029
 4793.00    0.70080   0.73339    0.029
 4794.00    0.73046   0.73300    0.029
 4795.00    0.73310   0.73250    0.029
 4796.00    0.69134   0.73194    0.029
 4797.00    0.64333   0.73146    0.029
 4798.00    0.58633   0.73090    0.029
 4799.00    0.58617   0.73047    0.029
 4800.00    0.65804   0.72990    0.029
 4801.00    0.69993   0.72953    0.029
 4802.00    0.70835   0.72912    0.029
 4803.00    0.69134   0.72892    0.029
 4804.00    0.64929   0.72887    0.029
 4805.00    0.63936   0.72887    0.029
 4806.00    0.65735   0.72908    0.029
 4807.00    0.64569   0.72932    0.029
 4808.00    0.61132   0.72965    0.029
 4809.00    0.60644   0.72992    0.029
 4810.00    0.62140   0.73019    0.029
 4811.00    0.63859   0.73032    0.029
 4812.00    0.65711   0.73036    0.029
 4813.00    0.64677   0.73011    0.029
 4814.00    0.62162   0.72973    0.030
 4815.00    0.63815   0.72909    0.030
 4816.00    0.67323   0.72834    0.030
 4817.00    0.65122   0.72746    0.030
 4818.00    0.60737   0.72650    0.029
 4819.00    0.58598   0.72559    0.029
 4820.00    0.57189   0.72476    0.029
 4821.00    0.60925   0.72399    0.029
 4822.00    0.66062   0.72345    0.030
 4823.00    0.65447   0.72289    0.030
 4824.00    0.63545   0.72244    0.030
 4825.00    0.60030   0.72203    0.030
 4826.00    0.56227   0.72168    0.030
 4827.00    0.55330   0.72132    0.030
 4828.00    0.54830   0.72101    0.030
 4829.00    0.54667   0.72057    0.030
 4830.00    0.54537   0.72011    0.030
 4831.00    0.54825   0.71953    0.030
 4832.00    0.55140   0.71884    0.030
 4833.00    0.58612   0.71801    0.030
 4834.00    0.62146   0.71708    0.031
 4835.00    0.61643   0.71609    0.030
 4836.00    0.61253   0.71501    0.029
 4837.00    0.63811   0.71390    0.030
 4838.00    0.66172   0.71259    0.030
 4839.00    0.65849   0.71112    0.030
 4840.00    0.65215   0.70935    0.030
 4841.00    0.61772   0.70706    0.029
 4842.00    0.58910   0.70423    0.029
 4843.00    0.59892   0.70045    0.030
 4844.00    0.61020   0.69572    0.030
 4845.00    0.62903   0.68978    0.030
 4846.00    0.65168   0.68251    0.030
 4847.00    0.69023   0.67377    0.030
 4848.00    0.72354   0.66357    0.000
 4849.00    0.73886   0.65196    0.000
 4850.00    0.73183   0.63931    0.000
 4851.00    0.66001   0.62621    0.000
 4852.00    0.63327   0.61341    0.000
 4853.00    0.71812   0.60158    0.000
 4854.00    0.74565   0.59175    0.000
 4855.00    0.65091   0.58444    0.000
 4856.00    0.59282   0.58060    0.000
 4857.00    0.60262   0.58052    0.000
 4858.00    0.59037   0.58467    0.000
 4859.00    0.54241   0.59150    0.000
 4860.00    0.54809   0.60129    0.000
 4861.00    0.62993   0.61193    0.000
 4862.00    0.67091   0.62356    0.000
 4863.00    0.66082   0.63471    0.000
 4864.00    0.62809   0.64557    0.000
 4865.00    0.57041   0.65509    0.000
 4866.00    0.50688   0.66363    0.000
 4867.00    0.43764   0.67094    0.000
 4868.00    0.44718   0.67737    0.000
 4869.00    0.52418   0.68285    0.000
 4870.00    0.55172   0.68753    0.000
 4871.00    0.54195   0.69148    0.000
 4872.00    0.55070   0.69480    0.000
 4873.00    0.57172   0.69743    0.000
 4874.00    0.65925   0.69955    0.000
 4875.00    0.78538   0.70113    0.031
 4876.00    0.73609   0.70203    0.031
 4877.00    0.59807   0.70262    0.031
 4878.00    0.69996   0.70282    0.031
 4879.00    0.90690   0.70283    0.032
 4880.00    0.76785   0.70266    0.031
 4881.00    0.49876   0.70262    0.031
 4882.00    0.51353   0.70270    0.031
 4883.00    0.61883   0.70320    0.031
 4884.00    0.58449   0.70389    0.031
 4885.00    0.51292   0.70514    0.031
 4886.00    0.61553   0.70650    0.031
 4887.00    0.75613   0.70852    0.031
 4888.00    0.68802   0.71066    0.031
 4889.00    0.58374   0.71277    0.031
 4890.00    0.65033   0.71478    0.031
 4891.00    0.73942   0.71635    0.031
 4892.00    0.63692   0.71758    0.031
 4893.00    0.51662   0.71831    0.032
 4894.00    0.57384   0.71862    0.031
 4895.00    0.64112   0.71849    0.030
 4896.00    0.65316   0.71826    0.031
 4897.00    0.66342   0.71776    0.031
 4898.00    0.61627   0.71712    0.031
 4899.00    0.57197   0.71642    0.030
 4900.00    0.59559   0.71583    0.031
 4901.00    0.61862   0.71515    0.031
 4902.00    0.63399   0.71449    0.030
 4903.00    0.65250   0.71367    0.030
 4904.00    0.69825   0.71293    0.030
 4905.00    0.73714   0.71191    0.030
 4906.00    0.73191   0.71098    0.030
 4907.00    0.72051   0.70976    0.030
 4908.00    0.67802   0.70835    0.030
 4909.00    0.65877   0.70648    0.030
 4910.00    0.73413   0.70442    0.030
 4911.00    0.77372   0.70200    0.030
 4912.00    0.69261   0.69938    0.030
 4913.00    0.64068   0.69685    0.030
 4914.00    0.67181   0.69444    0.030
 4915.00    0.71038   0.69294    0.030
 4916.00    0.76703   0.69184    0.030
 4917.00    0.76786   0.69218    0.029
 4918.00    0.65150   0.69304    0.029
 4919.00    0.58193   0.69494    0.029
 4920.00    0.59775   0.69707    0.029
 4921.00    0.59864   0.69992    0.029
 4922.00    0.57571   0.70253    0.029
 4923.00    0.57241   0.70491    0.029
 4924.00    0.59660   0.70686    0.029
 4925.00    0.62107   0.70816    0.029
 4926.00    0.64589   0.70884    0.029
 4927.00    0.67811   0.70896    0.029
 4928.00    0.71836   0.70854    0.029
 4929.00    0.70512   0.70787    0.029
 4930.00    0.64064   0.70729    0.028
 4931.00    0.58040   0.70672    0.028
 4932.00    0.52372   0.70633    0.028
 4933.00    0.50190   0.70617    0.028
 4934.00    0.50599   0.70659    0.028
 4935.00    0.50099   0.70724    0.028
 4936.00    0.49006   0.70853    0.028
 4937.00    0.46796   0.70964    0.028
 4938.00    0.43947   0.71117    0.028
 4939.00    0.49906   0.71243    0.028
 4940.00    0.60250   0.71378    0.000
 4941.00    0.65861   0.71464    0.000
 4942.00    0.69435   0.71542    0.000
 4943.00    0.71357   0.71565    0.000
 4944.00    0.72670   0.71551    0.000
 4945.00    0.72149   0.71486    0.000
 4946.00    0.71055   0.71378    0.000
 4947.00    0.72735   0.71238    0.000
 4948.00    0.75138   0.71058    0.000
 4949.00    0.74140   0.70884    0.000
 4950.00    0.72418   0.70688    0.000
 4951.00    0.71285   0.70531    0.000
 4952.00    0.70250   0.70384    0.000
 4953.00    0.71439   0.70292    0.000
 4954.00    0.72910   0.70245    0.000
 4955.00    0.66076   0.70222    0.000
 4956.00    0.58505   0.70219    0.000
 4957.00    0.57269   0.70225    0.000
 4958.00    0.56367   0.70239    0.000
 4959.00    0.53262   0.70251    0.000
 4960.00    0.50294   0.70262    0.000
 4961.00    0.61453   0.70268    0.000
 4962.00    0.72019   0.70287    0.000
 4963.00    0.69715   0.70299    0.000
 4964.00    0.67992   0.70323    0.000
 4965.00    0.73407   0.70344    0.000
 4966.00    0.77916   0.70358    0.000
 4967.00    0.74842   0.70360    0.000
 4968.00    0.71613   0.70335    0.000
 4969.00    0.67413   0.70277    0.000
 4970.00    0.64561   0.70184    0.000
 4971.00    0.68323   0.70046    0.000
 4972.00    0.71503   0.69881    0.000
 4973.00    0.72370   0.69687    0.000
 4974.00    0.70944   0.69485    0.000
 4975.00    0.61933   0.69284    0.000
 4976.00    0.57688   0.69107    0.000
 4977.00    0.66765   0.68969    0.000
 4978.00    0.69492   0.68877    0.000
 4979.00    0.57032   0.68841    0.000
 4980.00    0.49034   0.68850    0.000
 4981.00    0.50254   0.68901    0.000
 4982.00    0.51369   0.68967    0.000
 4983.00    0.52299   0.69060    0.000
 4984.00    0.52538   0.69133    0.000
 4985.00    0.51694   0.69224    0.000
 4986.00    0.56376   0.69273    0.000
 4987.00    0.68679   0.69314    0.000
 4988.00    0.72875   0.69321    0.000
 4989.00    0.67226   0.69299    0.000
 4990.00    0.64818   0.69244    0.000
 4991.00    0.65880   0.69157    0.000
 4992.00    0.65550   0.69044    0.000
 4993.00    0.63906   0.68896    0.000
 4994.00    0.65307   0.68753    0.000
 4995.00    0.69242   0.68583    0.000
 4996.00    0.63806   0.68444    0.000
 4997.00    0.51503   0.68284    0.000
 4998.00    0.51625   0.68159    0.000
 4999.00    0.59743   0.68023    0.000
 5000.00    0.63190   0.67923    0.000
 5001.00    0.64008   0.67825    0.000
 5002.00    0.64683   0.67732    0.000
 5003.00    0.65289   0.67628    0.000
 5004.00    0.71304   0.67513    0.000
 5005.00    0.79610   0.67389    0.000
 5006.00    0.81947   0.67250    0.000
 5007.00    0.82120   0.67133    0.000
 5008.00    0.76812   0.67000    0.000
 5009.00    0.69823   0.66938    0.000
 5010.00    0.63480   0.66883    0.000
 5011.00    0.57303   0.66903    0.000
 5012.00    0.64475   0.66939    0.000
 5013.00    0.74421   0.67053    0.000
 5014.00    0.72593   0.67174    0.000
 5015.00    0.68838   0.67338    0.000
 5016.00    0.58348   0.67501    0.000
 5017.00    0.47032   0.67692    0.000
 5018.00    0.53132   0.67854    0.000
 5019.00    0.60704   0.68025    0.000
 5020.00    0.53653   0.68166    0.000
 5021.00    0.45887   0.68300    0.000
 5022.00    0.48226   0.68417    0.000
 5023.00    0.50741   0.68506    0.000
 5024.00    0.54443   0.68571    0.000
 5025.00    0.58084   0.68599    0.000
 5026.00    0.60489   0.68594    0.000
 5027.00    0.62449   0.68537    0.000
 5028.00    0.59206   0.68448    0.000
 5029.00    0.56670   0.68308    0.028
 5030.00    0.59840   0.68161    0.028
 5031.00    0.63073   0.67981    0.028
 5032.00    0.66687   0.67814    0.028
 5033.00    0.69861   0.67656    0.028
 5034.00    0.70926   0.67547    0.029
 5035.00    0.70236   0.67475    0.029
 5036.00    0.62708   0.67471    0.029
 5037.00    0.57384   0.67494    0.029
 5038.00    0.59210   0.67566    0.029
 5039.00    0.59930   0.67653    0.029
 5040.00    0.57617   0.67755    0.028
 5041.00    0.56503   0.67862    0.028
 5042.00    0.58210   0.67956    0.028
 5043.00    0.62029   0.68061    0.028
 5044.00    0.70138   0.68141    0.028
 5045.00    0.73239   0.68244    0.027
 5046.00    0.67479   0.68319    0.027
 5047.00    0.63060   0.68429    0.028
 5048.00    0.60719   0.68509    0.028
 5049.00    0.58893   0.68626    0.028
 5050.00    0.57768   0.68700    0.028
 5051.00    0.57937   0.68797    0.028
 5052.00    0.59655   0.68842    0.028
 5053.00    0.62255   0.68888    0.028
 5054.00    0.65785   0.68877    0.028
 5055.00    0.64188   0.68850    0.028
 5056.00    0.57818   0.68774    0.028
 5057.00    0.56189   0.68694    0.028
 5058.00    0.58450   0.68580    0.028
 5059.00    0.62008   0.68468    0.028
 5060.00    0.66503   0.68343    0.028
 5061.00    0.71162   0.68240    0.028
 5062.00    0.75925   0.68132    0.028
 5063.00    0.74495   0.68044    0.028
 5064.00    0.69633   0.67960    0.028
 5065.00    0.66227   0.67897    0.028
 5066.00    0.63523   0.67819    0.028
 5067.00    0.67197   0.67756    0.029
 5068.00    0.73527   0.67667    0.029
 5069.00    0.72016   0.67593    0.029
 5070.00    0.67714   0.67480    0.030
 5071.00    0.62732   0.67396    0.029
 5072.00    0.57546   0.67288    0.029
 5073.00    0.58776   0.67222    0.029
 5074.00    0.61610   0.67147    0.029
 5075.00    0.55514   0.67127    0.029
 5076.00    0.47608   0.67120    0.029
 5077.00    0.45776   0.67164    0.029
 5078.00    0.44909   0.67229    0.029
 5079.00    0.55590   0.67328    0.029
 5080.00    0.67636   0.67444    0.029
 5081.00    0.65531   0.67566    0.029
 5082.00    0.62287   0.67691    0.028
 5083.00    0.61185   0.67798    0.028
 5084.00    0.60179   0.67887    0.029
 5085.00    0.55044   0.67942    0.028
 5086.00    0.50008   0.67966    0.027
 5087.00    0.52329   0.67953    0.028
 5088.00    0.54589   0.67905    0.028
 5089.00    0.55717   0.67832    0.028
 5090.00    0.57219   0.67736    0.028
 5091.00    0.62890   0.67631    0.028
 5092.00    0.67463   0.67518    0.028
 5093.00    0.63489   0.67411    0.029
 5094.00    0.59234   0.67313    0.029
 5095.00    0.53314   0.67228    0.029
 5096.00    0.48129   0.67155    0.029
 5097.00    0.46378   0.67096    0.029
 5098.00    0.46798   0.67052    0.029
 5099.00    0.55492   0.67013    0.029
 5100.00    0.62617   0.66991    0.028
 5101.00    0.64753   0.66980    0.028
 5102.00    0.64909   0.66985    0.028
 5103.00    0.59726   0.67009    0.028
 5104.00    0.56124   0.67050    0.028
 5105.00    0.56180   0.67113    0.028
 5106.00    0.53873   0.67185    0.028
 5107.00    0.46839   0.67270    0.028
 5108.00    0.44666   0.67346    0.028
 5109.00    0.50964   0.67416    0.028
 5110.00    0.57802   0.67456    0.028
 5111.00    0.65464   0.67469    0.029
 5112.00    0.67930   0.67440    0.029
 5113.00    0.63434   0.67373    0.029
 5114.00    0.63178   0.67266    0.028
 5115.00    0.67924   0.67127    0.029
 5116.00    0.65980   0.66968    0.029
 5117.00    0.57074   0.66796    0.029
 5118.00    0.51368   0.66635    0.029
 5119.00    0.48599   0.66481    0.028
 5120.00    0.53450   0.66362    0.028
 5121.00    0.64465   0.66265    0.028
 5122.00    0.64719   0.66215    0.028
 5123.00    0.57314   0.66184    0.028
 5124.00    0.55310   0.66193    0.027
 5125.00    0.56680   0.66209    0.027
 5126.00    0.55215   0.66245    0.027
 5127.00    0.52201   0.66271    0.027
 5128.00    0.53962   0.66296    0.027
 5129.00    0.57987   0.66297    0.027
 5130.00    0.61023   0.66285    0.027
 5131.00    0.63654   0.66245    0.028
 5132.00    0.59354   0.66194    0.028
 5133.00    0.52631   0.66120    0.028
 5134.00    0.54820   0.66048    0.028
 5135.00    0.59636   0.65962    0.027
 5136.00    0.61111   0.65893    0.027
 5137.00    0.61770   0.65816    0.027
 5138.00    0.57616   0.65768    0.027
 5139.00    0.52512   0.65712    0.028
 5140.00    0.54074   0.65688    0.027
 5141.00    0.56663   0.65659    0.027
 5142.00    0.56968   0.65660    0.027
 5143.00    0.57014   0.65662    0.027
 5144.00    0.54554   0.65690    0.027
 5145.00    0.51903   0.65728    0.028
 5146.00    0.53716   0.65786    0.028
 5147.00    0.55713   0.65863    0.028
 5148.00    0.52148   0.65943    0.028
 5149.00    0.48751   0.66038    0.028
 5150.00    0.54356   0.66111    0.028
 5151.00    0.59604   0.66176    0.028
 5152.00    0.58668   0.66183    0.028
 5153.00    0.57979   0.66151    0.029
 5154.00    0.59933   0.66031    0.029
 5155.00    0.60248   0.65848    0.029
 5156.00    0.48229   0.65568    0.029
 5157.00    0.39361   0.65228    0.029
 5158.00    0.48543   0.64813    0.029
 5159.00    0.56165   0.64372    0.029
 5160.00    0.56679   0.63908    0.029
 5161.00    0.58094   0.63476    0.029
 5162.00    0.62870   0.63081    0.029
 5163.00    0.65719   0.62769    0.029
 5164.00    0.62555   0.62540    0.029
 5165.00    0.58630   0.62421    0.029
 5166.00    0.52690   0.62394    0.029
 5167.00    0.48790   0.62463    0.028
 5168.00    0.49527   0.62592    0.029
 5169.00    0.50020   0.62770    0.029
 5170.00    0.50033   0.62954    0.029
 5171.00    0.50759   0.63134    0.029
 5172.00    0.52710   0.63273    0.029
 5173.00    0.52093   0.63375    0.029
 5174.00    0.47617   0.63427    0.029
 5175.00    0.49201   0.63448    0.029
 5176.00    0.58792   0.63448    0.029
 5177.00    0.61708   0.63450    0.029
 5178.00    0.56862   0.63469    0.028
 5179.00    0.57283   0.63520    0.028
 5180.00    0.63107   0.63607    0.028
 5181.00    0.62876   0.63731    0.028
 5182.00    0.57165   0.63879    0.028
 5183.00    0.55981   0.64048    0.027
 5184.00    0.58409   0.64215    0.027
 5185.00    0.55284   0.64383    0.027
 5186.00    0.48265   0.64533    0.027
 5187.00    0.43025   0.64673    0.027
 5188.00    0.38881   0.64794    0.027
 5189.00    0.39105   0.64900    0.027
 5190.00    0.41678   0.64989    0.000
 5191.00    0.44564   0.65051    0.000
 5192.00    0.47595   0.65095    0.000
 5193.00    0.54776   0.65097    0.000
 5194.00    0.63627   0.65078    0.000
 5195.00    0.65870   0.65007    0.000
 5196.00    0.65846   0.64923    0.000
 5197.00    0.63217   0.64797    0.000
 5198.00    0.59835   0.64682    0.000
 5199.00    0.55840   0.64555    0.000
 5200.00    0.51699   0.64469    0.000
 5201.00    0.52970   0.64404    0.000
 5202.00    0.55282   0.64403    0.000
 5203.00    0.60715   0.64442    0.000
 5204.00    0.66616   0.64543    0.000
 5205.00    0.56413   0.64681    0.000
 5206.00    0.44446   0.64859    0.000
 5207.00    0.44197   0.65051    0.000
 5208.00    0.44793   0.65252    0.000
 5209.00    0.50638   0.65439    0.000
 5210.00    0.56679   0.65607    0.000
 5211.00    0.50232   0.65739    0.027
 5212.00    0.43970   0.65834    0.027
 5213.00    0.46579   0.65880    0.027
 5214.00    0.49392   0.65886    0.027
 5215.00    0.55525   0.65842    0.027
 5216.00    0.60295   0.65766    0.028
 5217.00    0.51189   0.65658    0.027
 5218.00    0.43518   0.65540    0.027
 5219.00    0.46279   0.65419    0.027
 5220.00    0.49161   0.65316    0.028
 5221.00    0.52718   0.65240    0.028
 5222.00    0.55875   0.65201    0.028
 5223.00    0.57259   0.65203    0.028
 5224.00    0.59410   0.65247    0.029
 5225.00    0.64368   0.65327    0.029
 5226.00    0.66658   0.65437    0.029
 5227.00    0.60785   0.65570    0.029
 5228.00    0.56614   0.65716    0.029
 5229.00    0.56874   0.65868    0.029
 5230.00    0.55029   0.66016    0.029
 5231.00    0.48476   0.66157    0.028
 5232.00    0.50783   0.66280    0.029
 5233.00    0.70266   0.66381    0.029
 5234.00    0.78316   0.66454    0.029
 5235.00    0.67040   0.66493    0.028
 5236.00    0.57413   0.66500    0.028
 5237.00    0.50228   0.66468    0.028
 5238.00    0.46357   0.66409    0.028
 5239.00    0.46801   0.66318    0.028
 5240.00    0.47915   0.66216    0.028
 5241.00    0.49799   0.66097    0.028
 5242.00    0.53395   0.65989    0.028
 5243.00    0.58724   0.65883    0.028
 5244.00    0.57571   0.65804    0.028
 5245.00    0.50634   0.65741    0.028
 5246.00    0.51237   0.65706    0.028
 5247.00    0.57768   0.65685    0.028
 5248.00    0.60941   0.65675    0.028
 5249.00    0.61791   0.65663    0.028
 5250.00    0.60446   0.65631    0.028
 5251.00    0.57769   0.65572    0.028
 5252.00    0.57205   0.65466    0.028
 5253.00    0.57760   0.65315    0.028
 5254.00    0.59186   0.65108    0.027
 5255.00    0.61012   0.64859    0.027
 5256.00    0.58436   0.64572    0.027
 5257.00    0.54120   0.64270    0.028
 5258.00    0.54069   0.63967    0.028
 5259.00    0.55455   0.63688    0.027
 5260.00    0.57834   0.63451    0.028
 5261.00    0.60494   0.63273    0.028
 5262.00    0.56116   0.63165    0.028
 5263.00    0.50095   0.63135    0.028
 5264.00    0.40595   0.63181    0.028
 5265.00    0.30442   0.63301    0.028
 5266.00    0.36143   0.63480    0.028
 5267.00    0.44141   0.63710    0.028
 5268.00    0.39611   0.63971    0.028
 5269.00    0.33764   0.64248    0.028
 5270.00    0.39805   0.64526    0.028
 5271.00    0.46657   0.64790    0.028
 5272.00    0.46933   0.65034    0.028
 5273.00    0.46987   0.65249    0.028
 5274.00    0.50759   0.65442    0.028
 5275.00    0.54716   0.65607    0.029
 5276.00    0.64499   0.65759    0.029
 5277.00    0.73020   0.65895    0.029
 5278.00    0.62344   0.66027    0.029
 5279.00    0.52379   0.66149    0.028
 5280.00    0.49348   0.66267    0.028
 5281.00    0.47844   0.66369    0.028
 5282.00    0.57086   0.66454    0.028
 5283.00    0.64707   0.66509    0.028
 5284.00    0.63540   0.66531    0.028
 5285.00    0.62512   0.66514    0.029
 5286.00    0.62084   0.66457    0.029
 5287.00    0.60659   0.66365    0.029
 5288.00    0.55669   0.66246    0.029
 5289.00    0.53822   0.66114    0.029
 5290.00    0.61414   0.65980    0.029
 5291.00    0.65913   0.65862    0.029
 5292.00    0.62500   0.65769    0.029
 5293.00    0.59207   0.65717    0.029
 5294.00    0.56180   0.65703    0.029
 5295.00    0.53079   0.65735    0.029
 5296.00    0.49838   0.65802    0.029
 5297.00    0.49620   0.65902    0.029
 5298.00    0.54436   0.66017    0.029
 5299.00    0.58972   0.66144    0.029
 5300.00    0.63101   0.66262    0.029
 5301.00    0.65074   0.66370    0.029
 5302.00    0.64279   0.66454    0.029
 5303.00    0.64181   0.66513    0.029
 5304.00    0.64870   0.66541    0.029
 5305.00    0.68043   0.66541    0.029
 5306.00    0.73694   0.66510    0.029
 5307.00    0.70134   0.66456    0.029
 5308.00    0.58474   0.66375    0.028
 5309.00    0.55875   0.66276    0.027
 5310.00    0.60297   0.66156    0.028
 5311.00    0.64522   0.66021    0.028
 5312.00    0.68613   0.65868    0.027
 5313.00    0.67514   0.65701    0.027
 5314.00    0.63316   0.65518    0.027
 5315.00    0.63490   0.65322    0.027
 5316.00    0.65943   0.65119    0.027
 5317.00    0.65793   0.64908    0.027
 5318.00    0.64467   0.64711    0.026
 5319.00    0.58792   0.64521    0.026
 5320.00    0.51426   0.64371    0.026
 5321.00    0.49367   0.64247    0.026
 5322.00    0.49061   0.64185    0.027
 5323.00    0.52746   0.64158    0.027
 5324.00    0.57538   0.64196    0.027
 5325.00    0.59396   0.64260    0.027
 5326.00    0.60586   0.64371    0.026
 5327.00    0.54582   0.64486    0.027
 5328.00    0.47265   0.64615    0.027
 5329.00    0.53223   0.64726    0.027
 5330.00    0.61043   0.64824    0.027
 5331.00    0.57631   0.64894    0.027
 5332.00    0.53086   0.64942    0.027
 5333.00    0.55043   0.64968    0.027
 5334.00    0.57417   0.64980    0.027
 5335.00    0.62953   0.64986    0.027
 5336.00    0.68551   0.64989    0.027
 5337.00    0.61527   0.65003    0.027
 5338.00    0.54722   0.65023    0.027
 5339.00    0.54218   0.65065    0.028
 5340.00    0.53593   0.65119    0.028
 5341.00    0.51248   0.65198    0.028
 5342.00    0.49058   0.65289    0.028
 5343.00    0.48329   0.65405    0.027
 5344.00    0.48461   0.65527    0.027
 5345.00    0.54474   0.65667    0.027
 5346.00    0.59826   0.65803    0.027
 5347.00    0.61690   0.65940    0.027
 5348.00    0.63588   0.66059    0.027
 5349.00    0.65628   0.66161    0.028
 5350.00    0.66654   0.66230    0.028
 5351.00    0.64130   0.66265    0.028
 5352.00    0.63458   0.66259    0.028
 5353.00    0.68249   0.66211    0.029
 5354.00    0.70417   0.66124    0.029
 5355.00    0.65993   0.65999    0.029
 5356.00    0.65499   0.65847    0.029
 5357.00    0.73510   0.65672    0.029
 5358.00    0.74349   0.65487    0.028
 5359.00    0.61715   0.65302    0.028
 5360.00    0.55833   0.65125    0.028
 5361.00    0.61024   0.64971    0.028
 5362.00    0.64039   0.64843    0.028
 5363.00    0.63924   0.64755    0.028
 5364.00    0.66080   0.64705    0.028
 5365.00    0.71108   0.64701    0.027
 5366.00    0.68246   0.64734    0.027
 5367.00    0.56587   0.64803    0.027
 5368.00    0.54460   0.64897   -2.000
 5369.00    0.61707   0.65003   -2.000
 5370.00    0.65060   0.65116   -2.000
 5371.00    0.65036   0.65217   -2.000
 5372.00    0.61281   0.65306   -2.000
 5373.00    0.54674   0.65370   -2.000
 5374.00    0.53019   0.65411   -2.000
 5375.00    0.54687   0.65427   -2.000
 5376.00    0.57123   0.65419   -2.000
 5377.00    0.60011   0.65391   -2.000
 5378.00    0.66457   0.65342   -2.000
 5379.00    0.74729   0.65278   -2.000
 5380.00    0.72971   0.65194   -2.000
 5381.00    0.66755   0.65098   -2.000
 5382.00    0.62146   0.64986   -2.000
 5383.00    0.58150   0.64861    0.026
 5384.00    0.57836   0.64727    0.026
 5385.00    0.58716   0.64583    0.026
 5386.00    0.57099   0.64439    0.026
 5387.00    0.54804   0.64293    0.026
 5388.00    0.62432   0.64155    0.027
 5389.00    0.72269   0.64020    0.027
 5390.00    0.66893   0.63897    0.027
 5391.00    0.58815   0.63777    0.027
 5392.00    0.60657   0.63662    0.028
 5393.00    0.63845   0.63547    0.028
 5394.00    0.53413   0.63423    0.028
 5395.00    0.41665   0.63293    0.027
 5396.00    0.41711   0.63145    0.027
 5397.00    0.42467   0.62992    0.027
 5398.00    0.47619   0.62825    0.027
 5399.00    0.52872   0.62665    0.027
 5400.00    0.55930   0.62511    0.027
 5401.00    0.58993   0.62384    0.028
 5402.00    0.62176   0.62292    0.028
 5403.00    0.64776   0.62245    0.028
 5404.00    0.59477   0.62258    0.028
 5405.00    0.54801   0.62322    0.028
 5406.00    0.55741   0.62452    0.028
 5407.00    0.55619   0.62622    0.028
 5408.00    0.48482   0.62840    0.028
 5409.00    0.43614   0.63075    0.028
 5410.00    0.50414   0.63323    0.028
 5411.00    0.55488   0.63561    0.028
 5412.00    0.53400   0.63777    0.027
 5413.00    0.51789   0.63963    0.027
 5414.00    0.51820   0.64106    0.027
 5415.00    0.53962   0.64210    0.027
 5416.00    0.62211   0.64267    0.027
 5417.00    0.67512   0.64288    0.027
 5418.00    0.65536   0.64269    0.027
 5419.00    0.65523   0.64225    0.026
 5420.00    0.69690   0.64154    0.026
 5421.00    0.72495   0.64073    0.027
 5422.00    0.72778   0.63982    0.027
 5423.00    0.72211   0.63897    0.027
 5424.00    0.70269   0.63822    0.027
 5425.00    0.67204   0.63770    0.027
 5426.00    0.62545   0.63742    0.026
 5427.00    0.61375   0.63746    0.026
 5428.00    0.64555   0.63781    0.026
 5429.00    0.66917   0.63845    0.026
 5430.00    0.68382   0.63932    0.025
 5431.00    0.65727   0.64030    0.025
 5432.00    0.59076   0.64132    0.026
 5433.00    0.56384   0.64220    0.026
 5434.00    0.57075   0.64290    0.027
 5435.00    0.60570   0.64326    0.027
 5436.00    0.66176   0.64333    0.026
 5437.00    0.69801   0.64300    0.026
 5438.00    0.72116   0.64243    0.026
 5439.00    0.66712   0.64155    0.026
 5440.00    0.56837   0.64062    0.026
 5441.00    0.59659   0.63951    0.026
 5442.00    0.68892   0.63853    0.027
 5443.00    0.66223   0.63750    0.027
 5444.00    0.58352   0.63667    0.026
 5445.00    0.57988   0.63589    0.027
 5446.00    0.60438   0.63530    0.027
 5447.00    0.62154   0.63481    0.027
 5448.00    0.63636   0.63446    0.027
 5449.00    0.62593   0.63424    0.027
 5450.00    0.60879   0.63411    0.028
 5451.00    0.59166   0.63411    0.028
 5452.00    0.57452   0.63416    0.028
 5453.00    0.59270   0.63431    0.028
 5454.00    0.61699   0.63447    0.028
 5455.00    0.61106   0.63469    0.028
 5456.00    0.60118   0.63486    0.028
 5457.00    0.62497   0.63503    0.028
 5458.00    0.65188   0.63511    0.028
 5459.00    0.64672   0.63514    0.028
 5460.00    0.63974   0.63502    0.027
 5461.00    0.62106   0.63481    0.027
 5462.00    0.60221   0.63443    0.028
 5463.00    0.59314   0.63391    0.027
 5464.00    0.58585   0.63324    0.027
 5465.00    0.62048   0.63243    0.027
 5466.00    0.65097   0.63156    0.027
 5467.00    0.62831   0.63064    0.027
 5468.00    0.60738   0.62980    0.027
 5469.00    0.60136   0.62902    0.027
 5470.00    0.58902   0.62846    0.027
 5471.00    0.53617   0.62804    0.026
 5472.00    0.49588   0.62794    0.025
 5473.00    0.51856   0.62803    0.026
 5474.00    0.53448   0.62838    0.026
 5475.00    0.52297   0.62892    0.026
 5476.00    0.52393   0.62957    0.026
 5477.00    0.56680   0.63036    0.026
 5478.00    0.59443   0.63110   -2.000
 5479.00    0.57876   0.63192   -2.000
 5480.00    0.56672   0.63258   -2.000
 5481.00    0.56348   0.63322   -2.000
 5482.00    0.50558   0.63371   -2.000
 5483.00    0.33315   0.63409   -2.000
 5484.00    0.31235   0.63436   -2.000
 5485.00    0.56768   0.63447   -2.000
 5486.00    0.62544   0.63451   -2.000
 5487.00    0.36873   0.63437   -2.000
 5488.00    0.24626   0.63421   -2.000
 5489.00    0.31133   0.63387   -2.000
 5490.00    0.43139   0.63350   -2.000
 5491.00    0.61905   0.63300   -2.000
 5492.00    1.14007   0.63248   -2.000
 5493.00    2.02237   0.63185   -2.000
 5494.00    1.98549   0.63124   -2.000
 5495.00    1.06997   0.63052   -2.000
 5496.00    0.62069   0.62988   -2.000
 5497.00    0.56439   0.62915   -2.000
 5498.00    0.55877   0.62853   -2.000
 5499.00    0.59076   0.62787   -2.000
 5500.00    0.60187   0.62735   -2.000
 5501.00    0.59936   0.62687   -2.000
 5502.00    0.54062   0.62653    0.028
 5503.00    0.44980   0.62631    0.027
 5504.00    0.49527   0.62624    0.027
 5505.00    0.60844   0.62639    0.027
 5506.00    0.63603   0.62665    0.027
 5507.00    0.62684   0.62715    0.027
 5508.00    0.57650   0.62775    0.027
 5509.00    0.51100   0.62851    0.027
 5510.00    0.52202   0.62931    0.027
 5511.00    0.55692   0.63013    0.026
 5512.00    0.56077   0.63085    0.026
 5513.00    0.55653   0.63145    0.027
 5514.00    0.61323   0.63182    0.027
 5515.00    0.68288   0.63201    0.026
 5516.00    0.62566   0.63193    0.026
 5517.00    0.54715   0.63168    0.026
 5518.00    0.53221   0.63120    0.026
 5519.00    0.52533   0.63066    0.026
 5520.00    0.53300   0.63004    0.026
 5521.00    0.54195   0.62947    0.026
 5522.00    0.55934   0.62900    0.026
 5523.00    0.57716   0.62865    0.026
 5524.00    0.64050   0.62850    0.026
 5525.00    0.70301   0.62850    0.026
 5526.00    0.63885   0.62869    0.026
 5527.00    0.57771   0.62901    0.026
 5528.00    0.58180   0.62945    0.026
 5529.00    0.58558   0.62996    0.026
 5530.00    0.58551   0.63051    0.026
 5531.00    0.58747   0.63106    0.026
 5532.00    0.60624   0.63160    0.026
 5533.00    0.62461   0.63211    0.026
 5534.00    0.64050   0.63258    0.026
 5535.00    0.64971   0.63299    0.026
 5536.00    0.62627   0.63338    0.026
 5537.00    0.60569   0.63370    0.026
 5538.00    0.59644   0.63399    0.027
 5539.00    0.58534   0.63422    0.027
 5540.00    0.56813   0.63440    0.027
 5541.00    0.55419   0.63455    0.027
 5542.00    0.54936   0.63458    0.027
 5543.00    0.53371   0.63461    0.027
 5544.00    0.49227   0.63451    0.027
 5545.00    0.49016   0.63436    0.027
 5546.00    0.56917   0.63408    0.027
 5547.00    0.60952   0.63375    0.027
 5548.00    0.58052   0.63331    0.027
 5549.00    0.59532   0.63281    0.027
 5550.00    0.67882   0.63223    0.027
 5551.00    0.72324   0.63157    0.027
 5552.00    0.71388   0.63091    0.027
 5553.00    0.66879   0.63015    0.027
 5554.00    0.58040   0.62941    0.027
 5555.00    0.54728   0.62859    0.026
 5556.00    0.57323   0.62783    0.026
 5557.00    0.61147   0.62699    0.026
 5558.00    0.66129   0.62624    0.026
 5559.00    0.64455   0.62556    0.026
 5560.00    0.57250   0.62487    0.026
 5561.00    0.54326   0.62433    0.026
 5562.00    0.54535   0.62389    0.026
 5563.00    0.58809   0.62360    0.026
 5564.00    0.65693   0.62337    0.026
 5565.00    0.71305   0.62334    0.026
 5566.00    0.76201   0.62334    0.025
 5567.00    0.71453   0.62346    0.025
 5568.00    0.61989   0.62360    0.026
 5569.00    0.57020   0.62374    0.026
 5570.00    0.53951   0.62380    0.025
 5571.00    0.56295   0.62378    0.025
 5572.00    0.60597   0.62357    0.025
 5573.00    0.65724   0.62316    0.025
 5574.00    0.71104   0.62249    0.025
 5575.00    0.67300   0.62151    0.026
 5576.00    0.61157   0.62035    0.026
 5577.00    0.51182   0.61881    0.026
 5578.00    0.40415   0.61736    0.026
 5579.00    0.41780   0.61545    0.026
 5580.00    0.45124   0.61398    0.027
 5581.00    0.53678   0.61206    0.027
 5582.00    0.62869   0.61090    0.027
 5583.00    0.63980   0.60940    0.027
 5584.00    0.64413   0.60883    0.027
 5585.00    0.59628   0.60804    0.027
 5586.00    0.54591   0.60801    0.027
 5587.00    0.59071   0.60796    0.027
 5588.00    0.63570   0.60830    0.028
 5589.00    0.60737   0.60882    0.027
 5590.00    0.57632   0.60945    0.027
 5591.00    0.49115   0.61028    0.027
 5592.00    0.42424   0.61109    0.027
 5593.00    0.56941   0.61211    0.027
 5594.00    0.68708   0.61316    0.028
 5595.00    0.58376   0.61432    0.028
 5596.00    0.50747   0.61553    0.028
 5597.00    0.59452   0.61677    0.028
 5598.00    0.65170   0.61803    0.027
 5599.00    0.56648   0.61923    0.027
 5600.00    0.49955   0.62033    0.027
 5601.00    0.50373   0.62127    0.026
 5602.00    0.51256   0.62194    0.026
 5603.00    0.53644   0.62232    0.026
 5604.00    0.56769   0.62237    0.026
 5605.00    0.61915   0.62205    0.026
 5606.00    0.65426   0.62158    0.026
 5607.00    0.65098   0.62098    0.025
 5608.00    0.66243   0.62022    0.025
 5609.00    0.70377   0.61943    0.025
 5610.00    0.72642   0.61865    0.024
 5611.00    0.71608   0.61803    0.024
 5612.00    0.68839   0.61747    0.024
 5613.00    0.63389   0.61712    0.024
 5614.00    0.61533   0.61678    0.025
 5615.00    0.64551   0.61671    0.025
 5616.00    0.64963   0.61679    0.025
 5617.00    0.62261   0.61702    0.025
 5618.00    0.57566   0.61729    0.024
 5619.00    0.50773   0.61771    0.025
 5620.00    0.51340   0.61811    0.024
 5621.00    0.58746   0.61857    0.024
 5622.00    0.63806   0.61895    0.025
 5623.00    0.66943   0.61931    0.026
 5624.00    0.67827   0.61951    0.026
 5625.00    0.67086   0.61964    0.026
 5626.00    0.64577   0.61957    0.026
 5627.00    0.60948   0.61936    0.026
 5628.00    0.62610   0.61904    0.026
 5629.00    0.67199   0.61858    0.026
 5630.00    0.64732   0.61812    0.026
 5631.00    0.58868   0.61749    0.026
 5632.00    0.57359   0.61709    0.026
 5633.00    0.57657   0.61657    0.026
 5634.00    0.53924   0.61628    0.026
 5635.00    0.48758   0.61601    0.026
 5636.00    0.51904   0.61591    0.026
 5637.00    0.57544   0.61591    0.026
 5638.00    0.64487   0.61598    0.026
 5639.00    0.71755   0.61613    0.026
 5640.00    0.67033   0.61626    0.026
 5641.00    0.59888   0.61641    0.025
 5642.00    0.53813   0.61646    0.025
 5643.00    0.47909   0.61643    0.025
 5644.00    0.52274   0.61619    0.024
 5645.00    0.57848   0.61580    0.024
 5646.00    0.62793   0.61526    0.025
 5647.00    0.67689   0.61453    0.025
 5648.00    0.66617   0.61360    0.024
 5649.00    0.65280   0.61268    0.023
 5650.00    0.66291   0.61176    0.024
 5651.00    0.67334   0.61088    0.024
 5652.00    0.68649   0.61013    0.024
 5653.00    0.69897   0.60950    0.024
 5654.00    0.69897   0.60910    0.024
 5655.00    0.69823   0.60889    0.024
 5656.00    0.68916   0.60894    0.024
 5657.00    0.67391   0.60914    0.025
 5658.00    0.61073   0.60953    0.025
 5659.00    0.55459   0.61006    0.025
 5660.00    0.53978   0.61071    0.024
 5661.00    0.53696   0.61148    0.024
 5662.00    0.58986   0.61227    0.025
 5663.00    0.62808   0.61310    0.026
 5664.00    0.61047   0.61387    0.025
 5665.00    0.58559   0.61462    0.025
 5666.00    0.53763   0.61522    0.025
 5667.00    0.51036   0.61572    0.025
 5668.00    0.53872   0.61602    0.026
 5669.00    0.53808   0.61624    0.026
 5670.00    0.47055   0.61620    0.025
 5671.00    0.44230   0.61603    0.025
 5672.00    0.49248   0.61566    0.025
 5673.00    0.54819   0.61519    0.026
 5674.00    0.61353   0.61464    0.026
 5675.00    0.64353   0.61399    0.026
 5676.00    0.61973   0.61347    0.026
 5677.00    0.59403   0.61287    0.026
 5678.00    0.56577   0.61248    0.026
 5679.00    0.55896   0.61207    0.026
 5680.00    0.57742   0.61194    0.026
 5681.00    0.60463   0.61189    0.025
 5682.00    0.64092   0.61207    0.025
 5683.00    0.63373   0.61228    0.024
 5684.00    0.58669   0.61254    0.024
 5685.00    0.56861   0.61283    0.024
 5686.00    0.57392   0.61298    0.024
 5687.00    0.57933   0.61313    0.024
 5688.00    0.58482   0.61298    0.024
 5689.00    0.59429   0.61288    0.023
 5690.00    0.60624   0.61230    0.023
 5691.00    0.62801   0.61180    0.024
 5692.00    0.65513   0.61096    0.024
 5693.00    0.69815   0.61006    0.024
 5694.00    0.74869   0.60904    0.024
 5695.00    0.72740   0.60800    0.024
 5696.00    0.67678   0.60695    0.025
 5697.00    0.65937   0.60583    0.025
 5698.00    0.65356   0.60478    0.025
 5699.00    0.66594   0.60381    0.025
 5700.00    0.68368   0.60306    0.025
 5701.00    0.65976   0.60241    0.025
 5702.00    0.62570   0.60216    0.025
 5703.00    0.58296   0.60216    0.025
 5704.00    0.53850   0.60239    0.024
 5705.00    0.53183   0.60312    0.025
 5706.00    0.53096   0.60394    0.025
 5707.00    0.54751   0.60505    0.025
 5708.00    0.56604   0.60627    0.025
 5709.00    0.53689   0.60763    0.025
 5710.00    0.50413   0.60897    0.025
 5711.00    0.56569   0.61034    0.025
 5712.00    0.63108   0.61158    0.024
 5713.00    0.63798   0.61268    0.024
 5714.00    0.64484   0.61361    0.024
 5715.00    0.66857   0.61434    0.024
 5716.00    0.69082   0.61486    0.024
 5717.00    0.68750   0.61517    0.024
 5718.00    0.67850   0.61531    0.025
 5719.00    0.60936   0.61522    0.024
 5720.00    0.54501   0.61519    0.024
 5721.00    0.51668   0.61505    0.024
 5722.00    0.50390   0.61494    0.024
 5723.00    0.57985   0.61467    0.024
 5724.00    0.65691   0.61454    0.023
 5725.00    0.73898   0.61450    0.024
 5726.00    0.79959   0.61441    0.024
 5727.00    0.78040   0.61444    0.023
 5728.00    0.74629   0.61433    0.023
 5729.00    0.66578   0.61435    0.023
 5730.00    0.61219   0.61429    0.023
 5731.00    0.62977   0.61422    0.023
 5732.00    0.65364   0.61422    0.023
 5733.00    0.69176   0.61406    0.023
 5734.00    0.71521   0.61407    0.023
 5735.00    0.70983   0.61380    0.024
 5736.00    0.68283   0.61376    0.024
 5737.00    0.61877   0.61352    0.024
 5738.00    0.57401   0.61336    0.024
 5739.00    0.55821   0.61305    0.024
 5740.00    0.53917   0.61266    0.000
 5741.00    0.51586   0.61240    0.000
 5742.00    0.50047   0.61203    0.000
 5743.00    0.49426   0.61172    0.000
 5744.00    0.53883   0.61126    0.000
 5745.00    0.63540   0.61087    0.000
 5746.00    0.69430   0.61046    0.000
 5747.00    0.71917   0.61022    0.000
 5748.00    0.71924   0.61004    0.000
 5749.00    0.69957   0.60986    0.000
 5750.00    0.64900   0.60980    0.000
 5751.00    0.57679   0.60963    0.000
 5752.00    0.56800   0.60957    0.000
 5753.00    0.59817   0.60943    0.000
 5754.00    0.60402   0.60941    0.000
 5755.00    0.59682   0.60932    0.000
 5756.00    0.61552   0.60949    0.000
 5757.00    0.64628   0.60956    0.000
 5758.00    0.68296   0.60974    0.000
 5759.00    0.72201   0.60987    0.000
 5760.00    0.72281   0.60996    0.000
 5761.00    0.71049   0.61002    0.000
 5762.00    0.67987   0.60995    0.000
 5763.00    0.64396   0.60986    0.000
 5764.00    0.67046   0.60954    0.000
 5765.00    0.71181   0.60921    0.000
 5766.00    0.73087   0.60863    0.000
 5767.00    0.74565   0.60798    0.000
 5768.00    0.70671   0.60720    0.000
 5769.00    0.65977   0.60626    0.000
 5770.00    0.64849   0.60527    0.000
 5771.00    0.64110   0.60414    0.000
 5772.00    0.66020   0.60301    0.000
 5773.00    0.68121   0.60181    0.000
 5774.00    0.66301   0.60084    0.000
 5775.00    0.64338   0.59996    0.000
 5776.00    0.63882   0.59935    0.000
 5777.00    0.63546   0.59890    0.000
 5778.00    0.67225   0.59872    0.000
 5779.00    0.70484   0.59882    0.000
 5780.00    0.66999   0.59905    0.000
 5781.00    0.63439   0.59956    0.000
 5782.00    0.59116   0.60006    0.000
 5783.00    0.55130   0.60065    0.000
 5784.00    0.53584   0.60133    0.000
 5785.00    0.52904   0.60190    0.000
 5786.00    0.57029   0.60261    0.000
 5787.00    0.60112   0.60309    0.000
 5788.00    0.58571   0.60355    0.000
 5789.00    0.57084   0.60385    0.000
 5790.00    0.55789   0.60396    0.000
 5791.00    0.55451   0.60428   -2.000
 5792.00    0.58038   0.60408   -2.000
 5793.00    0.60504   0.60441   -2.000
 5794.00    0.62657   0.60411   -2.000
 5795.00    0.63680   0.60444   -2.000
 5796.00    0.62178   0.60420   -2.000
 5797.00    0.60541   0.60450   -2.000
 5798.00    0.58643   0.60436   -2.000
 5799.00    0.57841   0.60446   -2.000
 5800.00    0.58890   0.60446   -2.000
 5801.00    0.61009   0.60442   -2.000
 5802.00    0.64709   0.60459   -2.000
 5803.00    0.66570   0.60431   -2.000
 5804.00    0.66041   0.60462   -2.000
 5805.00    0.65030   0.60425   -2.000
 5806.00    0.63467   0.60481   -2.000
 5807.00    0.62088   0.60455   -2.000
 5808.00    0.60895   0.60524   -2.000
 5809.00    0.60645   0.60528   -2.000
 5810.00    0.61233   0.60591   -2.000
 5811.00    0.61318   0.60636    0.000
 5812.00    0.61007   0.60698    0.000
 5813.00    0.58425   0.60767    0.000
 5814.00    0.54276   0.60813    0.000
 5815.00    0.53576   0.60889    0.000
 5816.00    0.54964   0.60924    0.000
 5817.00    0.57236   0.60992    0.000
 5818.00    0.59973   0.61015    0.000
 5819.00    0.63235   0.61062    0.000
 5820.00    0.66736   0.61073    0.000
 5821.00    0.68652   0.61089    0.000
 5822.00    0.69943   0.61088    0.000
 5823.00    0.71975   0.61078    0.000
 5824.00    0.74256   0.61071    0.000
 5825.00    0.75270   0.61045    0.000
 5826.00    0.75926   0.61029    0.000
 5827.00    0.71098   0.60999    0.000
 5828.00    0.64994   0.60979    0.000
 5829.00    0.59715   0.60950    0.000
 5830.00    0.54591   0.60925    0.000
 5831.00    0.55156   0.60900    0.000
 5832.00    0.56542   0.60866    0.000
 5833.00    0.60104   0.60840    0.000
 5834.00    0.63894   0.60804    0.000
 5835.00    0.66116   0.60768    0.000
 5836.00    0.68232   0.60713    0.000
 5837.00    0.67006   0.60653    0.000
 5838.00    0.65670   0.60579    0.000
 5839.00    0.62908   0.60491    0.000
 5840.00    0.60253   0.60398    0.000
 5841.00    0.61006   0.60285    0.000
 5842.00    0.62010   0.60176    0.000
 5843.00    0.66787   0.60057    0.000
 5844.00    0.70929   0.59942    0.000
 5845.00    0.68910   0.59814    0.000
 5846.00    0.66909   0.59701    0.000
 5847.00    0.65042   0.59585    0.000
 5848.00    0.63274   0.59495    0.000
 5849.00    0.62041   0.59417    0.000
 5850.00    0.61548   0.59351    0.000
 5851.00    0.64258   0.59298    0.000
 5852.00    0.66306   0.59262    0.000
 5853.00    0.65992   0.59267    0.000
 5854.00    0.65241   0.59262    0.000
 5855.00    0.63179   0.59280    0.000
 5856.00    0.61387   0.59288    0.000
 5857.00    0.60284   0.59293    0.000
 5858.00    0.60265   0.59309    0.000
 5859.00    0.62625   0.59288    0.000
 5860.00    0.63797   0.59258    0.000
 5861.00    0.62707   0.59207    0.000
 5862.00    0.63194   0.59140    0.000
 5863.00    0.66305   0.59090    0.000
 5864.00    0.68098   0.58946    0.000
 5865.00    0.67970   0.58879    0.000
 5866.00    0.68626   0.58694    0.000
 5867.00    0.70286   0.58602    0.000
 5868.00    0.68347   0.58444    0.000
 5869.00    0.62345   0.58278    0.000
 5870.00    0.57967   0.58219    0.000
 5871.00    0.55203   0.58074    0.000
 5872.00    0.53909   0.58101    0.000
 5873.00    0.53904   0.57922    0.000
 5874.00    0.56395   0.57868    0.000
 5875.00    0.60816   0.57692    0.000
 5876.00    0.64730   0.57564    0.000
 5877.00    0.68299   0.57380    0.000
 5878.00    0.66684   0.57138    0.000
 5879.00    0.61978   0.56919    0.000
 5880.00    0.60186   0.56619    0.000
 5881.00    0.59909   0.56349    0.000
 5882.00    0.59173   0.56031    0.000
 5883.00    0.58232   0.55740    0.000
 5884.00    0.54761   0.55471    0.000
 5885.00    0.50309   0.55339    0.000
 5886.00    0.51498   0.55281    0.000
 5887.00    0.54547   0.55239    0.000
 5888.00    0.54204   0.55284    0.000
 5889.00    0.52922   0.55352    0.000
 5890.00    0.53496   0.55474    0.000
 5891.00    0.54491   0.55730    0.000
 5892.00    0.58799   0.56015    0.000
 5893.00    0.63709   0.56308    0.000
 5894.00    0.61729   0.56624    0.000
 5895.00    0.58787   0.56946    0.000
 5896.00    0.57387   0.57236    0.000
 5897.00    0.56142   0.57500    0.000
 5898.00    0.53315   0.57735    0.000
 5899.00    0.50387   0.57921    0.000
 5900.00    0.50915   0.58098    0.000
 5901.00    0.51552   0.58234    0.021
 5902.00    0.55024   0.58340    0.021
 5903.00    0.58385   0.58406    0.021
 5904.00    0.58650   0.58445    0.021
 5905.00    0.58936   0.58479    0.021
 5906.00    0.59521   0.58483    0.021
 5907.00    0.60343   0.58486    0.021
 5908.00    0.63367   0.58464    0.021
 5909.00    0.66102   0.58472    0.022
 5910.00    0.66873   0.58471    0.021
 5911.00    0.67833   0.58486    0.021
 5912.00    0.69784   0.58502    0.022
 5913.00    0.70758   0.58508    0.022
 5914.00    0.67600   0.58532    0.022
 5915.00    0.65060   0.58540    0.022
 5916.00    0.64685   0.58551    0.022
 5917.00    0.64148   0.58564    0.023
 5918.00    0.63136   0.58579    0.022
 5919.00    0.62302   0.58585    0.022
 5920.00    0.61915   0.58591    0.023
 5921.00    0.62268   0.58588    0.023
 5922.00    0.64216   0.58580    0.023
 5923.00    0.65237   0.58575    0.022
 5924.00    0.64520   0.58563    0.022
 5925.00    0.65609   0.58565    0.022
 5926.00    0.69658   0.58566    0.023
 5927.00    0.70783   0.58566    0.023
 5928.00    0.67710   0.58556    0.022
 5929.00    0.63997   0.58551    0.022
 5930.00    0.59478   0.58559    0.021
 5931.00    0.57646   0.58555    0.021
 5932.00    0.58805   0.58557    0.021
 5933.00    0.60205   0.58546    0.021
 5934.00    0.61843   0.58536    0.021
 5935.00    0.63669   0.58513    0.021
 5936.00    0.65657   0.58499    0.021
 5937.00    0.66674   0.58483    0.021
 5938.00    0.66952   0.58459    0.021
 5939.00    0.67654   0.58446    0.021
 5940.00    0.68640   0.58419    0.021
 5941.00    0.66942   0.58394    0.021
 5942.00    0.63670   0.58357    0.021
 5943.00    0.61580   0.58323    0.021
 5944.00    0.60095   0.58303    0.021
 5945.00    0.60272   0.58293    0.021
 5946.00    0.61186   0.58281    0.021
 5947.00    0.62177   0.58273    0.022
 5948.00    0.63198   0.58284    0.022
 5949.00    0.63739   0.58303    0.022
 5950.00    0.64124   0.58317    0.022
 5951.00    0.62925   0.58339    0.022
 5952.00    0.61297   0.58377    0.022
 5953.00    0.64032   0.58416    0.022
 5954.00    0.67736   0.58472    0.023
 5955.00    0.67314   0.58509    0.022
 5956.00    0.66162   0.58554    0.022
 5957.00    0.63823   0.58589    0.022
 5958.00    0.61323   0.58622    0.022
 5959.00    0.57217   0.58641    0.022
 5960.00    0.52957   0.58647    0.021
 5961.00    0.55683   0.58663    0.021
 5962.00    0.58825   0.58654    0.021
 5963.00    0.61257   0.58645    0.021
 5964.00    0.63635   0.58618    0.021
 5965.00    0.60476   0.58586    0.021
 5966.00    0.57570   0.58543    0.021
 5967.00    0.61112   0.58496    0.021
 5968.00    0.64438   0.58441    0.021
 5969.00    0.64863   0.58375    0.021
 5970.00    0.65075   0.58314    0.021
 5971.00    0.63387   0.58250    0.021
 5972.00    0.61868   0.58197    0.021
 5973.00    0.61458   0.58155    0.020
 5974.00    0.61191   0.58124    0.020
 5975.00    0.61659   0.58096    0.020
 5976.00    0.61176   0.58075    0.021
 5977.00    0.56756   0.58062    0.021
 5978.00    0.53737   0.58043    0.021
 5979.00    0.55518   0.58053    0.022
 5980.00    0.58196   0.58073    0.022
 5981.00    0.63460   0.58099    0.021
 5982.00    0.67145   0.58128    0.021
 5983.00    0.66936   0.58157    0.021
 5984.00    0.65999   0.58183    0.021
 5985.00    0.63514   0.58199    0.022
 5986.00    0.62085   0.58218    0.022
 5987.00    0.62606   0.58230    0.022
 5988.00    0.64002   0.58239    0.022
 5989.00    0.66811   0.58235    0.022
 5990.00    0.69586   0.58213    0.022
 5991.00    0.72315   0.58187    0.022
 5992.00    0.72187   0.58149    0.022
 5993.00    0.68504   0.58111    0.022
 5994.00    0.65068   0.58063    0.021
 5995.00    0.61901   0.58013    0.021
 5996.00    0.60403   0.57967    0.020
 5997.00    0.60518   0.57917    0.020
 5998.00    0.61558   0.57878    0.020
 5999.00    0.63388   0.57833    0.020
 6000.00    0.63134   0.57791    0.020
 6001.00    0.61315   0.57762    0.020
 6002.00    0.60399   0.57727    0.020
 6003.00    0.60079   0.57709    0.020
 6004.00    0.60147   0.57695    0.020
 6005.00    0.60440   0.57688    0.020
 6006.00    0.63718   0.57676    0.020
 6007.00    0.68500   0.57658    0.020
 6008.00    0.67806   0.57651    0.021
 6009.00    0.64726   0.57643    0.021
 6010.00    0.63675   0.57638    0.021
 6011.00    0.63384   0.57630    0.022
 6012.00    0.64672   0.57646    0.021
 6013.00    0.66461   0.57655    0.021
 6014.00    0.64809   0.57665    0.021
 6015.00    0.62245   0.57691    0.021
 6016.00    0.61447   0.57719    0.022
 6017.00    0.61033   0.57770    0.022
 6018.00    0.62060   0.57813    0.022
 6019.00    0.63336   0.57880    0.022
 6020.00    0.61723   0.57940    0.022
 6021.00    0.59733   0.58000    0.021
 6022.00    0.59695   0.58073    0.021
 6023.00    0.59837   0.58125    0.021
 6024.00    0.59614   0.58188    0.021
 6025.00    0.59370   0.58237    0.021
 6026.00    0.58573   0.58283    0.021
 6027.00    0.57765   0.58316    0.021
 6028.00    0.57138   0.58346    0.021
 6029.00    0.56688   0.58368    0.021
 6030.00    0.60354   0.58383    0.020
 6031.00    0.63764   0.58396    0.020
 6032.00    0.63910   0.58408    0.020
 6033.00    0.63928   0.58414    0.020
 6034.00    0.62834   0.58418    0.020
 6035.00    0.61760   0.58431    0.020
 6036.00    0.60814   0.58428    0.020
 6037.00    0.59949   0.58446    0.021
 6038.00    0.59481   0.58448    0.020
 6039.00    0.59800   0.58456    0.020
 6040.00    0.63302   0.58455    0.021
 6041.00    0.65499   0.58449    0.021
 6042.00    0.63314   0.58440    0.021
 6043.00    0.61578   0.58414    0.021
 6044.00    0.61112   0.58400    0.022
 6045.00    0.61382   0.58362    0.022
 6046.00    0.63430   0.58338    0.022
 6047.00    0.64646   0.58296    0.022
 6048.00    0.64123   0.58260    0.022
 6049.00    0.62835   0.58214    0.022
 6050.00    0.60160   0.58166    0.021
 6051.00    0.58794   0.58129    0.021
 6052.00    0.59509   0.58072    0.021
 6053.00    0.60127   0.58049    0.021
 6054.00    0.60610   0.58018    0.021
 6055.00    0.61599   0.58002    0.021
 6056.00    0.63209   0.57991    0.021
 6057.00    0.64715   0.57978    0.021
 6058.00    0.66110   0.57985    0.020
 6059.00    0.67050   0.57976    0.020
 6060.00    0.67555   0.58000    0.020
 6061.00    0.65901   0.58023    0.020
 6062.00    0.62429   0.58051    0.020
 6063.00    0.58652   0.58088    0.020
 6064.00    0.54648   0.58102    0.020
 6065.00    0.56187   0.58109    0.020
 6066.00    0.61332   0.58102    0.020
 6067.00    0.64489   0.58088    0.020
 6068.00    0.66514   0.58062    0.020
 6069.00    0.66673   0.58025    0.020
 6070.00    0.65907   0.57980    0.020
 6071.00    0.69066   0.57925    0.020
 6072.00    0.73908   0.57854    0.021
 6073.00    0.75060   0.57793    0.021
 6074.00    0.74856   0.57730    0.021
 6075.00    0.69750   0.57676    0.022
 6076.00    0.63118   0.57628    0.022
 6077.00    0.60980   0.57583    0.021
 6078.00    0.60007   0.57548    0.021
 6079.00    0.60133   0.57514    0.021
 6080.00    0.60492   0.57501    0.021
 6081.00    0.59106   0.57489    0.021
 6082.00    0.57429   0.57488    0.021
 6083.00    0.59585   0.57488    0.021
 6084.00    0.62224   0.57486    0.021
 6085.00    0.62242   0.57482    0.021
 6086.00    0.62031   0.57477    0.020
 6087.00    0.64312   0.57476    0.020
 6088.00    0.66722   0.57475    0.020
 6089.00    0.63927   0.57453    0.020
 6090.00    0.61070   0.57426    0.020
 6091.00    0.60597   0.57394    0.020
 6092.00    0.60172   0.57352    0.019
 6093.00    0.60756   0.57329    0.020
 6094.00    0.61154   0.57297    0.020
 6095.00    0.59292   0.57273    0.020
 6096.00    0.57675   0.57235    0.020
 6097.00    0.58094   0.57206    0.020
 6098.00    0.58322   0.57198    0.020
 6099.00    0.57368   0.57194    0.020
 6100.00    0.56736   0.57228    0.020
 6101.00    0.57665   0.57251    0.021
 6102.00    0.58766   0.57268    0.021
 6103.00    0.60546   0.57284    0.021
 6104.00    0.61767   0.57286    0.021
 6105.00    0.61148   0.57294    0.021
 6106.00    0.60165   0.57290    0.021
 6107.00    0.58167   0.57283    0.021
 6108.00    0.57468   0.57253    0.021
 6109.00    0.59861   0.57202    0.021
 6110.00    0.61689   0.57151    0.021
 6111.00    0.62355   0.57078    0.021
 6112.00    0.62648   0.57027    0.021
 6113.00    0.62275   0.56977    0.020
 6114.00    0.62144   0.56924    0.020
 6115.00    0.62395   0.56877    0.020
 6116.00    0.62394   0.56816    0.020
 6117.00    0.62046   0.56797    0.020
 6118.00    0.61147   0.56766    0.020
 6119.00    0.59582   0.56761    0.020
 6120.00    0.58404   0.56777    0.020
 6121.00    0.57639   0.56756    0.020
 6122.00    0.57053   0.56744    0.020
 6123.00    0.56636   0.56702    0.020
 6124.00    0.56067   0.56662    0.020
 6125.00    0.55373   0.56613    0.019
 6126.00    0.56687   0.56549    0.020
 6127.00    0.59468   0.56523    0.020
 6128.00    0.62183   0.56472    0.020
 6129.00    0.64856   0.56428    0.020
 6130.00    0.65559   0.56371    0.020
 6131.00    0.65157   0.56319    0.020
 6132.00    0.62502   0.56320    0.021
 6133.00    0.58748   0.56323    0.021
 6134.00    0.59386   0.56379    0.021
 6135.00    0.61875   0.56435    0.022
 6136.00    0.60822   0.56482    0.022
 6137.00    0.58491   0.56514    0.021
 6138.00    0.54883   0.56549    0.021
 6139.00    0.50886   0.56606    0.022
 6140.00    0.50438   0.56650    0.021
 6141.00    0.50890   0.56676    0.021
 6142.00    0.52493   0.56681    0.021
 6143.00    0.54334   0.56649    0.020
 6144.00    0.56651   0.56584    0.020
 6145.00    0.59046   0.56524    0.021
 6146.00    0.62687   0.56436    0.020
 6147.00    0.66479   0.56339    0.020
 6148.00    0.65664   0.56209    0.020
 6149.00    0.64464   0.56061    0.020
 6150.00    0.61871   0.55875    0.020
 6151.00    0.59210   0.55665    0.020
 6152.00    0.61089   0.55499    0.019
 6153.00    0.63032   0.55332    0.019
 6154.00    0.64879   0.55178    0.020
 6155.00    0.66559   0.55016    0.020
 6156.00    0.64978   0.54876    0.020
 6157.00    0.63048   0.54750    0.020
 6158.00    0.57085   0.54630    0.020
 6159.00    0.51471   0.54591    0.020
 6160.00    0.48639   0.54601    0.021
 6161.00    0.46606   0.54631    0.021
 6162.00    0.49380   0.54650    0.021
 6163.00    0.51813   0.54694    0.021
 6164.00    0.52618   0.54764    0.021
 6165.00    0.53363   0.54830    0.021
 6166.00    0.53871   0.54922    0.021
 6167.00    0.54077   0.55053    0.021
 6168.00    0.53307   0.55169    0.021
 6169.00    0.53880   0.55243    0.021
 6170.00    0.58119   0.55330    0.021
 6171.00    0.59710   0.55407    0.021
 6172.00    0.55099   0.55471    0.020
 6173.00    0.51617   0.55508    0.020
 6174.00    0.50421   0.55548    0.020
 6175.00    0.50128   0.55559    0.020
 6176.00    0.51424   0.55533    0.020
 6177.00    0.53877   0.55513    0.020
 6178.00    0.58114   0.55475    0.020
 6179.00    0.59988   0.55432    0.019
 6180.00    0.58664   0.55340    0.019
 6181.00    0.57717   0.55283    0.020
 6182.00    0.57220   0.55243    0.020
 6183.00    0.59218   0.55189    0.020
 6184.00    0.63839   0.55162    0.020
 6185.00    0.65607   0.55129    0.020
 6186.00    0.64728   0.55128    0.020
 6187.00    0.61039   0.55112    0.028
 6188.00    0.55051   0.55114    0.096
 6189.00    0.67307   0.55164   -1.000
 6190.00    0.92693   0.55204   -1.000
 6191.00    1.21116   0.55254   -1.000
 6192.00    1.51457   0.55295   -1.000
 6193.00    1.68775   0.55334   -1.000
 6194.00    1.78901   0.55374   -1.000
 6195.00    1.23734   0.55398   -1.000
 6196.00    0.37214   0.55425   -2.000
 6197.00    0.19310   0.55449   -2.000
 6198.00    0.29851   0.55463   -2.000
 6199.00    0.36537   0.55451   -2.000
 6200.00    0.41857   0.55417   -2.000
 6201.00    0.41202   0.55380   -2.000
 6202.00    0.38760   0.55309   -2.000
 6203.00    0.40097   0.55236   -2.000
 6204.00    0.42372   0.55153   -2.000
 6205.00    0.46601   0.55061   -2.000
 6206.00    0.51224   0.54983   -2.000
 6207.00    0.54667   0.54881   -2.000
 6208.00    0.57923   0.54786    0.021
 6209.00    0.60571   0.54690    0.020
 6210.00    0.63147   0.54606    0.020
 6211.00    0.62535   0.54559    0.020
 6212.00    0.61669   0.54506    0.020
 6213.00    0.59077   0.54466    0.020
 6214.00    0.56410   0.54434    0.020
 6215.00    0.52793   0.54380    0.020
 6216.00    0.49218   0.54355    0.020
 6217.00    0.48140   0.54335    0.020
 6218.00    0.47142   0.54316    0.021
 6219.00    0.47622   0.54278    0.021
 6220.00    0.48332   0.54229    0.020
 6221.00    0.51576   0.54207    0.021
 6222.00    0.55034   0.54173    0.021
 6223.00    0.60136   0.54164    0.021
 6224.00    0.64264   0.54144    0.021
 6225.00    0.62698   0.54124    0.021
 6226.00    0.60762   0.54092    0.021
 6227.00    0.57108   0.54059    0.020
 6228.00    0.53944   0.54074    0.020
 6229.00    0.52640   0.54054    0.020
 6230.00    0.52461   0.54065    0.020
 6231.00    0.55848   0.54059    0.020
 6232.00    0.59473   0.54023    0.020
 6233.00    0.63737   0.54013    0.020
 6234.00    0.66990   0.53975    0.020
 6235.00    0.67914   0.53957    0.019
 6236.00    0.67470   0.53929    0.019
 6237.00    0.64299   0.53914    0.019
 6238.00    0.61185   0.53904    0.019
 6239.00    0.58169   0.53858    0.019
 6240.00    0.56617   0.53835    0.019
 6241.00    0.57288   0.53796    0.020
 6242.00    0.58349   0.53752    0.020
 6243.00    0.59931   0.53721    0.020
 6244.00    0.59349   0.53706    0.020
 6245.00    0.56222   0.53674    0.020
 6246.00    0.54061   0.53641    0.020
 6247.00    0.52902   0.53605    0.020
 6248.00    0.53163   0.53566    0.020
 6249.00    0.54724   0.53571    0.021
 6250.00    0.54821   0.53583    0.021
 6251.00    0.53737   0.53635    0.020
 6252.00    0.52915   0.53675    0.020
 6253.00    0.52280   0.53718    0.020
 6254.00    0.53440   0.53775    0.020
 6255.00    0.55717   0.53849    0.020
 6256.00    0.55763   0.53960    0.020
 6257.00    0.54595   0.54043    0.020
 6258.00    0.54272   0.54127    0.020
 6259.00    0.54350   0.54215    0.021
 6260.00    0.53398   0.54276    0.022
 6261.00    0.52026   0.54327    0.023
 6262.00    0.52285   0.54389    0.024
 6263.00    0.53111   0.54445    0.024
 6264.00    0.56210   0.54477    0.024
 6265.00    0.59974   0.54488    0.024
 6266.00    0.60061   0.54500    0.023
 6267.00    0.59254   0.54511    0.021
 6268.00    0.56594   0.54517    0.021
 6269.00    0.53570   0.54508    0.020
 6270.00    0.53075   0.54497    0.020
 6271.00    0.52968   0.54487    0.020
 6272.00    0.54502   0.54486    0.020
 6273.00    0.56221   0.54496    0.020
 6274.00    0.60876   0.54491    0.020
 6275.00    0.65752   0.54504    0.021
 6276.00    0.66902   0.54502    0.021
 6277.00    0.67902   0.54523    0.021
 6278.00    0.61785   0.54566    0.021
 6279.00    0.55815   0.54583    0.021
 6280.00    0.57960   0.54610    0.000
 6281.00    0.60167   0.54601    0.000
 6282.00    0.63432   0.54606    0.000
 6283.00    0.66318   0.54624    0.000
 6284.00    0.65220   0.54611    0.000
 6285.00    0.64397   0.54593    0.000
 6286.00    0.65631   0.54546    0.000
 6287.00    0.66166   0.54500    0.000
 6288.00    0.62716   0.54465    0.000
 6289.00    0.59435   0.54421    0.000
 6290.00    0.56912   0.54389    0.000
 6291.00    0.55659   0.54352    0.000
 6292.00    0.59122   0.54307    0.000
 6293.00    0.62424   0.54276    0.000
 6294.00    0.65227   0.54272    0.000
 6295.00    0.67723   0.54285    0.000
 6296.00    0.69409   0.54291    0.000
 6297.00    0.70613   0.54290    0.000
 6298.00    0.70728   0.54300    0.000
 6299.00    0.70657   0.54325    0.000
 6300.00    0.70225   0.54351    0.000
 6301.00    0.67805   0.54356    0.000
 6302.00    0.61986   0.54352    0.000
 6303.00    0.58380   0.54356    0.000
 6304.00    0.58087   0.54356    0.000
 6305.00    0.58793   0.54344    0.000
 6306.00    0.60815   0.54315    0.000
 6307.00    0.61339   0.54298    0.000
 6308.00    0.60125   0.54292    0.000
 6309.00    0.59115   0.54286    0.000
 6310.00    0.58313   0.54293    0.000
 6311.00    0.58623   0.54290    0.000
 6312.00    0.59934   0.54324    0.000
 6313.00    0.60645   0.54363    0.000
 6314.00    0.60878   0.54374    0.000
 6315.00    0.62110   0.54439    0.000
 6316.00    0.64042   0.54495    0.000
 6317.00    0.65452   0.54557    0.000
 6318.00    0.66542   0.54595    0.000
 6319.00    0.66631   0.54621    0.000
 6320.00    0.66184   0.54676    0.000
 6321.00    0.66860   0.54686    0.020
 6322.00    0.68059   0.54714    0.020
 6323.00    0.67816   0.54711    0.020
 6324.00    0.66995   0.54703    0.020
 6325.00    0.64939   0.54696    0.020
 6326.00    0.62463   0.54645    0.020
 6327.00    0.62490   0.54622    0.020
 6328.00    0.63236   0.54602    0.021
 6329.00    0.65670   0.54591    0.021
 6330.00    0.68505   0.54559    0.020
 6331.00    0.69633   0.54519    0.020
 6332.00    0.70435   0.54497    0.021
 6333.00    0.66519   0.54495    0.021
 6334.00    0.61904   0.54502    0.020
 6335.00    0.60159   0.54484    0.020
 6336.00    0.58725   0.54501    0.019
 6337.00    0.60899   0.54500    0.019
 6338.00    0.63329   0.54504    0.019
 6339.00    0.63813   0.54501    0.019
 6340.00    0.64226   0.54494    0.019
 6341.00    0.59708   0.54506    0.019
 6342.00    0.55325   0.54485    0.019
 6343.00    0.56313   0.54466    0.019
 6344.00    0.57296   0.54428    0.019
 6345.00    0.58202   0.54395    0.019
 6346.00    0.59089   0.54344    0.019
 6347.00    0.59786   0.54288    0.019
 6348.00    0.60811   0.54237    0.019
 6349.00    0.64191   0.54160    0.020
 6350.00    0.66938   0.54094    0.020
 6351.00    0.66180   0.54035    0.020
 6352.00    0.65164   0.54001    0.019
 6353.00    0.63003   0.53969    0.020
 6354.00    0.61281   0.53930    0.020
 6355.00    0.61150   0.53924    0.021
 6356.00    0.61675   0.53943    0.021
 6357.00    0.64200   0.53977    0.020
 6358.00    0.66056   0.54013    0.020
 6359.00    0.66177   0.54063    0.020
 6360.00    0.65975   0.54130    0.020
 6361.00    0.65051   0.54190    0.020
 6362.00    0.64783   0.54259    0.020
 6363.00    0.65781   0.54330    0.020
 6364.00    0.65554   0.54396    0.020
 6365.00    0.63267   0.54451    0.020
 6366.00    0.61130   0.54482    0.019
 6367.00    0.59215   0.54518    0.019
 6368.00    0.59247   0.54549    0.019
 6369.00    0.61805   0.54564    0.020
 6370.00    0.63992   0.54565    0.020
 6371.00    0.65756   0.54559    0.019
 6372.00    0.66523   0.54548    0.019
 6373.00    0.66286   0.54541    0.019
 6374.00    0.66939   0.54521    0.020
 6375.00    0.68383   0.54491    0.020
 6376.00    0.68614   0.54471    0.020
 6377.00    0.67895   0.54443    0.020
 6378.00    0.67242   0.54424    0.020
 6379.00    0.66634   0.54388    0.020
 6380.00    0.67000   0.54351    0.020
 6381.00    0.67954   0.54326    0.020
 6382.00    0.67611   0.54295    0.020
 6383.00    0.66583   0.54264    0.020
 6384.00    0.67114   0.54201    0.020
 6385.00    0.68358   0.54166    0.020
 6386.00    0.67720   0.54149    0.020
 6387.00    0.66340   0.54138    0.020
 6388.00    0.67320   0.54124    0.020
 6389.00    0.69090   0.54080    0.019
 6390.00    0.71137   0.54061    0.019
 6391.00    0.73260   0.54043    0.019
 6392.00    0.71171   0.54072    0.019
 6393.00    0.68105   0.54106    0.019
 6394.00    0.64016   0.54102    0.019
 6395.00    0.59737   0.54110    0.019
 6396.00    0.57058   0.54092    0.019
 6397.00    0.54609   0.54116    0.020
 6398.00    0.56597   0.54146    0.020
 6399.00    0.59047   0.54143    0.020
 6400.00    0.66305   0.54169    0.020
 6401.00    0.73886   0.54170    0.020
 6402.00    0.75696   0.54148    0.020
 6403.00    0.77317   0.54148    0.020
 6404.00    0.74698   0.54149    0.020
 6405.00    0.72068   0.54166    0.020
 6406.00    0.69117   0.54168    0.020
 6407.00    0.66585   0.54146    0.020
 6408.00    0.70333   0.54151    0.020
 6409.00    0.73377   0.54168    0.020
 6410.00    0.69619   0.54177    0.020
 6411.00    0.65830   0.54173    0.020
 6412.00    0.61824   0.54169    0.020
 6413.00    0.58927   0.54199    0.019
 6414.00    0.62005   0.54238    0.019
 6415.00    0.64456   0.54248    0.019
 6416.00    0.64195   0.54242    0.019
 6417.00    0.63734   0.54238    0.019
 6418.00    0.62555   0.54270    0.019
 6419.00    0.62178   0.54297    0.019
 6420.00    0.64194   0.54297    0.019
 6421.00    0.65932   0.54278    0.019
 6422.00    0.66960   0.54249    0.019
 6423.00    0.67493   0.54267    0.019
 6424.00    0.66937   0.54264    0.019
 6425.00    0.66154   0.54252    0.019
 6426.00    0.64937   0.54249    0.019
 6427.00    0.64009   0.54236    0.020
 6428.00    0.63562   0.54254    0.020
 6429.00    0.64627   0.54243    0.021
 6430.00    0.67893   0.54226    0.021
 6431.00    0.69031   0.54265    0.021
 6432.00    0.67447   0.54299    0.021
 6433.00    0.66066   0.54314    0.021
 6434.00    0.64914   0.54313    0.021
 6435.00    0.63346   0.54284    0.021
 6436.00    0.61365   0.54287    0.021
 6437.00    0.59623   0.54315    0.021
 6438.00    0.58089   0.54304    0.020
 6439.00    0.58916   0.54286    0.020
 6440.00    0.61566   0.54215    0.020
 6441.00    0.62494   0.54140    0.020
 6442.00    0.62254   0.54144    0.020
 6443.00    0.62718   0.54126    0.020
 6444.00    0.63602   0.54107    0.020
 6445.00    0.64472   0.54065    0.019
 6446.00    0.65335   0.53989    0.019
 6447.00    0.65462   0.53984    0.019
 6448.00    0.65259   0.53975    0.020
 6449.00    0.64812   0.53980    0.020
 6450.00    0.64271   0.54002    0.020
 6451.00    0.62406   0.53972    0.020
 6452.00    0.60105   0.53971    0.020
 6453.00    0.60564   0.53937    0.020
 6454.00    0.61783   0.53938    0.020
 6455.00    0.63970   0.53990    0.020
 6456.00    0.66375   0.53987    0.020
 6457.00    0.64005   0.53992    0.021
 6458.00    0.60770   0.53971    0.021
 6459.00    0.62255   0.53976    0.021
 6460.00    0.64396   0.54010    0.020
 6461.00    0.64471   0.54011    0.020
 6462.00    0.64339   0.54013    0.021
 6463.00    0.63702   0.54008    0.020
 6464.00    0.63032   0.54017    0.020
 6465.00    0.62760   0.54014    0.020
 6466.00    0.62499   0.53995    0.019
 6467.00    0.62193   0.53971    0.020
 6468.00    0.61864   0.53948    0.020
 6469.00    0.60914   0.53932    0.020
 6470.00    0.59855   0.53904    0.019
 6471.00    0.57253   0.53868    0.019
 6472.00    0.55204   0.53813    0.019
 6473.00    0.58276   0.53756    0.020
 6474.00    0.61237   0.53708    0.020
 6475.00    0.63445   0.53653    0.020
 6476.00    0.65042   0.53590    0.020
 6477.00    0.63430   0.53498    0.020
 6478.00    0.62180   0.53402    0.020
 6479.00    0.62461   0.53303    0.020
 6480.00    0.63219   0.53170    0.020
 6481.00    0.65642   0.53052    0.020
 6482.00    0.67884   0.52910    0.020
 6483.00    0.69598   0.52776    0.020
 6484.00    0.69792   0.52651    0.020
 6485.00    0.66186   0.52473    0.020
 6486.00    0.63604   0.52368    0.020
 6487.00    0.63226   0.52272    0.020
 6488.00    0.62791   0.52204    0.020
 6489.00    0.62250   0.52196    0.020
 6490.00    0.62129   0.52140    0.020
 6491.00    0.62693   0.52189    0.020
 6492.00    0.64479   0.52256    0.020
 6493.00    0.68015   0.52339    0.020
 6494.00    0.70094   0.52480    0.020
 6495.00    0.70336   0.52570    0.020
 6496.00    0.69815   0.52719    0.020
 6497.00    0.68445   0.52857    0.019
 6498.00    0.66876   0.52972    0.019
 6499.00    0.65114   0.53098    0.019
 6500.00    0.61574   0.53177    0.019
 6501.00    0.56496   0.53265    0.019
 6502.00    0.55805   0.53324    0.020
 6503.00    0.58453   0.53361    0.020
 6504.00    0.62438   0.53382    0.020
 6505.00    0.67318   0.53384    0.020
 6506.00    0.68159   0.53389    0.020
 6507.00    0.66634   0.53371    0.020
 6508.00    0.68009   0.53359    0.021
 6509.00    0.70865   0.53332    0.021
 6510.00    0.72585   0.53311    0.021
 6511.00    0.73801   0.53305    0.021
 6512.00    0.71877   0.53279    0.021
 6513.00    0.68760   0.53271    0.021
 6514.00    0.65533   0.53254    0.020
 6515.00    0.62272   0.53249    0.019
 6516.00    0.60984   0.53261    0.019
 6517.00    0.60231   0.53246    0.020
 6518.00    0.60356   0.53242    0.019
 6519.00    0.60675   0.53238    0.019
 6520.00    0.61560   0.53243    0.019
 6521.00    0.62545   0.53258    0.019
 6522.00    0.66927   0.53251    0.019
 6523.00    0.71766   0.53244    0.020
 6524.00    0.72769   0.53241    0.020
 6525.00    0.73404   0.53247    0.019
 6526.00    0.70688   0.53254    0.020
 6527.00    0.67773   0.53240    0.020
 6528.00    0.62547   0.53219    0.000
 6529.00    0.57287   0.53190    0.000
 6530.00    0.55665   0.53165    0.000
 6531.00    0.54283   0.53126    0.000
 6532.00    0.58934   0.53055    0.000
 6533.00    0.63405   0.52978    0.000
 6534.00    0.65457   0.52881    0.000
 6535.00    0.67062   0.52780    0.000
 6536.00    0.64689   0.52652    0.000
 6537.00    0.62053   0.52482    0.000
 6538.00    0.57694   0.52312    0.000
 6539.00    0.53871   0.52113    0.000
 6540.00    0.52788   0.51892    0.000
 6541.00    0.52948   0.51635    0.000
 6542.00    0.58235   0.51320    0.000
 6543.00    0.62814   0.50983    0.000
 6544.00    0.64972   0.50603    0.000
 6545.00    0.66374   0.50189    0.000
 6546.00    0.65601   0.49733    0.000
 6547.00    0.64349   0.49238    0.000
 6548.00    0.61916   0.48692    0.000
 6549.00    0.60900   0.48135    0.000
 6550.00    0.62889   0.47630    0.000
 6551.00    0.63038   0.47142    0.000
 6552.00    0.59793   0.46719    0.000
 6553.00    0.58689   0.46293    0.000
 6554.00    0.61030   0.45942    0.000
 6555.00    0.62012   0.45801    0.000
 6556.00    0.61076   0.45755    0.000
 6557.00    0.61053   0.45840    0.000
 6558.00    0.62164   0.45972    0.000
 6559.00    0.64106   0.46166    0.000
 6560.00    0.66957   0.46557    0.000
 6561.00    0.67258   0.47008    0.000
 6562.00    0.65097   0.47495    0.000
 6563.00    0.65261   0.47980    0.000
 6564.00    0.67407   0.48434    0.000
 6565.00    0.67330   0.48921    0.000
 6566.00    0.65585   0.49400    0.000
 6567.00    0.63138   0.49826    0.000
 6568.00    0.60227   0.50208    0.000
 6569.00    0.58819   0.50537    0.000
 6570.00    0.58279   0.50822    0.000
 6571.00    0.57778   0.51094    0.000
 6572.00    0.57297   0.51305    0.000
 6573.00    0.56646   0.51494    0.000
 6574.00    0.55921   0.51652    0.000
 6575.00    0.57919   0.51764    0.000
 6576.00    0.60933   0.51886    0.000
 6577.00    0.64859   0.51950    0.000
 6578.00    0.69073   0.52018    0.000
 6579.00    0.67309   0.52064    0.000
 6580.00    0.63963   0.52080    0.000
 6581.00    0.63767   0.52119    0.000
 6582.00    0.64253   0.52117    0.000
 6583.00    0.68944   0.52128    0.000
 6584.00    0.74356   0.52118    0.000
 6585.00    0.74584   0.52109    0.000
 6586.00    0.74138   0.52129    0.000
 6587.00    0.68767   0.52131    0.000
 6588.00    0.62947   0.52151    0.000
 6589.00    0.64552   0.52148    0.000
 6590.00    0.66568   0.52156    0.000
 6591.00    0.68642   0.52198    0.000
 6592.00    0.70672   0.52219    0.000
 6593.00    0.68508   0.52252    0.000
 6594.00    0.66373   0.52265    0.000
 6595.00    0.64918   0.52269    0.000
 6596.00    0.63520   0.52302    0.000
 6597.00    0.62827   0.52315    0.000
 6598.00    0.62174   0.52335    0.000
 6599.00    0.61862   0.52349    0.000
 6600.00    0.61456   0.52341    0.000
 6601.00    0.60450   0.52364    0.000
 6602.00    0.59126   0.52383    0.000
 6603.00    0.56217   0.52409    0.000
 6604.00    0.54187   0.52436    0.000
 6605.00    0.55701   0.52439    0.000
 6606.00    0.56567   0.52472    0.000
 6607.00    0.55264   0.52502    0.000
 6608.00    0.53784   0.52528    0.000
 6609.00    0.51802   0.52550    0.021
 6610.00    0.51147   0.52546    0.021
 6611.00    0.53699   0.52557    0.020
 6612.00    0.56827   0.52559    0.020
 6613.00    0.61159   0.52548    0.020
 6614.00    0.64263   0.52533    0.020
 6615.00    0.65139   0.52498    0.020
 6616.00    0.64955   0.52463    0.020
 6617.00    0.63092   0.52430    0.020
 6618.00    0.63974   0.52390    0.020
 6619.00    0.68679   0.52349    0.020
 6620.00    0.71193   0.52303    0.020
 6621.00    0.71021   0.52253    0.020
 6622.00    0.69114   0.52216    0.020
 6623.00    0.65330   0.52188    0.020
 6624.00    0.60352   0.52155    0.020
 6625.00    0.54235   0.52125    0.020
 6626.00    0.52631   0.52095    0.020
 6627.00    0.54818   0.52077    0.021
 6628.00    0.57680   0.52076    0.021
 6629.00    0.61042   0.52062    0.022
 6630.00    0.61654   0.52051    0.022
 6631.00    0.60480   0.52035    0.021
 6632.00    0.60760   0.52034    0.021
 6633.00    0.61868   0.52047    0.021
 6634.00    0.62801   0.52034    0.021
 6635.00    0.63649   0.52028    0.020
 6636.00    0.63039   0.52018    0.020
 6637.00    0.61806   0.52020    0.020
 6638.00    0.61792   0.52034    0.020
 6639.00    0.62224   0.52013    0.020
 6640.00    0.60383   0.52005    0.020
 6641.00    0.57835   0.52003    0.020
 6642.00    0.58114   0.51996    0.020
 6643.00    0.59124   0.51997    0.019
 6644.00    0.59068   0.51971    0.020
 6645.00    0.58786   0.51951    0.020
 6646.00    0.62216   0.51936    0.020
 6647.00    0.66264   0.51911    0.021
 6648.00    0.66033   0.51890    0.021
 6649.00    0.65266   0.51851    0.021
 6650.00    0.64855   0.51818    0.021
 6651.00    0.64476   0.51779    0.021
 6652.00    0.64549   0.51746    0.022
 6653.00    0.64645   0.51724    0.022
 6654.00    0.65682   0.51680    0.021
 6655.00    0.66726   0.51653    0.021
 6656.00    0.67120   0.51623    0.022
 6657.00    0.67317   0.51603    0.022
 6658.00    0.63349   0.51604    0.021
 6659.00    0.59731   0.51573    0.021
 6660.00    0.60325   0.51549    0.021
 6661.00    0.61045   0.51533    0.021
 6662.00    0.62807   0.51517    0.021
 6663.00    0.64026   0.51506    0.020
 6664.00    0.61901   0.51467    0.020
 6665.00    0.60509   0.51410    0.020
 6666.00    0.62680   0.51368    0.020
 6667.00    0.64179   0.51336    0.020
 6668.00    0.63031   0.51291    0.021
 6669.00    0.61628   0.51235    0.021
 6670.00    0.59389   0.51175    0.021
 6671.00    0.58388   0.51137    0.021
 6672.00    0.60824   0.51128    0.021
 6673.00    0.61852   0.51108    0.021
 6674.00    0.59537   0.51086    0.021
 6675.00    0.58766   0.51088    0.021
 6676.00    0.61168   0.51107    0.022
 6677.00    0.63241   0.51140    0.022
 6678.00    0.64726   0.51165    0.022
 6679.00    0.65126   0.51179    0.022
 6680.00    0.63830   0.51218    0.022
 6681.00    0.62223   0.51255    0.022
 6682.00    0.60189   0.51285    0.021
 6683.00    0.56459   0.51309    0.021
 6684.00    0.50679   0.51313    0.021
 6685.00    0.51953   0.51335    0.021
 6686.00    0.60739   0.51348    0.021
 6687.00    0.66540   0.51345    0.021
 6688.00    0.69538   0.51353    0.021
 6689.00    0.68735   0.51342    0.021
 6690.00    0.64785   0.51343    0.021
 6691.00    0.62549   0.51339    0.021
 6692.00    0.61562   0.51322    0.021
 6693.00    0.59077   0.51320    0.021
 6694.00    0.55634   0.51310    0.021
 6695.00    0.55583   0.51299    0.022
 6696.00    0.57431   0.51282    0.000
 6697.00    0.59225   0.51260    0.000
 6698.00    0.60993   0.51237    0.000
 6699.00    0.60371   0.51210    0.000
 6700.00    0.58743   0.51175    0.000
 6701.00    0.58536   0.51126    0.000
 6702.00    0.58840   0.51092    0.000
 6703.00    0.58297   0.51040    0.000
 6704.00    0.57496   0.50982    0.000
 6705.00    0.56106   0.50923    0.000
 6706.00    0.54568   0.50856    0.000
 6707.00    0.55522   0.50825    0.000
 6708.00    0.56989   0.50776    0.000
 6709.00    0.57872   0.50718    0.000
 6710.00    0.58661   0.50681    0.000
 6711.00    0.57230   0.50652    0.000
 6712.00    0.55532   0.50654    0.000
 6713.00    0.53967   0.50643    0.000
 6714.00    0.52415   0.50624    0.000
 6715.00    0.57527   0.50639    0.000
 6716.00    0.62955   0.50662    0.000
 6717.00    0.69912   0.50682    0.000
 6718.00    0.76615   0.50700    0.000
 6719.00    0.67787   0.50712    0.000
 6720.00    0.59193   0.50738    0.000
 6721.00    0.55156   0.50766    0.000
 6722.00    0.51512   0.50773    0.000
 6723.00    0.52380   0.50781    0.000
 6724.00    0.53120   0.50795    0.000
 6725.00    0.52844   0.50794    0.000
 6726.00    0.53162   0.50787    0.000
 6727.00    0.57036   0.50775    0.000
 6728.00    0.61058   0.50757    0.000
 6729.00    0.65780   0.50751    0.000
 6730.00    0.69470   0.50725    0.000
 6731.00    0.69172   0.50677    0.000
 6732.00    0.66910   0.50661    0.000
 6733.00    0.58329   0.50629    0.000
 6734.00    0.52416   0.50602    0.000
 6735.00    0.53778   0.50577    0.000
 6736.00    0.56375   0.50525    0.000
 6737.00    0.61859   0.50517    0.000
 6738.00    0.64099   0.50492    0.000
 6739.00    0.59787   0.50475    0.000
 6740.00    0.57690   0.50480    0.000
 6741.00    0.59491   0.50453    0.000
 6742.00    0.59117   0.50475    0.000
 6743.00    0.55395   0.50484    0.000
 6744.00    0.53640   0.50494    0.000
 6745.00    0.54543   0.50532    0.000
 6746.00    0.54948   0.50540    0.000
 6747.00    0.54759   0.50583    0.000
 6748.00    0.55436   0.50620    0.000
 6749.00    0.57022   0.50640    0.000
 6750.00    0.56181   0.50672    0.000
 6751.00    0.53090   0.50692    0.000
 6752.00    0.55541   0.50721    0.000
 6753.00    0.62513   0.50739    0.024
 6754.00    0.63919   0.50741    0.025
 6755.00    0.61326   0.50732    0.026
 6756.00    0.55536   0.50731    0.026
 6757.00    0.47731   0.50743    0.025
 6758.00    0.42506   0.50728    0.025
 6759.00    0.38701   0.50711    0.025
 6760.00    0.47461   0.50699    0.026
 6761.00    0.62242   0.50692    0.026
 6762.00    0.68988   0.50708    0.027
 6763.00    0.72410   0.50698    0.028
 6764.00    0.70338   0.50691    0.028
 6765.00    0.66324   0.50704    0.028
 6766.00    0.66458   0.50707    0.028
 6767.00    0.67830   0.50718    0.027
 6768.00    0.70269   0.50715    0.027
 6769.00    0.72973   0.50709    0.027
 6770.00    0.65582   0.50711    0.027
 6771.00    0.56164   0.50691    0.026
 6772.00    0.61162   0.50672    0.025
 6773.00    0.68425   0.50648    0.025
 6774.00    0.69881   0.50621    0.025
 6775.00    0.70659   0.50595    0.025
 6776.00    0.64451   0.50558    0.025
 6777.00    0.57691   0.50526    0.025
 6778.00    0.55456   0.50495    0.025
 6779.00    0.53418   0.50470    0.024
 6780.00    0.57027   0.50455    0.025
 6781.00    0.60641   0.50433    0.025
 6782.00    0.61697   0.50424    0.025
 6783.00    0.62485   0.50418    0.025
 6784.00    0.58426   0.50413    0.025
 6785.00    0.55012   0.50427    0.025
 6786.00    0.58670   0.50423    0.026
 6787.00    0.62088   0.50429    0.026
 6788.00    0.63665   0.50451    0.026
 6789.00    0.65041   0.50452    0.026
 6790.00    0.65246   0.50470    0.027
 6791.00    0.65481   0.50482    0.028
 6792.00    0.65856   0.50478    0.028
 6793.00    0.64860   0.50504    0.027
 6794.00    0.58686   0.50505    0.027
 6795.00    0.54913   0.50500    0.027
 6796.00    0.58724   0.50521    0.026
 6797.00    0.62181   0.50507    0.025
 6798.00    0.64688   0.50509    0.025
 6799.00    0.67048   0.50514    0.025
 6800.00    0.69074   0.50491    0.025
 6801.00    0.68045   0.50508    0.025
 6802.00    0.60943   0.50499    0.025
 6803.00    0.54469   0.50474    0.025
 6804.00    0.49083   0.50487    0.025
 6805.00    0.49556   0.50478    0.025
 6806.00    0.58918   0.50482    0.025
 6807.00    0.62869   0.50479    0.025
 6808.00    0.59609   0.50455    0.025
 6809.00    0.58832   0.50472    0.026
 6810.00    0.60972   0.50481    0.026
 6811.00    0.61982   0.50478    0.026
 6812.00    0.61823   0.50478    0.027
 6813.00    0.62310   0.50469    0.028
 6814.00    0.63387   0.50485    0.028
 6815.00    0.61397   0.50493    0.028
 6816.00    0.56938   0.50479    0.028
 6817.00    0.53985   0.50480    0.027
 6818.00    0.52098   0.50479    0.027
 6819.00    0.51140   0.50485    0.026
 6820.00    0.50757   0.50474    0.025
 6821.00    0.51707   0.50441    0.025
 6822.00    0.53379   0.50438    0.025
 6823.00    0.55138   0.50430    0.025
 6824.00    0.56938   0.50410    0.025
 6825.00    0.57651   0.50385    0.025
 6826.00    0.57921   0.50341    0.025
 6827.00    0.58133   0.50321    0.025
 6828.00    0.58325   0.50299    0.026
 6829.00    0.58578   0.50251    0.026
 6830.00    0.58848   0.50222    0.026
 6831.00    0.64541   0.50189    0.027
 6832.00    0.71547   0.50160    0.027
 6833.00    0.64527   0.50146    0.027
 6834.00    0.54763   0.50105    0.027
 6835.00    0.59186   0.50086    0.027
 6836.00    0.65773   0.50087    0.028
 6837.00    0.58038   0.50076    0.029
 6838.00    0.48695   0.50080    0.029
 6839.00    0.54504   0.50067    0.029
 6840.00    0.61445   0.50053    0.029
 6841.00    0.59386   0.50067    0.029
 6842.00    0.56969   0.50050    0.028
 6843.00    0.58662   0.50034    0.027
 6844.00    0.60439   0.50031    0.025
 6845.00    0.64465   0.50009    0.026
 6846.00    0.67996   0.50000    0.026
 6847.00    0.63158   0.49975    0.026
 6848.00    0.59223   0.49935    0.025
 6849.00    0.64739   0.49931    0.026
 6850.00    0.68788   0.49916    0.026
 6851.00    0.61935   0.49893    0.026
 6852.00    0.57431   0.49894    0.026
 6853.00    0.66240   0.49879    0.026
 6854.00    0.72785   0.49865    0.027
 6855.00    0.69111   0.49867    0.027
 6856.00    0.63656   0.49865    0.027
 6857.00    0.51606   0.49883    0.027
 6858.00    0.44614   0.49890    0.027
 6859.00    0.53289   0.49884    0.027
 6860.00    0.57466   0.49895    0.027
 6861.00    0.49813   0.49900    0.027
 6862.00    0.48840   0.49910    0.027
 6863.00    0.62963   0.49931    0.027
 6864.00    0.70913   0.49937    0.027
 6865.00    0.66779   0.49942    0.026
 6866.00    0.64170   0.49959    0.026
 6867.00    0.64163   0.49968    0.026
 6868.00    0.63664   0.49976    0.027
 6869.00    0.62431   0.49986    0.027
 6870.00    0.61120   0.49990    0.027
 6871.00    0.59707   0.50002    0.027
 6872.00    0.56373   0.50004    0.026
 6873.00    0.50817   0.50008    0.026
 6874.00    0.50619   0.50006    0.026
 6875.00    0.55890   0.49995    0.026
 6876.00    0.55767   0.50004    0.026
 6877.00    0.50790   0.50013    0.026
 6878.00    0.51353   0.50020    0.026
 6879.00    0.56311   0.50018    0.027
 6880.00    0.58544   0.50020    0.027
 6881.00    0.58875   0.50047    0.028
 6882.00    0.61609   0.50059    0.028
 6883.00    0.65813   0.50062    0.028
 6884.00    0.65291   0.50091    0.027
 6885.00    0.62242   0.50108    0.027
 6886.00    0.60610   0.50131    0.027
 6887.00    0.59636   0.50158    0.027
 6888.00    0.62884   0.50171    0.026
 6889.00    0.67820   0.50202    0.026
 6890.00    0.66017   0.50223    0.026
 6891.00    0.61917   0.50242    0.025
 6892.00    0.57454   0.50281    0.025
 6893.00    0.52887   0.50287    0.025
 6894.00    0.56295   0.50299    0.025
 6895.00    0.61591   0.50333    0.026
 6896.00    0.63972   0.50339    0.026
 6897.00    0.65798   0.50357    0.026
 6898.00    0.66059   0.50357    0.027
 6899.00    0.66089   0.50340    0.028
 6900.00    0.62264   0.50366    0.027
 6901.00    0.58024   0.50353    0.027
 6902.00    0.62036   0.50327    0.027
 6903.00    0.66631   0.50328    0.028
 6904.00    0.64261   0.50290    0.028
 6905.00    0.61642   0.50286    0.027
 6906.00    0.63282   0.50275    0.027
 6907.00    0.64796   0.50220    0.026
 6908.00    0.61428   0.50229    0.026
 6909.00    0.58464   0.50212    0.027
 6910.00    0.61890   0.50183    0.026
 6911.00    0.64973   0.50194    0.026
 6912.00    0.64633   0.50171    0.026
 6913.00    0.64063   0.50172    0.026
 6914.00    0.61837   0.50181    0.026
 6915.00    0.59263   0.50172    0.026
 6916.00    0.54770   0.50186    0.026
 6917.00    0.50311   0.50184    0.026
 6918.00    0.46001   0.50181    0.026
 6919.00    0.43086   0.50198    0.026
 6920.00    0.45224   0.50217    0.026
 6921.00    0.48553   0.50223    0.027
 6922.00    0.55500   0.50230    0.027
 6923.00    0.60285   0.50240    0.027
 6924.00    0.59482   0.50250    0.027
 6925.00    0.58779   0.50265    0.027
 6926.00    0.58300   0.50260    0.027
 6927.00    0.58024   0.50268    0.027
 6928.00    0.58142   0.50291    0.027
 6929.00    0.56634   0.50284    0.027
 6930.00    0.52392   0.50277    0.027
 6931.00    0.51974   0.50282    0.027
 6932.00    0.57187   0.50283    0.027
 6933.00    0.61158   0.50285    0.027
 6934.00    0.63520   0.50282    0.027
 6935.00    0.63947   0.50272    0.027
 6936.00    0.62167   0.50274    0.027
 6937.00    0.58363   0.50272    0.026
 6938.00    0.52520   0.50253    0.026
 6939.00    0.55360   0.50261    0.027
 6940.00    0.65905   0.50273    0.027
 6941.00    0.68621   0.50272    0.027
 6942.00    0.65214   0.50283    0.027
 6943.00    0.60363   0.50287    0.028
 6944.00    0.54520   0.50290    0.028
 6945.00    0.55377   0.50312    0.028
 6946.00    0.60274   0.50328    0.028
 6947.00    0.55449   0.50341    0.028
 6948.00    0.45509   0.50366    0.027
 6949.00    0.52048   0.50388    0.027
 6950.00    0.66107   0.50408    0.028
 6951.00    0.65433   0.50430    0.028
 6952.00    0.58972   0.50444    0.028
 6953.00    0.58236   0.50467    0.027
 6954.00    0.59415   0.50489    0.027
 6955.00    0.53842   0.50493    0.026
 6956.00    0.46373   0.50500    0.026
 6957.00    0.47731   0.50505    0.026
 6958.00    0.51132   0.50503    0.026
 6959.00    0.51225   0.50493    0.027
 6960.00    0.50705   0.50468    0.027
 6961.00    0.52911   0.50450    0.027
 6962.00    0.55506   0.50428    0.027
 6963.00    0.58698   0.50376    0.027
 6964.00    0.61950   0.50334    0.027
 6965.00    0.62261   0.50304    0.028
 6966.00    0.62376   0.50266    0.028
 6967.00    0.56164   0.50232    0.028
 6968.00    0.49749   0.50185    0.027
 6969.00    0.49528   0.50154    0.027
 6970.00    0.49414   0.50152    0.028
 6971.00    0.52580   0.50121    0.028
 6972.00    0.55470   0.50112    0.028
 6973.00    0.54264   0.50139    0.028
 6974.00    0.52761   0.50152    0.028
 6975.00    0.48402   0.50175    0.027
 6976.00    0.46851   0.50196    0.027
 6977.00    0.64839   0.50221    0.027
 6978.00    0.78072   0.50259    0.027
 6979.00    0.65785   0.50277    0.026
 6980.00    0.54482   0.50302    0.026
 6981.00    0.47416   0.50324    0.026
 6982.00    0.43168   0.50335    0.026
 6983.00    0.48921   0.50345    0.026
 6984.00    0.54753   0.50339    0.026
 6985.00    0.60820   0.50339    0.027
 6986.00    0.66545   0.50331    0.027
 6987.00    0.71396   0.50310    0.028
 6988.00    0.74092   0.50299    0.028
 6989.00    0.72078   0.50269    0.028
 6990.00    0.66750   0.50246    0.028
 6991.00    0.55135   0.50233    0.029
 6992.00    0.49488   0.50200    0.028
 6993.00    0.53721   0.50176    0.028
 6994.00    0.57023   0.50157    0.027
 6995.00    0.58975   0.50144    0.027
 6996.00    0.60008   0.50129    0.027
 6997.00    0.59869   0.50099    0.027
 6998.00    0.59293   0.50085    0.027
 6999.00    0.58227   0.50086    0.028
 7000.00    0.57853   0.50076    0.028
 7001.00    0.58164   0.50049    0.027
 7002.00    0.59306   0.50042    0.026
 7003.00    0.61173   0.50054    0.026
 7004.00    0.60032   0.50039    0.026
 7005.00    0.56573   0.50025    0.027
 7006.00    0.54014   0.50014    0.027
 7007.00    0.52064   0.50019    0.027
 7008.00    0.48424   0.50034    0.027
 7009.00    0.43779   0.50003    0.027
 7010.00    0.45801   0.50010    0.028
 7011.00    0.51276   0.50054    0.028
 7012.00    0.56198   0.50053    0.028
 7013.00    0.60871   0.50064    0.029
 7014.00    0.61135   0.50079    0.029
 7015.00    0.59697   0.50102    0.029
 7016.00    0.60091   0.50142    0.029
 7017.00    0.61086   0.50146    0.028
 7018.00    0.65660   0.50177    0.028
 7019.00    0.71218   0.50228    0.028
 7020.00    0.70529   0.50246    0.028
 7021.00    0.68428   0.50279    0.028
 7022.00    0.60569   0.50313    0.028
 7023.00    0.51671   0.50340    0.027
 7024.00    0.48321   0.50382    0.027
 7025.00    0.45741   0.50416    0.027
 7026.00    0.51149   0.50459    0.027
 7027.00    0.57350   0.50506    0.027
 7028.00    0.59000   0.50533    0.027
 7029.00    0.60365   0.50584    0.028
 7030.00    0.54597   0.50647    0.028
 7031.00    0.48647   0.50673    0.028
 7032.00    0.47916   0.50715    0.029
 7033.00    0.47256   0.50779    0.029
 7034.00    0.48575   0.50805    0.030
 7035.00    0.49979   0.50827    0.030
 7036.00    0.52591   0.50847    0.030
 7037.00    0.55946   0.50843    0.029
 7038.00    0.66170   0.50844    0.030
 7039.00    0.74783   0.50816    0.030
 7040.00    0.72547   0.50762    0.030
 7041.00    0.69619   0.50730    0.029
 7042.00    0.63072   0.50651    0.029
 7043.00    0.57169   0.50550    0.028
 7044.00    0.53981   0.50476    0.028
 7045.00    0.53133   0.50360    0.028
 7046.00    0.60426   0.50252    0.028
 7047.00    0.63182   0.50159    0.028
 7048.00    0.52655   0.50037    0.028
 7049.00    0.45683   0.49946    0.028
 7050.00    0.47585   0.49845   -2.000
 7051.00    0.52462   0.49744   -2.000
 7052.00    0.63738   0.49682   -2.000
 7053.00    0.67553   0.49595   -2.000
 7054.00    0.57435   0.49540   -2.000
 7055.00    0.49966   0.49510   -2.000
 7056.00    0.46819   0.49454   -2.000
 7057.00    0.51210   0.49442   -2.000
 7058.00    0.66384   0.49423   -2.000
 7059.00    0.68906   0.49404   -2.000
 7060.00    0.55509   0.49430   -2.000
 7061.00    0.50919   0.49423   -2.000
 7062.00    0.56095   0.49433   -2.000
 7063.00    0.56821   0.49469   -2.000
 7064.00    0.53195   0.49472   -2.000
 7065.00    0.52896   0.49489   -2.000
 7066.00    0.55468   0.49491   -2.000
 7067.00    0.56807   0.49480   -2.000
 7068.00    0.57209   0.49489   -2.000
 7069.00    0.55226   0.49454   -2.000
 7070.00    0.51652   0.49409   -2.000
 7071.00    0.60049   0.49377   -2.000
 7072.00    0.75448   0.49304   -2.000
 7073.00    0.75528   0.49228   -2.000
 7074.00    0.67799   0.49135   -2.000
 7075.00    0.66514   0.49022   -2.000
 7076.00    0.68075   0.48944   -2.000
 7077.00    0.63469   0.48821   -2.000
 7078.00    0.56526   0.48695   -2.000
 7079.00    0.56756   0.48620   -2.000
 7080.00    0.59296   0.48501   -2.000
 7081.00    0.60875   0.48411   -2.000
 7082.00    0.62196   0.48347   -2.000
 7083.00    0.62111   0.48256   -2.000
 7084.00    0.61715   0.48224   -2.000
 7085.00    0.47977   0.48181   -2.000
 7086.00    0.31893   0.48143   -2.000
 7087.00    0.45224   0.48158   -2.000
 7088.00    0.62497   0.48140   -2.000
 7089.00    0.58199   0.48163   -2.000
 7090.00    0.51852   0.48196   -2.000
 7091.00    0.40253   0.48207   -2.000
 7092.00    0.28346   0.48255   -2.000
 7093.00    0.38651   0.48282   -2.000
 7094.00    0.49478   0.48316   -2.000
 7095.00    0.56898   0.48373   -2.000
 7096.00    0.63845   0.48390   -2.000
 7097.00    0.58993   0.48425   -2.000
 7098.00    0.55161   0.48469   -2.000
 7099.00    0.64867   0.48489   -2.000
 7100.00    0.72426   0.48516   -2.000
 7101.00    0.60961   0.48530   -2.000
 7102.00    0.52823   0.48549   -2.000
 7103.00    0.66412   0.48581   -2.000
 7104.00    0.75392   0.48582   -2.000
 7105.00    0.60893   0.48586   -2.000
 7106.00    0.33064   0.48614   -2.000
 7107.00   -0.49632   0.48612   -2.000
 7108.00   -0.91921   0.48606   -2.000
 7109.00    0.03521   0.48598   -2.000
 7110.00    0.73523   0.48587   -2.000
 7111.00    0.70432   0.48582   -2.000
 7112.00    0.68086   0.48531   -2.000
 7113.00    0.67566   0.48500   -2.000
 7114.00    0.65847   0.48493   -2.000
 7115.00    0.61591   0.48424   -2.000
 7116.00    0.59914   0.48372   -2.000
 7117.00    0.62982   0.48334   -2.000
 7118.00    0.68598   0.48273   -2.000
 7119.00    0.78308   0.48240   -2.000
 7120.00    0.84259   0.48175   -2.000
 7121.00    0.84911   0.48122   -2.000
 7122.00    0.82591   0.48125   -2.000
 7123.00    0.76582   0.48078   -2.000
 7124.00    0.65962   0.48053   -2.000
 7125.00    0.50301   0.48068   -2.000
 7126.00    0.46546   0.48043   -2.000
 7127.00    0.54274   0.48056   -2.000
 7128.00    0.56677   0.48073   -2.000
 7129.00    0.54552   0.48056   -2.000
 7130.00    0.52914   0.48087   -2.000
 7131.00    0.51641   0.48115   -2.000
 7132.00    0.57066   0.48110   -2.000
 7133.00    0.66900   0.48140   -2.000
 7134.00    0.80637   0.48160   -2.000
 7135.00    0.96622   0.48157   -2.000
 7136.00    0.94455   0.48197   -2.000
 7137.00    0.83180   0.48205   -2.000
 7138.00    0.80954   0.48183   -2.000
 7139.00    0.82659   0.48238   -2.000
 7140.00    0.77267   0.48269   -2.000
 7141.00    0.69232   0.48264   -2.000
 7142.00    0.70831   0.48310   -2.000
 7143.00    0.75474   0.48341   -2.000
 7144.00    0.78351   0.48367   -2.000
 7145.00    0.80763   0.48396   -2.000
 7146.00    0.78670   0.48404   -2.000
 7147.00    0.75605   0.48446   -2.000
 7148.00    0.74324   0.48473   -2.000
 7149.00    0.73347   0.48465   -2.000
 7150.00    0.65548   0.48475   -2.000
 7151.00    0.56866   0.48487   -2.000
 7152.00    0.59837   0.48492   -2.000
 7153.00    0.63866   0.48480   -2.000
 7154.00    0.62985   0.48457   -2.000
 7155.00    0.61836   0.48446   -2.000
 7156.00    0.64251   0.48447   -2.000
 7157.00    0.66700   0.48447   -2.000
 7158.00    0.65529   0.48435   -2.000
 7159.00    0.64224   0.48432   -2.000
 7160.00    0.59886   0.48439   -2.000
 7161.00    0.56069   0.48437   -2.000
 7162.00    0.58821   0.48442   -2.000
 7163.00    0.62586   0.48444   -2.000
 7164.00    0.74998   0.48451   -2.000
 7165.00    0.88677   0.48460   -2.000
 7166.00    1.10382   0.48436   -2.000
 7167.00    1.23813   0.48437   -2.000
 7168.00    0.96166   0.48447   -2.000
 7169.00    0.72462   0.48414   -2.000
 7170.00    0.64632   0.48400   -2.000
 7171.00    0.61650   0.48376   -2.000
 7172.00    0.74859   0.48341   -2.000
 7173.00    0.85193   0.48345   -2.000
 7174.00    0.87417   0.48307   -2.000
 7175.00    0.86943   0.48275   -2.000
 7176.00    0.79962   0.48275   -2.000
 7177.00    0.75392   0.48226   -2.000
 7178.00    0.75842   0.48210   -2.000
 7179.00    0.75009   0.48210   -2.000
 7180.00    0.71852   0.48183   -2.000
 7181.00    0.71260   0.48199   -2.000
 7182.00    0.74728   0.48197   -2.000
 7183.00    0.75779   0.48178   -2.000
 7184.00    0.73473   0.48198   -2.000
 7185.00    0.72988   0.48207   -2.000
 7186.00    0.74730   0.48200   -2.000
 7187.00    0.77460   0.48206   -2.000
 7188.00    0.81255   0.48213   -2.000
 7189.00    0.77061   0.48212   -2.000
 7190.00    0.65273   0.48229   -2.000
 7191.00    0.62054   0.48223   -2.000
 7192.00    0.66021   0.48201   -2.000
 7193.00    0.68428   0.48222   -2.000
 7194.00    0.69685   0.48208   -2.000
 7195.00    0.70336   0.48197   -2.000
 7196.00    0.70595   0.48209   -2.000
 7197.00    0.69438   0.48174   -2.000
 7198.00    0.67477   0.48192   -2.000
 7199.00    0.57443   0.48210   -2.000
 7200.00    0.43420   0.48188   -2.000
 7201.00    0.42838   0.48236   -2.000
 7202.00    0.47995   0.48258   -2.000
 7203.00    0.60927   0.48261   -2.000
 7204.00    0.76704   0.48313   -2.000
 7205.00    0.84789   0.48340   -2.000
 7206.00    0.90492   0.48379   -2.000
 7207.00    0.85820   0.48434   -2.000
 7208.00    0.78471   0.48471   -2.000
 7209.00    0.21268   0.48529   -2.000
 7210.00   -0.46421   0.48578   -2.000
 7211.00   -0.91419   0.48620   -2.000
 7212.00   -1.32647   0.48682   -2.000
 7213.00   -0.50765   0.48728   -2.000
 7214.00    0.46501   0.48775   -2.000
 7215.00    0.56186   0.48829   -2.000
 7216.00    0.58287   0.48876   -2.000
 7217.00    0.53800   0.48931   -2.000
 7218.00    0.48979   0.48972   -2.000
