###################################################################
## OUTPUT of StarlightChains_v04.for    [Cid@UFSC - 01/Apr/2007] ##
###################################################################

## Some input info
KUG0210-078._54_44.txt                   [arq_obs]
Base.CB07.vall.4m                        [arq_base]
Masks.EmLines.NEW.gm                     [arq_masks]
StCv04.C11.config                        [arq_config]
   66                                    [N_base]
    0                                    [N_YAV_components = # of components with extra extinction!]
    0                                    [i_FitPowerLaw (1/0 = Yes/No)]
-9.99                                    [alpha_PowerLaw]
CCM                                      [red_law_option]
 1.458241                                [q_norm = A(l_norm)/A(V)]

## (Re)Sampling Parameters
 3741.00                                 [l_ini (A)]
 7218.00                                 [l_fin (A)]
    1.00                                 [dl    (A)]     (OBS: dl_cushion =    50.00 A)

## Normalization info
 4020.00                                 [l_norm (A) - for base]
 4010.00                                 [llow_norm (A) - window for f_obs]
 4060.00                                 [lupp_norm (A) - window for f_obs]
2.215011E-18                             [fobs_norm (in input units)]

## S/N
 3691.00                                 [llow_SN (A) - window for S/N]
 7268.00                                 [lupp_SN (A) - window for S/N]
   2.722                                 [S/N in S/N window]
   1.022                                 [S/N in norm. window]
   0.008                                 [S/N_err in S/N window]
   0.003                                 [S/N_err in norm. window]
  1.0000                                 [fscale_chi2]

## etc...
    -2008012                             [idum_orig]
  2388                                   [NOl_eff]
  2084                                   [Nl_eff]
   304    NSIGMA                         [Ntot_cliped & clip_method]
 19733980                                [Nglobal_steps]
   7                                     [N_chains]
   7                                     [NEX0s_base = N_base in EX0s-fits]
 0   0   0      304   2.0   1.731E+03    [Clip-Bug, RC-Crash & Burn-In warning-flags, n_censored_weights, wei_nsig_threshold & wei_limit]
   647    635.606    630.755      4.851  [idt_all, wdt_TotTime, wdt_UsrTime & wdt_SysTime (sec)]

## Synthesis Results - Best model ##

 1.85846E-05                             [chi2/Nl_eff]
    32.24136                             [adev (%)]

   130.00000                             [sum-of-x (%)]
 6.20162E-16                             [Flux_tot (units of input spectrum!)]
 4.43971E-14                             [Mini_tot (???)]
 4.43953E-14                             [Mcor_tot (???)]

-435.78                                  [v0_min  (km/s)]
   0.09                                  [vd_min  (km/s)]
 4.0000                                  [AV_min  (mag)]
 0.0000                                  [YAV_min (mag)]

# j     x_j(%)      Mini_j(%)     Mcor_j(%)     age_j(yr)     Z_j      (L/M)_j    YAV?  Mstars   component_j        a/Fe...       SSP_chi2r SSP_adev(%)   SSP_AV   SSP_x(%)
  1     81.2303     7.9783E+01    7.9786E+01    1.000000E+06  0.00400  1.094E-02    0   1.0000   age020_m42            0.0000     5.2219E-06    19.9056   2.2076   346.3362
  2      0.0000     0.0000E+00    0.0000E+00    3.160000E+06  0.00400  4.007E-02    0   0.9999   age045_m42            0.0000     5.3085E-06    20.4862   1.5603   357.1075
  3      0.0000     0.0000E+00    0.0000E+00    5.010000E+06  0.00400  2.539E-02    0   0.9488   age055_m42            0.0000     5.2662E-06    20.2220   1.8440   354.2908
  4      0.0000     0.0000E+00    0.0000E+00    6.610000E+06  0.00400  2.620E-02    0   0.9220   age061_m42            0.0000     5.3266E-06    20.5807   1.4872   357.8362
  5      0.0000     0.0000E+00    0.0000E+00    1.000000E+07  0.00400  1.322E-02    0   0.8862   age070_m42            0.0000     5.5078E-06    21.4229   1.1930   368.0703
  6      0.0000     0.0000E+00    0.0000E+00    1.445000E+07  0.00400  7.883E-03    0   0.8571   age078_m42            0.0000     5.4292E-06    21.0896   1.4982   362.1674
  7      0.0000     0.0000E+00    0.0000E+00    2.512000E+07  0.00400  5.251E-03    0   0.8174   age090_m42            0.0000     5.5613E-06    21.6553   1.0688   369.3456
  8      0.0000     0.0000E+00    0.0000E+00    4.000000E+07  0.00400  3.649E-03    0   0.7851   age104_m42            0.0000     5.5549E-06    21.6908   0.8564   369.8280
  9      0.0000     0.0000E+00    0.0000E+00    5.500000E+07  0.00400  3.098E-03    0   0.7629   age110_m42            0.0000     5.4761E-06    21.3880   1.0245   367.0322
 10      0.0000     0.0000E+00    0.0000E+00    1.015200E+08  0.00400  2.228E-03    0   0.7207   age116_m42            0.0000     5.4486E-06    21.2459   1.0574   365.4452
 11      0.0000     0.0000E+00    0.0000E+00    2.861200E+08  0.00400  1.093E-03    0   0.6648   age125_m42            0.0000     5.6730E-06    22.1331   0.5010   373.1429
 12      0.0000     0.0000E+00    0.0000E+00    5.088000E+08  0.00400  6.597E-04    0   0.6365   age130_m42            0.0000     5.5908E-06    21.8109   0.5110   372.7673
 13      0.0000     0.0000E+00    0.0000E+00    1.434000E+09  0.00400  2.132E-04    0   0.5798   age139_m42            0.0000     5.5198E-06    21.7304  -0.4279   374.4077
 14      0.0000     0.0000E+00    0.0000E+00    4.250000E+09  0.00400  5.895E-05    0   0.5377   age158_m42            0.0000     5.3801E-06    20.8905  -0.8792   361.0316
 15      0.0000     0.0000E+00    0.0000E+00    7.500000E+09  0.00400  3.510E-05    0   0.5212   age171_m42            0.0000     5.3942E-06    21.1937  -1.0000   351.2173
 16      0.0000     0.0000E+00    0.0000E+00    1.300000E+10  0.00400  2.005E-05    0   0.5034   age193_m42            0.0000     5.5589E-06    22.4565  -1.0000   332.3840
 17      0.0000     0.0000E+00    0.0000E+00    1.800000E+10  0.00400  1.525E-05    0   0.4967   age213_m42            0.0000     5.5897E-06    22.7423  -1.0000   328.7538
 18      0.0003     2.6358E-04    2.6359E-04    1.000000E+06  0.00800  1.238E-02    0   1.0000   age020_m52            0.0000     5.2166E-06    19.9067   2.2048   346.9544
 19      0.0000     0.0000E+00    0.0000E+00    3.160000E+06  0.00800  3.074E-02    0   0.9966   age045_m52            0.0000     5.1903E-06    19.8515   2.1300   349.6161
 20      0.0000     0.0000E+00    0.0000E+00    5.010000E+06  0.00800  2.668E-02    0   0.9443   age055_m52            0.0000     5.2262E-06    20.1235   1.9143   353.1354
 21      0.0000     0.0000E+00    0.0000E+00    6.610000E+06  0.00800  2.136E-02    0   0.9177   age061_m52            0.0000     5.4451E-06    21.2023   0.6893   372.7334
 22      0.0000     0.0000E+00    0.0000E+00    1.000000E+07  0.00800  1.215E-02    0   0.8827   age070_m52            0.0000     5.5460E-06    21.6667   1.3539   370.1211
 23      0.0000     0.0000E+00    0.0000E+00    1.445000E+07  0.00800  8.717E-03    0   0.8552   age078_m52            0.0000     5.4480E-06    21.2331   1.4708   366.1238
 24      0.0000     0.0000E+00    0.0000E+00    2.512000E+07  0.00800  5.592E-03    0   0.8162   age090_m52            0.0000     5.5817E-06    21.8672   1.1337   373.1739
 25      0.0000     0.0000E+00    0.0000E+00    4.000000E+07  0.00800  3.896E-03    0   0.7841   age104_m52            0.0000     5.5752E-06    21.8551   1.0628   372.7841
 26      0.0000     0.0000E+00    0.0000E+00    1.015200E+08  0.00800  2.148E-03    0   0.7226   age116_m52            0.0000     5.5218E-06    21.5180   1.0231   368.4472
 27      0.0000     0.0000E+00    0.0000E+00    2.861200E+08  0.00800  9.925E-04    0   0.6683   age125_m52            0.0000     5.5602E-06    21.7791   0.5750   376.3693
 28      0.0000     0.0000E+00    0.0000E+00    9.047900E+08  0.00800  3.141E-04    0   0.6138   age135_m52            0.0000     5.4480E-06    21.7453  -0.1764   382.5448
 29      0.0000     0.0000E+00    0.0000E+00    1.434000E+09  0.00800  1.719E-04    0   0.5853   age139_m52            0.0000     5.4311E-06    21.6217  -0.7771   377.3542
 30      0.0000     0.0000E+00    0.0000E+00    2.500000E+09  0.00800  7.872E-05    0   0.5600   age150_m52            0.0000     5.3349E-06    21.1011  -1.0000   362.2887
 31      0.0000     0.0000E+00    0.0000E+00    4.250000E+09  0.00800  4.336E-05    0   0.5426   age158_m52            0.0000     5.3357E-06    21.1284  -1.0000   357.3786
 32      0.0000     0.0000E+00    0.0000E+00    6.250000E+09  0.00800  3.159E-05    0   0.5319   age166_m52            0.0000     5.5372E-06    22.5648  -1.0000   335.9363
 33      0.0000     0.0000E+00    0.0000E+00    1.300000E+10  0.00800  1.361E-05    0   0.5073   age193_m52            0.0000     6.8569E-06    27.5364  -1.0000   285.2701
 34      0.0000     0.0000E+00    0.0000E+00    1.800000E+10  0.00800  9.886E-06    0   0.4990   age213_m52            0.0000     7.2897E-06    28.5257  -1.0000   272.6490
 35      0.0002     1.3417E-04    1.3418E-04    1.000000E+06  0.02000  1.544E-02    0   1.0000   age020_m62            0.0000     5.2116E-06    19.8842   2.1966   348.3277
 36      0.0000     4.2378E-07    4.1778E-07    3.160000E+06  0.02000  3.762E-02    0   0.9858   age045_m62            0.0000     5.1599E-06    19.8118   2.1308   352.0947
 37      0.0000     0.0000E+00    0.0000E+00    5.010000E+06  0.02000  3.296E-02    0   0.9342   age055_m62            0.0000     5.2439E-06    20.2058   1.8147   356.8930
 38      0.0000     0.0000E+00    0.0000E+00    8.710000E+06  0.02000  1.154E-02    0   0.8861   age067_m62            0.0000     6.0586E-06    23.7755   0.7509   390.5126
 39      0.0000     0.0000E+00    0.0000E+00    1.445000E+07  0.02000  7.663E-03    0   0.8472   age078_m62            0.0000     5.7178E-06    22.4945   0.9911   379.7854
 40      0.0000     0.0000E+00    0.0000E+00    2.512000E+07  0.02000  4.532E-03    0   0.8099   age090_m62            0.0000     5.7988E-06    22.7451   0.9875   377.8599
 41      0.0000     0.0000E+00    0.0000E+00    5.500000E+07  0.02000  2.733E-03    0   0.7595   age110_m62            0.0000     5.5725E-06    21.7829   1.0400   371.2200
 42      0.0000     0.0000E+00    0.0000E+00    1.609000E+08  0.02000  1.369E-03    0   0.6985   age120_m62            0.0000     5.5308E-06    21.6182   0.9158   374.6281
 43      0.0000     0.0000E+00    0.0000E+00    2.861200E+08  0.02000  9.013E-04    0   0.6714   age125_m62            0.0000     5.5142E-06    21.6400   0.6914   380.6527
 44      0.0000     0.0000E+00    0.0000E+00    5.088000E+08  0.02000  5.028E-04    0   0.6449   age130_m62            0.0000     5.3780E-06    21.3661   0.3489   383.9240
 45      0.0000     0.0000E+00    0.0000E+00    9.047900E+08  0.02000  2.428E-04    0   0.6179   age135_m62            0.0000     5.3131E-06    21.1616  -0.2272   378.9936
 46      0.0000     0.0000E+00    0.0000E+00    1.434000E+09  0.02000  1.263E-04    0   0.5908   age139_m62            0.0000     5.3017E-06    20.9401  -0.6788   374.1253
 47      0.0000     0.0000E+00    0.0000E+00    2.500000E+09  0.02000  5.985E-05    0   0.5673   age150_m62            0.0000     5.2843E-06    20.8492  -1.0000   364.0163
 48      0.0000     0.0000E+00    0.0000E+00    4.250000E+09  0.02000  3.271E-05    0   0.5468   age158_m62            0.0000     5.6885E-06    23.1033  -1.0000   328.5329
 49      0.0000     0.0000E+00    0.0000E+00    1.000000E+10  0.02000  1.360E-05    0   0.5167   age181_m62            0.0000     6.7396E-06    26.6698  -1.0000   290.3141
 50      0.0000     0.0000E+00    0.0000E+00    1.800000E+10  0.02000  7.124E-06    0   0.5013   age213_m62            0.0000     7.6649E-06    28.9039  -1.0000   266.4777
 51     48.7692     2.0217E+01    2.0214E+01    1.000000E+06  0.05000  2.592E-02    0   0.9998   age020_m72            0.0000     5.2251E-06    19.8837   2.1833   349.1940
 52      0.0000     0.0000E+00    0.0000E+00    3.160000E+06  0.05000  4.845E-02    0   0.9577   age045_m72            0.0000     5.1860E-06    19.8735   2.0377   352.9302
 53      0.0000     0.0000E+00    0.0000E+00    5.010000E+06  0.05000  3.072E-02    0   0.9147   age055_m72            0.0000     5.5229E-06    21.6168   1.5507   368.5424
 54      0.0000     0.0000E+00    0.0000E+00    6.610000E+06  0.05000  1.455E-02    0   0.8877   age061_m72            0.0000     6.6455E-06    25.7843   0.7481   398.9668
 55      0.0000     0.0000E+00    0.0000E+00    1.000000E+07  0.05000  9.074E-03    0   0.8524   age070_m72            0.0000     5.6583E-06    22.0973   1.7116   368.7054
 56      0.0000     0.0000E+00    0.0000E+00    2.512000E+07  0.05000  4.250E-03    0   0.7902   age090_m72            0.0000     5.6993E-06    22.2336   1.4648   368.4020
 57      0.0000     0.0000E+00    0.0000E+00    4.000000E+07  0.05000  3.087E-03    0   0.7618   age104_m72            0.0000     5.8028E-06    22.6641   1.2528   371.8995
 58      0.0000     0.0000E+00    0.0000E+00    1.015200E+08  0.05000  1.700E-03    0   0.7096   age116_m72            0.0000     5.6537E-06    21.9914   1.0482   374.4142
 59      0.0000     0.0000E+00    0.0000E+00    2.861200E+08  0.05000  7.384E-04    0   0.6633   age125_m72            0.0000     5.4351E-06    21.5646   0.5815   381.7169
 60      0.0000     0.0000E+00    0.0000E+00    5.088000E+08  0.05000  3.819E-04    0   0.6372   age130_m72            0.0000     5.2673E-06    21.1289   0.1114   383.5362
 61      0.0000     0.0000E+00    0.0000E+00    9.047900E+08  0.05000  1.676E-04    0   0.6110   age135_m72            0.0000     5.1971E-06    20.4859  -0.5852   375.5897
 62      0.0000     0.0000E+00    0.0000E+00    1.434000E+09  0.05000  8.837E-05    0   0.5874   age139_m72            0.0000     5.3114E-06    20.9058  -1.0000   368.2934
 63      0.0000     0.0000E+00    0.0000E+00    2.500000E+09  0.05000  4.233E-05    0   0.5598   age150_m72            0.0000     5.6851E-06    23.0518  -1.0000   330.9402
 64      0.0000     0.0000E+00    0.0000E+00    6.250000E+09  0.05000  1.435E-05    0   0.5249   age166_m72            0.0000     7.1566E-06    27.8381  -1.0000   279.0886
 65      0.0000     0.0000E+00    0.0000E+00    1.300000E+10  0.05000  6.513E-06    0   0.5036   age193_m72            0.0000     8.6187E-06    30.8887  -1.0000   253.0622
 66      0.0000     0.0000E+00    0.0000E+00    1.800000E+10  0.05000  4.527E-06    0   0.4945   age213_m72            0.0000     9.5987E-06    32.6312  -1.0000   236.5871


## Synthesis Results - Average & Chains ##

# j      x_j: min, <> & last-chain-values for 1 ...  7 chains
  1     81.2303     65.2396     75.2547     76.4263     76.6928     50.2453     58.1397     38.6883     81.2303
  2      0.0000      0.0000      0.0000      0.0000      0.0000      0.0000      0.0000      0.0000      0.0000
  3      0.0000      0.0000      0.0000      0.0000      0.0000      0.0000      0.0000      0.0000      0.0000
  4      0.0000      0.0000      0.0000      0.0000      0.0000      0.0000      0.0000      0.0000      0.0000
  5      0.0000      0.0000      0.0000      0.0000      0.0000      0.0000      0.0000      0.0000      0.0000
  6      0.0000      0.0000      0.0000      0.0000      0.0000      0.0000      0.0000      0.0000      0.0000
  7      0.0000      0.0000      0.0000      0.0000      0.0000      0.0000      0.0000      0.0000      0.0000
  8      0.0000      0.0000      0.0000      0.0000      0.0000      0.0000      0.0000      0.0000      0.0000
  9      0.0000      0.0000      0.0000      0.0000      0.0000      0.0000      0.0000      0.0000      0.0000
 10      0.0000      0.0000      0.0000      0.0000      0.0000      0.0000      0.0000      0.0000      0.0000
 11      0.0000      0.0000      0.0000      0.0000      0.0000      0.0000      0.0000      0.0000      0.0000
 12      0.0000      0.0000      0.0000      0.0000      0.0000      0.0000      0.0000      0.0000      0.0000
 13      0.0000      0.0000      0.0000      0.0000      0.0000      0.0000      0.0000      0.0000      0.0000
 14      0.0000      0.0000      0.0000      0.0000      0.0000      0.0000      0.0000      0.0000      0.0000
 15      0.0000      0.0000      0.0000      0.0000      0.0000      0.0000      0.0000      0.0000      0.0000
 16      0.0000      0.0000      0.0000      0.0000      0.0000      0.0000      0.0000      0.0000      0.0000
 17      0.0000      0.0000      0.0000      0.0000      0.0000      0.0000      0.0000      0.0000      0.0000
 18      0.0003      2.3287      0.0002      0.1511      0.0001      0.0000     16.1492      0.0000      0.0003
 19      0.0000      0.0000      0.0000      0.0001      0.0000      0.0000      0.0001      0.0000      0.0000
 20      0.0000      0.0000      0.0000      0.0000      0.0000      0.0000      0.0000      0.0000      0.0000
 21      0.0000      0.0000      0.0000      0.0000      0.0000      0.0000      0.0000      0.0000      0.0000
 22      0.0000      0.0000      0.0000      0.0000      0.0000      0.0000      0.0000      0.0000      0.0000
 23      0.0000      0.0000      0.0000      0.0000      0.0000      0.0000      0.0000      0.0000      0.0000
 24      0.0000      0.0000      0.0000      0.0000      0.0000      0.0000      0.0000      0.0000      0.0000
 25      0.0000      0.0000      0.0000      0.0000      0.0000      0.0000      0.0000      0.0000      0.0000
 26      0.0000      0.0000      0.0000      0.0000      0.0000      0.0000      0.0000      0.0000      0.0000
 27      0.0000      0.0000      0.0000      0.0000      0.0000      0.0000      0.0000      0.0000      0.0000
 28      0.0000      0.0000      0.0000      0.0000      0.0000      0.0000      0.0000      0.0000      0.0000
 29      0.0000      0.0000      0.0000      0.0000      0.0000      0.0000      0.0000      0.0000      0.0000
 30      0.0000      0.0000      0.0000      0.0000      0.0000      0.0000      0.0000      0.0000      0.0000
 31      0.0000      0.0000      0.0000      0.0000      0.0000      0.0000      0.0000      0.0000      0.0000
 32      0.0000      0.0000      0.0000      0.0000      0.0000      0.0000      0.0000      0.0000      0.0000
 33      0.0000      0.0000      0.0000      0.0000      0.0000      0.0000      0.0000      0.0000      0.0000
 34      0.0000      0.0000      0.0000      0.0000      0.0000      0.0000      0.0000      0.0000      0.0000
 35      0.0002      0.0003      0.0003      0.0000      0.0007      0.0000      0.0009      0.0000      0.0002
 36      0.0000      0.0000      0.0000      0.0000      0.0000      0.0000      0.0000      0.0000      0.0000
 37      0.0000      0.0000      0.0000      0.0000      0.0000      0.0000      0.0000      0.0000      0.0000
 38      0.0000      0.0000      0.0000      0.0000      0.0000      0.0000      0.0000      0.0000      0.0000
 39      0.0000      0.0000      0.0000      0.0000      0.0000      0.0000      0.0000      0.0000      0.0000
 40      0.0000      0.0000      0.0000      0.0000      0.0000      0.0000      0.0000      0.0000      0.0000
 41      0.0000      0.0000      0.0000      0.0000      0.0000      0.0000      0.0000      0.0000      0.0000
 42      0.0000      0.0000      0.0000      0.0000      0.0000      0.0000      0.0000      0.0000      0.0000
 43      0.0000      0.0000      0.0000      0.0000      0.0000      0.0000      0.0000      0.0000      0.0000
 44      0.0000      0.0000      0.0000      0.0000      0.0000      0.0000      0.0000      0.0000      0.0000
 45      0.0000      0.0000      0.0000      0.0000      0.0000      0.0000      0.0000      0.0000      0.0000
 46      0.0000      0.0000      0.0000      0.0000      0.0000      0.0000      0.0000      0.0000      0.0000
 47      0.0000      0.0000      0.0000      0.0000      0.0000      0.0000      0.0000      0.0000      0.0000
 48      0.0000      0.0000      0.0000      0.0000      0.0000      0.0000      0.0000      0.0000      0.0000
 49      0.0000      0.0000      0.0000      0.0000      0.0000      0.0000      0.0000      0.0000      0.0000
 50      0.0000      0.0000      0.0000      0.0000      0.0000      0.0000      0.0000      0.0000      0.0000
 51     48.7692     62.4313     54.7447     53.4224     53.3065     79.7547     55.7100     91.3117     48.7692
 52      0.0000      0.0000      0.0000      0.0001      0.0000      0.0000      0.0001      0.0000      0.0000
 53      0.0000      0.0000      0.0000      0.0000      0.0000      0.0000      0.0000      0.0000      0.0000
 54      0.0000      0.0000      0.0000      0.0000      0.0000      0.0000      0.0000      0.0000      0.0000
 55      0.0000      0.0000      0.0000      0.0000      0.0000      0.0000      0.0000      0.0000      0.0000
 56      0.0000      0.0000      0.0000      0.0000      0.0000      0.0000      0.0000      0.0000      0.0000
 57      0.0000      0.0000      0.0000      0.0000      0.0000      0.0000      0.0000      0.0000      0.0000
 58      0.0000      0.0000      0.0000      0.0000      0.0000      0.0000      0.0000      0.0000      0.0000
 59      0.0000      0.0000      0.0000      0.0000      0.0000      0.0000      0.0000      0.0000      0.0000
 60      0.0000      0.0000      0.0000      0.0000      0.0000      0.0000      0.0000      0.0000      0.0000
 61      0.0000      0.0000      0.0000      0.0000      0.0000      0.0000      0.0000      0.0000      0.0000
 62      0.0000      0.0000      0.0000      0.0000      0.0000      0.0000      0.0000      0.0000      0.0000
 63      0.0000      0.0000      0.0000      0.0000      0.0000      0.0000      0.0000      0.0000      0.0000
 64      0.0000      0.0000      0.0000      0.0000      0.0000      0.0000      0.0000      0.0000      0.0000
 65      0.0000      0.0000      0.0000      0.0000      0.0000      0.0000      0.0000      0.0000      0.0000
 66      0.0000      0.0000      0.0000      0.0000      0.0000      0.0000      0.0000      0.0000      0.0000

# j      m_j: min, <> & last-chain-values for 1 ...  7 chains
  1  7.9786E+01  6.9665E+01  7.6499E+01  7.7118E+01  7.7321E+01  5.9887E+01  6.0601E+01  5.0101E+01  7.9786E+01
  2  0.0000E+00  0.0000E+00  0.0000E+00  0.0000E+00  0.0000E+00  0.0000E+00  0.0000E+00  0.0000E+00  0.0000E+00
  3  0.0000E+00  5.4083E-07  0.0000E+00  0.0000E+00  0.0000E+00  0.0000E+00  3.6954E-06  0.0000E+00  0.0000E+00
  4  0.0000E+00  0.0000E+00  0.0000E+00  0.0000E+00  0.0000E+00  0.0000E+00  0.0000E+00  0.0000E+00  0.0000E+00
  5  0.0000E+00  1.3035E-06  8.6861E-06  0.0000E+00  0.0000E+00  0.0000E+00  0.0000E+00  0.0000E+00  0.0000E+00
  6  0.0000E+00  5.2435E-06  1.7002E-05  0.0000E+00  0.0000E+00  0.0000E+00  1.8395E-05  0.0000E+00  0.0000E+00
  7  0.0000E+00  3.1613E-06  0.0000E+00  0.0000E+00  0.0000E+00  0.0000E+00  2.1601E-05  0.0000E+00  0.0000E+00
  8  0.0000E+00  3.0452E-06  0.0000E+00  0.0000E+00  0.0000E+00  0.0000E+00  2.0807E-05  0.0000E+00  0.0000E+00
  9  0.0000E+00  1.1425E-06  0.0000E+00  0.0000E+00  0.0000E+00  0.0000E+00  7.8065E-06  0.0000E+00  0.0000E+00
 10  0.0000E+00  7.9384E-06  5.2899E-05  0.0000E+00  0.0000E+00  0.0000E+00  0.0000E+00  0.0000E+00  0.0000E+00
 11  0.0000E+00  2.1998E-05  8.8440E-05  0.0000E+00  0.0000E+00  0.0000E+00  5.9627E-05  0.0000E+00  0.0000E+00
 12  0.0000E+00  0.0000E+00  0.0000E+00  0.0000E+00  0.0000E+00  0.0000E+00  0.0000E+00  0.0000E+00  0.0000E+00
 13  0.0000E+00  0.0000E+00  0.0000E+00  0.0000E+00  0.0000E+00  0.0000E+00  0.0000E+00  0.0000E+00  0.0000E+00
 14  0.0000E+00  0.0000E+00  0.0000E+00  0.0000E+00  0.0000E+00  0.0000E+00  0.0000E+00  0.0000E+00  0.0000E+00
 15  0.0000E+00  3.5322E-04  0.0000E+00  0.0000E+00  0.0000E+00  0.0000E+00  2.4135E-03  0.0000E+00  0.0000E+00
 16  0.0000E+00  5.3665E-04  0.0000E+00  0.0000E+00  0.0000E+00  0.0000E+00  3.6669E-03  0.0000E+00  0.0000E+00
 17  0.0000E+00  6.4657E-05  4.3086E-04  0.0000E+00  0.0000E+00  0.0000E+00  0.0000E+00  0.0000E+00  0.0000E+00
 18  2.6359E-04  2.1974E+00  1.4592E-04  1.3474E-01  4.8623E-05  0.0000E+00  1.4875E+01  0.0000E+00  2.6359E-04
 19  0.0000E+00  1.1972E-05  1.3762E-05  4.5623E-05  0.0000E+00  0.0000E+00  2.0565E-05  0.0000E+00  0.0000E+00
 20  0.0000E+00  0.0000E+00  0.0000E+00  0.0000E+00  0.0000E+00  0.0000E+00  0.0000E+00  0.0000E+00  0.0000E+00
 21  0.0000E+00  1.0590E-06  0.0000E+00  0.0000E+00  0.0000E+00  0.0000E+00  7.2359E-06  0.0000E+00  0.0000E+00
 22  0.0000E+00  0.0000E+00  0.0000E+00  0.0000E+00  0.0000E+00  0.0000E+00  0.0000E+00  0.0000E+00  0.0000E+00
 23  0.0000E+00  0.0000E+00  0.0000E+00  0.0000E+00  0.0000E+00  0.0000E+00  0.0000E+00  0.0000E+00  0.0000E+00
 24  0.0000E+00  0.0000E+00  0.0000E+00  0.0000E+00  0.0000E+00  0.0000E+00  0.0000E+00  0.0000E+00  0.0000E+00
 25  0.0000E+00  0.0000E+00  0.0000E+00  0.0000E+00  0.0000E+00  0.0000E+00  0.0000E+00  0.0000E+00  0.0000E+00
 26  0.0000E+00  2.1991E-05  1.6741E-06  0.0000E+00  0.0000E+00  0.0000E+00  1.4854E-04  0.0000E+00  0.0000E+00
 27  0.0000E+00  0.0000E+00  0.0000E+00  0.0000E+00  0.0000E+00  0.0000E+00  0.0000E+00  0.0000E+00  0.0000E+00
 28  0.0000E+00  0.0000E+00  0.0000E+00  0.0000E+00  0.0000E+00  0.0000E+00  0.0000E+00  0.0000E+00  0.0000E+00
 29  0.0000E+00  0.0000E+00  0.0000E+00  0.0000E+00  0.0000E+00  0.0000E+00  0.0000E+00  0.0000E+00  0.0000E+00
 30  0.0000E+00  0.0000E+00  0.0000E+00  0.0000E+00  0.0000E+00  0.0000E+00  0.0000E+00  0.0000E+00  0.0000E+00
 31  0.0000E+00  0.0000E+00  0.0000E+00  0.0000E+00  0.0000E+00  0.0000E+00  0.0000E+00  0.0000E+00  0.0000E+00
 32  0.0000E+00  1.1891E-04  3.1750E-04  0.0000E+00  0.0000E+00  0.0000E+00  4.8692E-04  0.0000E+00  0.0000E+00
 33  0.0000E+00  2.5279E-03  1.5766E-02  0.0000E+00  0.0000E+00  0.0000E+00  1.1069E-03  0.0000E+00  0.0000E+00
 34  0.0000E+00  0.0000E+00  0.0000E+00  0.0000E+00  0.0000E+00  0.0000E+00  0.0000E+00  0.0000E+00  0.0000E+00
 35  1.3418E-04  2.2912E-04  1.8235E-04  0.0000E+00  5.2117E-04  0.0000E+00  6.9738E-04  0.0000E+00  1.3418E-04
 36  4.1778E-07  7.0430E-07  4.2609E-06  0.0000E+00  0.0000E+00  0.0000E+00  0.0000E+00  0.0000E+00  4.1778E-07
 37  0.0000E+00  0.0000E+00  0.0000E+00  0.0000E+00  0.0000E+00  0.0000E+00  0.0000E+00  0.0000E+00  0.0000E+00
 38  0.0000E+00  7.8146E-06  2.0375E-05  3.0568E-05  0.0000E+00  0.0000E+00  9.2780E-07  0.0000E+00  0.0000E+00
 39  0.0000E+00  9.0776E-07  2.6329E-06  0.0000E+00  0.0000E+00  0.0000E+00  3.5029E-06  0.0000E+00  0.0000E+00
 40  0.0000E+00  7.9264E-06  5.2820E-05  0.0000E+00  0.0000E+00  0.0000E+00  0.0000E+00  0.0000E+00  0.0000E+00
 41  0.0000E+00  1.9610E-06  0.0000E+00  0.0000E+00  0.0000E+00  0.0000E+00  1.3399E-05  0.0000E+00  0.0000E+00
 42  0.0000E+00  5.1330E-07  0.0000E+00  0.0000E+00  0.0000E+00  0.0000E+00  3.5073E-06  0.0000E+00  0.0000E+00
 43  0.0000E+00  0.0000E+00  0.0000E+00  0.0000E+00  0.0000E+00  0.0000E+00  0.0000E+00  0.0000E+00  0.0000E+00
 44  0.0000E+00  8.4769E-07  5.6488E-06  0.0000E+00  0.0000E+00  0.0000E+00  0.0000E+00  0.0000E+00  0.0000E+00
 45  0.0000E+00  6.4075E-05  0.0000E+00  4.0291E-04  0.0000E+00  0.0000E+00  2.1614E-05  0.0000E+00  0.0000E+00
 46  0.0000E+00  0.0000E+00  0.0000E+00  0.0000E+00  0.0000E+00  0.0000E+00  0.0000E+00  0.0000E+00  0.0000E+00
 47  0.0000E+00  3.6266E-05  0.0000E+00  0.0000E+00  0.0000E+00  0.0000E+00  2.4780E-04  0.0000E+00  0.0000E+00
 48  0.0000E+00  4.1058E-05  0.0000E+00  0.0000E+00  0.0000E+00  0.0000E+00  2.8054E-04  0.0000E+00  0.0000E+00
 49  0.0000E+00  0.0000E+00  0.0000E+00  0.0000E+00  0.0000E+00  0.0000E+00  0.0000E+00  0.0000E+00  0.0000E+00
 50  0.0000E+00  8.0802E-04  0.0000E+00  0.0000E+00  0.0000E+00  0.0000E+00  5.5211E-03  0.0000E+00  0.0000E+00
 51  2.0214E+01  2.8132E+01  2.3483E+01  2.2747E+01  2.2679E+01  4.0113E+01  2.4504E+01  4.9899E+01  2.0214E+01
 52  0.0000E+00  5.1581E-06  6.4845E-06  1.3770E-05  0.0000E+00  0.0000E+00  1.4371E-05  0.0000E+00  0.0000E+00
 53  0.0000E+00  9.6230E-07  0.0000E+00  0.0000E+00  0.0000E+00  6.4409E-06  9.4253E-07  0.0000E+00  0.0000E+00
 54  0.0000E+00  4.1642E-07  0.0000E+00  0.0000E+00  0.0000E+00  0.0000E+00  2.8453E-06  0.0000E+00  0.0000E+00
 55  0.0000E+00  0.0000E+00  0.0000E+00  0.0000E+00  0.0000E+00  0.0000E+00  0.0000E+00  0.0000E+00  0.0000E+00
 56  0.0000E+00  5.2302E-06  3.4853E-05  0.0000E+00  0.0000E+00  0.0000E+00  0.0000E+00  0.0000E+00  0.0000E+00
 57  0.0000E+00  2.2171E-06  1.4774E-05  0.0000E+00  0.0000E+00  0.0000E+00  0.0000E+00  0.0000E+00  0.0000E+00
 58  0.0000E+00  4.2623E-08  2.8403E-07  0.0000E+00  0.0000E+00  0.0000E+00  0.0000E+00  0.0000E+00  0.0000E+00
 59  0.0000E+00  0.0000E+00  0.0000E+00  0.0000E+00  0.0000E+00  0.0000E+00  0.0000E+00  0.0000E+00  0.0000E+00
 60  0.0000E+00  1.8038E-06  1.2020E-05  0.0000E+00  0.0000E+00  0.0000E+00  0.0000E+00  0.0000E+00  0.0000E+00
 61  0.0000E+00  0.0000E+00  0.0000E+00  0.0000E+00  0.0000E+00  0.0000E+00  0.0000E+00  0.0000E+00  0.0000E+00
 62  0.0000E+00  0.0000E+00  0.0000E+00  0.0000E+00  0.0000E+00  0.0000E+00  0.0000E+00  0.0000E+00  0.0000E+00
 63  0.0000E+00  0.0000E+00  0.0000E+00  0.0000E+00  0.0000E+00  0.0000E+00  0.0000E+00  0.0000E+00  0.0000E+00
 64  0.0000E+00  0.0000E+00  0.0000E+00  0.0000E+00  0.0000E+00  0.0000E+00  0.0000E+00  0.0000E+00  0.0000E+00
 65  0.0000E+00  0.0000E+00  0.0000E+00  0.0000E+00  0.0000E+00  0.0000E+00  0.0000E+00  0.0000E+00  0.0000E+00
 66  0.0000E+00  9.0448E-04  0.0000E+00  0.0000E+00  0.0000E+00  0.0000E+00  6.1801E-03  0.0000E+00  0.0000E+00

# AV, chi2 & Mass for <> & i_chain = 1 ...  7 solutions
AV       4.0000      4.0000      4.0000      4.0000      4.0000      4.0000      4.0000      4.0000      4.0000
chi2 1.8585E-05  1.8597E-05  1.8590E-05  1.8589E-05  1.8589E-05  1.8612E-05  1.8595E-05  1.8622E-05  1.8585E-05
Mass 4.4395E-14  4.0836E-14  4.2896E-14  4.3215E-14  4.3252E-14  3.6586E-14  4.1835E-14  3.3673E-14  4.4395E-14
-435.78                                  [v0_min (km/s) before EX0s...]
   0.09                                  [vd_min (km/s) before EX0s...]


## Synthetic spectrum (Best Model) ##l_obs f_obs f_syn wei
 3478    [Nl_obs]
 3741.00   10.86775   1.11151    0.000
 3742.00   12.00091   1.08234    0.000
 3743.00   11.55419   1.04313    0.000
 3744.00    8.94342   1.00721    0.000
 3745.00    5.07178   1.00063   -1.000
 3746.00    5.02451   1.02932   -1.000
 3747.00    6.91928   1.06817   -1.000
 3748.00    6.59753   1.09069   -1.000
 3749.00    5.30112   1.10171   -1.000
 3750.00    4.79273   1.11989   -1.000
 3751.00    4.58184   1.13794   -1.000
 3752.00    4.18807   1.14807   -1.000
 3753.00    3.73568   1.14940   -1.000
 3754.00    3.32087   1.14195   -1.000
 3755.00    2.91612   1.14841   -1.000
 3756.00    4.09442   1.16776   -1.000
 3757.00    5.62017   1.17605   -1.000
 3758.00    5.30066   1.17377   -1.000
 3759.00    4.65904   1.16537   -1.000
 3760.00    4.68061   1.14817   -1.000
 3761.00    4.79029   1.12282   -1.000
 3762.00    4.45733   1.08832   -1.000
 3763.00    4.08278   1.04069   -1.000
 3764.00    2.78244   0.98668   -1.000
 3765.00    1.42869   0.95515   -1.000
 3766.00    3.43190   0.97096   -1.000
 3767.00    5.50661   1.01690   -1.000
 3768.00    6.59138   1.06184   -1.000
 3769.00    7.52285   1.10255   -1.000
 3770.00    4.73065   1.13970   -1.000
 3771.00    2.14538   1.16499   -1.000
 3772.00    2.27183   1.18052   -1.000
 3773.00    2.28890   1.19236   -1.000
 3774.00    1.34569   1.20175   -1.000
 3775.00    0.42712   1.20875   -1.000
 3776.00   -0.33169   1.21314    0.000
 3777.00   -0.78846   1.21579    0.000
 3778.00    0.28355   1.21713   -1.000
 3779.00    1.49449   1.21702   -1.000
 3780.00    3.27412   1.21661   -1.000
 3781.00    4.41071   1.21598   -1.000
 3782.00    3.36627   1.21322   -1.000
 3783.00    2.40264   1.20766   -1.000
 3784.00    1.67009   1.19525   -1.000
 3785.00    0.95338   1.17333   -1.000
 3786.00    0.27535   1.15352   -1.000
 3787.00   -0.10832   1.14117    0.000
 3788.00    0.12841   1.12154   -1.000
 3789.00    0.42585   1.08468   -1.000
 3790.00    0.83449   1.02997   -1.000
 3791.00    1.43893   0.96354   -1.000
 3792.00    2.35682   0.91579   -1.000
 3793.00    2.73010   0.92422   -1.000
 3794.00    2.33840   0.98183   -1.000
 3795.00    1.21541   1.04793   -1.000
 3796.00   -0.81146   1.09904    0.000
 3797.00   -0.84942   1.13564    0.000
 3798.00    1.27950   1.16198   -1.000
 3799.00    2.69447   1.17962   -1.000
 3800.00    3.42334   1.19154   -1.000
 3801.00    3.10396   1.20189   -1.000
 3802.00    1.89633   1.21281   -1.000
 3803.00    1.38476   1.22107   -1.000
 3804.00    1.39260   1.22501   -1.000
 3805.00    1.74566   1.22702   -1.000
 3806.00    2.32501   1.22854   -1.000
 3807.00    1.77991   1.22936   -1.000
 3808.00    0.58954   1.23012   -1.000
 3809.00    1.09060   1.23088   -1.000
 3810.00    2.43704   1.22984   -1.000
 3811.00    3.13697   1.22435   -1.000
 3812.00    3.55731   1.20512   -1.000
 3813.00    3.90393   1.16679   -1.000
 3814.00    4.22320   1.14103   -1.000
 3815.00    3.51620   1.16039   -1.000
 3816.00    2.48658   1.19886   -1.000
 3817.00    3.58962   1.22107   -1.000
 3818.00    5.25211   1.22645   -1.000
 3819.00    4.87649   1.22409   -1.000
 3820.00    4.06419   1.21900   -1.000
 3821.00    4.24517   1.21171   -1.000
 3822.00    4.59471   1.20088   -1.000
 3823.00    5.75239   1.18535   -1.000
 3824.00    7.01376   1.16463   -1.000
 3825.00    5.94801   1.13719   -1.000
 3826.00    4.67336   1.09895   -1.000
 3827.00    3.50353   1.04410   -1.000
 3828.00    2.33934   0.97010   -1.000
 3829.00    1.97234   0.89731   -1.000
 3830.00    1.62265   0.87528   -1.000
 3831.00    1.38517   0.92345   -1.000
 3832.00    1.19506   1.00143   -1.000
 3833.00    2.05710   1.06887   -1.000
 3834.00    2.86935   1.11780   -1.000
 3835.00    3.06252   1.15250   -1.000
 3836.00    3.09854   1.17754   -1.000
 3837.00    1.80638   1.19592   -1.000
 3838.00    0.59378   1.20982   -1.000
 3839.00   -0.11830   1.22037    0.000
 3840.00   -0.51767   1.22842    0.000
 3841.00    0.62590   1.23530   -1.000
 3842.00    1.66089   1.24038   -1.000
 3843.00    2.26117   1.24383   -1.000
 3844.00    3.04271   1.24645   -1.000
 3845.00    4.42690   1.24840   -1.000
 3846.00    5.00628   1.25076   -1.000
 3847.00    3.32570   1.25263    0.000
 3848.00    1.87618   1.25321    0.000
 3849.00    0.98166   1.25120    0.000
 3850.00    1.80365   1.24708    0.000
 3851.00    6.18554   1.24395    0.000
 3852.00    8.01051   1.24411    0.000
 3853.00    5.22368   1.24669    0.000
 3854.00    3.17270   1.24983    0.000
 3855.00    2.28222   1.25259    0.000
 3856.00    1.70776   1.25424    0.000
 3857.00    1.57079   1.25505    0.000
 3858.00    1.42154   1.25548    0.000
 3859.00    1.25732   1.25541    0.000
 3860.00    0.96820   1.25277    0.000
 3861.00    0.54490   1.24369    0.000
 3862.00    0.84982   1.23938    0.000
 3863.00    1.84470   1.24743    0.000
 3864.00    2.48395   1.25387    0.000
 3865.00    2.82608   1.24784    0.000
 3866.00    3.42852   1.23805    0.000
 3867.00    4.22241   1.23771    0.000
 3868.00    3.91102   1.24306    0.000
 3869.00    2.88571   1.24345    0.000
 3870.00    2.07504   1.23911    0.000
 3871.00    1.38567   1.23679    0.000
 3872.00    1.39650   1.23495    0.000
 3873.00    1.75176   1.22995    0.000
 3874.00    2.24307   1.22272    0.000
 3875.00    2.79224   1.21235    0.000
 3876.00    3.88045   1.19715    0.000
 3877.00    5.16500   1.17594    0.000
 3878.00    4.57509   1.15042    0.000
 3879.00    3.40732   1.11712    0.000
 3880.00    2.80557   1.06874    0.000
 3881.00    2.34912   1.00099   -1.000
 3882.00    0.75687   0.91386   -1.000
 3883.00   -1.07283   0.84745    0.000
 3884.00   -0.43663   0.85992    0.000
 3885.00    0.60620   0.93944   -1.000
 3886.00    1.18934   1.02559   -1.000
 3887.00    1.71554   1.09011   -1.000
 3888.00    1.71252   1.13612   -1.000
 3889.00    1.66421   1.16892   -1.000
 3890.00    1.74567   1.19203   -1.000
 3891.00    1.83360   1.20852   -1.000
 3892.00    3.09298   1.22075   -1.000
 3893.00    4.32245   1.22919   -1.000
 3894.00    2.38091   1.23700   -1.000
 3895.00    0.60014   1.24462   -1.000
 3896.00    2.10783   1.25055   -1.000
 3897.00    3.57323   1.25424   -1.000
 3898.00    4.53855   1.25808   -1.000
 3899.00    5.39298   1.26192   -1.000
 3900.00    5.34412   1.26444   -1.000
 3901.00    5.12483   1.26631   -1.000
 3902.00    3.86458   1.26848   -1.000
 3903.00    2.71922   1.27081   -1.000
 3904.00    2.12671   1.27179   -1.000
 3905.00    1.50258   1.27066   -1.000
 3906.00    0.75461   1.26907   -1.000
 3907.00    0.46887   1.27011   -1.000
 3908.00    1.68974   1.27275   -1.000
 3909.00    2.33869   1.27424   -1.000
 3910.00    1.41054   1.27463   -1.000
 3911.00    0.79396   1.27321   -1.000
 3912.00    0.91317   1.26886   -1.000
 3913.00    0.82059   1.26073   -1.000
 3914.00    0.29580   1.25278   -1.000
 3915.00   -0.00877   1.24706    0.000
 3916.00    0.07779   1.24051   -1.000
 3917.00    0.58392   1.23058   -1.000
 3918.00    1.74194   1.22584   -1.000
 3919.00    2.10082   1.22939   -1.000
 3920.00    1.36928   1.23259   -1.000
 3921.00    2.28597   1.23877   -1.000
 3922.00    5.18252   1.25298   -1.000
 3923.00    5.60270   1.26563   -1.000
 3924.00    3.40018   1.27253   -1.000
 3925.00    1.97790   1.27453   -1.000
 3926.00    1.28452   1.27341   -1.000
 3927.00    1.29054   1.26840   -1.000
 3928.00    1.87255   1.26040   -1.000
 3929.00    2.51779   1.25906   -1.000
 3930.00    3.20887   1.26749   -1.000
 3931.00    3.38483   1.27653   -1.000
 3932.00    3.23296   1.28030   -1.000
 3933.00    2.51348   1.28164   -1.000
 3934.00    1.47811   1.28320   -1.000
 3935.00    1.65685   1.28407   -1.000
 3936.00    2.42332   1.28400   -1.000
 3937.00    2.89105   1.28294   -1.000
 3938.00    3.23389   1.27958   -1.000
 3939.00    4.22944   1.27648   -1.000
 3940.00    5.45847   1.27780   -1.000
 3941.00    3.75252   1.27831   -1.000
 3942.00    1.15945   1.27609   -1.000
 3943.00    0.95172   1.27651   -1.000
 3944.00    1.34309   1.27875   -1.000
 3945.00    0.81731   1.27967   -1.000
 3946.00    0.10450   1.27800   -1.000
 3947.00   -0.23105   1.27495    0.000
 3948.00   -0.50620   1.26999    0.000
 3949.00    0.57419   1.26693   -1.000
 3950.00    1.81642   1.26665   -1.000
 3951.00    2.50872   1.26469   -1.000
 3952.00    3.15623   1.26154   -1.000
 3953.00    2.07361   1.25562   -1.000
 3954.00    0.91146   1.24473   -1.000
 3955.00    1.89991   1.22425   -1.000
 3956.00    2.89449   1.20669   -1.000
 3957.00    2.77757   1.19627   -1.000
 3958.00    2.59532   1.17419   -1.000
 3959.00    1.17569   1.14356   -1.000
 3960.00   -0.05927   1.11502    0.000
 3961.00    0.78705   1.07085    0.000
 3962.00    1.54990   0.99599    0.000
 3963.00    1.65663   0.89870    0.000
 3964.00    1.66632   0.83232    0.000
 3965.00    1.10017   0.85736    0.000
 3966.00    0.38598   0.95011    0.000
 3967.00   -1.02329   1.04244    0.000
 3968.00   -1.75055   1.10891    0.000
 3969.00    0.13588   1.15534    0.000
 3970.00    2.04956   1.18732    0.000
 3971.00    4.05035   1.21000    0.000
 3972.00    4.99505   1.22717    0.000
 3973.00    3.07949   1.24068    0.000
 3974.00    1.31172   1.25167    0.000
 3975.00   -0.11286   1.25938    0.000
 3976.00   -1.13406   1.26436    0.000
 3977.00   -1.34501   1.26826    0.000
 3978.00   -0.21721   1.27331    0.000
 3979.00    3.25232   1.27927    0.000
 3980.00    5.35552   1.28355    0.000
 3981.00    5.36693   1.28635   -1.000
 3982.00    3.45125   1.28876   -1.000
 3983.00   -1.05609   1.29113    0.000
 3984.00   -2.92209   1.29307    0.000
 3985.00   -1.66011   1.29419    0.000
 3986.00   -0.23240   1.29556    0.000
 3987.00    1.36839   1.29676   -1.000
 3988.00    1.91748   1.29568   -1.000
 3989.00    1.49792   1.29422   -1.000
 3990.00    1.15374   1.29603   -1.000
 3991.00    0.87077   1.29788   -1.000
 3992.00   -0.04736   1.29615    0.000
 3993.00   -1.41929   1.29570    0.000
 3994.00   -1.19950   1.29932    0.000
 3995.00    0.01829   1.30108   -1.000
 3996.00    0.09260   1.29967   -1.000
 3997.00   -0.45973   1.29452    0.000
 3998.00    0.08524   1.29242   -1.000
 3999.00    1.15291   1.29405   -1.000
 4000.00    0.88774   1.29571   -1.000
 4001.00    0.07475   1.29361   -1.000
 4002.00    0.65283   1.28584   -1.000
 4003.00    1.71947   1.27747   -1.000
 4004.00    1.54726   1.27879   -1.000
 4005.00    1.00800   1.28842   -1.000
 4006.00    0.63302   1.29766   -1.000
 4007.00    0.29839   1.30242   -1.000
 4008.00   -0.54014   1.30496    0.000
 4009.00   -1.47886   1.30553    0.000
 4010.00   -1.83253   1.30575    0.000
 4011.00   -2.09528   1.30552    0.000
 4012.00   -0.99455   1.30503    0.000
 4013.00    0.26297   1.30326   -1.000
 4014.00    0.01007   1.30046   -1.000
 4015.00   -0.35962   1.29467    0.000
 4016.00    0.63795   1.28279   -1.000
 4017.00    1.69308   1.26083   -1.000
 4018.00    3.17590   1.21855   -1.000
 4019.00    4.55634   1.15006   -1.000
 4020.00    1.28088   1.10076   -1.000
 4021.00   -1.71013   1.13193    0.000
 4022.00    0.31395   1.20739   -1.000
 4023.00    2.28950   1.26102   -1.000
 4024.00    3.74279   1.28681   -1.000
 4025.00    4.64174   1.29854   -1.000
 4026.00    1.33246   1.30484   -1.000
 4027.00   -1.35147   1.30761    0.000
 4028.00   -0.42839   1.31089    0.000
 4029.00    0.48657   1.31287   -1.000
 4030.00    1.36439   1.31628   -1.000
 4031.00    1.75006   1.31896   -1.000
 4032.00    0.28963   1.31967   -1.000
 4033.00   -0.46364   1.32059    0.000
 4034.00    1.00000   1.32059   -1.000
 4035.00    1.90523   1.31993   -1.000
 4036.00    1.32488   1.32005   -1.000
 4037.00    1.49026   1.32045   -1.000
 4038.00    3.35846   1.32104   -1.000
 4039.00    4.80399   1.32099   -1.000
 4040.00    5.41393   1.32272   -1.000
 4041.00    4.93013   1.32470   -1.000
 4042.00    2.56210   1.32531   -1.000
 4043.00    1.35240   1.32575   -1.000
 4044.00    1.89008   1.32721   -1.000
 4045.00    2.00193   1.32795   -1.000
 4046.00    1.54931   1.32788   -1.000
 4047.00    1.06369   1.32738   -1.000
 4048.00    0.53954   1.32562   -1.000
 4049.00   -0.24742   1.32317    0.000
 4050.00   -1.30495   1.32240    0.000
 4051.00   -1.71546   1.32711    0.000
 4052.00   -1.53842   1.33104    0.000
 4053.00   -1.13080   1.32990    0.000
 4054.00   -0.53862   1.32606    0.000
 4055.00   -0.22279   1.32533    0.000
 4056.00   -0.10156   1.32606    0.000
 4057.00   -0.09989   1.32849    0.000
 4058.00   -0.17207   1.33021    0.000
 4059.00    1.03540   1.33112   -1.000
 4060.00    2.93337   1.32906   -1.000
 4061.00    2.73530   1.31257   -1.000
 4062.00    1.55487   1.28413   -1.000
 4063.00    0.78753   1.26356   -1.000
 4064.00    0.18708   1.26441   -1.000
 4065.00    0.17055   1.28584   -1.000
 4066.00    0.35535   1.30683   -1.000
 4067.00    1.03532   1.31735   -1.000
 4068.00    1.85909   1.32089   -1.000
 4069.00    2.28134   1.31321   -1.000
 4070.00    2.60714   1.30905   -1.000
 4071.00    2.39635   1.31788   -1.000
 4072.00    2.08159   1.32589   -1.000
 4073.00    2.30255   1.32704   -1.000
 4074.00    2.60425   1.32617   -1.000
 4075.00    1.87739   1.32424   -1.000
 4076.00    1.03675   1.32433   -1.000
 4077.00    1.15586   1.32513   -1.000
 4078.00    1.34525   1.32068   -1.000
 4079.00    0.99908   1.31849   -1.000
 4080.00    0.63240   1.31744   -1.000
 4081.00    0.47973   1.30879   -1.000
 4082.00    0.38360   1.27985   -1.000
 4083.00    2.37371   1.25848   -1.000
 4084.00    4.22534   1.27430   -1.000
 4085.00    3.79501   1.29278   -1.000
 4086.00    3.35796   1.29020   -1.000
 4087.00    2.85177   1.27931   -1.000
 4088.00    2.40050   1.26548   -1.000
 4089.00    2.35228   1.24536   -1.000
 4090.00    2.57502   1.20954   -1.000
 4091.00    4.31775   1.15814   -1.000
 4092.00    5.58005   1.11294    0.000
 4093.00    4.69240   1.06090    0.000
 4094.00    4.24437   0.97226    0.000
 4095.00    5.41089   0.87150    0.000
 4096.00    5.72769   0.84022    0.000
 4097.00    3.43121   0.91385    0.000
 4098.00    2.07313   1.02905    0.000
 4099.00    3.16764   1.12250    0.000
 4100.00    3.93727   1.18345    0.000
 4101.00    3.97730   1.22306    0.000
 4102.00    3.63407   1.25039    0.000
 4103.00    2.54506   1.27024    0.000
 4104.00    2.41636   1.28446    0.000
 4105.00    3.91708   1.29569    0.000
 4106.00    4.47620   1.30597    0.000
 4107.00    3.63563   1.31475    0.000
 4108.00    2.82429   1.31866    0.000
 4109.00    2.05114   1.30680    0.000
 4110.00    1.61156   1.29439    0.000
 4111.00    1.55591   1.30874    0.000
 4112.00    1.57879   1.32769    0.000
 4113.00    1.68137   1.32488    0.020
 4114.00    1.48407   1.30686   -1.000
 4115.00    1.01828   1.29958   -1.000
 4116.00    1.39838   1.31985   -1.000
 4117.00    2.44589   1.34386   -1.000
 4118.00    3.30523   1.35226   -1.000
 4119.00    4.03399   1.35549   -1.000
 4120.00    3.17325   1.35552   -1.000
 4121.00    1.34529   1.35381   -1.000
 4122.00    1.16197   1.35189   -1.000
 4123.00    1.85237   1.35381   -1.000
 4124.00    2.63646   1.35446   -1.000
 4125.00    3.46375   1.35349   -1.000
 4126.00    3.35662   1.35517   -1.000
 4127.00    2.87845   1.35879   -1.000
 4128.00    2.77635   1.36271   -1.000
 4129.00    2.80152   1.36556   -1.000
 4130.00    3.12000   1.36677   -1.000
 4131.00    3.52194   1.36669   -1.000
 4132.00    2.94080   1.36631    0.011
 4133.00    2.12885   1.36566    0.005
 4134.00    2.88731   1.36445    0.004
 4135.00    3.94219   1.36020    0.004
 4136.00    3.19686   1.34572    0.004
 4137.00    2.18865   1.32089    0.004
 4138.00    2.30899   1.31239    0.004
 4139.00    2.54927   1.33385    0.005
 4140.00    2.75333   1.35682    0.004
 4141.00    2.95490   1.36707    0.004
 4142.00    2.40399   1.37143    0.004
 4143.00    1.82712   1.37231    0.004
 4144.00    1.45056   1.37237    0.004
 4145.00    1.11388   1.37289    0.005
 4146.00    2.08177   1.37089    0.004
 4147.00    3.01370   1.36890    0.004
 4148.00    3.38960   1.37283    0.004
 4149.00    3.69695   1.37622    0.005
 4150.00    3.32849   1.37496    0.005
 4151.00    3.07178   1.37582    0.005
 4152.00    3.60853   1.38010    0.005
 4153.00    3.99032   1.38332    0.005
 4154.00    3.52614   1.38379    0.005
 4155.00    3.31915   1.38283    0.005
 4156.00    4.23632   1.37881    0.005
 4157.00    4.90258   1.37643    0.005
 4158.00    4.66632   1.38007    0.004
 4159.00    4.49544   1.38463    0.004
 4160.00    4.52185   1.38628    0.004
 4161.00    4.34319   1.38504    0.004
 4162.00    3.63790   1.37978    0.004
 4163.00    2.93689   1.37707    0.004
 4164.00    2.24535   1.38136    0.004
 4165.00    2.05920   1.38593    0.004
 4166.00    2.84117   1.38655    0.005
 4167.00    3.11171   1.38789    0.005
 4168.00    2.52749   1.38963    0.005
 4169.00    1.99292   1.39053    0.005
 4170.00    1.53108   1.39090    0.005
 4171.00    1.73550   1.39196    0.005
 4172.00    2.79807   1.39280    0.005
 4173.00    2.87736   1.39347    0.005
 4174.00    1.84082   1.39466    0.005
 4175.00    1.42061   1.39600    0.005
 4176.00    1.61726   1.39640    0.005
 4177.00    1.74092   1.39611    0.005
 4178.00    1.80014   1.39410    0.004
 4179.00    2.61032   1.38976    0.004
 4180.00    4.00456   1.38353    0.005
 4181.00    4.80558   1.38254    0.005
 4182.00    5.20092   1.38880    0.005
 4183.00    4.68162   1.39085    0.004
 4184.00    3.61407   1.39076    0.004
 4185.00    3.59263   1.39491    0.004
 4186.00    4.11832   1.39732    0.004
 4187.00    3.51645   1.39605    0.004
 4188.00    2.40313   1.39270    0.004
 4189.00    2.75390   1.38524    0.004
 4190.00    3.67599   1.37401    0.004
 4191.00    3.70281   1.35649    0.004
 4192.00    3.43226   1.32357    0.004
 4193.00    2.91615   1.28274    0.004
 4194.00    2.33160   1.27277    0.004
 4195.00    2.53354   1.30660    0.004
 4196.00    2.91590   1.34907    0.004
 4197.00    3.37058   1.37556    0.004
 4198.00    3.83854   1.39017    0.004
 4199.00    2.98828   1.39852    0.004
 4200.00    1.95162   1.40392    0.004
 4201.00    1.99278   1.40730    0.004
 4202.00    2.14385   1.40972    0.004
 4203.00    1.94650   1.41137    0.004
 4204.00    1.72645   1.41192    0.004
 4205.00    2.11759   1.40735    0.004
 4206.00    2.52803   1.40070    0.004
 4207.00    3.26907   1.40393    0.004
 4208.00    3.99148   1.41314    0.004
 4209.00    4.16678   1.41670    0.004
 4210.00    4.23626   1.41745    0.004
 4211.00    2.76517   1.41903    0.004
 4212.00    1.48512   1.42033    0.004
 4213.00    2.01166   1.42216    0.004
 4214.00    2.51656   1.42346    0.004
 4215.00    2.87272   1.42311    0.004
 4216.00    3.04665   1.42252    0.004
 4217.00    2.25214   1.42322    0.004
 4218.00    1.94396   1.42425    0.004
 4219.00    3.71295   1.42465    0.004
 4220.00    5.11012   1.42430    0.004
 4221.00    5.19726   1.42446    0.004
 4222.00    5.06341   1.42596    0.004
 4223.00    4.27511   1.42793    0.004
 4224.00    3.73415   1.42918    0.004
 4225.00    3.81734   1.42992    0.004
 4226.00    3.88110   1.42984    0.004
 4227.00    3.90263   1.42944    0.004
 4228.00    3.55968   1.42974    0.004
 4229.00    2.52939   1.43023    0.004
 4230.00    1.97945   1.42985    0.004
 4231.00    2.22033   1.43016    0.004
 4232.00    2.51600   1.43194    0.004
 4233.00    2.89077   1.43343    0.004
 4234.00    3.13918   1.43379    0.004
 4235.00    3.22719   1.43290    0.004
 4236.00    2.64378   1.43313    0.004
 4237.00    1.30919   1.43565    0.004
 4238.00    1.00347   1.43783    0.004
 4239.00    1.71305   1.43790    0.004
 4240.00    2.38278   1.43711    0.004
 4241.00    3.01781   1.43727    0.004
 4242.00    3.69450   1.43890    0.004
 4243.00    4.40311   1.44068    0.004
 4244.00    3.90675   1.44176    0.004
 4245.00    2.59834   1.44250    0.004
 4246.00    3.03972   1.44232    0.004
 4247.00    4.51422   1.44127    0.004
 4248.00    4.53261   1.44286    0.004
 4249.00    3.80130   1.44500    0.004
 4250.00    2.01789   1.44514    0.004
 4251.00   -0.23492   1.44514    0.000
 4252.00    1.19481   1.44583    0.004
 4253.00    4.03651   1.44681    0.004
 4254.00    4.64901   1.44757    0.004
 4255.00    4.53502   1.44834    0.004
 4256.00    4.65460   1.44933    0.004
 4257.00    4.83794   1.45036    0.004
 4258.00    5.04925   1.45077    0.004
 4259.00    5.26684   1.44758    0.004
 4260.00    4.08510   1.43749    0.004
 4261.00    2.65309   1.43062    0.004
 4262.00    3.00634   1.43865    0.004
 4263.00    3.60385   1.45025    0.004
 4264.00    3.21380   1.45444    0.004
 4265.00    2.72728   1.45521    0.004
 4266.00    2.34050   1.45588    0.004
 4267.00    1.95982   1.45601    0.004
 4268.00    2.23921   1.45486    0.004
 4269.00    2.54149   1.45129    0.004
 4270.00    3.83581   1.44892    0.004
 4271.00    5.10505   1.45076    0.004
 4272.00    5.71135   1.45560    0.004
 4273.00    6.17556   1.46000    0.004
 4274.00    4.68648   1.46194    0.004
 4275.00    3.34813   1.46150    0.004
 4276.00    3.37894   1.45946    0.004
 4277.00    3.39182   1.45796    0.004
 4278.00    3.28529   1.45777    0.004
 4279.00    3.03207   1.45951    0.004
 4280.00    2.01948   1.46291    0.004
 4281.00    1.51702   1.46541    0.004
 4282.00    3.14418   1.46504   -2.000
 4283.00    4.75092   1.46413   -2.000
 4284.00    6.28713   1.46442   -2.000
 4285.00    7.41145   1.46641   -2.000
 4286.00    7.33855   1.46901   -2.000
 4287.00    6.84182   1.46981   -2.000
 4288.00    5.29388   1.46818   -2.000
 4289.00    3.62034   1.46822   -2.000
 4290.00    1.67832   1.47105   -2.000
 4291.00    0.95451   1.47395   -2.000
 4292.00    2.49257   1.47480   -2.000
 4293.00    3.81417   1.47425   -2.000
 4294.00    4.78474   1.47392   -2.000
 4295.00    5.25349   1.47418   -2.000
 4296.00    5.00832   1.47272   -2.000
 4297.00    4.68151   1.46986   -2.000
 4298.00    4.25252   1.47021    0.004
 4299.00    3.59392   1.47380    0.004
 4300.00    2.68204   1.47591    0.004
 4301.00    3.07918   1.47549    0.004
 4302.00    4.74991   1.47545    0.004
 4303.00    4.85249   1.47620    0.004
 4304.00    3.60959   1.47758    0.004
 4305.00    3.17348   1.47802    0.004
 4306.00    3.34703   1.47604    0.004
 4307.00    3.68104   1.47244    0.004
 4308.00    4.12160   1.47157    0.004
 4309.00    3.54649   1.47293    0.004
 4310.00    2.38073   1.47226    0.004
 4311.00    2.80058   1.47063    0.004
 4312.00    4.02402   1.47048    0.004
 4313.00    4.65287   1.47024    0.004
 4314.00    5.02082   1.47090    0.004
 4315.00    4.61034   1.47319    0.004
 4316.00    3.90663   1.47452    0.004
 4317.00    3.85698   1.47340    0.004
 4318.00    4.01645   1.46904    0.004
 4319.00    3.96369   1.46319    0.004
 4320.00    3.85420   1.45859    0.004
 4321.00    3.93919   1.45381    0.004
 4322.00    4.06673   1.44894    0.004
 4323.00    3.73958   1.44571    0.004
 4324.00    3.33334   1.44031    0.004
 4325.00    1.62248   1.42898    0.004
 4326.00   -0.26094   1.41374    0.000
 4327.00    2.02181   1.39609    0.004
 4328.00    4.69388   1.37364    0.004
 4329.00    4.99761   1.34034    0.004
 4330.00    5.16588   1.28951    0.000
 4331.00    4.69316   1.21494    0.000
 4332.00    4.20245   1.11490    0.000
 4333.00    3.35718   1.00493    0.000
 4334.00    2.57809   0.94240    0.000
 4335.00    3.38791   0.98786    0.000
 4336.00    4.17285   1.11023    0.000
 4337.00    4.63384   1.22385    0.000
 4338.00    5.04319   1.29653    0.000
 4339.00    5.00141   1.34324    0.000
 4340.00    4.73339   1.37762    0.000
 4341.00    3.00400   1.40322    0.000
 4342.00    1.76368   1.42101    0.000
 4343.00    2.99077   1.43371    0.000
 4344.00    3.84246   1.44465    0.000
 4345.00    3.16193   1.45559    0.000
 4346.00    2.81771   1.46692    0.000
 4347.00    3.61126   1.47708    0.000
 4348.00    4.15022   1.48476    0.000
 4349.00    3.96269   1.49031    0.000
 4350.00    3.65600   1.49358    0.000
 4351.00    3.05881   1.49720    0.012
 4352.00    2.86328   1.50188   -1.000
 4353.00    3.51258   1.50570   -1.000
 4354.00    4.19249   1.50779   -1.000
 4355.00    4.92835   1.50947   -1.000
 4356.00    5.29418   1.51212   -1.000
 4357.00    5.06878   1.51517   -1.000
 4358.00    4.70708   1.51664   -1.000
 4359.00    4.15428   1.51605   -1.000
 4360.00    3.73001   1.51440   -1.000
 4361.00    3.46433   1.51475   -1.000
 4362.00    4.36645   1.51838   -1.000
 4363.00    6.53862   1.52230   -1.000
 4364.00    6.79508   1.52427   -1.000
 4365.00    5.21384   1.52473   -1.000
 4366.00    3.53020   1.52534    0.014
 4367.00    1.75996   1.52697    0.005
 4368.00    1.64311   1.52809    0.004
 4369.00    2.75782   1.52876    0.004
 4370.00    3.36095   1.53034    0.004
 4371.00    3.62932   1.53138    0.004
 4372.00    3.11304   1.52844    0.004
 4373.00    2.14736   1.52614    0.004
 4374.00    1.92857   1.53019    0.004
 4375.00    2.08235   1.53466    0.004
 4376.00    2.60197   1.53414    0.004
 4377.00    3.27946   1.53217    0.004
 4378.00    3.74733   1.52967    0.004
 4379.00    4.13763   1.52171    0.004
 4380.00    3.59776   1.49931    0.004
 4381.00    2.76620   1.46935    0.004
 4382.00    2.62391   1.46454    0.004
 4383.00    2.66195   1.49358    0.004
 4384.00    3.65219   1.52594    0.004
 4385.00    4.84583   1.54339    0.004
 4386.00    4.35886   1.54974    0.004
 4387.00    3.58769   1.54951    0.004
 4388.00    2.96266   1.54726    0.004
 4389.00    2.35630   1.54642    0.004
 4390.00    2.14584   1.54855    0.004
 4391.00    1.97072   1.55276    0.004
 4392.00    2.44284   1.55533    0.004
 4393.00    2.94944   1.55550    0.004
 4394.00    3.76495   1.55580    0.004
 4395.00    4.57900   1.55712    0.004
 4396.00    4.78397   1.55783    0.004
 4397.00    4.92308   1.55725    0.004
 4398.00    3.61461   1.55757    0.004
 4399.00    2.43146   1.55955    0.004
 4400.00    2.79650   1.56160    0.004
 4401.00    3.07688   1.56399    0.004
 4402.00    2.64496   1.56670    0.004
 4403.00    2.35702   1.56765    0.004
 4404.00    2.97144   1.56584    0.004
 4405.00    3.63341   1.56490    0.004
 4406.00    4.52919   1.56700    0.004
 4407.00    5.29380   1.56553    0.004
 4408.00    5.53475   1.55980    0.004
 4409.00    5.42972   1.55688    0.004
 4410.00    4.17733   1.55815    0.004
 4411.00    3.50679   1.56184    0.004
 4412.00    4.46641   1.56659    0.004
 4413.00    4.66656   1.57054    0.004
 4414.00    3.04641   1.57338    0.004
 4415.00    1.87159   1.57537    0.004
 4416.00    1.61847   1.57631    0.004
 4417.00    1.72673   1.57699    0.004
 4418.00    2.48552   1.57754    0.004
 4419.00    3.02546   1.57784    0.004
 4420.00    3.22088   1.57822    0.004
 4421.00    3.77012   1.57946    0.004
 4422.00    4.80829   1.58165    0.004
 4423.00    5.49809   1.58237    0.004
 4424.00    5.76415   1.58111    0.004
 4425.00    5.50094   1.58028    0.004
 4426.00    4.67022   1.58039    0.004
 4427.00    4.18317   1.58124    0.004
 4428.00    4.02119   1.58239    0.004
 4429.00    4.13064   1.58090    0.004
 4430.00    4.46646   1.57507    0.004
 4431.00    3.99567   1.57139    0.004
 4432.00    2.93269   1.57609    0.004
 4433.00    2.81673   1.58053    0.004
 4434.00    3.31134   1.57794    0.004
 4435.00    4.12801   1.57616    0.004
 4436.00    5.12634   1.58139    0.004
 4437.00    5.18665   1.58853    0.004
 4438.00    4.78645   1.59272    0.004
 4439.00    5.02434   1.59387    0.004
 4440.00    5.53299   1.59264    0.004
 4441.00    5.12879   1.59177    0.004
 4442.00    4.39283   1.59344    0.004
 4443.00    5.02269   1.59666    0.004
 4444.00    6.07256   1.59808    0.004
 4445.00    4.70798   1.59702    0.004
 4446.00    2.72526   1.59679    0.004
 4447.00    3.30002   1.59929    0.004
 4448.00    4.40782   1.60217    0.004
 4449.00    3.65600   1.60383    0.004
 4450.00    2.59865   1.60550    0.004
 4451.00    3.93239   1.60681    0.004
 4452.00    5.56091   1.60700    0.004
 4453.00    4.80297   1.60701    0.004
 4454.00    3.84204   1.60719    0.004
 4455.00    4.04235   1.60687    0.004
 4456.00    4.29996   1.60637    0.004
 4457.00    4.56299   1.60648    0.004
 4458.00    4.83335   1.60646    0.004
 4459.00    5.55875   1.60484    0.004
 4460.00    6.21181   1.60074    0.004
 4461.00    5.39990   1.59286    0.000
 4462.00    4.58817   1.57696    0.000
 4463.00    3.77860   1.53536    0.000
 4464.00    3.01467   1.45972    0.000
 4465.00    2.62080   1.41462    0.000
 4466.00    2.45987   1.46307    0.000
 4467.00    3.71648   1.54756    0.000
 4468.00    4.58057   1.59350    0.000
 4469.00    3.56156   1.60776    0.000
 4470.00    2.66655   1.61393    0.000
 4471.00    2.25583   1.61707    0.000
 4472.00    2.31263   1.61677    0.000
 4473.00    3.88959   1.60874    0.000
 4474.00    5.01095   1.59748    0.000
 4475.00    4.87882   1.59848    0.000
 4476.00    4.49172   1.61320    0.000
 4477.00    3.50379   1.62556    0.000
 4478.00    3.10924   1.62963    0.000
 4479.00    3.92333   1.63131    0.000
 4480.00    4.49476   1.63267    0.000
 4481.00    4.63604   1.63308    0.000
 4482.00    4.73617   1.63275    0.004
 4483.00    4.77249   1.63279    0.004
 4484.00    4.64387   1.63384    0.004
 4485.00    4.29065   1.63516    0.004
 4486.00    4.07149   1.63651    0.004
 4487.00    4.01311   1.63794    0.004
 4488.00    3.38021   1.63894    0.004
 4489.00    2.13995   1.63973    0.004
 4490.00    1.63179   1.64057    0.004
 4491.00    1.80636   1.64156    0.004
 4492.00    2.01532   1.64284    0.004
 4493.00    2.25255   1.64310    0.004
 4494.00    2.66679   1.64243    0.004
 4495.00    3.20909   1.64202    0.004
 4496.00    3.51510   1.64329    0.004
 4497.00    3.67100   1.64617    0.004
 4498.00    4.08896   1.64825    0.004
 4499.00    4.65248   1.64867    0.004
 4500.00    5.11604   1.64913    0.004
 4501.00    5.53132   1.64979    0.004
 4502.00    4.87201   1.64973    0.004
 4503.00    3.76439   1.64542    0.004
 4504.00    3.36990   1.63845    0.004
 4505.00    3.22992   1.63804    0.004
 4506.00    3.38408   1.64327    0.004
 4507.00    3.62692   1.64142    0.004
 4508.00    4.16499   1.63440    0.004
 4509.00    4.77701   1.63598    0.004
 4510.00    4.68716   1.64434    0.004
 4511.00    4.45463   1.64976    0.004
 4512.00    3.42805   1.65359    0.004
 4513.00    2.27480   1.65791    0.004
 4514.00    2.82516   1.66058    0.004
 4515.00    3.57797   1.66034    0.004
 4516.00    3.38692   1.65742    0.004
 4517.00    3.11950   1.65529    0.004
 4518.00    3.81578   1.65769    0.004
 4519.00    4.55590   1.66196    0.004
 4520.00    4.07771   1.66460    0.004
 4521.00    3.58067   1.66370    0.004
 4522.00    2.88600   1.66007    0.003
 4523.00    2.26051   1.65880    0.003
 4524.00    2.93346   1.66139    0.003
 4525.00    3.58531   1.66498    0.003
 4526.00    4.00076   1.66532    0.004
 4527.00    4.27428   1.66169    0.004
 4528.00    3.43709   1.65869    0.004
 4529.00    2.81729   1.65790    0.004
 4530.00    3.48275   1.65431    0.004
 4531.00    4.05949   1.64289    0.004
 4532.00    4.22097   1.61853    0.004
 4533.00    4.34842   1.56986    0.004
 4534.00    4.34580   1.50551    0.004
 4535.00    4.44522   1.47719    0.003
 4536.00    4.87003   1.51588    0.004
 4537.00    5.08970   1.58012    0.004
 4538.00    4.75502   1.62560    0.004
 4539.00    4.47558   1.65085    0.004
 4540.00    4.32416   1.66506    0.003
 4541.00    4.12171   1.67186    0.003
 4542.00    3.81698   1.67485    0.003
 4543.00    3.56004   1.67735    0.003
 4544.00    3.38651   1.67910    0.003
 4545.00    3.59057   1.67606    0.003
 4546.00    4.37160   1.67335    0.003
 4547.00    4.77101   1.67752    0.004
 4548.00    4.65811   1.68433    0.004
 4549.00    4.42004   1.68843    0.004
 4550.00    4.03399   1.69021    0.000
 4551.00    3.83071   1.69099    0.000
 4552.00    3.81796   1.69244    0.000
 4553.00    3.79951   1.69504    0.000
 4554.00    3.77580   1.69706    0.000
 4555.00    3.93448   1.69807    0.000
 4556.00    4.24096   1.69860    0.000
 4557.00    4.15840   1.69878    0.000
 4558.00    3.79837   1.69983    0.000
 4559.00    3.84428   1.70045    0.000
 4560.00    4.14425   1.69700    0.000
 4561.00    3.82843   1.68988    0.000
 4562.00    3.17582   1.68562    0.000
 4563.00    3.45112   1.69015    0.000
 4564.00    4.16753   1.69943    0.000
 4565.00    4.32255   1.70479    0.000
 4566.00    4.24731   1.70626    0.000
 4567.00    3.79355   1.70571    0.000
 4568.00    3.20715   1.70493    0.000
 4569.00    3.41927   1.70696    0.000
 4570.00    3.86739   1.71028    0.000
 4571.00    4.26893   1.71213    0.000
 4572.00    4.65905   1.71297    0.000
 4573.00    4.79810   1.71382    0.000
 4574.00    4.88738   1.71501    0.000
 4575.00    5.07547   1.71572    0.000
 4576.00    5.27886   1.71537    0.000
 4577.00    4.19833   1.71548    0.000
 4578.00    2.97088   1.71721    0.000
 4579.00    3.09660   1.71893    0.000
 4580.00    3.32624   1.71779    0.000
 4581.00    3.24179   1.71645    0.000
 4582.00    3.14427   1.71785    0.000
 4583.00    3.55122   1.71622    0.000
 4584.00    3.95320   1.71179    0.000
 4585.00    3.95400   1.71318    0.000
 4586.00    3.91484   1.72014    0.000
 4587.00    3.17710   1.72547    0.000
 4588.00    2.52497   1.72439    0.000
 4589.00    2.78876   1.72064    0.000
 4590.00    3.02837   1.72121    0.000
 4591.00    3.08514   1.72665    0.000
 4592.00    3.23274   1.73094    0.000
 4593.00    3.90230   1.73217    0.000
 4594.00    4.39798   1.73047    0.000
 4595.00    4.09918   1.72883    0.000
 4596.00    3.70661   1.72964    0.000
 4597.00    2.96326   1.73230    0.000
 4598.00    2.59365   1.73521    0.000
 4599.00    3.39291   1.73641    0.000
 4600.00    3.99061   1.73673    0.000
 4601.00    4.05328   1.73675    0.000
 4602.00    4.12044   1.73382    0.000
 4603.00    4.19784   1.72675    0.000
 4604.00    4.09286   1.72584    0.000
 4605.00    3.62805   1.73425    0.000
 4606.00    3.31935   1.74124    0.000
 4607.00    3.27905   1.74314    0.000
 4608.00    3.46809   1.74460    0.000
 4609.00    4.00247   1.74630    0.000
 4610.00    4.37765   1.74670    0.000
 4611.00    4.54218   1.74414    0.000
 4612.00    4.40581   1.74116    0.000
 4613.00    3.91876   1.74182    0.000
 4614.00    3.45190   1.74544    0.000
 4615.00    3.00579   1.74898    0.000
 4616.00    2.99495   1.75207    0.000
 4617.00    3.37865   1.75439    0.000
 4618.00    3.94866   1.75517    0.000
 4619.00    4.66753   1.75582    0.000
 4620.00    4.71926   1.75697    0.000
 4621.00    4.30209   1.75765    0.000
 4622.00    3.89096   1.75592    0.000
 4623.00    3.48355   1.74701    0.000
 4624.00    3.38355   1.73499    0.000
 4625.00    3.44910   1.73543    0.000
 4626.00    3.15048   1.74743    0.000
 4627.00    2.68154   1.75670    0.000
 4628.00    3.27903   1.76021    0.000
 4629.00    4.30643   1.76358    0.000
 4630.00    4.44494   1.76465    0.000
 4631.00    4.27766   1.76181    0.000
 4632.00    4.62818   1.75893    0.000
 4633.00    5.12867   1.75863    0.000
 4634.00    4.52674   1.75573    0.000
 4635.00    3.66077   1.75406    0.000
 4636.00    4.09247   1.76030    0.000
 4637.00    4.77480   1.76870    0.000
 4638.00    4.25646   1.76839    0.000
 4639.00    3.55790   1.74744    0.000
 4640.00    3.04197   1.71945    0.000
 4641.00    2.54613   1.71503    0.000
 4642.00    3.33017   1.72247    0.000
 4643.00    4.20728   1.71527    0.000
 4644.00    3.84688   1.71246    0.000
 4645.00    3.43970   1.73270    0.000
 4646.00    3.95506   1.75266    0.000
 4647.00    4.45986   1.75529    0.000
 4648.00    4.39923   1.75886    0.000
 4649.00    4.34720   1.77241    0.000
 4650.00    4.43584   1.78125    0.000
 4651.00    4.53431   1.78221    0.000
 4652.00    4.73344   1.78193    0.000
 4653.00    4.77662   1.78213    0.000
 4654.00    3.68023   1.78075    0.000
 4655.00    2.85510   1.77866    0.000
 4656.00    3.54643   1.77825    0.000
 4657.00    4.00632   1.77473    0.000
 4658.00    3.43368   1.76841    0.000
 4659.00    2.98276   1.76793    0.000
 4660.00    2.97775   1.77521    0.000
 4661.00    3.09325   1.78238    0.000
 4662.00    3.57853   1.78768    0.000
 4663.00    4.05297   1.79560    0.000
 4664.00    4.49918   1.80184    0.000
 4665.00    4.72726   1.79869    0.000
 4666.00    4.46653   1.78755    0.000
 4667.00    3.96719   1.78232    0.000
 4668.00    3.00446   1.78586    0.000
 4669.00    2.53766   1.78934    0.000
 4670.00    2.91071   1.79100    0.000
 4671.00    3.10365   1.79359    0.000
 4672.00    3.02932   1.79467    0.000
 4673.00    2.84124   1.79336    0.000
 4674.00    2.50478   1.78887    0.000
 4675.00    2.61749   1.77748    0.000
 4676.00    3.24626   1.75302    0.000
 4677.00    3.85869   1.67842    0.000
 4678.00    4.45456   1.54985    0.000
 4679.00    4.68257   1.49347    0.000
 4680.00    4.58181   1.58253    0.000
 4681.00    4.67235   1.70339    0.000
 4682.00    4.91357   1.76358    0.000
 4683.00    4.78665   1.78728    0.000
 4684.00    4.40472   1.79722    0.000
 4685.00    3.73646   1.80362    0.000
 4686.00    2.89429   1.80887    0.000
 4687.00    2.90223   1.81158    0.000
 4688.00    3.36093   1.81333    0.000
 4689.00    3.69069   1.81446    0.000
 4690.00    3.96111   1.81570    0.000
 4691.00    3.86759   1.81300    0.000
 4692.00    3.62987   1.80997    0.000
 4693.00    3.53650   1.81153    0.000
 4694.00    3.49187   1.81660    0.000
 4695.00    3.58573   1.81868    0.000
 4696.00    3.71888   1.81907    0.000
 4697.00    3.58136   1.81809    0.000
 4698.00    3.38046   1.81581    0.000
 4699.00    3.70849   1.81764    0.000
 4700.00    4.13603   1.82395    0.000
 4701.00    3.49444   1.82739    0.000
 4702.00    2.69734   1.82649    0.000
 4703.00    2.77996   1.82623    0.000
 4704.00    2.95560   1.82365    0.000
 4705.00    3.18983   1.78916    0.000
 4706.00    3.42809   1.74987    0.000
 4707.00    3.85163   1.76139    0.000
 4708.00    4.28148   1.80850    0.000
 4709.00    3.87037   1.82924    0.000
 4710.00    3.48312   1.83383    0.000
 4711.00    3.91423   1.83676    0.000
 4712.00    4.30241   1.83932    0.000
 4713.00    4.03193   1.84004    0.000
 4714.00    3.79383   1.84047    0.000
 4715.00    3.87314   1.84146    0.000
 4716.00    4.01384   1.84239    0.000
 4717.00    4.58860   1.84344    0.000
 4718.00    4.92829   1.84420    0.000
 4719.00    3.98910   1.84465    0.000
 4720.00    3.15524   1.84466    0.000
 4721.00    2.78041   1.84542    0.000
 4722.00    2.53876   1.84672    0.000
 4723.00    2.77490   1.84725    0.000
 4724.00    3.04857   1.84865    0.000
 4725.00    3.43520   1.84961    0.000
 4726.00    3.77463   1.85124    0.000
 4727.00    3.99311   1.85205    0.000
 4728.00    4.14311   1.85181    0.000
 4729.00    4.14214   1.85237    0.000
 4730.00    4.03812   1.85381    0.000
 4731.00    3.73710   1.85518    0.000
 4732.00    3.51586   1.85568    0.000
 4733.00    3.42772   1.85606    0.000
 4734.00    3.34897   1.85704    0.000
 4735.00    3.28397   1.85852    0.000
 4736.00    3.33233   1.85989    0.000
 4737.00    3.52642   1.86080    0.000
 4738.00    3.49922   1.86139    0.000
 4739.00    3.22134   1.86222    0.000
 4740.00    2.97687   1.86351    0.000
 4741.00    2.76576   1.86397    0.000
 4742.00    3.04613   1.86495    0.000
 4743.00    3.75954   1.86538    0.000
 4744.00    3.66347   1.86529    0.000
 4745.00    2.93896   1.86587    0.000
 4746.00    2.76427   1.86731    0.000
 4747.00    2.96489   1.86866    0.000
 4748.00    3.22498   1.86954    0.000
 4749.00    3.52066   1.87011    0.000
 4750.00    3.64614   1.87137    0.000
 4751.00    3.68277   1.87242    0.000
 4752.00    3.82081   1.87345    0.000
 4753.00    4.00476   1.87412    0.000
 4754.00    4.42143   1.87447    0.000
 4755.00    4.92871   1.87526    0.000
 4756.00    4.56418   1.87563    0.000
 4757.00    3.91077   1.87595    0.000
 4758.00    3.70076   1.87755    0.000
 4759.00    3.61401   1.87844    0.000
 4760.00    3.34921   1.87972    0.000
 4761.00    3.04367   1.88057    0.003
 4762.00    3.14486   1.88156    0.003
 4763.00    3.32054   1.88257    0.003
 4764.00    3.21728   1.88339    0.003
 4765.00    3.07474   1.88355    0.003
 4766.00    3.06057   1.88449    0.003
 4767.00    3.05942   1.88502    0.003
 4768.00    3.67557   1.88627    0.003
 4769.00    4.33162   1.88729    0.003
 4770.00    4.15959   1.88810    0.003
 4771.00    3.96209   1.88861    0.003
 4772.00    3.55240   1.88871    0.003
 4773.00    3.15962   1.88918    0.003
 4774.00    3.25677   1.89062    0.003
 4775.00    3.36735   1.89144    0.003
 4776.00    3.67209   1.89193    0.003
 4777.00    3.92698   1.89289    0.003
 4778.00    3.71300   1.89028    0.003
 4779.00    3.41915   1.88779    0.003
 4780.00    2.57853   1.89056    0.003
 4781.00    2.01643   1.89465    0.003
 4782.00    2.92974   1.89673    0.003
 4783.00    3.59897   1.89824    0.003
 4784.00    3.22874   1.89923    0.003
 4785.00    2.86647   1.89951    0.003
 4786.00    2.53219   1.90025    0.003
 4787.00    2.26231   1.90121    0.003
 4788.00    2.18271   1.90247    0.003
 4789.00    2.15388   1.90414    0.003
 4790.00    2.25292   1.90512    0.003
 4791.00    2.44099   1.90508    0.003
 4792.00    2.82212   1.90460    0.003
 4793.00    3.24800   1.90512    0.003
 4794.00    3.75811   1.90657    0.003
 4795.00    4.00127   1.90662    0.003
 4796.00    3.80579   1.90664    0.003
 4797.00    3.68218   1.90839    0.003
 4798.00    3.66212   1.91006    0.003
 4799.00    3.47557   1.91061    0.003
 4800.00    3.07803   1.91206    0.003
 4801.00    2.78483   1.91229    0.003
 4802.00    2.60819   1.91146    0.003
 4803.00    2.75755   1.91113    0.003
 4804.00    3.22804   1.91361    0.003
 4805.00    3.64145   1.91341    0.003
 4806.00    4.00529   1.91162    0.003
 4807.00    4.07851   1.91212    0.003
 4808.00    3.92933   1.91482    0.003
 4809.00    3.84167   1.91659    0.003
 4810.00    3.79541   1.91804    0.003
 4811.00    3.68766   1.91800    0.003
 4812.00    3.54369   1.91502    0.003
 4813.00    3.73084   1.91427    0.003
 4814.00    4.08814   1.91824    0.003
 4815.00    3.88961   1.92093    0.003
 4816.00    3.44361   1.92067    0.003
 4817.00    3.34467   1.92043    0.003
 4818.00    3.37849   1.92112    0.003
 4819.00    3.24663   1.92159    0.003
 4820.00    3.06091   1.92201    0.003
 4821.00    2.75557   1.91878    0.003
 4822.00    2.41766   1.91740    0.003
 4823.00    2.74812   1.91991    0.003
 4824.00    3.22793   1.92331    0.003
 4825.00    3.09261   1.92385    0.003
 4826.00    2.84767   1.92337    0.003
 4827.00    3.14450   1.92357    0.003
 4828.00    3.51515   1.92232    0.003
 4829.00    3.46671   1.92193    0.003
 4830.00    3.37756   1.92191    0.003
 4831.00    3.32200   1.92094    0.003
 4832.00    3.26848   1.91956    0.003
 4833.00    3.65728   1.91837    0.003
 4834.00    4.05256   1.91717    0.003
 4835.00    3.50429   1.91584    0.003
 4836.00    2.96333   1.91375    0.003
 4837.00    2.61325   1.91089    0.003
 4838.00    2.33253   1.90760    0.003
 4839.00    2.99858   1.90384    0.003
 4840.00    3.58907   1.89913    0.003
 4841.00    3.49658   1.89221    0.003
 4842.00    3.44194   1.88492    0.003
 4843.00    3.63837   1.87643    0.003
 4844.00    3.78854   1.86531    0.003
 4845.00    3.70001   1.85149    0.003
 4846.00    3.60746   1.83421    0.003
 4847.00    3.49820   1.81045    0.003
 4848.00    3.28156   1.77719    0.000
 4849.00    2.69517   1.73193    0.000
 4850.00    2.32067   1.66376    0.000
 4851.00    2.56064   1.56029    0.000
 4852.00    2.79608   1.43212    0.000
 4853.00    3.02028   1.29509    0.000
 4854.00    3.06853   1.21038    0.000
 4855.00    2.74142   1.25243    0.000
 4856.00    2.75956   1.40811    0.000
 4857.00    3.41751   1.56504    0.000
 4858.00    3.88521   1.66910    0.000
 4859.00    4.04494   1.72486    0.000
 4860.00    4.05956   1.76347    0.000
 4861.00    3.86811   1.80267    0.000
 4862.00    3.81406   1.84041    0.000
 4863.00    3.93165   1.86211    0.000
 4864.00    3.29691   1.87670    0.000
 4865.00    1.83376   1.88908    0.000
 4866.00    1.75859   1.89850    0.000
 4867.00    3.03146   1.90775    0.000
 4868.00    3.72049   1.91715    0.000
 4869.00    3.90949   1.92532    0.000
 4870.00    3.78441   1.93116    0.000
 4871.00    3.42240   1.93619    0.000
 4872.00    3.09576   1.94115    0.000
 4873.00    2.79256   1.94522    0.000
 4874.00    2.88183   1.94858    0.000
 4875.00    3.19888   1.95172    0.003
 4876.00    3.82351   1.95277    0.003
 4877.00    4.60370   1.95462    0.003
 4878.00    4.68767   1.95728    0.003
 4879.00    4.46677   1.96155    0.003
 4880.00    3.93945   1.96452    0.003
 4881.00    3.29696   1.96662    0.003
 4882.00    3.10400   1.96741    0.003
 4883.00    3.05442   1.96748    0.003
 4884.00    2.90388   1.96793    0.003
 4885.00    2.72644   1.97153    0.003
 4886.00    2.65520   1.97476    0.003
 4887.00    2.60713   1.97656    0.003
 4888.00    2.65744   1.97829    0.003
 4889.00    2.72481   1.97953    0.003
 4890.00    3.15464   1.98078    0.003
 4891.00    3.63220   1.98044    0.003
 4892.00    3.72506   1.97915    0.003
 4893.00    3.78216   1.98024    0.003
 4894.00    3.46623   1.98371    0.003
 4895.00    3.12914   1.98632    0.003
 4896.00    3.79632   1.98644    0.003
 4897.00    4.47164   1.98632    0.003
 4898.00    3.53450   1.98660    0.003
 4899.00    2.63653   1.98635    0.003
 4900.00    2.66838   1.98755    0.003
 4901.00    2.70477   1.99028    0.003
 4902.00    2.79970   1.99271    0.003
 4903.00    2.89604   1.99324    0.003
 4904.00    3.00460   1.99391    0.003
 4905.00    3.12005   1.99435    0.003
 4906.00    3.27985   1.99575    0.003
 4907.00    3.46290   1.99624    0.003
 4908.00    3.76293   1.99643    0.003
 4909.00    3.94872   1.99481    0.003
 4910.00    3.66957   1.99309    0.003
 4911.00    3.49337   1.98905    0.003
 4912.00    3.66460   1.97709    0.003
 4913.00    3.68637   1.95252    0.003
 4914.00    3.28263   1.91140    0.003
 4915.00    2.88726   1.89667    0.003
 4916.00    2.51229   1.92375    0.003
 4917.00    2.27433   1.96297    0.003
 4918.00    2.32398   1.98203    0.003
 4919.00    2.72212   1.99519    0.003
 4920.00    3.75611   2.00421    0.003
 4921.00    3.97698   2.00821    0.003
 4922.00    2.90111   2.00954    0.003
 4923.00    2.18617   2.01061    0.003
 4924.00    1.97637   2.01220    0.003
 4925.00    2.06172   2.01278    0.003
 4926.00    2.51057   2.01301    0.003
 4927.00    2.92477   2.01397    0.003
 4928.00    3.30136   2.01515    0.003
 4929.00    3.41026   2.01623    0.003
 4930.00    3.26281   2.01640    0.003
 4931.00    3.36244   2.01708    0.003
 4932.00    3.67070   2.01753    0.003
 4933.00    3.47045   2.01705    0.003
 4934.00    2.89212   2.01653    0.003
 4935.00    2.66907   2.01512    0.003
 4936.00    2.67804   2.01675    0.003
 4937.00    2.75211   2.02007    0.003
 4938.00    2.86338   2.02338    0.003
 4939.00    2.91511   2.02438    0.003
 4940.00    2.93718   2.02507    0.000
 4941.00    3.02251   2.02501    0.000
 4942.00    3.13507   2.02548    0.000
 4943.00    3.03530   2.02578    0.000
 4944.00    2.85715   2.02647    0.000
 4945.00    3.02628   2.02822    0.000
 4946.00    3.30405   2.02936    0.000
 4947.00    3.24456   2.02982    0.000
 4948.00    3.09708   2.02960    0.000
 4949.00    2.88942   2.02944    0.000
 4950.00    2.66894   2.02986    0.000
 4951.00    3.37038   2.03140    0.000
 4952.00    4.22718   2.03309    0.000
 4953.00    3.62095   2.03445    0.000
 4954.00    2.82864   2.03545    0.000
 4955.00    2.93303   2.03662    0.000
 4956.00    3.11697   2.03675    0.000
 4957.00    3.06016   2.03737    0.000
 4958.00    2.99064   2.03793    0.000
 4959.00    3.26913   2.03854    0.000
 4960.00    3.55501   2.03988    0.000
 4961.00    3.89866   2.04063    0.000
 4962.00    4.19909   2.04104    0.000
 4963.00    3.55946   2.04169    0.000
 4964.00    2.94747   2.04263    0.000
 4965.00    2.67493   2.04391    0.000
 4966.00    2.50152   2.04504    0.000
 4967.00    3.15812   2.04515    0.000
 4968.00    3.65430   2.04579    0.000
 4969.00    3.14869   2.04657    0.000
 4970.00    2.82290   2.04710    0.000
 4971.00    3.37879   2.04755    0.000
 4972.00    3.87042   2.04832    0.000
 4973.00    4.10624   2.04875    0.000
 4974.00    4.07093   2.04783    0.000
 4975.00    3.13873   2.04455    0.000
 4976.00    2.52982   2.04352    0.000
 4977.00    2.82462   2.04674    0.000
 4978.00    3.02624   2.05091    0.000
 4979.00    3.00503   2.05310    0.000
 4980.00    2.93206   2.05446    0.000
 4981.00    2.75220   2.05483    0.000
 4982.00    2.64577   2.05532    0.000
 4983.00    2.67129   2.05513    0.000
 4984.00    2.94772   2.05428    0.000
 4985.00    3.61839   2.05550    0.000
 4986.00    3.77672   2.05627    0.000
 4987.00    3.22836   2.05772    0.000
 4988.00    2.87246   2.05916    0.000
 4989.00    2.75024   2.06060    0.000
 4990.00    2.98407   2.06163    0.000
 4991.00    3.59900   2.06152    0.000
 4992.00    3.89381   2.06043    0.000
 4993.00    3.88638   2.05669    0.000
 4994.00    3.90266   2.05391    0.000
 4995.00    3.93868   2.05518    0.000
 4996.00    3.84031   2.05935    0.000
 4997.00    3.64346   2.06092    0.000
 4998.00    3.64485   2.06179    0.000
 4999.00    3.77380   2.06256    0.000
 5000.00    3.87235   2.06343    0.000
 5001.00    3.95376   2.06448    0.000
 5002.00    4.12762   2.06517    0.000
 5003.00    4.34677   2.06586    0.000
 5004.00    4.43127   2.06727    0.000
 5005.00    4.45874   2.06853    0.000
 5006.00    5.05142   2.06119    0.000
 5007.00    5.84905   2.02726    0.000
 5008.00    5.16576   1.98122    0.000
 5009.00    4.02818   1.98522    0.000
 5010.00    3.33973   2.02884    0.000
 5011.00    2.76596   2.05882    0.000
 5012.00    2.32014   2.06622    0.000
 5013.00    1.90092   2.07282    0.000
 5014.00    1.91228   2.07597    0.000
 5015.00    1.99413   2.07655    0.000
 5016.00    2.57671   2.07691    0.000
 5017.00    3.22075   2.07704    0.000
 5018.00    3.43091   2.07568    0.000
 5019.00    3.60438   2.07488    0.000
 5020.00    3.23057   2.07652    0.000
 5021.00    2.83002   2.07971    0.000
 5022.00    2.59600   2.08189    0.000
 5023.00    2.37131   2.08234    0.000
 5024.00    2.55810   2.08146    0.000
 5025.00    2.73710   2.08110    0.000
 5026.00    2.76010   2.08278    0.000
 5027.00    2.79241   2.08459    0.000
 5028.00    2.93346   2.08499    0.000
 5029.00    3.08329   2.08527    0.003
 5030.00    3.30395   2.08657    0.003
 5031.00    3.54731   2.08724    0.003
 5032.00    3.92835   2.08537    0.003
 5033.00    4.03061   2.08118    0.003
 5034.00    2.79962   2.08129    0.003
 5035.00    1.94548   2.08608    0.003
 5036.00    2.55910   2.08962    0.003
 5037.00    2.98102   2.08954    0.003
 5038.00    2.78117   2.08761    0.003
 5039.00    2.69556   2.07761    0.003
 5040.00    2.92353   2.06471    0.003
 5041.00    3.02793   2.06698    0.003
 5042.00    2.84173   2.08287    0.003
 5043.00    2.79761   2.09513    0.003
 5044.00    3.04227   2.09759    0.003
 5045.00    3.32127   2.10104    0.003
 5046.00    3.66105   2.10289    0.003
 5047.00    3.62724   2.09864    0.003
 5048.00    3.01513   2.08955    0.003
 5049.00    2.77712   2.08735    0.003
 5050.00    3.04771   2.09364    0.003
 5051.00    3.09396   2.10004    0.003
 5052.00    2.87169   2.10201    0.003
 5053.00    2.86749   2.10286    0.003
 5054.00    3.09342   2.10306    0.003
 5055.00    3.38223   2.10351    0.003
 5056.00    3.72958   2.10406    0.003
 5057.00    3.45543   2.10494    0.003
 5058.00    2.67126   2.10533    0.003
 5059.00    2.55003   2.10640    0.003
 5060.00    2.90764   2.10737    0.003
 5061.00    2.94648   2.10773    0.003
 5062.00    2.78322   2.10844    0.003
 5063.00    2.85523   2.10925    0.003
 5064.00    3.05768   2.10934    0.003
 5065.00    3.12952   2.10916    0.003
 5066.00    3.13838   2.10863    0.003
 5067.00    3.18078   2.10944    0.003
 5068.00    3.23715   2.11119    0.003
 5069.00    3.37587   2.11257    0.003
 5070.00    3.54391   2.11328    0.003
 5071.00    3.58255   2.11395    0.003
 5072.00    3.58228   2.11411    0.003
 5073.00    3.43710   2.11460    0.003
 5074.00    3.25573   2.11498    0.003
 5075.00    3.14473   2.11607    0.003
 5076.00    3.04800   2.11677    0.003
 5077.00    3.31678   2.11780    0.003
 5078.00    3.64366   2.11801    0.003
 5079.00    3.35977   2.11799    0.003
 5080.00    3.00365   2.11858    0.003
 5081.00    2.93706   2.11962    0.003
 5082.00    2.89374   2.12100    0.003
 5083.00    2.48173   2.12175    0.003
 5084.00    2.05312   2.12222    0.003
 5085.00    2.17605   2.12251    0.003
 5086.00    2.31246   2.12292    0.003
 5087.00    2.79531   2.12366    0.003
 5088.00    3.24585   2.12449    0.003
 5089.00    3.09560   2.12465    0.003
 5090.00    2.97008   2.12450    0.003
 5091.00    3.12002   2.12478    0.003
 5092.00    3.19545   2.12476    0.003
 5093.00    2.69043   2.12502    0.003
 5094.00    2.27512   2.12641    0.003
 5095.00    2.38828   2.12785    0.003
 5096.00    2.52027   2.12870    0.003
 5097.00    2.74015   2.12939    0.003
 5098.00    2.92272   2.13065    0.003
 5099.00    2.96309   2.13131    0.003
 5100.00    3.00770   2.13131    0.003
 5101.00    3.06580   2.13199    0.003
 5102.00    2.94294   2.13282    0.003
 5103.00    2.33218   2.13319    0.003
 5104.00    2.05754   2.13404    0.003
 5105.00    2.56011   2.13423    0.003
 5106.00    3.03257   2.13319    0.003
 5107.00    3.44483   2.13329    0.003
 5108.00    3.61684   2.13499    0.003
 5109.00    3.37026   2.13694    0.003
 5110.00    3.07580   2.13803    0.003
 5111.00    2.70831   2.13874    0.003
 5112.00    2.56436   2.13950    0.003
 5113.00    2.71993   2.13955    0.003
 5114.00    2.72583   2.13903    0.003
 5115.00    2.55511   2.13884    0.003
 5116.00    2.79645   2.13997    0.003
 5117.00    3.46653   2.14177    0.003
 5118.00    3.51085   2.14141    0.003
 5119.00    2.98084   2.13957    0.003
 5120.00    2.76266   2.13942    0.003
 5121.00    2.79673   2.14146    0.003
 5122.00    2.71502   2.14399    0.003
 5123.00    2.55089   2.14528    0.003
 5124.00    2.68576   2.14495    0.003
 5125.00    3.00739   2.14412    0.003
 5126.00    3.10864   2.14488    0.003
 5127.00    3.08958   2.14685    0.003
 5128.00    2.84590   2.14812    0.003
 5129.00    2.49565   2.14845    0.003
 5130.00    2.68546   2.14876    0.003
 5131.00    3.09629   2.14909    0.003
 5132.00    3.29216   2.14926    0.003
 5133.00    3.41288   2.14991    0.003
 5134.00    3.48461   2.15041    0.003
 5135.00    3.54189   2.14997    0.003
 5136.00    3.28667   2.14901    0.003
 5137.00    2.95512   2.14902    0.003
 5138.00    3.29828   2.15059    0.003
 5139.00    3.77472   2.15304    0.003
 5140.00    3.69082   2.15482    0.003
 5141.00    3.52051   2.15496    0.003
 5142.00    3.36847   2.15451    0.003
 5143.00    3.21851   2.15417    0.003
 5144.00    2.94620   2.15534    0.003
 5145.00    2.66456   2.15691    0.003
 5146.00    2.57041   2.15773    0.003
 5147.00    2.48397   2.15711    0.003
 5148.00    2.34667   2.15661    0.003
 5149.00    2.22399   2.15755    0.003
 5150.00    2.73454   2.16092    0.003
 5151.00    3.23828   2.16417    0.003
 5152.00    3.62396   2.16406    0.003
 5153.00    3.90943   2.16279    0.003
 5154.00    3.12892   2.16229    0.003
 5155.00    2.49274   2.16269    0.003
 5156.00    2.94280   2.16318    0.003
 5157.00    3.30015   2.16381    0.003
 5158.00    3.12647   2.16390    0.003
 5159.00    3.02051   2.16284    0.003
 5160.00    3.22307   2.16085    0.003
 5161.00    3.33937   2.16005    0.003
 5162.00    3.13384   2.16184    0.003
 5163.00    2.97143   2.16412    0.003
 5164.00    2.94355   2.16486    0.003
 5165.00    2.90899   2.16494    0.003
 5166.00    2.85672   2.16660    0.003
 5167.00    2.82278   2.16888    0.003
 5168.00    2.83053   2.16975    0.003
 5169.00    2.73462   2.16998    0.003
 5170.00    2.43461   2.17092    0.003
 5171.00    2.48162   2.17138    0.003
 5172.00    3.12418   2.17122    0.003
 5173.00    3.41707   2.17226    0.003
 5174.00    3.18444   2.17302    0.003
 5175.00    2.98223   2.17235    0.003
 5176.00    2.82023   2.17172    0.003
 5177.00    2.81328   2.17195    0.003
 5178.00    2.98672   2.17336    0.003
 5179.00    3.12536   2.17524    0.003
 5180.00    3.22829   2.17666    0.003
 5181.00    3.22674   2.17677    0.003
 5182.00    3.13064   2.17618    0.003
 5183.00    3.06484   2.17556    0.003
 5184.00    3.02321   2.17556    0.003
 5185.00    2.67460   2.17586    0.003
 5186.00    2.11061   2.17648    0.003
 5187.00    2.28623   2.17802    0.003
 5188.00    2.91698   2.17966    0.003
 5189.00    2.78726   2.18004    0.003
 5190.00    2.24879   2.17983    0.000
 5191.00    2.14364   2.18001    0.000
 5192.00    2.24074   2.17758    0.000
 5193.00    2.51636   2.17590    0.000
 5194.00    2.86378   2.17785    0.000
 5195.00    2.98393   2.17961    0.000
 5196.00    3.02607   2.17716    0.000
 5197.00    3.10591   2.17518    0.000
 5198.00    3.19663   2.17781    0.000
 5199.00    3.05229   2.18160    0.000
 5200.00    2.85181   2.18411    0.000
 5201.00    2.44425   2.18600    0.000
 5202.00    1.99682   2.18761    0.000
 5203.00    2.31829   2.18773    0.000
 5204.00    2.75471   2.18514    0.000
 5205.00    2.16713   2.18412    0.000
 5206.00    1.46740   2.18668    0.000
 5207.00    2.23550   2.18883    0.000
 5208.00    3.10958   2.18879    0.000
 5209.00    2.86213   2.18859    0.000
 5210.00    2.57281   2.18951    0.000
 5211.00    3.12074   2.19138    0.003
 5212.00    3.63273   2.19263    0.003
 5213.00    2.69423   2.19349    0.003
 5214.00    1.86060   2.19408    0.003
 5215.00    2.72729   2.19415    0.003
 5216.00    3.47500   2.19494    0.003
 5217.00    3.01171   2.19479    0.003
 5218.00    2.60766   2.19224    0.003
 5219.00    2.63465   2.19049    0.003
 5220.00    2.76249   2.19089    0.003
 5221.00    3.45213   2.19349    0.003
 5222.00    3.89445   2.19646    0.003
 5223.00    3.23662   2.19809    0.003
 5224.00    2.76543   2.19845    0.003
 5225.00    2.97615   2.19786    0.003
 5226.00    3.01947   2.19695    0.003
 5227.00    2.55039   2.19722    0.003
 5228.00    2.46481   2.19846    0.003
 5229.00    3.37710   2.19932    0.003
 5230.00    3.93049   2.20056    0.003
 5231.00    3.68123   2.20165    0.003
 5232.00    3.40418   2.20256    0.003
 5233.00    3.07324   2.20278    0.003
 5234.00    2.95784   2.20310    0.003
 5235.00    3.20677   2.20350    0.003
 5236.00    3.33322   2.20247    0.003
 5237.00    3.27825   2.20356    0.003
 5238.00    3.09500   2.20578    0.003
 5239.00    2.74473   2.20711    0.003
 5240.00    2.76477   2.20523    0.003
 5241.00    3.20953   2.20290    0.003
 5242.00    3.33885   2.20312    0.003
 5243.00    3.14909   2.20528    0.003
 5244.00    3.03640   2.20574    0.003
 5245.00    2.99247   2.20402    0.003
 5246.00    2.91377   2.20273    0.003
 5247.00    2.80773   2.20469    0.003
 5248.00    2.87159   2.20793    0.003
 5249.00    3.05291   2.20915    0.003
 5250.00    3.17464   2.20974    0.003
 5251.00    3.26025   2.21004    0.003
 5252.00    3.22525   2.20955    0.003
 5253.00    3.12644   2.20916    0.003
 5254.00    3.04319   2.20979    0.003
 5255.00    2.96710   2.20945    0.003
 5256.00    3.10295   2.20856    0.003
 5257.00    3.32261   2.20871    0.003
 5258.00    3.35407   2.21024    0.003
 5259.00    3.32214   2.21196    0.003
 5260.00    3.30286   2.21319    0.003
 5261.00    3.28717   2.21282    0.003
 5262.00    3.25467   2.21213    0.003
 5263.00    3.21824   2.21005    0.003
 5264.00    3.20221   2.20734    0.003
 5265.00    3.19000   2.20693    0.003
 5266.00    3.19692   2.21063    0.003
 5267.00    3.20660   2.21438    0.003
 5268.00    3.10330   2.21495    0.003
 5269.00    2.98812   2.21600    0.003
 5270.00    3.27083   2.21818    0.003
 5271.00    3.58067   2.21918    0.003
 5272.00    3.28608   2.21943    0.003
 5273.00    2.97121   2.21985    0.003
 5274.00    2.74887   2.22010    0.003
 5275.00    2.55012   2.22008    0.003
 5276.00    3.10345   2.21995    0.003
 5277.00    3.61152   2.22031    0.003
 5278.00    3.43032   2.22179    0.003
 5279.00    3.28123   2.22327    0.003
 5280.00    3.44533   2.22403    0.003
 5281.00    3.53725   2.22448    0.003
 5282.00    3.12081   2.22485    0.003
 5283.00    2.77110   2.22490    0.003
 5284.00    2.78322   2.22522    0.003
 5285.00    2.83149   2.22561    0.003
 5286.00    3.03684   2.22612    0.003
 5287.00    3.18858   2.22658    0.003
 5288.00    3.14854   2.22652    0.003
 5289.00    3.12206   2.22605    0.003
 5290.00    3.13632   2.22551    0.003
 5291.00    3.24510   2.22581    0.003
 5292.00    3.59552   2.22714    0.003
 5293.00    3.73401   2.22815    0.003
 5294.00    3.40627   2.22840    0.003
 5295.00    3.32011   2.22870    0.003
 5296.00    3.69489   2.22939    0.003
 5297.00    3.71754   2.22978    0.003
 5298.00    3.15389   2.22975    0.003
 5299.00    3.03382   2.23042    0.003
 5300.00    3.56115   2.23111    0.003
 5301.00    3.69832   2.23154    0.003
 5302.00    3.33476   2.23161    0.003
 5303.00    3.39409   2.23187    0.003
 5304.00    3.93158   2.23275    0.003
 5305.00    3.99585   2.23287    0.003
 5306.00    3.58815   2.23212    0.003
 5307.00    3.28686   2.23123    0.003
 5308.00    3.07915   2.23050    0.003
 5309.00    3.20791   2.23038    0.003
 5310.00    3.59742   2.23234    0.003
 5311.00    3.85225   2.23421    0.003
 5312.00    4.01532   2.22973    0.003
 5313.00    3.68873   2.22716    0.003
 5314.00    3.06976   2.23005    0.003
 5315.00    2.89997   2.23529    0.003
 5316.00    2.96420   2.23674    0.003
 5317.00    2.68254   2.23693    0.003
 5318.00    2.24464   2.23488    0.003
 5319.00    2.15607   2.23275    0.003
 5320.00    2.20323   2.23225    0.003
 5321.00    2.68474   2.23481    0.003
 5322.00    3.30983   2.23693    0.003
 5323.00    3.53266   2.23839    0.003
 5324.00    3.64396   2.23958    0.003
 5325.00    3.69613   2.23991    0.003
 5326.00    3.73481   2.23976    0.003
 5327.00    3.50669   2.24029    0.003
 5328.00    3.22986   2.24085    0.003
 5329.00    2.82380   2.24155    0.003
 5330.00    2.39961   2.24157    0.003
 5331.00    2.78925   2.24148    0.003
 5332.00    3.26098   2.24197    0.003
 5333.00    3.09746   2.24189    0.003
 5334.00    2.89319   2.24225    0.003
 5335.00    3.10239   2.24309    0.003
 5336.00    3.32352   2.24402    0.003
 5337.00    3.38828   2.24191    0.003
 5338.00    3.44082   2.24067    0.003
 5339.00    3.14406   2.24219    0.003
 5340.00    2.87564   2.24542    0.003
 5341.00    3.01380   2.24638    0.003
 5342.00    3.17040   2.24692    0.003
 5343.00    3.49962   2.24729    0.003
 5344.00    3.72197   2.24750    0.003
 5345.00    3.21560   2.24797    0.003
 5346.00    2.84822   2.24867    0.003
 5347.00    3.21468   2.24975    0.003
 5348.00    3.50310   2.24986    0.003
 5349.00    3.46014   2.25032    0.003
 5350.00    3.35093   2.25045    0.003
 5351.00    3.00956   2.25023    0.003
 5352.00    2.67354   2.25023    0.003
 5353.00    2.35334   2.25038    0.003
 5354.00    2.16228   2.25048    0.003
 5355.00    2.29572   2.25055    0.003
 5356.00    2.58691   2.25070    0.003
 5357.00    3.21948   2.25144    0.003
 5358.00    3.42847   2.25183    0.003
 5359.00    2.84176   2.25200    0.003
 5360.00    2.55937   2.25244    0.003
 5361.00    2.77610   2.25267    0.003
 5362.00    2.98361   2.25267    0.003
 5363.00    3.17785   2.25248    0.003
 5364.00    3.30958   2.25323    0.003
 5365.00    3.36224   2.25427    0.003
 5366.00    3.23403   2.25510    0.003
 5367.00    2.90418   2.25499    0.003
 5368.00    2.74043   2.25518   -2.000
 5369.00    2.74001   2.25565   -2.000
 5370.00    3.02278   2.25660   -2.000
 5371.00    3.55112   2.25705   -2.000
 5372.00    4.45089   2.25668   -2.000
 5373.00    5.63438   2.25691   -2.000
 5374.00    5.89195   2.25708   -2.000
 5375.00    5.52783   2.25766   -2.000
 5376.00    4.76017   2.25795   -2.000
 5377.00    3.75516   2.25838   -2.000
 5378.00    3.16829   2.25886   -2.000
 5379.00    2.79585   2.25888   -2.000
 5380.00    3.25774   2.25895   -2.000
 5381.00    4.09032   2.25937   -2.000
 5382.00    4.19865   2.25953   -2.000
 5383.00    4.03051   2.25971    0.003
 5384.00    3.63521   2.25951    0.003
 5385.00    3.16623   2.25962    0.003
 5386.00    3.06694   2.25980    0.003
 5387.00    3.06804   2.25944    0.003
 5388.00    2.62836   2.25903    0.003
 5389.00    2.09048   2.25849    0.003
 5390.00    2.03073   2.25871    0.003
 5391.00    2.05591   2.25859    0.003
 5392.00    2.40020   2.25759    0.003
 5393.00    2.78778   2.25507    0.003
 5394.00    2.79245   2.25336    0.003
 5395.00    2.76012   2.25271    0.003
 5396.00    2.34516   2.25045    0.003
 5397.00    1.90717   2.24498    0.003
 5398.00    2.53195   2.23723    0.003
 5399.00    3.17975   2.22586    0.003
 5400.00    3.05133   2.20256    0.003
 5401.00    2.92704   2.15286    0.003
 5402.00    2.90925   2.05414    0.003
 5403.00    2.89714   1.95656    0.003
 5404.00    2.96208   1.94910    0.003
 5405.00    3.00780   2.03771    0.003
 5406.00    2.88069   2.13805    0.003
 5407.00    2.78843   2.19521    0.003
 5408.00    2.92649   2.22457    0.003
 5409.00    3.05205   2.24084    0.003
 5410.00    3.11330   2.25020    0.003
 5411.00    3.20065   2.25594    0.003
 5412.00    3.39638   2.25937    0.003
 5413.00    3.51350   2.26203    0.003
 5414.00    3.36059   2.26412    0.003
 5415.00    3.26319   2.26513    0.003
 5416.00    3.32634   2.26574    0.003
 5417.00    3.26956   2.26574    0.003
 5418.00    2.91655   2.26710    0.003
 5419.00    2.74606   2.26821    0.003
 5420.00    2.96417   2.26782    0.003
 5421.00    3.04626   2.26707    0.003
 5422.00    2.87676   2.26862    0.003
 5423.00    2.79877   2.26985    0.003
 5424.00    2.86863   2.26962    0.003
 5425.00    2.77860   2.26958    0.003
 5426.00    2.46194   2.27018    0.003
 5427.00    2.40814   2.27207    0.003
 5428.00    2.68213   2.27243    0.003
 5429.00    2.89359   2.27357    0.003
 5430.00    3.03630   2.27437    0.003
 5431.00    2.89892   2.27522    0.003
 5432.00    2.48997   2.27529    0.003
 5433.00    2.44899   2.27553    0.003
 5434.00    2.72258   2.27588    0.003
 5435.00    2.92119   2.27545    0.003
 5436.00    3.06332   2.27573    0.003
 5437.00    3.01972   2.27556    0.003
 5438.00    2.85324   2.27497    0.003
 5439.00    2.37574   2.27578    0.003
 5440.00    1.71807   2.27689    0.003
 5441.00    2.17647   2.27785    0.003
 5442.00    3.19825   2.27797    0.003
 5443.00    3.93641   2.27766    0.003
 5444.00    4.55063   2.27596    0.003
 5445.00    4.07083   2.27323    0.003
 5446.00    3.18075   2.27279    0.003
 5447.00    2.66343   2.27436    0.003
 5448.00    2.26472   2.27735    0.003
 5449.00    1.96367   2.27851    0.003
 5450.00    1.68859   2.27990    0.003
 5451.00    2.62208   2.28076    0.003
 5452.00    3.81846   2.28085    0.003
 5453.00    3.45957   2.28041    0.003
 5454.00    2.83203   2.28003    0.003
 5455.00    2.93899   2.28068    0.003
 5456.00    3.14228   2.28094    0.003
 5457.00    2.49003   2.28012    0.003
 5458.00    1.75875   2.27849    0.003
 5459.00    2.34422   2.27888    0.003
 5460.00    3.00368   2.28090    0.003
 5461.00    2.70797   2.28262    0.003
 5462.00    2.39529   2.28300    0.003
 5463.00    2.53768   2.28340    0.003
 5464.00    2.67295   2.28294    0.003
 5465.00    2.64122   2.28111    0.003
 5466.00    2.57657   2.28150    0.003
 5467.00    2.08897   2.28305    0.003
 5468.00    1.69921   2.28330    0.003
 5469.00    2.15618   2.28320    0.003
 5470.00    2.60484   2.28357    0.003
 5471.00    3.00011   2.28444    0.003
 5472.00    3.33666   2.28561    0.003
 5473.00    3.37879   2.28661    0.003
 5474.00    3.35692   2.28644    0.003
 5475.00    3.07528   2.28660    0.003
 5476.00    2.87731   2.28678    0.003
 5477.00    2.96104   2.28714    0.003
 5478.00    3.17882   2.28683   -2.000
 5479.00    3.77737   2.28639   -2.000
 5480.00    3.95525   2.28625   -2.000
 5481.00    3.11192   2.28690   -2.000
 5482.00    2.67007   2.28797   -2.000
 5483.00    3.06929   2.28845   -2.000
 5484.00    3.41491   2.28812   -2.000
 5485.00    3.66294   2.28826   -2.000
 5486.00    5.47110   2.28822   -2.000
 5487.00    9.76265   2.28847   -2.000
 5488.00   12.15082   2.28862   -2.000
 5489.00   11.88003   2.28907   -2.000
 5490.00   10.31748   2.28982   -2.000
 5491.00    7.16687   2.29048   -2.000
 5492.00    4.46603   2.29113   -2.000
 5493.00    2.25263   2.29077   -2.000
 5494.00    1.61919   2.29019   -2.000
 5495.00    2.49602   2.29053   -2.000
 5496.00    2.92907   2.29148   -2.000
 5497.00    2.98806   2.29079   -2.000
 5498.00    2.73684   2.29038   -2.000
 5499.00    2.25540   2.28364   -2.000
 5500.00    2.45631   2.28161   -2.000
 5501.00    3.10206   2.28268   -2.000
 5502.00    2.91443   2.28835    0.003
 5503.00    2.25130   2.29205    0.003
 5504.00    2.31097   2.29238    0.003
 5505.00    2.72975   2.29321    0.003
 5506.00    3.21103   2.29354    0.003
 5507.00    3.71917   2.29466    0.003
 5508.00    3.61178   2.29487    0.003
 5509.00    3.27765   2.29517    0.003
 5510.00    3.11609   2.29468    0.003
 5511.00    3.00838   2.29488    0.003
 5512.00    2.82671   2.29519    0.003
 5513.00    2.62579   2.29581    0.003
 5514.00    3.05250   2.29619    0.003
 5515.00    3.61246   2.29587    0.003
 5516.00    3.10300   2.29544    0.003
 5517.00    2.41398   2.29500    0.003
 5518.00    1.96821   2.29449    0.003
 5519.00    1.55325   2.29457    0.003
 5520.00    2.37554   2.29477    0.003
 5521.00    3.30694   2.29530    0.003
 5522.00    2.95355   2.29659    0.003
 5523.00    2.53300   2.29717    0.003
 5524.00    2.81245   2.29738    0.003
 5525.00    3.10400   2.29801    0.003
 5526.00    3.32260   2.29727    0.003
 5527.00    3.53154   2.29714    0.003
 5528.00    3.53269   2.29723    0.003
 5529.00    3.51113   2.29783    0.003
 5530.00    3.21251   2.29865    0.003
 5531.00    2.91229   2.29990    0.003
 5532.00    2.59860   2.29984    0.003
 5533.00    2.38396   2.29962    0.003
 5534.00    2.78545   2.30007    0.003
 5535.00    3.15171   2.30001    0.003
 5536.00    3.34574   2.29997    0.003
 5537.00    3.45304   2.30022    0.003
 5538.00    3.21598   2.30040    0.003
 5539.00    3.04172   2.30105    0.003
 5540.00    3.07468   2.30131    0.003
 5541.00    3.19689   2.30166    0.003
 5542.00    3.56804   2.30192    0.003
 5543.00    3.83042   2.30224    0.003
 5544.00    3.83323   2.30230    0.003
 5545.00    3.76977   2.30269    0.003
 5546.00    3.56971   2.30222    0.003
 5547.00    3.22517   2.30208    0.003
 5548.00    2.62156   2.30263    0.003
 5549.00    2.39966   2.30318    0.003
 5550.00    2.77640   2.30367    0.003
 5551.00    2.80390   2.30340    0.003
 5552.00    2.35056   2.30352    0.003
 5553.00    2.41867   2.30363    0.003
 5554.00    3.11875   2.30361    0.003
 5555.00    3.32368   2.30314    0.003
 5556.00    2.99957   2.30229    0.003
 5557.00    2.72447   2.30254    0.003
 5558.00    2.49557   2.30326    0.003
 5559.00    2.27580   2.30465    0.003
 5560.00    2.06362   2.30488    0.003
 5561.00    2.03429   2.30434    0.003
 5562.00    2.13870   2.30475    0.003
 5563.00    2.34423   2.30503    0.003
 5564.00    2.61470   2.30496    0.003
 5565.00    2.98820   2.30446    0.003
 5566.00    3.41958   2.30541    0.003
 5567.00    3.50530   2.30632    0.003
 5568.00    3.42200   2.30673    0.003
 5569.00    3.34456   2.30618    0.003
 5570.00    3.26959   2.30572    0.003
 5571.00    2.93855   2.30546    0.003
 5572.00    2.51487   2.30676    0.003
 5573.00    2.66425   2.30733    0.003
 5574.00    2.98900   2.30753    0.003
 5575.00    3.09459   2.30785    0.002
 5576.00    3.14437   2.30823    0.002
 5577.00    3.06246   2.30775    0.003
 5578.00    2.95327   2.30710    0.003
 5579.00    3.30512   2.30612    0.003
 5580.00    3.73217   2.30637    0.002
 5581.00    3.69352   2.30734    0.003
 5582.00    3.59797   2.29875    0.003
 5583.00    3.29452   2.25484    0.003
 5584.00    2.97359   2.22487    0.003
 5585.00    3.05891   2.23833    0.003
 5586.00    3.16389   2.28868    0.003
 5587.00    3.10235   2.30905    0.003
 5588.00    3.04195   2.30916    0.003
 5589.00    3.19716   2.31018    0.003
 5590.00    3.34156   2.31039    0.003
 5591.00    3.27141   2.31018    0.003
 5592.00    3.19506   2.30987    0.003
 5593.00    3.04668   2.31013    0.003
 5594.00    2.93620   2.31038    0.003
 5595.00    3.13026   2.31070    0.003
 5596.00    3.28509   2.31112    0.003
 5597.00    3.20286   2.31004    0.003
 5598.00    3.12630   2.30966    0.003
 5599.00    3.07672   2.31031    0.003
 5600.00    3.03048   2.31182    0.003
 5601.00    2.99720   2.31236    0.003
 5602.00    3.01086   2.31267    0.003
 5603.00    3.17640   2.31272    0.007
 5604.00    3.20947   2.31292   -1.000
 5605.00    2.87969   2.31292   -1.000
 5606.00    2.73267   2.31266   -1.000
 5607.00    3.01452   2.31163   -1.000
 5608.00    3.22990   2.31117   -1.000
 5609.00    3.31046   2.31189   -1.000
 5610.00    3.33458   2.31334   -1.000
 5611.00    3.25902   2.31409   -1.000
 5612.00    3.24357   2.31412   -1.000
 5613.00    3.32100   2.31429   -1.000
 5614.00    3.31135   2.31421    0.011
 5615.00    3.18352   2.31426    0.003
 5616.00    2.89593   2.31411    0.002
 5617.00    2.41747   2.31436    0.002
 5618.00    2.40181   2.31472    0.002
 5619.00    2.87370   2.31479    0.002
 5620.00    2.94237   2.31520    0.002
 5621.00    2.63635   2.31548    0.002
 5622.00    2.45480   2.31555    0.002
 5623.00    2.37520   2.31554    0.002
 5624.00    2.53918   2.31561    0.002
 5625.00    2.87878   2.31563    0.002
 5626.00    3.01770   2.31584    0.002
 5627.00    3.02964   2.31605    0.002
 5628.00    3.15579   2.31586    0.002
 5629.00    3.34513   2.31589    0.002
 5630.00    3.30721   2.31503    0.002
 5631.00    3.15994   2.31164    0.002
 5632.00    3.14957   2.31044    0.002
 5633.00    3.19608   2.31241    0.002
 5634.00    3.29335   2.31598    0.002
 5635.00    3.40865   2.31688    0.002
 5636.00    3.31188   2.31606    0.002
 5637.00    3.15148   2.31485    0.002
 5638.00    3.27280   2.31397    0.002
 5639.00    3.46429   2.31471    0.003
 5640.00    3.30314   2.31552    0.003
 5641.00    3.07075   2.31658    0.003
 5642.00    3.11707   2.31752    0.003
 5643.00    3.20751   2.31827    0.003
 5644.00    2.91189   2.31861    0.003
 5645.00    2.57081   2.31882    0.002
 5646.00    2.39313   2.31903    0.002
 5647.00    2.22850   2.31865    0.003
 5648.00    2.14802   2.31843    0.002
 5649.00    2.07128   2.31829    0.002
 5650.00    2.08910   2.31737    0.002
 5651.00    2.10789   2.31631    0.003
 5652.00    2.12213   2.31660    0.002
 5653.00    2.14103   2.31694    0.002
 5654.00    2.24607   2.31699    0.002
 5655.00    2.33538   2.31662    0.002
 5656.00    2.25059   2.31701    0.002
 5657.00    2.20488   2.31644    0.002
 5658.00    2.46235   2.31540    0.002
 5659.00    2.72543   2.31584    0.002
 5660.00    3.02151   2.31778    0.002
 5661.00    3.18014   2.31984    0.002
 5662.00    2.69925   2.32026    0.002
 5663.00    2.32694   2.32051    0.002
 5664.00    2.36738   2.32078    0.002
 5665.00    2.45810   2.32077    0.002
 5666.00    2.70836   2.31950    0.002
 5667.00    3.01635   2.31808    0.002
 5668.00    3.47966   2.31785    0.002
 5669.00    3.69217   2.31884    0.002
 5670.00    3.32597   2.31776    0.002
 5671.00    3.00273   2.31570    0.002
 5672.00    2.76528   2.31607    0.002
 5673.00    2.63397   2.31920    0.002
 5674.00    2.68725   2.32146    0.002
 5675.00    3.00640   2.32131    0.002
 5676.00    3.73033   2.32105    0.002
 5677.00    3.91243   2.31997    0.003
 5678.00    3.36980   2.31973    0.002
 5679.00    3.06111   2.32056    0.002
 5680.00    3.02798   2.32210    0.002
 5681.00    2.92204   2.32256    0.002
 5682.00    2.74046   2.32242    0.002
 5683.00    2.72483   2.32237    0.002
 5684.00    2.86124   2.32274    0.002
 5685.00    2.85897   2.32370    0.002
 5686.00    2.74470   2.32506    0.002
 5687.00    2.62174   2.32563    0.002
 5688.00    2.49260   2.32445    0.002
 5689.00    2.59915   2.32377    0.002
 5690.00    2.85265   2.32409    0.002
 5691.00    2.82980   2.32463    0.002
 5692.00    2.65639   2.32311    0.002
 5693.00    2.48207   2.32321    0.002
 5694.00    2.30731   2.32330    0.002
 5695.00    2.50170   2.32325    0.002
 5696.00    2.84683   2.32333    0.002
 5697.00    2.79552   2.32323    0.002
 5698.00    2.60594   2.32329    0.002
 5699.00    2.38332   2.32322    0.002
 5700.00    2.15100   2.32288    0.002
 5701.00    2.21855   2.32263    0.002
 5702.00    2.35915   2.32232    0.002
 5703.00    2.80214   2.32226    0.002
 5704.00    3.30469   2.32270    0.002
 5705.00    3.16473   2.32405    0.002
 5706.00    2.92607   2.32463    0.002
 5707.00    2.72078   2.32491    0.002
 5708.00    2.51927   2.32521    0.002
 5709.00    2.44370   2.32521    0.002
 5710.00    2.37767   2.32561    0.002
 5711.00    2.33050   2.32571    0.002
 5712.00    2.28409   2.32520    0.002
 5713.00    2.21489   2.32404    0.002
 5714.00    2.15408   2.32216    0.002
 5715.00    2.44697   2.32257    0.002
 5716.00    2.72455   2.32439    0.002
 5717.00    2.73900   2.32590    0.002
 5718.00    2.76462   2.32556    0.002
 5719.00    2.90851   2.32587    0.002
 5720.00    3.03297   2.32602    0.002
 5721.00    3.01183   2.32620    0.002
 5722.00    2.99445   2.32619    0.002
 5723.00    2.99851   2.32585    0.002
 5724.00    2.99135   2.32603    0.002
 5725.00    2.93325   2.32621    0.002
 5726.00    2.87173   2.32631    0.002
 5727.00    2.79754   2.32673    0.002
 5728.00    2.75931   2.32739    0.002
 5729.00    2.83301   2.32682    0.002
 5730.00    2.92101   2.32355    0.002
 5731.00    3.04679   2.32019    0.002
 5732.00    3.04755   2.32045    0.002
 5733.00    2.76464   2.32389    0.002
 5734.00    2.63537   2.32675    0.002
 5735.00    2.80801   2.32682    0.002
 5736.00    2.88440   2.32688    0.002
 5737.00    2.79592   2.32710    0.002
 5738.00    2.72428   2.32660    0.002
 5739.00    2.67790   2.32615    0.002
 5740.00    2.68277   2.32630    0.000
 5741.00    2.75522   2.32722    0.000
 5742.00    2.84654   2.32786    0.000
 5743.00    2.95980   2.32792    0.000
 5744.00    3.10853   2.32712    0.000
 5745.00    3.29361   2.32690    0.000
 5746.00    3.27635   2.32667    0.000
 5747.00    3.07632   2.32664    0.000
 5748.00    2.92028   2.32719    0.000
 5749.00    2.79926   2.32788    0.000
 5750.00    2.58648   2.32859    0.000
 5751.00    2.30943   2.32878    0.000
 5752.00    2.39100   2.32898    0.000
 5753.00    2.69285   2.32872    0.000
 5754.00    2.82811   2.32817    0.000
 5755.00    2.87399   2.32800    0.000
 5756.00    2.80433   2.32826    0.000
 5757.00    2.68086   2.32864    0.000
 5758.00    2.53960   2.32852    0.000
 5759.00    2.39121   2.32802    0.000
 5760.00    2.27747   2.32834    0.000
 5761.00    2.17560   2.32872    0.000
 5762.00    2.21540   2.32883    0.000
 5763.00    2.29602   2.32856    0.000
 5764.00    2.59566   2.32890    0.000
 5765.00    2.94746   2.32920    0.000
 5766.00    3.07065   2.32858    0.000
 5767.00    3.14999   2.32828    0.000
 5768.00    3.27010   2.32849    0.000
 5769.00    3.39629   2.32868    0.000
 5770.00    3.04003   2.32835    0.000
 5771.00    2.63120   2.32754    0.000
 5772.00    2.55094   2.32625    0.000
 5773.00    2.49424   2.32526    0.000
 5774.00    2.50835   2.32559    0.000
 5775.00    2.52508   2.32665    0.000
 5776.00    2.75426   2.32733    0.000
 5777.00    2.97650   2.32796    0.000
 5778.00    2.91836   2.32861    0.000
 5779.00    2.86250   2.32920    0.000
 5780.00    2.84320   2.32955    0.000
 5781.00    2.82134   2.32971    0.000
 5782.00    2.77341   2.32930    0.000
 5783.00    2.70727   2.32912    0.000
 5784.00    2.50914   2.32960    0.000
 5785.00    2.36145   2.32992    0.000
 5786.00    2.49390   2.32982    0.000
 5787.00    2.63218   2.32961    0.000
 5788.00    2.79635   2.32945    0.000
 5789.00    2.97924   2.32869    0.000
 5790.00    3.23035   2.32571    0.000
 5791.00    3.42032   2.30503   -2.000
 5792.00    3.42356   2.26800   -2.000
 5793.00    3.39270   2.25199   -2.000
 5794.00    3.27331   2.27507   -2.000
 5795.00    3.25883   2.31258   -2.000
 5796.00    3.47847   2.32823   -2.000
 5797.00    3.50520   2.32977   -2.000
 5798.00    3.15876   2.33036   -2.000
 5799.00    2.88781   2.33010   -2.000
 5800.00    2.74423   2.33038   -2.000
 5801.00    2.66170   2.32545   -2.000
 5802.00    2.66944   2.30219   -2.000
 5803.00    2.81676   2.27588   -2.000
 5804.00    3.14547   2.27429   -2.000
 5805.00    3.38776   2.29978   -2.000
 5806.00    3.53111   2.32510   -2.000
 5807.00    3.40715   2.33011   -2.000
 5808.00    3.01328   2.33097   -2.000
 5809.00    2.88402   2.33066   -2.000
 5810.00    2.99042   2.33034   -2.000
 5811.00    3.31759   2.33037    0.000
 5812.00    3.81800   2.33051    0.000
 5813.00    3.86223   2.33097    0.000
 5814.00    3.59162   2.33200    0.000
 5815.00    3.26451   2.33283    0.000
 5816.00    2.90320   2.33844    0.000
 5817.00    2.77209   2.34912    0.000
 5818.00    2.76255   2.35422    0.000
 5819.00    2.74844   2.34789    0.000
 5820.00    2.73224   2.33702    0.000
 5821.00    2.95325   2.33233    0.000
 5822.00    3.26783   2.33236    0.000
 5823.00    3.36716   2.33266    0.000
 5824.00    3.39414   2.33327    0.000
 5825.00    3.18214   2.33366    0.000
 5826.00    2.90266   2.33375    0.000
 5827.00    2.87126   2.33392    0.000
 5828.00    2.89760   2.33383    0.000
 5829.00    2.82683   2.33361    0.000
 5830.00    2.73791   2.33319    0.000
 5831.00    2.59930   2.33321    0.000
 5832.00    2.45352   2.33337    0.000
 5833.00    2.56857   2.33321    0.000
 5834.00    2.71091   2.33298    0.000
 5835.00    2.90405   2.33300    0.000
 5836.00    3.10063   2.33309    0.000
 5837.00    3.18269   2.33285    0.000
 5838.00    3.26095   2.33222    0.000
 5839.00    3.26397   2.33178    0.000
 5840.00    3.26827   2.33219    0.000
 5841.00    3.31486   2.33286    0.000
 5842.00    3.34379   2.33280    0.000
 5843.00    3.10579   2.33190    0.000
 5844.00    2.88680   2.33120    0.000
 5845.00    2.85215   2.33095    0.000
 5846.00    2.79664   2.33156    0.000
 5847.00    2.59486   2.33287    0.000
 5848.00    2.46479   2.33371    0.000
 5849.00    2.72223   2.33378    0.000
 5850.00    2.92058   2.33385    0.000
 5851.00    2.86293   2.33397    0.000
 5852.00    2.74559   2.33336    0.000
 5853.00    2.41523   2.33313    0.000
 5854.00    2.21479   2.33358    0.000
 5855.00    2.40364   2.33377    0.000
 5856.00    2.60833   2.33355    0.000
 5857.00    2.85342   2.33322    0.000
 5858.00    3.05295   2.33267    0.000
 5859.00    3.15247   2.33215    0.000
 5860.00    3.21075   2.33194    0.000
 5861.00    3.19051   2.33159    0.000
 5862.00    3.09218   2.33161    0.000
 5863.00    2.86410   2.32826    0.000
 5864.00    2.69458   2.32294    0.000
 5865.00    2.61036   2.24360    0.000
 5866.00    2.52373   2.07303    0.000
 5867.00    2.43402   1.96482    0.000
 5868.00    2.40774   2.02014    0.000
 5869.00    2.45305   2.19021    0.000
 5870.00    2.56698   2.30212    0.000
 5871.00    2.74924   2.32334    0.000
 5872.00    2.83923   2.32846    0.000
 5873.00    2.84823   2.33037    0.000
 5874.00    2.77379   2.33127    0.000
 5875.00    2.63480   2.33169    0.000
 5876.00    2.63371   2.33226    0.000
 5877.00    2.72639   2.33273    0.000
 5878.00    2.70138   2.33295    0.000
 5879.00    2.60622   2.33191    0.000
 5880.00    2.71071   2.32770    0.000
 5881.00    2.91901   2.32148    0.000
 5882.00    2.90451   2.31776    0.000
 5883.00    2.78957   2.32097    0.000
 5884.00    2.63400   2.32848    0.000
 5885.00    2.46268   2.33406    0.000
 5886.00    2.38398   2.33373    0.000
 5887.00    2.33581   2.32865    0.000
 5888.00    2.31331   2.32424    0.000
 5889.00    2.29790   2.32451    0.000
 5890.00    2.32789   2.32866    0.000
 5891.00    2.36819   2.33222    0.000
 5892.00    2.44014   2.33374    0.000
 5893.00    2.51785   2.33398    0.000
 5894.00    2.49654   2.33395    0.000
 5895.00    2.46140   2.33392    0.000
 5896.00    2.24595   2.33426    0.000
 5897.00    2.01241   2.33422    0.000
 5898.00    2.12683   2.33423    0.000
 5899.00    2.26339   2.33471    0.000
 5900.00    2.48877   2.33509    0.000
 5901.00    2.71593   2.33479    0.002
 5902.00    2.66135   2.33435    0.002
 5903.00    2.61221   2.33446    0.002
 5904.00    2.71673   2.33421    0.002
 5905.00    2.80981   2.33360    0.002
 5906.00    2.73997   2.33369    0.002
 5907.00    2.68823   2.33445    0.002
 5908.00    2.80496   2.33498    0.002
 5909.00    2.89871   2.33467    0.002
 5910.00    2.83632   2.33438    0.002
 5911.00    2.78431   2.33469    0.002
 5912.00    2.78695   2.33488    0.002
 5913.00    2.72403   2.33535    0.002
 5914.00    2.38354   2.33589    0.002
 5915.00    2.08968   2.33602    0.002
 5916.00    1.95887   2.33599    0.002
 5917.00    1.83599   2.33562    0.002
 5918.00    1.73641   2.33504    0.002
 5919.00    1.68685   2.33421    0.002
 5920.00    1.76273   2.33414    0.002
 5921.00    1.88485   2.33423    0.002
 5922.00    2.10681   2.33388    0.002
 5923.00    2.34542   2.33343    0.002
 5924.00    2.61525   2.33365    0.002
 5925.00    2.78566   2.33413    0.002
 5926.00    2.79331   2.33450    0.002
 5927.00    2.65502   2.33530    0.002
 5928.00    2.30724   2.33575    0.002
 5929.00    2.20057   2.33627    0.002
 5930.00    2.39836   2.33609    0.002
 5931.00    2.64131   2.33509    0.002
 5932.00    2.93452   2.33384    0.002
 5933.00    3.03521   2.33368    0.002
 5934.00    2.94693   2.33427    0.002
 5935.00    2.81610   2.33464    0.002
 5936.00    2.64843   2.33495    0.002
 5937.00    2.55166   2.33468    0.002
 5938.00    2.50896   2.33487    0.002
 5939.00    2.40075   2.33505    0.002
 5940.00    2.24863   2.33490    0.002
 5941.00    1.96263   2.33451    0.002
 5942.00    1.59803   2.33403    0.002
 5943.00    1.52763   2.33363    0.002
 5944.00    1.60781   2.33356    0.002
 5945.00    1.76966   2.33399    0.002
 5946.00    1.96771   2.33416    0.002
 5947.00    2.26714   2.33308    0.002
 5948.00    2.60517   2.33201    0.002
 5949.00    2.86885   2.33206    0.002
 5950.00    3.10847   2.33309    0.002
 5951.00    3.17902   2.33514    0.002
 5952.00    3.20377   2.33554    0.002
 5953.00    3.07556   2.33537    0.002
 5954.00    2.91337   2.33589    0.002
 5955.00    2.67790   2.33627    0.002
 5956.00    2.42947   2.33656    0.002
 5957.00    2.31057   2.33661    0.002
 5958.00    2.20918   2.33680    0.002
 5959.00    2.29588   2.33675    0.002
 5960.00    2.40067   2.33633    0.002
 5961.00    2.58400   2.33619    0.002
 5962.00    2.77201   2.33596    0.002
 5963.00    2.85729   2.33577    0.002
 5964.00    2.93960   2.33548    0.002
 5965.00    2.96822   2.33481    0.002
 5966.00    2.99510   2.33401    0.002
 5967.00    2.97784   2.33348    0.002
 5968.00    2.95121   2.33242    0.002
 5969.00    2.79842   2.33017    0.002
 5970.00    2.64410   2.32839    0.002
 5971.00    2.47605   2.32916    0.002
 5972.00    2.29517   2.33245    0.002
 5973.00    2.02971   2.33477    0.002
 5974.00    1.80729   2.33528    0.002
 5975.00    1.80552   2.33510    0.002
 5976.00    1.81703   2.33495    0.002
 5977.00    1.88355   2.33553    0.002
 5978.00    1.87053   2.33590    0.002
 5979.00    1.58504   2.33537    0.002
 5980.00    1.42911   2.33504    0.002
 5981.00    1.64720   2.33512    0.002
 5982.00    1.94186   2.33568    0.002
 5983.00    2.42522   2.33621    0.002
 5984.00    2.73394   2.33655    0.002
 5985.00    2.67158   2.33675    0.002
 5986.00    2.64854   2.33660    0.002
 5987.00    2.69808   2.33633    0.002
 5988.00    2.76624   2.33617    0.002
 5989.00    2.86443   2.33644    0.002
 5990.00    2.85571   2.33626    0.002
 5991.00    2.69575   2.33595    0.002
 5992.00    2.62899   2.33556    0.002
 5993.00    2.67826   2.33462    0.002
 5994.00    2.76764   2.33410    0.002
 5995.00    2.90104   2.33412    0.002
 5996.00    2.90628   2.33395    0.002
 5997.00    2.78748   2.33377    0.002
 5998.00    2.71907   2.33373    0.002
 5999.00    2.69366   2.33414    0.002
 6000.00    2.57166   2.33451    0.002
 6001.00    2.37706   2.33521    0.002
 6002.00    2.19653   2.33554    0.002
 6003.00    2.02530   2.33567    0.002
 6004.00    1.97156   2.33623    0.002
 6005.00    1.98574   2.33641    0.002
 6006.00    2.09347   2.33650    0.002
 6007.00    2.24834   2.33653    0.002
 6008.00    2.55737   2.33694    0.002
 6009.00    2.93361   2.33708    0.002
 6010.00    3.06556   2.33717    0.002
 6011.00    3.10609   2.33664    0.002
 6012.00    2.82902   2.33644    0.002
 6013.00    2.45115   2.33620    0.002
 6014.00    2.31359   2.33644    0.004
 6015.00    2.23976   2.33641    0.024
 6016.00    2.45034   2.33646   -1.000
 6017.00    2.72259   2.33714   -1.000
 6018.00    2.52739   2.33699   -1.000
 6019.00    2.25172   2.33630   -1.000
 6020.00    2.21193   2.33555   -1.000
 6021.00    2.20294   2.33556   -1.000
 6022.00    2.20435   2.33571   -1.000
 6023.00    2.20672   2.33539   -1.000
 6024.00    2.24147   2.33547   -1.000
 6025.00    2.27802   2.33483   -1.000
 6026.00    2.30278   2.33357    0.004
 6027.00    2.32535   2.33278    0.002
 6028.00    2.15631   2.33203    0.002
 6029.00    1.99357   2.33194    0.002
 6030.00    1.97695   2.33284    0.002
 6031.00    1.98223   2.33431    0.002
 6032.00    2.26687   2.33507    0.002
 6033.00    2.53725   2.33515    0.002
 6034.00    2.68477   2.33511    0.002
 6035.00    2.80773   2.33529    0.002
 6036.00    2.77383   2.33565    0.002
 6037.00    2.73972   2.33558    0.002
 6038.00    2.70456   2.33561    0.002
 6039.00    2.67899   2.33605    0.002
 6040.00    2.69222   2.33658    0.002
 6041.00    2.66162   2.33653    0.002
 6042.00    2.48384   2.33633    0.002
 6043.00    2.31483   2.33659    0.002
 6044.00    2.17066   2.33662    0.002
 6045.00    2.03313   2.33691    0.002
 6046.00    1.91167   2.33623    0.002
 6047.00    1.78633   2.33611    0.002
 6048.00    1.65288   2.33655    0.002
 6049.00    1.65533   2.33695    0.002
 6050.00    1.90482   2.33685    0.002
 6051.00    2.17078   2.33640    0.002
 6052.00    2.46294   2.33613    0.002
 6053.00    2.65192   2.33651    0.002
 6054.00    2.69703   2.33631    0.002
 6055.00    2.81186   2.33570    0.002
 6056.00    3.01226   2.33527    0.002
 6057.00    3.13393   2.33477    0.002
 6058.00    3.17044   2.33510    0.002
 6059.00    3.08389   2.33452    0.002
 6060.00    2.87991   2.33382    0.002
 6061.00    2.64977   2.33302    0.002
 6062.00    2.39762   2.33206    0.002
 6063.00    2.26613   2.33169    0.002
 6064.00    2.22401   2.32985    0.002
 6065.00    2.29539   2.32952    0.002
 6066.00    2.44063   2.33007    0.002
 6067.00    2.52342   2.33123    0.002
 6068.00    2.57066   2.33274    0.002
 6069.00    2.61406   2.33342    0.002
 6070.00    2.65556   2.33343    0.002
 6071.00    2.62713   2.33408    0.002
 6072.00    2.56872   2.33489    0.002
 6073.00    2.49838   2.33506    0.002
 6074.00    2.42367   2.33474    0.002
 6075.00    2.50567   2.33572    0.002
 6076.00    2.63644   2.33622    0.002
 6077.00    2.59289   2.33593    0.002
 6078.00    2.50409   2.33579    0.002
 6079.00    2.29161   2.33619    0.002
 6080.00    2.05294   2.33630    0.002
 6081.00    1.96712   2.33609    0.002
 6082.00    1.90686   2.33609    0.002
 6083.00    2.01042   2.33575    0.002
 6084.00    2.13463   2.33598    0.002
 6085.00    2.27053   2.33697    0.002
 6086.00    2.40746   2.33665    0.002
 6087.00    2.35408   2.33608    0.002
 6088.00    2.29084   2.33682    0.002
 6089.00    2.02077   2.33816    0.002
 6090.00    1.75240   2.33864    0.002
 6091.00    1.88457   2.33767    0.002
 6092.00    2.02258   2.33595    0.002
 6093.00    2.28506   2.33495    0.002
 6094.00    2.52232   2.33486    0.002
 6095.00    2.45390   2.33502    0.002
 6096.00    2.40119   2.33640    0.002
 6097.00    2.47877   2.33622    0.002
 6098.00    2.55440   2.33579    0.002
 6099.00    2.61790   2.33509    0.002
 6100.00    2.60886   2.33475    0.002
 6101.00    2.24631   2.33434    0.002
 6102.00    1.95244   2.33416    0.002
 6103.00    1.93049   2.33295    0.002
 6104.00    1.95961   2.33254    0.002
 6105.00    2.15687   2.33157    0.002
 6106.00    2.33737   2.33077    0.002
 6107.00    2.47124   2.32866    0.002
 6108.00    2.62248   2.32718    0.002
 6109.00    2.81510   2.32663    0.002
 6110.00    2.97460   2.32823    0.002
 6111.00    3.06599   2.32926    0.002
 6112.00    3.00950   2.33005    0.002
 6113.00    2.68835   2.32973    0.002
 6114.00    2.43717   2.33121    0.002
 6115.00    2.29552   2.33304    0.002
 6116.00    2.27739   2.33323    0.002
 6117.00    2.42901   2.33379    0.002
 6118.00    2.53286   2.33399    0.002
 6119.00    2.57891   2.33443    0.002
 6120.00    2.54058   2.33516    0.002
 6121.00    2.41225   2.33565    0.002
 6122.00    2.29676   2.33541    0.002
 6123.00    2.19334   2.33623    0.002
 6124.00    2.22789   2.33588    0.002
 6125.00    2.37688   2.33541    0.002
 6126.00    2.45579   2.33494    0.002
 6127.00    2.48351   2.33447    0.002
 6128.00    2.36928   2.33386    0.002
 6129.00    2.16404   2.33451    0.002
 6130.00    2.14007   2.33513    0.002
 6131.00    2.21775   2.33545    0.002
 6132.00    2.35044   2.33488    0.002
 6133.00    2.50996   2.33410    0.002
 6134.00    2.39857   2.33432    0.002
 6135.00    2.17296   2.33505    0.002
 6136.00    2.04572   2.33581    0.002
 6137.00    1.95400   2.33599    0.002
 6138.00    1.90600   2.33555    0.002
 6139.00    1.87136   2.33535    0.002
 6140.00    1.89941   2.33415    0.002
 6141.00    1.94339   2.33317    0.002
 6142.00    1.91041   2.33308    0.002
 6143.00    1.86155   2.33394    0.002
 6144.00    1.83175   2.33397    0.002
 6145.00    1.80506   2.33424    0.002
 6146.00    2.05843   2.33289    0.002
 6147.00    2.34586   2.33248    0.002
 6148.00    2.69464   2.33139    0.002
 6149.00    3.04854   2.33220    0.002
 6150.00    3.01989   2.33371    0.002
 6151.00    2.97293   2.33391    0.002
 6152.00    2.74522   2.33358    0.002
 6153.00    2.52021   2.33188    0.002
 6154.00    2.60310   2.33146    0.002
 6155.00    2.68969   2.33096    0.002
 6156.00    2.84895   2.32998    0.002
 6157.00    2.97046   2.32854    0.002
 6158.00    2.65639   2.32646    0.002
 6159.00    2.35693   2.32466    0.002
 6160.00    2.17435   2.32180    0.002
 6161.00    2.04878   2.32027    0.002
 6162.00    2.26636   2.32155    0.002
 6163.00    2.44056   2.32323    0.002
 6164.00    2.40857   2.32477    0.002
 6165.00    2.42182   2.32646    0.002
 6166.00    2.61037   2.32877    0.002
 6167.00    2.78862   2.33001    0.002
 6168.00    2.93362   2.32999    0.002
 6169.00    2.94404   2.33133    0.002
 6170.00    2.58674   2.33223    0.002
 6171.00    2.27710   2.33189    0.002
 6172.00    2.07908   2.33213    0.002
 6173.00    1.99860   2.33255    0.002
 6174.00    2.15613   2.33297    0.002
 6175.00    2.23653   2.33307    0.002
 6176.00    2.18097   2.33316    0.002
 6177.00    2.16170   2.33326    0.002
 6178.00    2.19838   2.33398    0.002
 6179.00    2.28433   2.33298    0.002
 6180.00    2.43704   2.33386    0.002
 6181.00    2.52833   2.33364    0.002
 6182.00    2.54638   2.33308    0.002
 6183.00    2.62697   2.33254    0.002
 6184.00    2.77332   2.33422    0.002
 6185.00    2.87166   2.33463    0.002
 6186.00    2.92545   2.33440    0.002
 6187.00    2.95869   2.33402    0.002
 6188.00    2.97513   2.33441    0.002
 6189.00    2.95246   2.33289    0.002
 6190.00    2.90165   2.33200    0.002
 6191.00    2.92082   2.33098    0.002
 6192.00    2.98421   2.33220    0.002
 6193.00    3.52460   2.33434    0.002
 6194.00    4.32841   2.33393    0.002
 6195.00    5.40841   2.33337    0.002
 6196.00    6.62102   2.33282   -2.000
 6197.00    6.86183   2.33320   -2.000
 6198.00    6.69981   2.33282   -2.000
 6199.00    5.54743   2.33336   -2.000
 6200.00    4.04403   2.33331   -2.000
 6201.00    3.22219   2.33433   -2.000
 6202.00    2.60430   2.33453   -2.000
 6203.00    2.72048   2.33378   -2.000
 6204.00    3.01899   2.33274   -2.000
 6205.00    2.89441   2.33235   -2.000
 6206.00    2.68464   2.33274   -2.000
 6207.00    2.53217   2.33297   -2.000
 6208.00    2.38875   2.33350    0.002
 6209.00    2.44706   2.33324    0.002
 6210.00    2.52901   2.33279    0.002
 6211.00    2.59718   2.33208    0.002
 6212.00    2.66425   2.33212    0.002
 6213.00    2.67850   2.33168    0.002
 6214.00    2.69042   2.33110    0.002
 6215.00    2.42941   2.33066    0.002
 6216.00    2.17295   2.32992    0.002
 6217.00    2.27576   2.32963    0.002
 6218.00    2.37705   2.32901    0.002
 6219.00    2.45081   2.32792    0.002
 6220.00    2.50957   2.32692    0.002
 6221.00    2.40321   2.32457    0.002
 6222.00    2.32010   2.32043    0.002
 6223.00    2.41661   2.31778    0.002
 6224.00    2.53017   2.31693    0.002
 6225.00    2.74346   2.31773    0.002
 6226.00    2.95695   2.32009    0.002
 6227.00    3.17139   2.32254    0.002
 6228.00    3.30486   2.32401    0.002
 6229.00    3.13138   2.32468    0.002
 6230.00    2.95969   2.32517    0.002
 6231.00    2.79363   2.32717    0.002
 6232.00    2.66331   2.32893    0.002
 6233.00    2.62894   2.32943    0.002
 6234.00    2.59254   2.32951    0.002
 6235.00    2.55146   2.33021    0.002
 6236.00    2.52663   2.33085    0.002
 6237.00    2.53417   2.33072    0.002
 6238.00    2.61007   2.33070    0.002
 6239.00    2.80462   2.33195    0.002
 6240.00    2.88762   2.33207    0.002
 6241.00    2.80111   2.33297    0.002
 6242.00    2.68642   2.33247    0.002
 6243.00    2.53413   2.33159    0.002
 6244.00    2.52185   2.33165    0.002
 6245.00    2.67421   2.33202    0.002
 6246.00    2.82427   2.33245    0.002
 6247.00    2.97196   2.33189    0.002
 6248.00    2.82924   2.33203    0.002
 6249.00    2.42093   2.33179    0.002
 6250.00    2.19346   2.33215    0.002
 6251.00    2.11176   2.33249    0.002
 6252.00    2.11351   2.33271    0.002
 6253.00    2.17446   2.33317    0.002
 6254.00    2.19429   2.33303    0.002
 6255.00    2.18855   2.33281    0.002
 6256.00    2.22541   2.33207    0.002
 6257.00    2.28545   2.33195    0.002
 6258.00    2.60325   2.33210    0.002
 6259.00    3.04284   2.33199    0.002
 6260.00    3.35778   2.33215    0.002
 6261.00    3.62192   2.33210    0.002
 6262.00    3.22331   2.33165    0.003
 6263.00    2.59406   2.33160    0.003
 6264.00    2.23463   2.33222    0.003
 6265.00    1.95436   2.33232    0.002
 6266.00    2.29561   2.33189    0.002
 6267.00    2.78783   2.33185    0.002
 6268.00    2.82419   2.33153    0.002
 6269.00    2.77106   2.33115    0.002
 6270.00    2.63413   2.33050    0.002
 6271.00    2.48437   2.33013    0.002
 6272.00    2.35722   2.33059    0.002
 6273.00    2.23261   2.33072    0.002
 6274.00    2.21311   2.33041    0.002
 6275.00    2.20152   2.32916    0.002
 6276.00    2.28535   2.32760    0.002
 6277.00    2.37302   2.32715    0.002
 6278.00    2.28740   2.32824    0.002
 6279.00    2.20723   2.32964    0.002
 6280.00    2.39926   2.33022    0.000
 6281.00    2.59124   2.33026    0.000
 6282.00    2.78262   2.33067    0.000
 6283.00    2.94893   2.33137    0.000
 6284.00    2.85155   2.33114    0.000
 6285.00    2.75078   2.33059    0.000
 6286.00    2.62459   2.33001    0.000
 6287.00    2.49612   2.33003    0.000
 6288.00    2.35466   2.33016    0.000
 6289.00    2.25795   2.33004    0.000
 6290.00    2.36391   2.32929    0.000
 6291.00    2.44891   2.32839    0.000
 6292.00    2.45607   2.32811    0.000
 6293.00    2.43302   2.32747    0.000
 6294.00    2.31621   2.32695    0.000
 6295.00    2.23570   2.32550    0.000
 6296.00    2.25092   2.32371    0.000
 6297.00    2.28387   2.32172    0.000
 6298.00    2.35696   2.31995    0.000
 6299.00    2.40257   2.31709    0.000
 6300.00    2.39430   2.31384    0.000
 6301.00    2.28428   2.31117    0.000
 6302.00    2.00030   2.31035    0.000
 6303.00    1.80096   2.31186    0.000
 6304.00    1.72835   2.31489    0.000
 6305.00    1.73768   2.31778    0.000
 6306.00    1.85485   2.32055    0.000
 6307.00    2.03000   2.32291    0.000
 6308.00    2.27234   2.32563    0.000
 6309.00    2.40574   2.32677    0.000
 6310.00    2.42777   2.32751    0.000
 6311.00    2.46380   2.32746    0.000
 6312.00    2.51245   2.32868    0.000
 6313.00    2.51630   2.32910    0.000
 6314.00    2.48455   2.32901    0.000
 6315.00    2.39245   2.33054    0.000
 6316.00    2.25815   2.33064    0.000
 6317.00    2.11633   2.33060    0.000
 6318.00    1.96990   2.33049    0.000
 6319.00    1.88492   2.33024    0.000
 6320.00    1.83283   2.33051    0.000
 6321.00    1.79868   2.33078    0.002
 6322.00    1.77286   2.33135    0.002
 6323.00    1.85887   2.33086    0.002
 6324.00    1.98967   2.33001    0.002
 6325.00    2.05410   2.32937    0.002
 6326.00    2.09587   2.32874    0.002
 6327.00    1.95045   2.32929    0.002
 6328.00    1.75124   2.33003    0.002
 6329.00    1.69661   2.33036    0.002
 6330.00    1.67632   2.32999    0.002
 6331.00    1.75332   2.32925    0.002
 6332.00    1.84893   2.32923    0.002
 6333.00    2.08999   2.32939    0.002
 6334.00    2.35261   2.32949    0.002
 6335.00    2.32942   2.32833    0.002
 6336.00    2.27524   2.32351    0.002
 6337.00    2.12558   2.31460    0.002
 6338.00    1.96912   2.31236    0.002
 6339.00    1.97645   2.31683    0.002
 6340.00    1.98974   2.32551    0.002
 6341.00    1.90011   2.32932    0.002
 6342.00    1.81304   2.32924    0.002
 6343.00    1.82986   2.32954    0.002
 6344.00    1.85133   2.32927    0.002
 6345.00    1.94712   2.32893    0.002
 6346.00    2.03562   2.32886    0.002
 6347.00    2.05081   2.32888    0.002
 6348.00    2.06031   2.32899    0.002
 6349.00    2.02866   2.32883    0.002
 6350.00    1.99780   2.32925    0.002
 6351.00    1.97130   2.32926    0.002
 6352.00    1.94444   2.32968    0.002
 6353.00    1.91604   2.32912    0.002
 6354.00    1.92567   2.32926    0.002
 6355.00    2.07349   2.32932    0.002
 6356.00    2.19154   2.32876    0.002
 6357.00    2.21889   2.32851    0.002
 6358.00    2.28115   2.32861    0.002
 6359.00    2.43385   2.32817    0.002
 6360.00    2.46230   2.32622    0.002
 6361.00    2.21404   2.32056    0.002
 6362.00    1.92239   2.31786    0.002
 6363.00    1.54696   2.31979    0.002
 6364.00    1.33682   2.32561    0.002
 6365.00    1.40502   2.32914    0.002
 6366.00    1.58727   2.32902    0.002
 6367.00    1.93782   2.32924    0.002
 6368.00    2.16839   2.32904    0.002
 6369.00    2.24332   2.32758    0.002
 6370.00    2.26031   2.32487    0.002
 6371.00    2.21108   2.32278    0.002
 6372.00    2.21013   2.32246    0.002
 6373.00    2.25783   2.32417    0.002
 6374.00    2.26259   2.32707    0.002
 6375.00    2.22919   2.32770    0.002
 6376.00    2.15050   2.32773    0.002
 6377.00    2.03635   2.32813    0.002
 6378.00    2.07196   2.32770    0.002
 6379.00    2.21074   2.32789    0.002
 6380.00    2.34138   2.32828    0.002
 6381.00    2.46709   2.32843    0.002
 6382.00    2.40631   2.32828    0.002
 6383.00    2.24721   2.32778    0.002
 6384.00    2.03587   2.32683    0.002
 6385.00    1.80064   2.32633    0.002
 6386.00    1.85427   2.32632    0.002
 6387.00    2.02161   2.32584    0.002
 6388.00    2.36119   2.32540    0.002
 6389.00    2.75852   2.32427    0.002
 6390.00    2.68963   2.32271    0.002
 6391.00    2.48946   2.31995    0.002
 6392.00    2.14345   2.31719    0.002
 6393.00    1.76360   2.31395    0.002
 6394.00    1.67122   2.31032    0.002
 6395.00    1.63238   2.30642    0.002
 6396.00    1.79173   2.30184    0.002
 6397.00    1.97955   2.29985    0.002
 6398.00    2.13045   2.30215    0.002
 6399.00    2.27751   2.30673    0.002
 6400.00    2.12394   2.31213    0.002
 6401.00    1.95019   2.31651    0.002
 6402.00    1.85289   2.31949    0.002
 6403.00    1.75808   2.32143    0.002
 6404.00    1.91510   2.32337    0.002
 6405.00    2.06812   2.32477    0.002
 6406.00    2.09540   2.32532    0.002
 6407.00    2.11241   2.32537    0.002
 6408.00    1.97544   2.32579    0.002
 6409.00    1.85081   2.32670    0.002
 6410.00    1.84547   2.32700    0.002
 6411.00    1.83803   2.32681    0.002
 6412.00    1.81590   2.32644    0.002
 6413.00    1.81299   2.32680    0.002
 6414.00    1.91354   2.32759    0.002
 6415.00    2.02100   2.32842    0.002
 6416.00    2.15830   2.32866    0.002
 6417.00    2.23215   2.32877    0.002
 6418.00    2.08011   2.32882    0.002
 6419.00    1.94882   2.32905    0.002
 6420.00    1.87956   2.32866    0.002
 6421.00    1.88183   2.32817    0.002
 6422.00    2.06622   2.32834    0.002
 6423.00    2.15714   2.32838    0.002
 6424.00    2.04330   2.32843    0.002
 6425.00    1.91793   2.32860    0.002
 6426.00    1.77065   2.32888    0.002
 6427.00    1.67632   2.32853    0.002
 6428.00    1.66984   2.32734    0.002
 6429.00    1.73129   2.32669    0.002
 6430.00    1.89153   2.32707    0.002
 6431.00    2.03415   2.32734    0.002
 6432.00    2.15423   2.32773    0.002
 6433.00    2.22785   2.32702    0.002
 6434.00    2.24913   2.32717    0.002
 6435.00    2.27175   2.32707    0.002
 6436.00    2.29572   2.32693    0.002
 6437.00    2.25847   2.32729    0.002
 6438.00    2.16757   2.32754    0.002
 6439.00    2.09573   2.32707    0.002
 6440.00    2.03860   2.32600    0.002
 6441.00    2.08028   2.32540    0.002
 6442.00    2.18903   2.32620    0.002
 6443.00    2.31050   2.32606    0.002
 6444.00    2.43955   2.32512    0.002
 6445.00    2.47916   2.32363    0.002
 6446.00    2.47236   2.32243    0.002
 6447.00    2.27756   2.32285    0.002
 6448.00    1.99819   2.32447    0.002
 6449.00    1.87971   2.32772    0.002
 6450.00    1.82347   2.33143    0.002
 6451.00    1.94927   2.33164    0.002
 6452.00    2.13496   2.32897    0.002
 6453.00    2.17449   2.32555    0.002
 6454.00    2.17370   2.32472    0.002
 6455.00    2.07056   2.32595    0.002
 6456.00    1.94420   2.32503    0.002
 6457.00    1.81049   2.32316    0.002
 6458.00    1.67545   2.32295    0.002
 6459.00    1.70895   2.32422    0.002
 6460.00    1.76590   2.32596    0.002
 6461.00    1.94599   2.32662    0.002
 6462.00    2.13838   2.32682    0.002
 6463.00    2.05054   2.32710    0.002
 6464.00    1.94500   2.32703    0.002
 6465.00    1.95612   2.32621    0.002
 6466.00    1.97121   2.32566    0.002
 6467.00    2.16478   2.32528    0.002
 6468.00    2.35571   2.32442    0.002
 6469.00    2.47317   2.32406    0.002
 6470.00    2.57205   2.32425    0.002
 6471.00    2.40810   2.32429    0.002
 6472.00    2.23084   2.32410    0.002
 6473.00    1.93029   2.32415    0.002
 6474.00    1.66163   2.32438    0.002
 6475.00    1.60872   2.32463    0.002
 6476.00    1.62533   2.32496    0.002
 6477.00    2.00654   2.32512    0.002
 6478.00    2.29367   2.32542    0.002
 6479.00    2.18361   2.32544    0.002
 6480.00    2.05269   2.32525    0.002
 6481.00    1.84901   2.32497    0.002
 6482.00    1.74689   2.32466    0.002
 6483.00    1.94272   2.32414    0.002
 6484.00    2.14533   2.32310    0.002
 6485.00    2.36490   2.32212    0.002
 6486.00    2.50566   2.32177    0.002
 6487.00    2.47654   2.32153    0.002
 6488.00    2.45984   2.32117    0.002
 6489.00    2.46638   2.32178    0.002
 6490.00    2.39638   2.32284    0.002
 6491.00    2.20131   2.32353    0.002
 6492.00    2.02551   2.32372    0.002
 6493.00    1.87733   2.32337    0.002
 6494.00    1.76312   2.32241    0.002
 6495.00    1.69175   2.32124    0.002
 6496.00    1.62512   2.31928    0.002
 6497.00    1.56374   2.31725    0.002
 6498.00    1.58804   2.31723    0.002
 6499.00    1.69631   2.31846    0.002
 6500.00    1.69439   2.32006    0.002
 6501.00    1.59726   2.32161    0.002
 6502.00    1.48754   2.32203    0.002
 6503.00    1.36824   2.32154    0.002
 6504.00    1.41053   2.32067    0.002
 6505.00    1.56093   2.31903    0.002
 6506.00    1.80882   2.31697    0.002
 6507.00    2.11384   2.31565    0.002
 6508.00    2.15837   2.31514    0.002
 6509.00    2.06984   2.31445    0.002
 6510.00    1.90088   2.31355    0.002
 6511.00    1.69632   2.31201    0.002
 6512.00    1.57263   2.30956    0.002
 6513.00    1.47967   2.30598    0.002
 6514.00    1.28713   2.29999    0.002
 6515.00    1.06244   2.29247    0.002
 6516.00    1.03988   2.28456    0.002
 6517.00    1.07191   2.27908    0.002
 6518.00    1.30753   2.27934    0.002
 6519.00    1.58823   2.28422    0.002
 6520.00    1.75429   2.29136    0.002
 6521.00    1.90014   2.29699    0.002
 6522.00    1.98786   2.30026    0.002
 6523.00    2.06777   2.30255    0.002
 6524.00    2.15485   2.30416    0.002
 6525.00    2.24262   2.30529    0.002
 6526.00    2.22884   2.30514    0.002
 6527.00    2.20905   2.30422    0.002
 6528.00    2.22969   2.30358    0.000
 6529.00    2.25071   2.30255    0.000
 6530.00    2.17938   2.30064    0.000
 6531.00    2.11049   2.29854    0.000
 6532.00    2.10292   2.29673    0.000
 6533.00    2.10020   2.29441    0.000
 6534.00    2.16249   2.29042    0.000
 6535.00    2.22378   2.28515    0.000
 6536.00    2.27614   2.27990    0.000
 6537.00    2.28040   2.27503    0.000
 6538.00    1.96929   2.27068    0.000
 6539.00    1.72198   2.26526    0.000
 6540.00    1.80072   2.25689    0.000
 6541.00    1.90501   2.24719    0.000
 6542.00    2.11477   2.23552    0.000
 6543.00    2.31355   2.22042    0.000
 6544.00    2.47483   2.20068    0.000
 6545.00    2.63063   2.17452    0.000
 6546.00    2.77062   2.13992    0.000
 6547.00    2.82656   2.09157    0.000
 6548.00    2.67581   2.01830    0.000
 6549.00    2.47215   1.92380    0.000
 6550.00    2.15628   1.81478    0.000
 6551.00    1.90721   1.69783    0.000
 6552.00    1.78118   1.59496    0.000
 6553.00    1.78062   1.53728    0.000
 6554.00    1.98199   1.56733    0.000
 6555.00    2.25921   1.68203    0.000
 6556.00    2.64355   1.83046    0.000
 6557.00    3.14412   1.96235    0.000
 6558.00    3.78912   2.05291    0.000
 6559.00    4.44202   2.11114    0.000
 6560.00    5.10356   2.15155    0.000
 6561.00    5.26335   2.18147    0.000
 6562.00    4.93840   2.20488    0.000
 6563.00    4.34546   2.22325    0.000
 6564.00    3.52422   2.23756    0.000
 6565.00    2.87013   2.24926    0.000
 6566.00    2.34143   2.25663    0.000
 6567.00    2.02185   2.25927    0.000
 6568.00    1.84011   2.26168    0.000
 6569.00    1.75556   2.26795    0.000
 6570.00    1.72709   2.27768    0.000
 6571.00    1.65056   2.28521    0.000
 6572.00    1.54987   2.28543    0.000
 6573.00    1.63272   2.28554    0.000
 6574.00    1.79543   2.28913    0.000
 6575.00    1.95770   2.29599    0.000
 6576.00    2.11981   2.30206    0.000
 6577.00    2.18843   2.30482    0.000
 6578.00    2.22746   2.30684    0.000
 6579.00    2.57151   2.30838    0.000
 6580.00    2.99622   2.30949    0.000
 6581.00    2.98218   2.31037    0.000
 6582.00    2.87328   2.31061    0.000
 6583.00    2.55584   2.31121    0.000
 6584.00    2.20263   2.31233    0.000
 6585.00    1.89525   2.31380    0.000
 6586.00    1.59383   2.31516    0.000
 6587.00    1.46848   2.31580    0.000
 6588.00    1.35921   2.31575    0.000
 6589.00    1.61610   2.31593    0.000
 6590.00    1.89320   2.31704    0.000
 6591.00    1.97524   2.31832    0.000
 6592.00    2.05187   2.31884    0.000
 6593.00    2.01118   2.31943    0.000
 6594.00    1.96255   2.32010    0.000
 6595.00    1.73171   2.32036    0.000
 6596.00    1.51867   2.32047    0.000
 6597.00    1.53119   2.32057    0.000
 6598.00    1.56486   2.32104    0.000
 6599.00    1.77973   2.32052    0.000
 6600.00    1.99215   2.32018    0.000
 6601.00    2.18897   2.32061    0.000
 6602.00    2.36048   2.32112    0.000
 6603.00    2.40593   2.32138    0.000
 6604.00    2.40728   2.32135    0.000
 6605.00    2.23058   2.32136    0.000
 6606.00    2.06364   2.32121    0.000
 6607.00    1.92938   2.32229    0.000
 6608.00    1.80065   2.32284    0.000
 6609.00    1.68752   2.32316    0.002
 6610.00    1.64435   2.32298    0.002
 6611.00    1.77025   2.32328    0.002
 6612.00    1.94074   2.32342    0.002
 6613.00    2.20426   2.32336    0.002
 6614.00    2.34448   2.32346    0.002
 6615.00    2.26103   2.32368    0.002
 6616.00    2.13423   2.32346    0.002
 6617.00    1.93869   2.32319    0.002
 6618.00    1.88273   2.32295    0.002
 6619.00    2.02107   2.32263    0.002
 6620.00    2.06704   2.32323    0.002
 6621.00    1.99988   2.32356    0.002
 6622.00    1.96824   2.32357    0.002
 6623.00    1.97497   2.32353    0.002
 6624.00    1.89547   2.32367    0.002
 6625.00    1.73384   2.32423    0.002
 6626.00    1.63172   2.32480    0.002
 6627.00    1.57959   2.32583    0.002
 6628.00    1.62431   2.32569    0.002
 6629.00    1.74065   2.32528    0.002
 6630.00    1.76362   2.32502    0.002
 6631.00    1.72594   2.32495    0.002
 6632.00    1.68261   2.32504    0.002
 6633.00    1.63606   2.32566    0.002
 6634.00    1.81182   2.32589    0.002
 6635.00    2.09759   2.32590    0.002
 6636.00    2.36703   2.32543    0.002
 6637.00    2.62949   2.32551    0.002
 6638.00    2.67704   2.32559    0.002
 6639.00    2.64578   2.32546    0.002
 6640.00    2.47628   2.32547    0.002
 6641.00    2.26385   2.32609    0.002
 6642.00    2.18506   2.32631    0.002
 6643.00    2.14086   2.32603    0.002
 6644.00    2.10033   2.32583    0.002
 6645.00    2.06059   2.32528    0.002
 6646.00    2.07107   2.32493    0.002
 6647.00    2.08993   2.32578    0.002
 6648.00    1.97597   2.32626    0.002
 6649.00    1.84534   2.32633    0.002
 6650.00    1.72921   2.32626    0.002
 6651.00    1.61433   2.32597    0.002
 6652.00    1.61512   2.32491    0.002
 6653.00    1.62184   2.32437    0.002
 6654.00    1.71237   2.32523    0.002
 6655.00    1.80130   2.32497    0.002
 6656.00    1.67168   2.32370    0.002
 6657.00    1.55390   2.32302    0.002
 6658.00    1.68571   2.32310    0.002
 6659.00    1.81728   2.32352    0.002
 6660.00    1.94612   2.32415    0.002
 6661.00    2.03848   2.32323    0.002
 6662.00    1.82958   2.32249    0.002
 6663.00    1.61922   2.32139    0.002
 6664.00    1.39985   2.31865    0.002
 6665.00    1.24217   2.31490    0.002
 6666.00    1.38408   2.29973    0.002
 6667.00    1.50328   2.26720    0.002
 6668.00    1.53282   2.24057    0.002
 6669.00    1.54027   2.23548    0.002
 6670.00    1.47519   2.25225    0.002
 6671.00    1.49081   2.26964    0.002
 6672.00    1.73049   2.27249    0.002
 6673.00    1.95013   2.27128    0.002
 6674.00    2.12213   2.27486    0.002
 6675.00    2.12696   2.28461    0.002
 6676.00    1.78858   2.29645    0.002
 6677.00    1.53843   2.30550    0.002
 6678.00    1.44590   2.31202    0.002
 6679.00    1.33097   2.31603    0.002
 6680.00    1.18102   2.31956    0.002
 6681.00    1.12667   2.32168    0.002
 6682.00    1.20348   2.32291    0.002
 6683.00    1.36671   2.32370    0.002
 6684.00    1.63430   2.32392    0.002
 6685.00    1.84006   2.32490    0.002
 6686.00    1.97999   2.32607    0.002
 6687.00    2.00853   2.32655    0.002
 6688.00    1.93247   2.32665    0.002
 6689.00    1.98906   2.32638    0.002
 6690.00    2.15546   2.32520    0.002
 6691.00    2.12287   2.32422    0.002
 6692.00    1.94523   2.32516    0.002
 6693.00    1.80317   2.32669    0.002
 6694.00    1.68389   2.32759    0.002
 6695.00    1.55467   2.32763    0.002
 6696.00    1.41988   2.32762    0.000
 6697.00    1.40284   2.32766    0.000
 6698.00    1.44312   2.32834    0.000
 6699.00    1.54576   2.32811    0.000
 6700.00    1.67463   2.32782    0.000
 6701.00    1.71793   2.32764    0.000
 6702.00    1.73042   2.32746    0.000
 6703.00    1.50027   2.32809    0.000
 6704.00    1.19622   2.32833    0.000
 6705.00    1.27706   2.32803    0.000
 6706.00    1.45537   2.32763    0.000
 6707.00    1.59534   2.32706    0.000
 6708.00    1.72743   2.32628    0.000
 6709.00    1.93475   2.32726    0.000
 6710.00    2.15425   2.32715    0.000
 6711.00    2.18743   2.32753    0.000
 6712.00    2.19807   2.32736    0.000
 6713.00    2.07223   2.32712    0.000
 6714.00    1.93507   2.32744    0.000
 6715.00    1.86863   2.32688    0.000
 6716.00    1.80555   2.32551    0.000
 6717.00    1.74631   2.32316    0.000
 6718.00    1.69267   2.32361    0.000
 6719.00    1.95152   2.32221    0.000
 6720.00    2.19606   2.31970    0.000
 6721.00    2.16180   2.31828    0.000
 6722.00    2.10852   2.31961    0.000
 6723.00    1.83716   2.32402    0.000
 6724.00    1.62326   2.32805    0.000
 6725.00    1.86712   2.32937    0.000
 6726.00    2.05126   2.32884    0.000
 6727.00    1.87718   2.32868    0.000
 6728.00    1.79836   2.32887    0.000
 6729.00    2.17090   2.32945    0.000
 6730.00    2.51516   2.32907    0.000
 6731.00    2.75014   2.32719    0.000
 6732.00    2.93127   2.32464    0.000
 6733.00    2.93900   2.31529    0.000
 6734.00    2.78542   2.31063    0.000
 6735.00    2.19201   2.31214    0.000
 6736.00    1.78360   2.31818    0.000
 6737.00    1.80746   2.32718    0.000
 6738.00    1.81735   2.32938    0.000
 6739.00    1.79901   2.32965    0.000
 6740.00    1.81215   2.33077    0.000
 6741.00    1.88066   2.33085    0.000
 6742.00    1.87118   2.32992    0.000
 6743.00    1.74164   2.32936    0.000
 6744.00    1.66471   2.33018    0.000
 6745.00    1.65891   2.32985    0.000
 6746.00    1.70262   2.32937    0.000
 6747.00    1.80527   2.32893    0.000
 6748.00    1.99639   2.32994    0.000
 6749.00    2.28037   2.33018    0.000
 6750.00    2.30490   2.32963    0.000
 6751.00    2.08919   2.32749    0.000
 6752.00    2.12039   2.32651    0.000
 6753.00    2.35312   2.32731    0.003
 6754.00    2.25022   2.32843    0.003
 6755.00    1.90620   2.32973    0.003
 6756.00    1.70535   2.32996    0.003
 6757.00    1.59477   2.33050    0.003
 6758.00    1.59232   2.33061    0.003
 6759.00    1.64948   2.32967    0.003
 6760.00    1.99904   2.33042    0.003
 6761.00    2.48873   2.33078    0.003
 6762.00    2.39205   2.33006    0.003
 6763.00    2.05282   2.33047    0.003
 6764.00    2.08603   2.33038    0.003
 6765.00    2.25095   2.33033    0.003
 6766.00    2.11720   2.33051    0.003
 6767.00    1.89429   2.33073    0.003
 6768.00    1.90497   2.33093    0.003
 6769.00    1.97350   2.32865    0.003
 6770.00    1.84216   2.32728    0.003
 6771.00    1.67070   2.32749    0.003
 6772.00    1.74868   2.32793    0.003
 6773.00    1.86585   2.32759    0.003
 6774.00    2.06688   2.32712    0.003
 6775.00    2.27768   2.32704    0.003
 6776.00    2.25214   2.32837    0.003
 6777.00    2.20795   2.32896    0.003
 6778.00    1.71692   2.32997    0.003
 6779.00    1.20643   2.33049    0.003
 6780.00    1.82134   2.32976    0.003
 6781.00    2.42730   2.32922    0.003
 6782.00    2.06579   2.32914    0.003
 6783.00    1.73545   2.32971    0.003
 6784.00    1.96906   2.33096    0.003
 6785.00    2.18005   2.33130    0.003
 6786.00    2.14345   2.33131    0.003
 6787.00    2.13307   2.33108    0.003
 6788.00    2.32425   2.33182    0.003
 6789.00    2.45491   2.33090    0.003
 6790.00    2.23283   2.33014    0.003
 6791.00    1.97909   2.33083    0.003
 6792.00    1.57895   2.33131    0.003
 6793.00    1.26132   2.33214    0.003
 6794.00    1.25564   2.33302    0.003
 6795.00    1.40894   2.33248    0.003
 6796.00    2.06424   2.33257    0.003
 6797.00    2.52060   2.33277    0.003
 6798.00    2.44416   2.33337    0.003
 6799.00    2.47880   2.33259    0.003
 6800.00    2.76865   2.33247    0.003
 6801.00    2.68564   2.33202    0.003
 6802.00    1.86117   2.33173    0.003
 6803.00    1.60267   2.33167    0.003
 6804.00    2.32472   2.33122    0.003
 6805.00    2.50255   2.33196    0.003
 6806.00    1.85484   2.33118    0.003
 6807.00    1.56177   2.33230    0.003
 6808.00    1.74132   2.33239    0.003
 6809.00    1.89758   2.33235    0.003
 6810.00    2.02650   2.33230    0.003
 6811.00    2.09691   2.33310    0.003
 6812.00    2.10676   2.33313    0.003
 6813.00    1.83041   2.33309    0.003
 6814.00    1.29279   2.33304    0.003
 6815.00    1.17178   2.33321    0.003
 6816.00    1.38602   2.33361    0.003
 6817.00    1.89908   2.33339    0.003
 6818.00    2.62370   2.33268    0.003
 6819.00    2.48879   2.33236    0.003
 6820.00    1.81997   2.33230    0.003
 6821.00    1.66557   2.33310    0.003
 6822.00    1.79037   2.33311    0.003
 6823.00    1.98458   2.33263    0.003
 6824.00    2.21154   2.33276    0.003
 6825.00    2.04925   2.33316    0.003
 6826.00    1.72870   2.33400    0.003
 6827.00    1.99661   2.33357    0.003
 6828.00    2.46883   2.33348    0.003
 6829.00    2.26953   2.33365    0.003
 6830.00    1.87376   2.33361    0.003
 6831.00    2.23827   2.33289    0.003
 6832.00    2.78694   2.33279    0.003
 6833.00    2.43146   2.33273    0.003
 6834.00    1.89909   2.33399    0.003
 6835.00    2.42315   2.33268    0.003
 6836.00    3.10826   2.33188    0.003
 6837.00    2.93354   2.33134    0.003
 6838.00    2.66232   2.33281    0.003
 6839.00    2.82300   2.33394    0.003
 6840.00    3.01598   2.33549    0.003
 6841.00    2.19432   2.33527    0.003
 6842.00    1.33237   2.33565    0.003
 6843.00    1.56088   2.33494    0.003
 6844.00    1.79020   2.33462    0.003
 6845.00    1.75386   2.33521    0.003
 6846.00    1.71542   2.33539    0.003
 6847.00    1.64162   2.33556    0.003
 6848.00    1.59167   2.33482    0.003
 6849.00    1.79128   2.33427    0.003
 6850.00    1.95778   2.33554    0.003
 6851.00    1.87825   2.33620    0.003
 6852.00    1.78410   2.33706    0.003
 6853.00    1.60703   2.33633    0.003
 6854.00    1.58922   2.33671    0.003
 6855.00    2.29047   2.33572    0.003
 6856.00    2.70491   2.33677    0.003
 6857.00    2.05765   2.33695    0.003
 6858.00    1.50806   2.33549    0.003
 6859.00    1.26095   2.33585    0.003
 6860.00    1.20605   2.33648    0.003
 6861.00    1.65681   2.33851    0.003
 6862.00    1.88366   2.33777    0.003
 6863.00    1.60454   2.33768    0.003
 6864.00    1.39976   2.33642    0.003
 6865.00    1.34046   2.33632    0.003
 6866.00    1.38931   2.33624    0.003
 6867.00    1.62268   2.33522    0.003
 6868.00    1.86295   2.33607    0.003
 6869.00    2.11352   2.33433    0.003
 6870.00    1.82564   2.33282    0.003
 6871.00    0.83041   2.33226    0.003
 6872.00    0.64320   2.33074    0.003
 6873.00    1.39098   2.32899    0.003
 6874.00    1.93179   2.32723    0.003
 6875.00    2.26140   2.32451    0.003
 6876.00    2.10792   2.31938    0.003
 6877.00    1.51962   2.31067    0.003
 6878.00    1.22515   2.29856    0.003
 6879.00    1.16376   2.28157    0.003
 6880.00    1.31911   2.26987    0.003
 6881.00    1.62567   2.26849    0.003
 6882.00    1.72161   2.27826    0.003
 6883.00    1.68866   2.29273    0.003
 6884.00    1.49656   2.30664    0.003
 6885.00    1.21943   2.31626    0.003
 6886.00    1.41352   2.32215    0.003
 6887.00    1.82621   2.32841    0.003
 6888.00    1.71401   2.33094    0.003
 6889.00    1.39202   2.33319    0.003
 6890.00    1.23569   2.33427    0.003
 6891.00    1.13581   2.33490    0.003
 6892.00    1.12199   2.33621    0.003
 6893.00    1.13283   2.33659    0.003
 6894.00    1.09883   2.33691    0.003
 6895.00    1.05421   2.33613    0.003
 6896.00    1.39674   2.33643    0.003
 6897.00    1.81306   2.33520    0.003
 6898.00    2.21472   2.33584    0.003
 6899.00    2.61422   2.33687    0.003
 6900.00    2.59209   2.33659    0.003
 6901.00    2.52447   2.33789    0.003
 6902.00    2.33667   2.33827    0.003
 6903.00    2.14038   2.33863    0.003
 6904.00    2.11812   2.33875    0.003
 6905.00    2.10211   2.33868    0.003
 6906.00    1.73484   2.33918    0.003
 6907.00    1.38476   2.33797    0.003
 6908.00    1.67068   2.33856    0.003
 6909.00    1.92528   2.33891    0.003
 6910.00    1.68416   2.33883    0.003
 6911.00    1.42807   2.33940    0.003
 6912.00    1.02206   2.33937    0.003
 6913.00    0.69489   2.34063    0.003
 6914.00    0.93446   2.34071    0.003
 6915.00    1.17767   2.34020    0.003
 6916.00    1.44093   2.34075    0.003
 6917.00    1.56467   2.34052    0.003
 6918.00    1.07318   2.33888    0.003
 6919.00    0.87055   2.33967    0.003
 6920.00    1.71493   2.33985    0.003
 6921.00    2.25093   2.34062    0.003
 6922.00    1.84973   2.34044    0.003
 6923.00    1.67646   2.33971    0.003
 6924.00    2.09238   2.34041    0.003
 6925.00    2.38358   2.33944    0.003
 6926.00    2.39756   2.34002    0.003
 6927.00    2.54231   2.34043    0.003
 6928.00    2.93904   2.34121    0.003
 6929.00    3.03836   2.34133    0.003
 6930.00    2.63777   2.34149    0.003
 6931.00    2.23659   2.34200    0.003
 6932.00    1.83452   2.34158    0.003
 6933.00    1.65858   2.34079    0.003
 6934.00    1.77547   2.34063    0.003
 6935.00    1.41905   2.34039    0.003
 6936.00    0.52266   2.34148    0.003
 6937.00    0.71946   2.34248    0.003
 6938.00    2.01617   2.34262    0.003
 6939.00    2.20693   2.34293    0.003
 6940.00    1.41628   2.34276    0.003
 6941.00    1.31621   2.34238    0.003
 6942.00    1.75612   2.34212    0.003
 6943.00    1.64044   2.34275    0.003
 6944.00    1.14272   2.34190    0.003
 6945.00    0.91326   2.34310    0.003
 6946.00    0.84550   2.34321    0.003
 6947.00    0.81785   2.34343    0.003
 6948.00    0.81129   2.34435    0.003
 6949.00    1.05882   2.34407    0.003
 6950.00    1.42232   2.34446    0.003
 6951.00    1.23827   2.34348    0.003
 6952.00    0.83917   2.34364    0.003
 6953.00    0.85562   2.34411    0.003
 6954.00    1.01106   2.34377    0.003
 6955.00    1.32300   2.34400    0.003
 6956.00    1.67890   2.34494    0.003
 6957.00    1.34642   2.34475    0.003
 6958.00    0.85463   2.34451    0.003
 6959.00    1.50866   2.34509    0.003
 6960.00    2.37540   2.34415    0.003
 6961.00    1.81224   2.34443    0.003
 6962.00    1.04443   2.34444    0.003
 6963.00    0.98796   2.34533    0.003
 6964.00    1.00515   2.34492    0.003
 6965.00    1.58854   2.34452    0.003
 6966.00    2.20967   2.34414    0.003
 6967.00    2.09321   2.34413    0.003
 6968.00    1.95306   2.34471    0.003
 6969.00    1.77914   2.34413    0.003
 6970.00    1.60501   2.34522    0.003
 6971.00    1.42479   2.34495    0.003
 6972.00    1.24396   2.34546    0.003
 6973.00    1.05411   2.34571    0.003
 6974.00    0.93296   2.34657    0.003
 6975.00    1.47159   2.34615    0.003
 6976.00    1.91399   2.34585    0.003
 6977.00    1.68700   2.34596    0.003
 6978.00    1.44369   2.34495    0.003
 6979.00    1.11280   2.34494    0.003
 6980.00    0.82408   2.34561    0.003
 6981.00    0.71703   2.34557    0.003
 6982.00    0.72351   2.34602    0.003
 6983.00    1.13307   2.34598    0.003
 6984.00    1.53971   2.34647    0.003
 6985.00    1.93767   2.34668    0.003
 6986.00    2.19111   2.34718    0.003
 6987.00    2.07745   2.34630    0.003
 6988.00    1.95082   2.34670    0.003
 6989.00    1.79583   2.34636    0.003
 6990.00    1.68669   2.34666    0.003
 6991.00    1.66449   2.34778    0.003
 6992.00    1.58115   2.34782    0.003
 6993.00    1.39657   2.34764    0.003
 6994.00    1.37199   2.34769    0.003
 6995.00    1.57963   2.34836    0.003
 6996.00    1.89821   2.34764    0.003
 6997.00    2.35841   2.34875    0.003
 6998.00    2.29614   2.34873    0.003
 6999.00    1.64624   2.34853    0.003
 7000.00    1.34069   2.34917    0.003
 7001.00    1.37674   2.34898    0.003
 7002.00    1.37024   2.34894    0.003
 7003.00    1.32650   2.34922    0.003
 7004.00    1.63824   2.34867    0.003
 7005.00    2.22399   2.34946    0.003
 7006.00    2.22900   2.34927    0.003
 7007.00    1.84050   2.34995    0.003
 7008.00    1.37615   2.35002    0.003
 7009.00    0.86676   2.35024    0.003
 7010.00    0.32795   2.35076    0.003
 7011.00   -0.22608   2.35036    0.000
 7012.00   -0.00347   2.35098    0.000
 7013.00    0.56780   2.35057    0.003
 7014.00    0.95505   2.34984    0.003
 7015.00    1.27128   2.35071    0.003
 7016.00    1.51176   2.35067    0.003
 7017.00    1.72738   2.35054    0.003
 7018.00    2.17704   2.35141    0.003
 7019.00    2.69108   2.35169    0.003
 7020.00    2.29471   2.35261    0.003
 7021.00    1.69250   2.35282    0.003
 7022.00    1.62409   2.35239    0.003
 7023.00    1.65211   2.35145    0.003
 7024.00    1.72673   2.35174    0.003
 7025.00    1.80781   2.35254    0.003
 7026.00    1.92316   2.35251    0.003
 7027.00    2.04192   2.35290    0.003
 7028.00    2.14855   2.35305    0.003
 7029.00    2.25441   2.35447    0.003
 7030.00    1.96128   2.35554    0.003
 7031.00    1.65802   2.35512    0.003
 7032.00    1.67009   2.35532    0.003
 7033.00    1.68232   2.35438    0.003
 7034.00    1.69930   2.35396    0.003
 7035.00    1.71623   2.35440    0.003
 7036.00    1.73254   2.35464    0.003
 7037.00    1.77665   2.35515    0.003
 7038.00    2.07710   2.35474    0.003
 7039.00    2.32439   2.35478    0.003
 7040.00    2.21342   2.35509    0.003
 7041.00    2.05328   2.35435    0.003
 7042.00    1.63619   2.35498    0.003
 7043.00    1.35445   2.35490    0.003
 7044.00    1.64258   2.35455    0.003
 7045.00    1.75246   2.35486    0.003
 7046.00    1.24230   2.35548    0.003
 7047.00    0.82473   2.35514    0.003
 7048.00    0.67817   2.35542    0.003
 7049.00    0.70932   2.35483    0.003
 7050.00    1.18410   2.35557   -2.000
 7051.00    1.43532   2.35498   -2.000
 7052.00    1.20569   2.35540   -2.000
 7053.00    1.12718   2.35550   -2.000
 7054.00    1.33092   2.35495   -2.000
 7055.00    1.49458   2.35250   -2.000
 7056.00    1.59289   2.35141   -2.000
 7057.00    1.68788   2.35090   -2.000
 7058.00    1.77811   2.35129   -2.000
 7059.00    1.88168   2.35368   -2.000
 7060.00    2.00203   2.35546   -2.000
 7061.00    1.63335   2.35709   -2.000
 7062.00    0.72236   2.35761   -2.000
 7063.00    0.24736   2.35841   -2.000
 7064.00    0.19880   2.35844   -2.000
 7065.00    0.70300   2.35862   -2.000
 7066.00    1.68399   2.35902   -2.000
 7067.00    1.96798   2.35867   -2.000
 7068.00    1.72240   2.35769   -2.000
 7069.00    1.35676   2.35776   -2.000
 7070.00    0.91097   2.35827   -2.000
 7071.00    0.80770   2.35810   -2.000
 7072.00    0.90475   2.35805   -2.000
 7073.00    0.82375   2.35813   -2.000
 7074.00    0.65199   2.35831   -2.000
 7075.00    0.59980   2.35709   -2.000
 7076.00    0.60040   2.35629   -2.000
 7077.00    1.35812   2.35644   -2.000
 7078.00    2.40293   2.35721   -2.000
 7079.00    2.06779   2.35707   -2.000
 7080.00    1.28828   2.35663   -2.000
 7081.00    1.23504   2.35671   -2.000
 7082.00    1.37745   2.35736   -2.000
 7083.00    1.35633   2.35757   -2.000
 7084.00    1.29909   2.35717   -2.000
 7085.00    1.00189   2.35652   -2.000
 7086.00    0.66250   2.35699   -2.000
 7087.00    1.28926   2.35725   -2.000
 7088.00    2.04545   2.35911   -2.000
 7089.00    0.84030   2.36129   -2.000
 7090.00   -0.55122   2.36192   -2.000
 7091.00   -0.13310   2.36239   -2.000
 7092.00    0.39118   2.36231   -2.000
 7093.00    0.85132   2.36294   -2.000
 7094.00    1.30395   2.36343   -2.000
 7095.00    0.94949   2.36280   -2.000
 7096.00    0.66914   2.36326   -2.000
 7097.00    2.23123   2.36318   -2.000
 7098.00    3.61200   2.36364   -2.000
 7099.00    2.58452   2.36400   -2.000
 7100.00    1.60227   2.36337   -2.000
 7101.00    1.02086   2.36302   -2.000
 7102.00    0.55470   2.36311   -2.000
 7103.00    0.84152   2.36304   -2.000
 7104.00    1.14007   2.36375   -2.000
 7105.00    1.49830   2.36358   -2.000
 7106.00    1.72083   2.36403   -2.000
 7107.00    1.38475   2.36459   -2.000
 7108.00    1.21107   2.36511   -2.000
 7109.00    1.59091   2.36475   -2.000
 7110.00    1.64754   2.36513   -2.000
 7111.00    0.77554   2.36536   -2.000
 7112.00    0.30795   2.36467   -2.000
 7113.00    0.83266   2.36492   -2.000
 7114.00    1.04853   2.36474   -2.000
 7115.00    0.61085   2.36503   -2.000
 7116.00    0.44916   2.36555   -2.000
 7117.00    0.79493   2.36604   -2.000
 7118.00    1.07114   2.36681   -2.000
 7119.00    1.23561   2.36643   -2.000
 7120.00    1.79031   2.36617   -2.000
 7121.00    2.89512   2.36643   -2.000
 7122.00    3.43903   2.36670   -2.000
 7123.00    3.28721   2.36727   -2.000
 7124.00    2.67649   2.36795   -2.000
 7125.00    1.56404   2.36784   -2.000
 7126.00    0.99903   2.36756   -2.000
 7127.00    0.96193   2.36779   -2.000
 7128.00   -8.14184   2.36825   -2.000
 7129.00  -24.95567   2.36831   -2.000
 7130.00  -22.11614   2.36846   -2.000
 7131.00   -4.55842   2.36791   -2.000
 7132.00    2.15146   2.36830   -2.000
 7133.00    1.72390   2.36843   -2.000
 7134.00    1.77584   2.36881   -2.000
 7135.00    2.10398   2.36852   -2.000
 7136.00    1.87133   2.36811   -2.000
 7137.00    1.35729   2.36797   -2.000
 7138.00    1.23195   2.36871   -2.000
 7139.00    1.27540   2.36936   -2.000
 7140.00    1.11742   2.36924   -2.000
 7141.00    0.88440   2.36894   -2.000
 7142.00    1.01895   2.36930   -2.000
 7143.00    1.26961   2.37011   -2.000
 7144.00    1.05301   2.36998   -2.000
 7145.00    0.71318   2.36956   -2.000
 7146.00    0.62874   2.36965   -2.000
 7147.00    0.59935   2.37040   -2.000
 7148.00    0.52545   2.37032   -2.000
 7149.00    0.44394   2.37018   -2.000
 7150.00    0.58056   2.37060   -2.000
 7151.00    0.74541   2.37119   -2.000
 7152.00    0.87746   2.37158   -2.000
 7153.00    1.00654   2.37100   -2.000
 7154.00    0.96760   2.37052   -2.000
 7155.00    0.91946   2.37056   -2.000
 7156.00    1.09712   2.37143   -2.000
 7157.00    1.28372   2.37186   -2.000
 7158.00    1.85395   2.37170   -2.000
 7159.00    2.37142   2.37226   -2.000
 7160.00    1.69144   2.37275   -2.000
 7161.00    1.03415   2.37367   -2.000
 7162.00    0.66275   2.37427   -2.000
 7163.00    0.40595   2.37412   -2.000
 7164.00    1.12682   2.37368   -2.000
 7165.00    1.79046   2.37368   -2.000
 7166.00    2.09148   2.37400   -2.000
 7167.00    2.18858   2.37331   -2.000
 7168.00    1.27325   2.37239   -2.000
 7169.00    0.52002   2.37203   -2.000
 7170.00    0.41929   2.37260   -2.000
 7171.00    0.45444   2.37360   -2.000
 7172.00    0.94355   2.37450   -2.000
 7173.00    1.27445   2.37537   -2.000
 7174.00    1.15903   2.37561   -2.000
 7175.00    1.07672   2.37572   -2.000
 7176.00    1.07428   2.37580   -2.000
 7177.00    1.09652   2.37552   -2.000
 7178.00    1.17018   2.37564   -2.000
 7179.00    1.25170   2.37663   -2.000
 7180.00    1.34745   2.37702   -2.000
 7181.00    1.38291   2.37739   -2.000
 7182.00    1.32293   2.37738   -2.000
 7183.00    1.19278   2.37728   -2.000
 7184.00    0.96513   2.37780   -2.000
 7185.00    0.83823   2.37819   -2.000
 7186.00    0.83456   2.37803   -2.000
 7187.00    0.73660   2.37767   -2.000
 7188.00    0.53701   2.37814   -2.000
 7189.00    0.40668   2.37922   -2.000
 7190.00    0.34220   2.37951   -2.000
 7191.00    0.46412   2.37928   -2.000
 7192.00    0.74231   2.37884   -2.000
 7193.00    0.96729   2.37898   -2.000
 7194.00    1.15298   2.37997   -2.000
 7195.00    1.44961   2.38006   -2.000
 7196.00    1.81817   2.37958   -2.000
 7197.00    2.21076   2.37907   -2.000
 7198.00    2.61698   2.37983   -2.000
 7199.00    1.95431   2.38081   -2.000
 7200.00    0.76376   2.38158   -2.000
 7201.00    0.43071   2.38212   -2.000
 7202.00    0.46383   2.38205   -2.000
 7203.00    0.78062   2.38115   -2.000
 7204.00    1.20120   2.38061   -2.000
 7205.00    1.73841   2.38155   -2.000
 7206.00    2.31175   2.38178   -2.000
 7207.00    1.91757   2.38213   -2.000
 7208.00    1.27366   2.38250   -2.000
 7209.00    1.18659   2.38257   -2.000
 7210.00    1.21666   2.38222   -2.000
 7211.00    1.00912   2.38229   -2.000
 7212.00    0.76211   2.38294   -2.000
 7213.00    0.50665   2.38316   -2.000
 7214.00    0.25013   2.38264   -2.000
 7215.00    0.24080   2.38228   -2.000
 7216.00    0.25287   2.38292   -2.000
 7217.00    0.49458   2.38402   -2.000
 7218.00    0.74796   2.38450   -2.000
