###################################################################
## OUTPUT of StarlightChains_v04.for    [Cid@UFSC - 01/Apr/2007] ##
###################################################################

## Some input info
KUG0210-078._22_20.txt                   [arq_obs]
Base.CB07.vall.4m                        [arq_base]
Masks.EmLines.NEW.gm                     [arq_masks]
StCv04.C11.config                        [arq_config]
   66                                    [N_base]
    0                                    [N_YAV_components = # of components with extra extinction!]
    0                                    [i_FitPowerLaw (1/0 = Yes/No)]
-9.99                                    [alpha_PowerLaw]
CCM                                      [red_law_option]
 1.458241                                [q_norm = A(l_norm)/A(V)]

## (Re)Sampling Parameters
 3741.00                                 [l_ini (A)]
 7218.00                                 [l_fin (A)]
    1.00                                 [dl    (A)]     (OBS: dl_cushion =    50.00 A)

## Normalization info
 4020.00                                 [l_norm (A) - for base]
 4010.00                                 [llow_norm (A) - window for f_obs]
 4060.00                                 [lupp_norm (A) - window for f_obs]
9.378498E-18                             [fobs_norm (in input units)]

## S/N
 3691.00                                 [llow_SN (A) - window for S/N]
 7268.00                                 [lupp_SN (A) - window for S/N]
   3.264                                 [S/N in S/N window]
   4.387                                 [S/N in norm. window]
   0.008                                 [S/N_err in S/N window]
   0.011                                 [S/N_err in norm. window]
  1.0000                                 [fscale_chi2]

## etc...
    -2007236                             [idum_orig]
  2420                                   [NOl_eff]
  2381                                   [Nl_eff]
    39    NSIGMA                         [Ntot_cliped & clip_method]
  1265460                                [Nglobal_steps]
   7                                     [N_chains]
  43                                     [NEX0s_base = N_base in EX0s-fits]
 0   0   1       39   2.0   2.474E+03    [Clip-Bug, RC-Crash & Burn-In warning-flags, n_censored_weights, wei_nsig_threshold & wei_limit]
    26     26.376     25.941      0.435  [idt_all, wdt_TotTime, wdt_UsrTime & wdt_SysTime (sec)]

## Synthesis Results - Best model ##

 1.59780E-05                             [chi2/Nl_eff]
    23.88456                             [adev (%)]

   114.04356                             [sum-of-x (%)]
 2.99196E-18                             [Flux_tot (units of input spectrum!)]
 1.34707E-13                             [Mini_tot (???)]
 6.77043E-14                             [Mcor_tot (???)]

 449.31                                  [v0_min  (km/s)]
   0.00                                  [vd_min  (km/s)]
-0.9485                                  [AV_min  (mag)]
 0.0000                                  [YAV_min (mag)]

# j     x_j(%)      Mini_j(%)     Mcor_j(%)     age_j(yr)     Z_j      (L/M)_j    YAV?  Mstars   component_j        a/Fe...       SSP_chi2r SSP_adev(%)   SSP_AV   SSP_x(%)
  1      0.0000     0.0000E+00    0.0000E+00    1.000000E+06  0.00400  1.094E-02    0   1.0000   age020_m42            0.0000     2.3461E-05    31.6014   1.9600   105.4428
  2      0.0000     0.0000E+00    0.0000E+00    3.160000E+06  0.00400  4.007E-02    0   0.9999   age045_m42            0.0000     1.9685E-05    28.4533   1.2839   109.1941
  3      0.0000     0.0000E+00    0.0000E+00    5.010000E+06  0.00400  2.539E-02    0   0.9488   age055_m42            0.0000     2.1126E-05    29.4368   1.5905   107.8072
  4      0.5678     4.2209E-04    7.7431E-04    6.610000E+06  0.00400  2.620E-02    0   0.9220   age061_m42            0.0000     1.9410E-05    27.9197   1.2232   108.9994
  5      0.0000     0.0000E+00    0.0000E+00    1.000000E+07  0.00400  1.322E-02    0   0.8862   age070_m42            0.0000     1.9468E-05    27.7531   1.0414   108.6743
  6      0.0000     0.0000E+00    0.0000E+00    1.445000E+07  0.00400  7.883E-03    0   0.8571   age078_m42            0.0000     2.0544E-05    28.5864   1.3296   107.6406
  7      0.0000     0.0000E+00    0.0000E+00    2.512000E+07  0.00400  5.251E-03    0   0.8174   age090_m42            0.0000     1.9275E-05    27.5758   0.9290   108.7656
  8      0.2158     1.1518E-03    1.7992E-03    4.000000E+07  0.00400  3.649E-03    0   0.7851   age104_m42            0.0000     1.8605E-05    27.0451   0.7066   109.1389
  9      0.0000     0.0000E+00    0.0000E+00    5.500000E+07  0.00400  3.098E-03    0   0.7629   age110_m42            0.0000     1.8104E-05    26.4029   0.8277   109.5440
 10      1.9022     1.6628E-02    2.3843E-02    1.015200E+08  0.00400  2.228E-03    0   0.7207   age116_m42            0.0000     1.7718E-05    25.9466   0.8308   109.9361
 11      1.6421     2.9260E-02    3.8702E-02    2.861200E+08  0.00400  1.093E-03    0   0.6648   age125_m42            0.0000     1.7045E-05    25.0433   0.3206   110.8330
 12      3.3797     9.9775E-02    1.2636E-01    5.088000E+08  0.00400  6.597E-04    0   0.6365   age130_m42            0.0000     1.6665E-05    24.3711   0.2831   112.0729
 13      0.0435     3.9723E-03    4.5825E-03    1.434000E+09  0.00400  2.132E-04    0   0.5798   age139_m42            0.0000     1.6166E-05    24.1416  -0.6792   113.6463
 14      9.5336     3.1497E+00    3.3696E+00    4.250000E+09  0.00400  5.895E-05    0   0.5377   age158_m42            0.0000     1.7544E-05    26.9837  -1.0000   111.8416
 15      0.0000     0.0000E+00    0.0000E+00    7.500000E+09  0.00400  3.510E-05    0   0.5212   age171_m42            0.0000     1.8858E-05    31.6252  -1.0000   110.4337
 16     12.4980     1.2140E+01    1.2159E+01    1.300000E+10  0.00400  2.005E-05    0   0.5034   age193_m42            0.0000     2.0463E-05    36.8082  -1.0000   108.5026
 17      0.0000     0.0000E+00    0.0000E+00    1.800000E+10  0.00400  1.525E-05    0   0.4967   age213_m42            0.0000     2.0972E-05    37.8523  -1.0000   107.9716
 18      0.0000     0.0000E+00    0.0000E+00    1.000000E+06  0.00800  1.238E-02    0   1.0000   age020_m52            0.0000     2.3450E-05    31.5565   1.9600   105.5145
 19      0.9953     6.3056E-04    1.2503E-03    3.160000E+06  0.00800  3.074E-02    0   0.9966   age045_m52            0.0000     2.3129E-05    31.1476   1.8878   106.2082
 20      0.0000     0.0000E+00    0.0000E+00    5.010000E+06  0.00800  2.668E-02    0   0.9443   age055_m52            0.0000     2.1622E-05    29.8147   1.6667   107.2777
 21      0.0000     0.0000E+00    0.0000E+00    6.610000E+06  0.00800  2.136E-02    0   0.9177   age061_m52            0.0000     1.9559E-05    28.0809   0.5549   109.4697
 22      0.8126     1.3026E-03    2.2877E-03    1.000000E+07  0.00800  1.215E-02    0   0.8827   age070_m52            0.0000     2.0273E-05    28.3287   1.2297   108.5795
 23      0.0000     0.0000E+00    0.0000E+00    1.445000E+07  0.00800  8.717E-03    0   0.8552   age078_m52            0.0000     2.0314E-05    28.2576   1.3090   108.4893
 24      0.0000     0.0000E+00    0.0000E+00    2.512000E+07  0.00800  5.592E-03    0   0.8162   age090_m52            0.0000     1.9310E-05    27.3893   1.0030   109.6190
 25      0.0000     0.0000E+00    0.0000E+00    4.000000E+07  0.00800  3.896E-03    0   0.7841   age104_m52            0.0000     1.8714E-05    26.7511   0.9039   110.4198
 26      0.0000     0.0000E+00    0.0000E+00    1.015200E+08  0.00800  2.148E-03    0   0.7226   age116_m52            0.0000     1.7998E-05    26.2180   0.8034   111.0406
 27      0.0000     0.0000E+00    0.0000E+00    2.861200E+08  0.00800  9.925E-04    0   0.6683   age125_m52            0.0000     1.6715E-05    24.3267   0.3621   112.6356
 28      0.0000     0.0000E+00    0.0000E+00    9.047900E+08  0.00800  3.141E-04    0   0.6138   age135_m52            0.0000     1.6269E-05    23.6817  -0.4559   116.9351
 29      0.0261     2.9612E-03    3.4484E-03    1.434000E+09  0.00800  1.719E-04    0   0.5853   age139_m52            0.0000     1.6245E-05    24.4116  -1.0000   115.4671
 30      0.0000     0.0000E+00    0.0000E+00    2.500000E+09  0.00800  7.872E-05    0   0.5600   age150_m52            0.0000     1.8027E-05    29.5118  -1.0000   112.3866
 31      0.0000     0.0000E+00    0.0000E+00    4.250000E+09  0.00800  4.336E-05    0   0.5426   age158_m52            0.0000     1.8614E-05    30.5920  -1.0000   111.8491
 32      0.0000     0.0000E+00    0.0000E+00    6.250000E+09  0.00800  3.159E-05    0   0.5319   age166_m52            0.0000     2.0757E-05    36.8709  -1.0000   110.4585
 33      0.0000     0.0000E+00    0.0000E+00    1.300000E+10  0.00800  1.361E-05    0   0.5073   age193_m52            0.0000     2.9824E-05    53.2987  -1.0000   104.5435
 34      0.0000     0.0000E+00    0.0000E+00    1.800000E+10  0.00800  9.886E-06    0   0.4990   age213_m52            0.0000     3.3529E-05    57.3996  -1.0000   102.9067
 35      0.0000     0.0000E+00    0.0000E+00    1.000000E+06  0.02000  1.544E-02    0   1.0000   age020_m62            0.0000     2.3568E-05    31.5883   1.9563   105.7239
 36      0.0000     0.0000E+00    0.0000E+00    3.160000E+06  0.02000  3.762E-02    0   0.9858   age045_m62            0.0000     2.3312E-05    31.1467   1.9047   106.3137
 37      0.0000     0.0000E+00    0.0000E+00    5.010000E+06  0.02000  3.296E-02    0   0.9342   age055_m62            0.0000     2.0432E-05    28.7617   1.5535   108.5931
 38      1.1504     1.9415E-03    3.4229E-03    8.710000E+06  0.02000  1.154E-02    0   0.8861   age067_m62            0.0000     2.2120E-05    31.4079   0.8341   107.9667
 39      0.0000     0.0000E+00    0.0000E+00    1.445000E+07  0.02000  7.663E-03    0   0.8472   age078_m62            0.0000     2.0293E-05    28.6421   0.9409   109.1234
 40      0.0000     0.0000E+00    0.0000E+00    2.512000E+07  0.02000  4.532E-03    0   0.8099   age090_m62            0.0000     2.0163E-05    28.4108   0.9386   108.6287
 41      0.1108     7.8975E-04    1.1934E-03    5.500000E+07  0.02000  2.733E-03    0   0.7595   age110_m62            0.0000     1.8975E-05    26.8571   0.8870   109.7242
 42      0.0000     0.0000E+00    0.0000E+00    1.609000E+08  0.02000  1.369E-03    0   0.6985   age120_m62            0.0000     1.7478E-05    25.1788   0.7153   111.7942
 43     34.4053     7.4345E-01    9.9313E-01    2.861200E+08  0.02000  9.013E-04    0   0.6714   age125_m62            0.0000     1.6748E-05    24.0805   0.4757   113.7608
 44     18.2174     7.0564E-01    9.0542E-01    5.088000E+08  0.02000  5.028E-04    0   0.6449   age130_m62            0.0000     1.6296E-05    23.9998  -0.0000   117.1488
 45      0.0000     0.0000E+00    0.0000E+00    9.047900E+08  0.02000  2.428E-04    0   0.6179   age135_m62            0.0000     1.6637E-05    24.3849  -0.5620   117.7356
 46      0.0000     0.0000E+00    0.0000E+00    1.434000E+09  0.02000  1.263E-04    0   0.5908   age139_m62            0.0000     1.7127E-05    24.9896  -1.0000   116.9933
 47      0.0000     0.0000E+00    0.0000E+00    2.500000E+09  0.02000  5.985E-05    0   0.5673   age150_m62            0.0000     1.8630E-05    29.2590  -1.0000   112.9496
 48      6.3003     3.7513E+00    4.0811E+00    4.250000E+09  0.02000  3.271E-05    0   0.5468   age158_m62            0.0000     2.2132E-05    39.0522  -1.0000   110.1473
 49      0.0000     0.0000E+00    0.0000E+00    1.000000E+10  0.02000  1.360E-05    0   0.5167   age181_m62            0.0000     3.0089E-05    51.4596  -1.0000   106.0388
 50      0.0000     0.0000E+00    0.0000E+00    1.800000E+10  0.02000  7.124E-06    0   0.5013   age213_m62            0.0000     3.6889E-05    58.9441  -1.0000   102.2676
 51      0.0000     0.0000E+00    0.0000E+00    1.000000E+06  0.05000  2.592E-02    0   0.9998   age020_m72            0.0000     2.4217E-05    31.8651   1.9490   105.9366
 52      0.0000     3.5805E-09    6.8226E-09    3.160000E+06  0.05000  4.845E-02    0   0.9577   age045_m72            0.0000     2.2328E-05    30.1460   1.7892   107.1827
 53      0.0000     0.0000E+00    0.0000E+00    5.010000E+06  0.05000  3.072E-02    0   0.9147   age055_m72            0.0000     2.1652E-05    29.0805   1.4375   107.9714
 54      0.0000     0.0000E+00    0.0000E+00    6.610000E+06  0.05000  1.455E-02    0   0.8877   age061_m72            0.0000     2.3071E-05    33.0023   0.9282   107.5641
 55      0.0424     9.0956E-05    1.5426E-04    1.000000E+07  0.05000  9.074E-03    0   0.8524   age070_m72            0.0000     2.1524E-05    29.2278   1.6156   107.6084
 56      0.0000     0.0000E+00    0.0000E+00    2.512000E+07  0.05000  4.250E-03    0   0.7902   age090_m72            0.0000     2.0189E-05    27.7698   1.3342   108.5920
 57      0.5719     3.6078E-03    5.4684E-03    4.000000E+07  0.05000  3.087E-03    0   0.7618   age104_m72            0.0000     1.9698E-05    27.3401   1.1323   109.3886
 58      0.0000     0.0000E+00    0.0000E+00    1.015200E+08  0.05000  1.700E-03    0   0.7096   age116_m72            0.0000     1.7918E-05    25.5966   0.8613   111.7063
 59      0.1172     3.0900E-03    4.0780E-03    2.861200E+08  0.05000  7.384E-04    0   0.6633   age125_m72            0.0000     1.6525E-05    23.7629   0.3186   115.8415
 60      0.0000     0.0000E+00    0.0000E+00    5.088000E+08  0.05000  3.819E-04    0   0.6372   age130_m72            0.0000     1.6549E-05    24.1744  -0.2217   118.9449
 61      0.0000     0.0000E+00    0.0000E+00    9.047900E+08  0.05000  1.676E-04    0   0.6110   age135_m72            0.0000     1.7365E-05    25.4977  -0.9868   119.2070
 62      0.0000     0.0000E+00    0.0000E+00    1.434000E+09  0.05000  8.837E-05    0   0.5874   age139_m72            0.0000     1.9059E-05    29.9146  -1.0000   115.5919
 63      3.3581     1.5451E+00    1.7209E+00    2.500000E+09  0.05000  4.233E-05    0   0.5598   age150_m72            0.0000     2.2401E-05    38.8647  -1.0000   111.0925
 64      0.1013     1.3748E-01    1.4358E-01    6.250000E+09  0.05000  1.435E-05    0   0.5249   age166_m72            0.0000     3.2860E-05    55.2695  -1.0000   104.5146
 65      0.0000     0.0000E+00    0.0000E+00    1.300000E+10  0.05000  6.513E-06    0   0.5036   age193_m72            0.0000     4.3207E-05    65.5945  -1.0000   101.2937
 66     18.0519     7.7662E+01    7.6410E+01    1.800000E+10  0.05000  4.527E-06    0   0.4945   age213_m72            0.0000     5.1176E-05    71.7459  -1.0000    98.4686


## Synthesis Results - Average & Chains ##

# j      x_j: min, <> & last-chain-values for 1 ...  7 chains
  1      0.0000      2.8475      0.9786      0.9502      3.3248      5.4602      2.7287      2.2955      3.8262
  2      0.0000      0.5338      0.2996      0.3938      0.9368      1.5286      0.0000      1.5024      2.2886
  3      0.0000      0.4219      0.0000      0.0081      0.0481      0.4546      0.5579      0.0000      0.2506
  4      0.5678      0.6166      1.3982      1.3927      0.0000      1.3813      0.5872      0.6821      0.4343
  5      0.0000      0.5109      0.6721      0.0233      0.6313      0.0000      0.7460      1.1301      0.0000
  6      0.0000      0.5810      2.4619      1.4809      0.3534      3.2752      0.5066      0.4015      1.0720
  7      0.0000      0.5752      0.0000      0.4742      0.6754      0.0000      1.3874      1.4660      0.6172
  8      0.2158      0.6093      0.6693      0.8608      0.0000      1.3811      0.9021      0.0000      1.2187
  9      0.0000      0.5656      0.0000      0.3482      1.7989      0.0000      0.1429      0.4305      0.6154
 10      1.9022      0.5214      1.2259      0.4516      0.6032      0.4660      0.0000      0.1905      2.3890
 11      1.6421      0.6026      0.0000      1.3480      1.0400      4.4234      2.4719      0.4666      1.5106
 12      3.3797      0.5379      0.4493      0.9557      1.3532      0.0000      1.5470      0.9767      2.0327
 13      0.0435      0.4790      0.0000      0.5460      0.0000      0.0000      0.3469      0.3343      1.6080
 14      9.5336      0.3666      0.0000      0.2150      0.3099      2.7480      0.4518      0.5163      0.8461
 15      0.0000      0.4757      0.0527      0.2040      0.0000      0.0000      0.0526      0.0264      0.4079
 16     12.4980      0.5003      1.4218      1.0239      2.4424      0.0677      0.4459      0.4198      0.9604
 17      0.0000      0.4232      0.0000      0.0000      0.0000      0.5484      0.3645      0.4052      0.0000
 18      0.0000     10.1994      8.4602     10.9075     10.8397      4.6252     10.7852     10.7417      5.7208
 19      0.9953      0.7385      0.5021      0.0000      1.7383      0.1853      1.0325      0.4931      1.8638
 20      0.0000      0.6252      0.0734      0.1721      0.4957      1.8043      1.2372      0.0000      0.5510
 21      0.0000      0.5257      1.1400      0.7526      0.0000      1.4033      1.4509      0.1579      0.0000
 22      0.8126      0.5314      0.5588      0.3655      0.3217      1.1650      0.2053      0.0000      1.0628
 23      0.0000      0.4990      0.0000      0.0000      0.9914      2.0474      1.9474      0.4526      0.0000
 24      0.0000      0.4049      0.0000      0.3192      0.3573      0.0000      0.6191      0.0000      3.0424
 25      0.0000      0.6579      1.0308      0.0000      0.7509      1.5181      1.2809      0.0000      0.1891
 26      0.0000      0.5702      0.0000      0.0000      1.0525      1.2291      0.4833      1.3449      0.0000
 27      0.0000      0.7038      0.0597      2.2487      1.3169      1.1407      1.8617      1.3765      0.0000
 28      0.0000      0.4740      0.7457      0.0000      0.0495      1.2420      0.1320      1.1274      0.2817
 29      0.0261      0.6608      0.2138      1.2643      0.8292      0.3506      0.0000      0.7230      0.7625
 30      0.0000      0.4825      0.0000      0.3490      0.0000      1.5333      0.9086      0.0585      1.4393
 31      0.0000      0.5527      0.0000      0.0000      0.2584      0.0000      1.3071      0.0000      2.1134
 32      0.0000      0.5464      0.1756      1.4477      0.8596      0.0000      0.0435      0.0000      1.0497
 33      0.0000      0.6721      2.8979      0.0869      0.0538      0.5312      0.0186      0.5093      0.0000
 34      0.0000      0.7075      1.7134      0.0837      1.1123      0.0000      1.6682      1.8518      0.0000
 35      0.0000      2.6209      3.0503      5.4308      2.5837      2.0302      1.7532      4.3997      7.3670
 36      0.0000      0.6402      2.4345      0.5241      1.4735      0.0000      0.5096      0.6185      0.0000
 37      0.0000      0.7105      0.5245      0.5853      1.2406      1.6460      0.7911      1.0643      1.8614
 38      1.1504      0.5370      0.0000      0.4359      1.4600      2.0244      0.5009      0.1141      0.7949
 39      0.0000      0.5927      1.7192      1.1237      0.3567      1.4163      0.2963      1.2231      0.1385
 40      0.0000      0.4853      1.0301      0.8132      0.0000      1.0324      1.0246      0.3770      1.1706
 41      0.1108      0.5516      2.2586      1.4124      0.9665      0.2456      0.0386      1.1303      2.0255
 42      0.0000      0.5168      2.1367      1.4320      0.0000      0.5725      0.0000      0.3469      2.4042
 43     34.4053      0.5841      0.0000      1.6656      1.1309      0.0000      0.8349      1.0718      0.4921
 44     18.2174      0.5722      4.7310      0.8928      0.3279      2.5262      1.0118      0.2596      0.6169
 45      0.0000      0.5799      0.0000      0.2425      2.0742      0.0000      0.7482      1.5850      0.0000
 46      0.0000      0.8104      2.4702      0.0312      0.0000      0.7388      0.0000      0.4137      0.4028
 47      0.0000      0.5600      0.6209      0.0000      1.6884      0.0443      0.0000      0.1524      0.0000
 48      6.3003      0.6959      1.8795      0.0000      0.2598      1.0518      1.4885      0.2595      1.0165
 49      0.0000      0.7695      0.0000      0.0000      0.3662      0.0000      0.9264      0.0000      0.0000
 50      0.0000      0.4116      0.8960      0.0000      0.3567      0.0000      0.7943      0.0902      0.0000
 51      0.0000      4.1214      5.4199      4.2878      3.8816      4.3025      4.4587      4.5562      5.7381
 52      0.0000      0.6036      1.7493      0.0000      1.8675      0.0000      0.0139      0.3076      1.1502
 53      0.0000      0.5801      4.0673      0.1169      1.1004      2.2260      0.3589      0.2066      0.1405
 54      0.0000     43.6140     26.8552     42.6291     38.9007     27.7616     42.0599     40.1459     26.9449
 55      0.0424      0.5573      1.8357      0.1829      0.0000      2.6483      0.8930      0.9282      1.4495
 56      0.0000      0.4626      0.0000      1.0397      0.9008      3.6876      0.2759      0.0000      0.5941
 57      0.5719      0.8171      0.0000      1.3625      0.3462      0.0173      0.4629      1.4927      1.2159
 58      0.0000      0.4472      1.4159      0.0985      0.0000      0.6714      0.4642      0.3838      1.1940
 59      0.1172      0.5381      0.8822      1.1313      0.8298      0.0000      0.6767      2.3333      1.2274
 60      0.0000      0.4737      0.7811      0.6108      0.0000      1.1492      0.0000      0.4698      1.3192
 61      0.0000      0.5612      0.0000      1.0880      0.0813      0.5358      0.0000      0.6335      0.0000
 62      0.0000      0.7071      2.0100      0.6478      2.1243      1.7288      0.0000      1.5487      0.1726
 63      3.3581      0.6336      1.0516      0.2055      0.0000      0.0000      0.0000      1.0534      0.4550
 64      0.1013      0.5435      1.8014      0.0000      0.4848      0.0000      0.2487      0.0000      0.6394
 65      0.0000      0.5177      0.1053      1.3119      0.0000      0.0000      0.0000      0.3295      0.0000
 66     18.0519      3.9305      3.0938      3.5669      2.1014      2.8989      2.8769      5.1183      3.2850

# j      m_j: min, <> & last-chain-values for 1 ...  7 chains
  1  0.0000E+00  3.6321E-02  1.1140E-02  1.4765E-02  6.3265E-02  1.1185E-01  4.2146E-02  2.6590E-02  6.6764E-02
  2  0.0000E+00  1.8586E-03  9.3094E-04  1.6706E-03  4.8665E-03  8.5482E-03  0.0000E+00  4.7510E-03  1.0902E-02
  3  0.0000E+00  2.2000E-03  0.0000E+00  5.1380E-05  3.7425E-04  3.8072E-03  3.5230E-03  0.0000E+00  1.7880E-03
  4  7.7431E-04  3.0280E-03  6.1270E-03  8.3312E-03  0.0000E+00  1.0894E-02  3.4916E-03  3.0418E-03  2.9176E-03
  5  0.0000E+00  4.7788E-03  5.6104E-03  2.6528E-04  8.8088E-03  0.0000E+00  8.4501E-03  9.6001E-03  0.0000E+00
  6  0.0000E+00  8.8151E-03  3.3333E-02  2.7371E-02  7.9998E-03  7.9804E-02  9.3074E-03  5.5315E-03  2.2250E-02
  7  0.0000E+00  1.2494E-02  0.0000E+00  1.2548E-02  2.1886E-02  0.0000E+00  3.6494E-02  2.8920E-02  1.8340E-02
  8  1.7992E-03  1.8293E-02  1.7933E-02  3.1483E-02  0.0000E+00  6.6593E-02  3.2798E-02  0.0000E+00  5.0053E-02
  9  0.0000E+00  1.9437E-02  0.0000E+00  1.4577E-02  9.2214E-02  0.0000E+00  5.9464E-03  1.3436E-02  2.8928E-02
 10  2.3843E-02  2.3535E-02  4.9381E-02  2.4833E-02  4.0618E-02  3.3779E-02  0.0000E+00  7.8086E-03  1.4752E-01
 11  3.8702E-02  5.1143E-02  0.0000E+00  1.3938E-01  1.3167E-01  6.0293E-01  2.5405E-01  3.5966E-02  1.7540E-01
 12  1.2636E-01  7.2415E-02  5.3976E-02  1.5676E-01  2.7179E-01  0.0000E+00  2.5221E-01  1.1941E-01  3.7439E-01
 13  4.5825E-03  1.8177E-01  0.0000E+00  2.5240E-01  0.0000E+00  0.0000E+00  1.5942E-01  1.1522E-01  8.3481E-01
 14  3.3696E+00  4.6666E-01  0.0000E+00  3.3338E-01  5.8850E-01  5.6172E+00  6.9632E-01  5.9674E-01  1.4733E+00
 15  0.0000E+00  9.8564E-01  9.7506E-02  5.1498E-01  0.0000E+00  0.0000E+00  1.3195E-01  4.9632E-02  1.1561E+00
 16  1.2159E+01  1.7529E+00  4.4453E+00  4.3702E+00  1.2765E+01  3.8104E-01  1.8915E+00  1.3355E+00  4.6033E+00
 17  0.0000E+00  1.9233E+00  0.0000E+00  0.0000E+00  0.0000E+00  4.0026E+00  2.0062E+00  1.6724E+00  0.0000E+00
 18  0.0000E+00  1.1496E-01  8.5098E-02  1.4977E-01  1.8227E-01  8.3726E-02  1.4721E-01  1.0996E-01  8.8213E-02
 19  1.2503E-03  3.3410E-03  2.0272E-03  0.0000E+00  1.1732E-02  1.3465E-03  5.6561E-03  2.0259E-03  1.1535E-02
 20  0.0000E+00  3.0876E-03  3.2337E-04  1.0356E-03  3.6526E-03  1.4311E-02  7.3994E-03  0.0000E+00  3.7225E-03
 21  0.0000E+00  3.1520E-03  6.0989E-03  5.4966E-03  0.0000E+00  1.3511E-02  1.0533E-02  8.5973E-04  0.0000E+00
 22  2.2877E-03  5.3877E-03  5.0556E-03  4.5138E-03  4.8646E-03  1.8967E-02  2.5200E-03  0.0000E+00  1.4740E-02
 23  0.0000E+00  6.8314E-03  0.0000E+00  0.0000E+00  2.0247E-02  4.5014E-02  3.2283E-02  5.6269E-03  0.0000E+00
 24  0.0000E+00  8.2478E-03  0.0000E+00  7.9204E-03  1.0856E-02  0.0000E+00  1.5270E-02  0.0000E+00  8.4770E-02
 25  0.0000E+00  1.8478E-02  2.5833E-02  0.0000E+00  3.1460E-02  6.8471E-02  4.3560E-02  0.0000E+00  7.2640E-03
 26  0.0000E+00  2.6767E-02  0.0000E+00  0.0000E+00  7.3706E-02  9.2662E-02  2.7470E-02  5.7336E-02  0.0000E+00
 27  0.0000E+00  6.6127E-02  5.0062E-03  2.5740E-01  1.8459E-01  1.7212E-01  2.1183E-01  1.1746E-01  0.0000E+00
 28  0.0000E+00  1.2925E-01  1.8147E-01  0.0000E+00  2.0124E-02  5.4393E-01  4.3570E-02  2.7918E-01  1.0508E-01
 29  3.4484E-03  3.1395E-01  9.0640E-02  7.3181E-01  5.8771E-01  2.6752E-01  0.0000E+00  3.1197E-01  4.9560E-01
 30  0.0000E+00  4.7899E-01  0.0000E+00  4.2203E-01  0.0000E+00  2.4443E+00  1.0922E+00  5.2761E-02  1.9546E+00
 31  0.0000E+00  9.6516E-01  0.0000E+00  0.0000E+00  6.7316E-01  0.0000E+00  2.7639E+00  0.0000E+00  5.0487E+00
 32  0.0000E+00  1.2838E+00  3.6818E-01  4.1438E+00  3.0128E+00  0.0000E+00  1.2386E-01  0.0000E+00  3.3740E+00
 33  0.0000E+00  3.4959E+00  1.3451E+01  5.5032E-01  4.1740E-01  4.4373E+00  1.1707E-01  2.4057E+00  0.0000E+00
 34  0.0000E+00  4.9830E+00  1.0770E+01  7.1850E-01  1.1688E+01  0.0000E+00  1.4228E+01  1.1845E+01  0.0000E+00
 35  0.0000E+00  2.3687E-02  2.4601E-02  5.9794E-02  3.4834E-02  2.9468E-02  1.9187E-02  3.6111E-02  9.1083E-02
 36  0.0000E+00  2.3408E-03  7.9440E-03  2.3348E-03  8.0375E-03  0.0000E+00  2.2563E-03  2.0540E-03  0.0000E+00
 37  0.0000E+00  2.8102E-03  1.8511E-03  2.8200E-03  7.3196E-03  1.0455E-02  3.7887E-03  3.8228E-03  1.0071E-02
 38  3.4229E-03  5.7539E-03  0.0000E+00  5.6902E-03  2.3337E-02  3.4835E-02  6.4991E-03  1.1099E-03  1.1652E-02
 39  0.0000E+00  9.1446E-03  2.3668E-02  2.1118E-02  8.2103E-03  3.5090E-02  5.5355E-03  1.7135E-02  2.9239E-03
 40  0.0000E+00  1.2101E-02  2.2924E-02  2.4704E-02  0.0000E+00  4.1346E-02  3.0940E-02  8.5375E-03  3.9936E-02
 41  1.1934E-03  2.1389E-02  7.8161E-02  6.6724E-02  5.5909E-02  1.5292E-02  1.8111E-03  3.9806E-02  1.0745E-01
 42  0.0000E+00  3.6793E-02  1.3576E-01  1.2421E-01  0.0000E+00  6.5462E-02  0.0000E+00  2.2428E-02  2.3417E-01
 43  9.9313E-01  6.0715E-02  0.0000E+00  2.1092E-01  1.7537E-01  0.0000E+00  1.0509E-01  1.0118E-01  6.9979E-02
 44  9.0542E-01  1.0241E-01  7.5562E-01  1.9466E-01  8.7545E-02  7.2611E-01  2.1930E-01  4.2193E-02  1.5104E-01
 45  0.0000E+00  2.0592E-01  0.0000E+00  1.0491E-01  1.0988E+00  0.0000E+00  3.2174E-01  5.1115E-01  0.0000E+00
 46  0.0000E+00  5.2896E-01  1.4389E+00  2.4848E-02  0.0000E+00  7.7446E-01  0.0000E+00  2.4526E-01  3.5966E-01
 47  0.0000E+00  7.4069E-01  7.3281E-01  0.0000E+00  3.3315E+00  9.4193E-02  0.0000E+00  1.8304E-01  0.0000E+00
 48  4.0811E+00  1.6234E+00  3.9124E+00  0.0000E+00  9.0393E-01  3.9402E+00  4.2046E+00  5.4976E-01  3.2436E+00
 49  0.0000E+00  4.0797E+00  0.0000E+00  0.0000E+00  2.8966E+00  0.0000E+00  5.9474E+00  0.0000E+00  0.0000E+00
 50  0.0000E+00  4.0415E+00  7.8508E+00  0.0000E+00  5.2255E+00  0.0000E+00  9.4449E+00  8.0391E-01  0.0000E+00
 51  0.0000E+00  2.2183E-02  2.6033E-02  2.8116E-02  3.1167E-02  3.7191E-02  2.9061E-02  2.2271E-02  4.2252E-02
 52  6.8226E-09  1.6649E-03  4.3059E-03  0.0000E+00  7.6844E-03  0.0000E+00  4.6447E-05  7.7043E-04  4.3403E-03
 53  0.0000E+00  2.4101E-03  1.5081E-02  5.9149E-04  6.8208E-03  1.4853E-02  1.8059E-03  7.7939E-04  7.9857E-04
 54  0.0000E+00  3.7131E-01  2.0403E-01  4.4212E-01  4.9405E-01  3.7957E-01  4.3360E-01  3.1039E-01  3.1382E-01
 55  1.5426E-04  7.3048E-03  2.1474E-02  2.9212E-03  0.0000E+00  5.5750E-02  1.4174E-02  1.1049E-02  2.5993E-02
 56  0.0000E+00  1.2003E-02  0.0000E+00  3.2862E-02  3.4863E-02  1.5365E-01  8.6695E-03  0.0000E+00  2.1086E-02
 57  5.4684E-03  2.8136E-02  0.0000E+00  5.7160E-02  1.7785E-02  9.5731E-04  1.9302E-02  4.6681E-02  5.7281E-02
 58  0.0000E+00  2.6050E-02  7.3596E-02  6.9926E-03  0.0000E+00  6.2809E-02  3.2738E-02  2.0299E-02  9.5138E-02
 59  4.0780E-03  6.7449E-02  9.8685E-02  1.7276E-01  1.5517E-01  0.0000E+00  1.0271E-01  2.6561E-01  2.1047E-01
 60  0.0000E+00  1.1030E-01  1.6230E-01  1.7323E-01  0.0000E+00  4.2968E-01  0.0000E+00  9.9339E-02  4.2017E-01
 61  0.0000E+00  2.8551E-01  0.0000E+00  6.7424E-01  6.1710E-02  4.3773E-01  0.0000E+00  2.9268E-01  0.0000E+00
 62  0.0000E+00  6.5588E-01  1.6638E+00  7.3195E-01  2.9394E+00  2.5753E+00  0.0000E+00  1.3046E+00  2.1898E-01
 63  1.7209E+00  1.1692E+00  1.7318E+00  4.6198E-01  0.0000E+00  0.0000E+00  0.0000E+00  1.7655E+00  1.1486E+00
 64  1.4358E-01  2.7743E+00  8.2051E+00  0.0000E+00  3.6917E+00  0.0000E+00  1.5374E+00  0.0000E+00  4.4649E+00
 65  0.0000E+00  5.5864E+00  1.0137E+00  1.7243E+01  0.0000E+00  0.0000E+00  0.0000E+00  3.2291E+00  0.0000E+00
 66  7.6410E+01  5.9911E+01  4.2083E+01  6.6233E+01  4.7783E+01  7.0963E+01  5.3101E+01  7.0851E+01  6.8500E+01

# AV, chi2 & Mass for <> & i_chain = 1 ...  7 solutions
AV      -0.9485      0.7480      0.3805      0.6430      0.6460      0.7051      0.6309      0.6630      0.6222
chi2 1.5978E-05  2.3820E-05  2.2374E-05  2.3030E-05  2.3128E-05  2.2771E-05  2.2883E-05  2.2678E-05  2.2421E-05
Mass 6.7704E-14  1.8355E-13  1.2554E-13  1.3084E-13  1.0728E-13  1.0789E-13  1.2951E-13  1.8031E-13  1.1331E-13
 449.31                                  [v0_min (km/s) before EX0s...]
   0.00                                  [vd_min (km/s) before EX0s...]


## Synthetic spectrum (Best Model) ##l_obs f_obs f_syn wei
 3478    [Nl_obs]
 3741.00    0.17818   0.38435    0.000
 3742.00    0.07721   0.43207    0.000
 3743.00    0.05301   0.50351    0.000
 3744.00    0.02150   0.59274    0.000
 3745.00   -0.01427   0.67401    0.000
 3746.00    0.14469   0.72134    0.026
 3747.00    0.40254   0.72256    0.026
 3748.00    0.35706   0.68771    0.027
 3749.00    0.17820   0.64490    0.029
 3750.00    0.11582   0.60638    0.028
 3751.00    0.09742   0.56569    0.026
 3752.00    0.12164   0.52743    0.026
 3753.00    0.15953   0.48192    0.025
 3754.00    0.10348   0.41560    0.025
 3755.00    0.02226   0.37669    0.024
 3756.00   -0.04133   0.41333    0.000
 3757.00   -0.10106   0.49966    0.000
 3758.00   -0.02162   0.58172    0.000
 3759.00    0.08211   0.65228    0.023
 3760.00    0.20090   0.72047    0.029
 3761.00    0.32169   0.75889    0.039
 3762.00    0.57596   0.73865    0.030
 3763.00    0.84277   0.67691    0.023
 3764.00    0.80081   0.63861    0.022
 3765.00    0.74103   0.65904    0.022
 3766.00    0.75890   0.69960    0.024
 3767.00    0.77988   0.72167    0.026
 3768.00    0.95515   0.71902    0.026
 3769.00    1.10827   0.70001    0.025
 3770.00    0.72383   0.68703    0.023
 3771.00    0.36380   0.67131    0.021
 3772.00    0.32372   0.62572    0.021
 3773.00    0.30617   0.58278    0.021
 3774.00    0.48641   0.56777    0.021
 3775.00    0.63546   0.54633    0.021
 3776.00    0.58224   0.52153    0.022
 3777.00    0.50964   0.54504    0.022
 3778.00    0.33897   0.61105    0.022
 3779.00    0.23365   0.66600    0.021
 3780.00    0.39579   0.69445    0.022
 3781.00    0.43063   0.71909    0.022
 3782.00    0.03372   0.75592    0.022
 3783.00   -0.25288   0.79328    0.000
 3784.00   -0.22396   0.82542    0.000
 3785.00   -0.16881   0.86362    0.000
 3786.00   -0.04956   0.89639    0.000
 3787.00    0.10318   0.90728    0.023
 3788.00    0.32650   0.91032    0.024
 3789.00    0.46658   0.92152    0.024
 3790.00    0.45417   0.92180    0.023
 3791.00    0.55107   0.87900    0.023
 3792.00    0.82292   0.81452    0.023
 3793.00    0.88444   0.77421    0.023
 3794.00    0.65052   0.75364    0.023
 3795.00    0.68663   0.73822    0.023
 3796.00    1.05649   0.73415    0.022
 3797.00    1.07008   0.73413    0.022
 3798.00    0.69551   0.70696    0.022
 3799.00    0.26965   0.64810    0.022
 3800.00   -0.20550   0.58528    0.000
 3801.00   -0.29282   0.53722    0.000
 3802.00   -0.05151   0.49197    0.000
 3803.00    0.19964   0.43999    0.023
 3804.00    0.45813   0.41992    0.023
 3805.00    0.61626   0.46792    0.023
 3806.00    0.70859   0.55722    0.022
 3807.00    0.60284   0.63827    0.022
 3808.00    0.38343   0.70276    0.021
 3809.00    0.25661   0.75929    0.021
 3810.00    0.17608   0.79275    0.021
 3811.00    0.33328   0.79762    0.022
 3812.00    0.59329   0.78834    0.024
 3813.00    0.63857   0.79611    0.023
 3814.00    0.60422   0.83823    0.022
 3815.00    0.66517   0.88843    0.021
 3816.00    0.75607   0.91637    0.021
 3817.00    0.76859   0.91283    0.022
 3818.00    0.76055   0.87814    0.025
 3819.00    0.75519   0.83119    0.023
 3820.00    0.75040   0.79925    0.021
 3821.00    0.73414   0.78881    0.021
 3822.00    0.71593   0.80624    0.022
 3823.00    0.40053   0.84100    0.022
 3824.00    0.04699   0.84198    0.021
 3825.00    0.04298   0.79187    0.021
 3826.00    0.07035   0.74697    0.021
 3827.00    0.21090   0.75874    0.021
 3828.00    0.35754   0.79345    0.022
 3829.00    0.66162   0.78320    0.023
 3830.00    0.96369   0.72591    0.024
 3831.00    0.82932   0.67825    0.023
 3832.00    0.71888   0.65980    0.022
 3833.00    1.14010   0.64841    0.023
 3834.00    1.50979   0.63129    0.023
 3835.00    1.23864   0.61563    0.023
 3836.00    0.96191   0.59650    0.023
 3837.00    0.63807   0.54920    0.023
 3838.00    0.37331   0.47878    0.023
 3839.00    0.48030   0.42076    0.022
 3840.00    0.55714   0.38838    0.021
 3841.00    0.48524   0.38673    0.021
 3842.00    0.40780   0.41418    0.021
 3843.00    0.30818   0.44296    0.021
 3844.00    0.21098   0.46768    0.021
 3845.00    0.12180   0.50291    0.021
 3846.00    0.08718   0.54741    0.022
 3847.00    0.20575   0.60943    0.000
 3848.00    0.28919   0.68672    0.000
 3849.00    0.28823   0.74600    0.000
 3850.00    0.40246   0.77732    0.000
 3851.00    0.75559   0.79212    0.000
 3852.00    0.91150   0.80936    0.000
 3853.00    0.71171   0.83553    0.000
 3854.00    0.56725   0.84463    0.000
 3855.00    0.51006   0.82689    0.000
 3856.00    0.61077   0.82264    0.000
 3857.00    0.93008   0.85643    0.000
 3858.00    1.04849   0.88749    0.000
 3859.00    0.92211   0.88755    0.000
 3860.00    0.87811   0.87205    0.000
 3861.00    0.92259   0.85048    0.000
 3862.00    1.03232   0.83666    0.000
 3863.00    1.20388   0.84299    0.000
 3864.00    1.11714   0.83382    0.000
 3865.00    0.81462   0.80511    0.000
 3866.00    0.73488   0.80826    0.000
 3867.00    0.81901   0.85446    0.000
 3868.00    1.00662   0.89939    0.000
 3869.00    1.26106   0.91671    0.000
 3870.00    1.11949   0.91133    0.000
 3871.00    0.75411   0.89574    0.000
 3872.00    0.80707   0.88959    0.000
 3873.00    1.06580   0.89558    0.000
 3874.00    0.92603   0.89791    0.000
 3875.00    0.61679   0.88782    0.000
 3876.00    0.33995   0.86037    0.000
 3877.00    0.07490   0.82181    0.000
 3878.00    0.16096   0.79280    0.000
 3879.00    0.35526   0.80325    0.000
 3880.00    0.54368   0.84425    0.000
 3881.00    0.73058   0.86948    0.023
 3882.00    0.66839   0.84851    0.022
 3883.00    0.55411   0.78723    0.021
 3884.00    0.39283   0.73145    0.021
 3885.00    0.22381   0.72984    0.021
 3886.00    0.27516   0.74632    0.021
 3887.00    0.35381   0.72188    0.021
 3888.00    0.37459   0.68391    0.021
 3889.00    0.39043   0.67695    0.020
 3890.00    0.14290   0.66762    0.020
 3891.00   -0.11775   0.60172    0.000
 3892.00    0.28488   0.51640    0.021
 3893.00    0.69029   0.46652    0.021
 3894.00    0.57345   0.44094    0.020
 3895.00    0.46063   0.44339    0.020
 3896.00    0.42988   0.50146    0.020
 3897.00    0.43293   0.58713    0.020
 3898.00    0.83555   0.65553    0.020
 3899.00    1.16184   0.69106    0.020
 3900.00    0.86616   0.70401    0.019
 3901.00    0.59453   0.71396    0.019
 3902.00    0.46979   0.74896    0.018
 3903.00    0.39720   0.79224    0.018
 3904.00    0.57562   0.80104    0.017
 3905.00    0.70071   0.79445    0.017
 3906.00    0.61695   0.81370    0.018
 3907.00    0.54814   0.85616    0.018
 3908.00    0.52806   0.87169    0.018
 3909.00    0.50820   0.86406    0.018
 3910.00    0.48897   0.86493    0.019
 3911.00    0.55550   0.85042    0.019
 3912.00    0.82457   0.84775    0.019
 3913.00    1.06364   0.89604    0.020
 3914.00    1.24149   0.95538    0.021
 3915.00    1.25913   0.98658    0.021
 3916.00    0.99223   0.99622    0.021
 3917.00    1.02634   1.00545    0.022
 3918.00    1.52816   1.00879    0.023
 3919.00    1.82648   0.99168    0.023
 3920.00    1.84715   0.98028    0.023
 3921.00    1.51885   0.98404    0.023
 3922.00    0.77137   0.97417    0.022
 3923.00    0.37619   0.96178    0.021
 3924.00    0.35413   0.94875    0.021
 3925.00    0.38060   0.92226    0.021
 3926.00    0.45241   0.89267    0.022
 3927.00    0.51120   0.88199    0.022
 3928.00    0.55927   0.89366    0.022
 3929.00    0.66136   0.90989    0.022
 3930.00    0.80262   0.92171    0.022
 3931.00    0.69320   0.91057    0.022
 3932.00    0.42424   0.87683    0.021
 3933.00    0.31003   0.83662    0.021
 3934.00    0.28196   0.79181    0.021
 3935.00    0.54033   0.74826    0.021
 3936.00    0.93736   0.70537    0.021
 3937.00    1.17796   0.65265    0.022
 3938.00    1.35316   0.58005    0.022
 3939.00    1.14558   0.50854    0.021
 3940.00    0.80107   0.50107    0.021
 3941.00    0.77747   0.56958    0.020
 3942.00    0.85086   0.65890    0.020
 3943.00    0.99538   0.72816    0.020
 3944.00    1.15777   0.77890    0.021
 3945.00    1.14681   0.82410    0.021
 3946.00    1.10051   0.85830    0.021
 3947.00    0.97840   0.86798    0.021
 3948.00    0.84415   0.86246    0.021
 3949.00    0.76679   0.84365    0.021
 3950.00    0.69623   0.83389    0.021
 3951.00    0.91913   0.87378    0.021
 3952.00    1.16593   0.92720    0.022
 3953.00    1.44048   0.93234    0.022
 3954.00    1.71632   0.91256    0.022
 3955.00    1.43420   0.91935    0.022
 3956.00    1.14690   0.94903    0.022
 3957.00    0.95996   0.95625    0.022
 3958.00    0.79237   0.92753    0.022
 3959.00    0.99133   0.91829    0.022
 3960.00    1.15719   0.94580    0.000
 3961.00    0.95001   0.93939    0.000
 3962.00    0.78119   0.88731    0.000
 3963.00    0.91389   0.85580    0.000
 3964.00    1.04678   0.86193    0.000
 3965.00    1.18088   0.86270    0.000
 3966.00    1.15078   0.81210    0.000
 3967.00    0.34970   0.72028    0.000
 3968.00   -0.21317   0.65461    0.000
 3969.00    0.13679   0.62966    0.000
 3970.00    0.41177   0.59952    0.000
 3971.00    0.44710   0.54196    0.000
 3972.00    0.45816   0.46130    0.000
 3973.00    0.40353   0.37463    0.000
 3974.00    0.29542   0.30362    0.000
 3975.00    0.06314   0.27118    0.000
 3976.00    0.02865   0.28953    0.000
 3977.00    0.39142   0.35101    0.000
 3978.00    0.59444   0.42840    0.000
 3979.00    0.51801   0.50027    0.000
 3980.00    0.44294   0.57132    0.000
 3981.00    0.36997   0.64340    0.022
 3982.00    0.50770   0.69881    0.022
 3983.00    0.92883   0.74629    0.022
 3984.00    1.11977   0.80101    0.022
 3985.00    1.03811   0.85524    0.022
 3986.00    0.90212   0.89490    0.022
 3987.00    0.70939   0.90415    0.021
 3988.00    0.66845   0.89481    0.021
 3989.00    0.76733   0.90134    0.021
 3990.00    0.86859   0.92648    0.021
 3991.00    0.97179   0.95524    0.021
 3992.00    0.73197   0.97177    0.021
 3993.00    0.24706   0.98841    0.020
 3994.00    0.17304   1.01962    0.020
 3995.00    0.35665   1.02155    0.020
 3996.00    0.79338   1.00600    0.021
 3997.00    1.36882   1.02062    0.021
 3998.00    1.31598   1.04945    0.021
 3999.00    0.96385   1.06578    0.020
 4000.00    0.76140   1.05690    0.020
 4001.00    0.62047   1.03955    0.020
 4002.00    0.76483   1.01901    0.020
 4003.00    1.00940   0.99568    0.020
 4004.00    0.91675   0.99809    0.020
 4005.00    0.72418   1.04747    0.020
 4006.00    0.81509   1.09274    0.020
 4007.00    0.97565   1.09712    0.021
 4008.00    1.18431   1.09880    0.036
 4009.00    1.40255   1.10567    0.305
 4010.00    1.24969   1.06363   -1.000
 4011.00    1.03917   0.98453   -1.000
 4012.00    1.08989   0.96545   -1.000
 4013.00    1.17064   1.02191   -1.000
 4014.00    0.98064   1.07474   -1.000
 4015.00    0.76970   1.09035   -1.000
 4016.00    0.79465   1.09163   -1.000
 4017.00    0.82954   1.09389   -1.000
 4018.00    0.97249   1.08988   -1.000
 4019.00    1.11298   1.09120   -1.000
 4020.00    1.10241   1.09884   -1.000
 4021.00    1.09340   1.11505    0.797
 4022.00    1.11182   1.12077    0.041
 4023.00    1.17193   1.09967    0.022
 4024.00    1.68061   1.09803    0.022
 4025.00    2.08558   1.12985    0.023
 4026.00    1.70331   1.14019    0.022
 4027.00    1.37299   1.12070    0.022
 4028.00    1.34235   1.10689    0.023
 4029.00    1.26337   1.09881    0.023
 4030.00    0.96287   1.07134    0.022
 4031.00    0.89266   1.05715    0.022
 4032.00    1.68629   1.08505    0.022
 4033.00    2.13355   1.12353    0.022
 4034.00    1.49496   1.14514    0.022
 4035.00    0.89694   1.12299    0.021
 4036.00    0.40685   1.04712    0.021
 4037.00    0.10197   0.98369    0.021
 4038.00    0.22000   0.96873    0.021
 4039.00    0.47364   0.96751    0.021
 4040.00    0.99536   0.98091    0.021
 4041.00    1.27735   1.02087    0.022
 4042.00    1.14636   1.08252    0.022
 4043.00    1.09668   1.14204    0.022
 4044.00    1.16967   1.16604    0.022
 4045.00    1.13593   1.15160    0.022
 4046.00    0.96070   1.11961    0.021
 4047.00    0.90257   1.10308    0.021
 4048.00    0.98116   1.11731    0.021
 4049.00    1.00000   1.10762    0.021
 4050.00    0.95732   1.02667    0.021
 4051.00    0.83992   0.91916    0.021
 4052.00    0.65468   0.88953    0.021
 4053.00    0.69915   0.97140    0.021
 4054.00    0.92747   1.06189    0.021
 4055.00    0.98733   1.09900    0.021
 4056.00    0.92856   1.11896    0.021
 4057.00    0.93983   1.12758    0.021
 4058.00    0.99435   1.11096    0.021
 4059.00    1.10630   1.08523    0.021
 4060.00    1.24923   1.05824    0.021
 4061.00    1.23229   1.04228    0.021
 4062.00    1.14042   1.04346    0.020
 4063.00    1.01256   1.02709    0.020
 4064.00    0.87017   1.00695    0.020
 4065.00    0.90381   1.02868    0.021
 4066.00    0.99814   1.07423    0.020
 4067.00    0.86721   1.08688    0.021
 4068.00    0.67087   1.03024    0.021
 4069.00    0.58519   0.93784    0.021
 4070.00    0.52609   0.91200    0.021
 4071.00    0.82770   0.97488    0.021
 4072.00    1.19921   1.01626    0.021
 4073.00    1.16856   1.01076    0.021
 4074.00    1.07731   1.03285    0.021
 4075.00    0.82657   1.08147    0.021
 4076.00    0.55819   1.07271    0.021
 4077.00    0.74504   0.99350    0.021
 4078.00    0.96522   0.95311    0.021
 4079.00    1.09475   1.00569    0.021
 4080.00    1.22080   1.05795    0.021
 4081.00    1.14358   1.04103    0.022
 4082.00    1.06735   0.97479    0.022
 4083.00    1.07129   0.91062    0.022
 4084.00    1.06726   0.90621    0.022
 4085.00    0.93198   0.96141    0.022
 4086.00    0.78906   1.02988    0.021
 4087.00    0.56752   1.07693    0.021
 4088.00    0.41814   1.07451    0.021
 4089.00    0.79824   1.03487    0.021
 4090.00    1.11039   1.00058    0.021
 4091.00    1.04136   0.98759    0.021
 4092.00    1.02615   0.99844    0.000
 4093.00    1.25176   1.03252    0.000
 4094.00    1.31343   1.06463    0.000
 4095.00    0.77303   1.06591    0.000
 4096.00    0.45103   1.03841    0.000
 4097.00    0.80068   1.00450    0.000
 4098.00    1.01616   0.97098    0.000
 4099.00    0.88098   0.95538    0.000
 4100.00    0.80988   0.94522    0.000
 4101.00    0.88270   0.89409    0.000
 4102.00    0.99727   0.82556    0.000
 4103.00    1.19309   0.78467    0.000
 4104.00    1.26393   0.76150    0.000
 4105.00    1.12274   0.72733    0.000
 4106.00    0.88418   0.65881    0.000
 4107.00    0.50090   0.57135    0.000
 4108.00    0.38653   0.54283    0.000
 4109.00    0.62354   0.59625    0.000
 4110.00    0.76956   0.67166    0.000
 4111.00    0.81084   0.74106    0.000
 4112.00    0.93121   0.80472    0.000
 4113.00    1.13187   0.84508    0.020
 4114.00    1.24764   0.86245    0.021
 4115.00    1.28741   0.86717    0.021
 4116.00    1.11760   0.86738    0.020
 4117.00    0.78244   0.87516    0.020
 4118.00    0.87100   0.89758    0.020
 4119.00    1.25360   0.93318    0.020
 4120.00    1.36551   0.96645    0.020
 4121.00    1.31271   0.98772    0.020
 4122.00    1.09086   1.00573    0.020
 4123.00    0.77920   1.01002    0.020
 4124.00    0.88041   0.98212    0.020
 4125.00    1.17199   0.95586    0.020
 4126.00    1.39540   0.96916    0.020
 4127.00    1.59174   0.99007    0.021
 4128.00    1.42027   0.98972    0.020
 4129.00    1.12431   0.98888    0.020
 4130.00    0.80740   1.01093    0.020
 4131.00    0.48454   1.03938    0.020
 4132.00    0.69039   1.03980    0.020
 4133.00    1.02037   1.01268    0.020
 4134.00    1.06002   0.98589    0.020
 4135.00    1.04487   0.97976    0.020
 4136.00    0.57684   0.97781    0.020
 4137.00    0.04267   0.95699    0.019
 4138.00    0.39636   0.92494    0.020
 4139.00    0.84440   0.91864    0.020
 4140.00    1.24532   0.94030    0.020
 4141.00    1.64298   0.98334    0.020
 4142.00    1.32204   1.02974    0.020
 4143.00    0.97632   1.04484    0.020
 4144.00    0.87340   1.04980    0.020
 4145.00    0.77536   1.06120    0.020
 4146.00    0.82279   1.06711    0.020
 4147.00    0.88046   1.05304    0.020
 4148.00    1.09632   0.99381    0.021
 4149.00    1.25999   0.90936    0.021
 4150.00    0.90907   0.88064    0.021
 4151.00    0.60652   0.93243    0.020
 4152.00    0.64736   0.99513    0.020
 4153.00    0.67422   1.02341    0.020
 4154.00    0.62472   1.02444    0.020
 4155.00    0.59126   1.00662    0.020
 4156.00    0.62790   0.98794    0.020
 4157.00    0.64243   0.98782    0.020
 4158.00    0.57743   0.99268    0.020
 4159.00    0.58248   0.98780    0.020
 4160.00    0.79897   0.97311    0.020
 4161.00    1.01977   0.96572    0.020
 4162.00    1.25164   0.96685    0.021
 4163.00    1.43258   0.97308    0.021
 4164.00    1.50099   0.99600    0.021
 4165.00    1.33511   1.02558    0.021
 4166.00    0.72041   1.03958    0.020
 4167.00    0.37660   1.03844    0.020
 4168.00    0.48552   1.04729    0.020
 4169.00    0.58297   1.05885    0.020
 4170.00    0.66364   1.04932    0.020
 4171.00    0.77671   1.03442    0.021
 4172.00    0.93151   1.02165    0.021
 4173.00    0.84474   0.99960    0.021
 4174.00    0.48383   0.99183    0.021
 4175.00    0.59607   1.01421    0.021
 4176.00    1.18186   1.02984    0.021
 4177.00    1.37442   1.00259    0.021
 4178.00    1.21985   0.93982    0.021
 4179.00    1.23420   0.89594    0.021
 4180.00    1.37992   0.90609    0.021
 4181.00    1.41453   0.94237    0.021
 4182.00    1.37315   0.96520    0.021
 4183.00    1.05306   0.95951    0.020
 4184.00    0.56589   0.94524    0.020
 4185.00    0.52426   0.95636    0.020
 4186.00    0.71565   0.98270    0.020
 4187.00    0.83252   0.98701    0.020
 4188.00    0.91559   0.97313    0.020
 4189.00    0.88069   0.97513    0.020
 4190.00    0.79977   0.99802    0.020
 4191.00    0.70768   1.02481    0.019
 4192.00    0.61189   1.01782    0.019
 4193.00    0.71089   0.96925    0.019
 4194.00    0.86417   0.94663    0.020
 4195.00    0.97062   0.97771    0.020
 4196.00    1.06632   1.00702    0.020
 4197.00    1.13503   1.00238    0.020
 4198.00    1.19878   1.00492    0.020
 4199.00    1.12301   1.03719    0.019
 4200.00    1.02751   1.04998    0.019
 4201.00    0.86769   1.01560    0.019
 4202.00    0.70132   0.97176    0.019
 4203.00    0.65204   0.94552    0.019
 4204.00    0.61039   0.92267    0.018
 4205.00    1.05810   0.91364    0.019
 4206.00    1.51974   0.93090    0.019
 4207.00    1.27130   0.93691    0.019
 4208.00    1.03325   0.92549    0.019
 4209.00    1.10053   0.93713    0.019
 4210.00    1.17176   0.96523    0.019
 4211.00    1.30053   0.98426    0.018
 4212.00    1.37910   1.00264    0.018
 4213.00    0.98305   1.02398    0.019
 4214.00    0.60959   1.03920    0.019
 4215.00    0.39146   1.03533    0.019
 4216.00    0.27628   1.01636    0.019
 4217.00    0.70832   1.01339    0.018
 4218.00    1.03788   1.03023    0.018
 4219.00    0.92968   1.03412    0.018
 4220.00    0.78451   1.00476    0.019
 4221.00    0.50901   0.95059    0.019
 4222.00    0.37273   0.92497    0.019
 4223.00    0.64870   0.96887    0.019
 4224.00    0.88776   1.03320    0.019
 4225.00    1.03370   1.06475    0.019
 4226.00    1.14558   1.07429    0.019
 4227.00    1.18345   1.07760    0.019
 4228.00    1.20567   1.05748    0.018
 4229.00    1.19839   1.01163    0.018
 4230.00    1.15886   0.95398    0.018
 4231.00    1.06623   0.88016    0.018
 4232.00    0.92194   0.79190    0.018
 4233.00    0.70308   0.74695    0.018
 4234.00    0.71974   0.80560    0.018
 4235.00    1.03542   0.91763    0.018
 4236.00    1.13647   1.00003    0.018
 4237.00    0.99738   1.03957    0.018
 4238.00    0.90432   1.03194    0.018
 4239.00    0.85667   0.98609    0.018
 4240.00    0.92049   0.96086    0.018
 4241.00    1.08133   0.96273    0.018
 4242.00    1.05241   0.95304    0.018
 4243.00    0.87800   0.95083    0.018
 4244.00    0.83203   0.96694    0.018
 4245.00    0.87262   0.97658    0.018
 4246.00    1.05466   0.98643    0.019
 4247.00    1.32022   1.01167    0.019
 4248.00    1.39828   1.02905    0.019
 4249.00    1.37980   1.03443    0.020
 4250.00    1.14496   1.05981    0.020
 4251.00    0.81360   1.08625    0.020
 4252.00    0.53978   1.06776    0.019
 4253.00    0.28802   1.01683    0.019
 4254.00    0.60018   0.97985    0.019
 4255.00    1.09611   0.96095    0.019
 4256.00    1.10167   0.93268    0.019
 4257.00    0.97338   0.92037    0.019
 4258.00    1.03602   0.95346    0.019
 4259.00    1.14144   0.97818    0.019
 4260.00    1.34713   0.95258    0.019
 4261.00    1.57076   0.92780    0.020
 4262.00    1.09538   0.95915    0.020
 4263.00    0.52436   1.01611    0.020
 4264.00    0.88638   1.02501    0.020
 4265.00    1.33954   0.97620    0.020
 4266.00    1.39794   0.91626    0.019
 4267.00    1.43219   0.89316    0.019
 4268.00    0.95904   0.93396    0.019
 4269.00    0.47528   1.00696    0.019
 4270.00    0.59464   1.05605    0.019
 4271.00    0.70050   1.07481    0.019
 4272.00    0.44930   1.08057    0.018
 4273.00    0.23446   1.06258    0.018
 4274.00    0.51948   1.02480    0.019
 4275.00    0.81962   0.99106    0.019
 4276.00    1.25703   0.94817    0.019
 4277.00    1.59657   0.87698    0.020
 4278.00    1.28410   0.82416    0.019
 4279.00    1.01978   0.83479    0.019
 4280.00    1.00477   0.86119    0.019
 4281.00    0.99814   0.87241    0.019
 4282.00    1.02647   0.91023   -2.000
 4283.00    0.95193   0.97717   -2.000
 4284.00    0.52229   1.02869   -2.000
 4285.00    0.29664   1.03477   -2.000
 4286.00    0.66397   0.99893   -2.000
 4287.00    0.93130   0.96562   -2.000
 4288.00    0.95060   0.96030   -2.000
 4289.00    1.08434   0.96958   -2.000
 4290.00    1.46273   0.97926   -2.000
 4291.00    1.58438   0.97047   -2.000
 4292.00    1.22936   0.95057   -2.000
 4293.00    0.93189   0.94653   -2.000
 4294.00    0.72777   0.94022   -2.000
 4295.00    0.69091   0.89481   -2.000
 4296.00    0.89202   0.83797   -2.000
 4297.00    0.99315   0.83514   -2.000
 4298.00    0.96913   0.89123    0.019
 4299.00    0.86502   0.94556    0.019
 4300.00    0.67255   0.95001    0.018
 4301.00    0.62914   0.93140    0.018
 4302.00    0.73076   0.92697    0.018
 4303.00    0.80849   0.91856    0.018
 4304.00    0.86572   0.88382    0.019
 4305.00    0.73095   0.82184    0.019
 4306.00    0.45107   0.76712    0.018
 4307.00    0.44443   0.76252    0.018
 4308.00    0.61923   0.78276    0.018
 4309.00    0.77315   0.79230    0.018
 4310.00    0.91493   0.80639    0.018
 4311.00    0.97194   0.82164    0.018
 4312.00    0.98599   0.81469    0.017
 4313.00    1.03344   0.78313    0.017
 4314.00    1.09554   0.74205    0.017
 4315.00    1.10927   0.72746    0.017
 4316.00    1.10480   0.75612    0.017
 4317.00    1.18174   0.80189    0.018
 4318.00    1.28473   0.83975    0.018
 4319.00    0.99815   0.86446    0.018
 4320.00    0.60745   0.87851    0.017
 4321.00    0.66498   0.90880    0.018
 4322.00    0.82060   0.98459    0.018
 4323.00    0.84000   1.06406    0.018
 4324.00    0.83570   1.08840    0.018
 4325.00    0.78805   1.07060    0.018
 4326.00    0.73465   1.04321    0.018
 4327.00    1.05003   1.01349    0.018
 4328.00    1.39988   0.98913    0.018
 4329.00    1.54833   0.95290    0.018
 4330.00    1.68526   0.87833    0.000
 4331.00    1.71719   0.78742    0.000
 4332.00    1.74315   0.73936    0.000
 4333.00    1.36361   0.78283    0.000
 4334.00    0.99843   0.88800    0.000
 4335.00    0.97811   0.96524    0.000
 4336.00    0.98266   0.97023    0.000
 4337.00    1.31107   0.94059    0.000
 4338.00    1.57996   0.92776    0.000
 4339.00    1.32883   0.92992    0.000
 4340.00    1.10097   0.92893    0.000
 4341.00    1.02344   0.92766    0.000
 4342.00    0.99857   0.90613    0.000
 4343.00    1.23927   0.82681    0.000
 4344.00    1.40446   0.71665    0.000
 4345.00    1.26145   0.63190    0.000
 4346.00    1.10097   0.57298    0.000
 4347.00    0.88138   0.55463    0.000
 4348.00    0.71428   0.61426    0.000
 4349.00    0.69694   0.70383    0.000
 4350.00    0.74997   0.75751    0.000
 4351.00    0.97453   0.79675    0.018
 4352.00    1.09091   0.84111    0.018
 4353.00    0.97973   0.86747    0.018
 4354.00    0.85414   0.89139    0.018
 4355.00    0.70219   0.93709    0.018
 4356.00    0.73810   0.95894    0.018
 4357.00    1.07416   0.90262    0.018
 4358.00    1.34095   0.81870    0.018
 4359.00    1.51062   0.80742    0.018
 4360.00    1.61271   0.86539    0.018
 4361.00    1.63142   0.91724    0.018
 4362.00    1.55330   0.94911    0.018
 4363.00    1.36988   0.98140    0.018
 4364.00    1.05821   0.99146    0.018
 4365.00    0.62351   0.96567    0.018
 4366.00    0.56175   0.94987    0.018
 4367.00    0.81545   0.97868    0.018
 4368.00    0.96644   1.01857    0.018
 4369.00    1.04093   1.03184    0.018
 4370.00    0.91524   1.03828    0.018
 4371.00    0.65857   1.06230    0.018
 4372.00    0.79114   1.07147    0.018
 4373.00    1.14666   1.03494    0.018
 4374.00    1.26470   0.98639    0.018
 4375.00    1.26429   0.97213    0.018
 4376.00    1.18314   0.98429    0.018
 4377.00    1.06715   0.99519    0.018
 4378.00    1.00684   1.00240    0.018
 4379.00    0.96713   0.99470    0.018
 4380.00    0.97214   0.95307    0.018
 4381.00    0.99116   0.90237    0.018
 4382.00    0.89004   0.89645    0.018
 4383.00    0.75749   0.94830    0.018
 4384.00    0.73669   1.01065    0.018
 4385.00    0.73976   1.03425    0.018
 4386.00    0.92286   1.02000    0.018
 4387.00    1.13642   0.99448    0.017
 4388.00    1.17921   0.94946    0.017
 4389.00    1.20018   0.85413    0.018
 4390.00    0.86836   0.75153    0.018
 4391.00    0.50506   0.73813    0.018
 4392.00    0.59115   0.82202    0.018
 4393.00    0.70117   0.91336    0.018
 4394.00    0.66187   0.94827    0.018
 4395.00    0.62195   0.94462    0.017
 4396.00    0.76916   0.93329    0.018
 4397.00    0.91218   0.92853    0.018
 4398.00    0.96290   0.94601    0.018
 4399.00    0.99785   0.97263    0.018
 4400.00    0.83783   0.97149    0.018
 4401.00    0.71289   0.94630    0.018
 4402.00    0.88303   0.95051    0.018
 4403.00    1.02079   1.00351    0.018
 4404.00    0.95567   1.04848    0.018
 4405.00    0.87430   1.03755    0.018
 4406.00    0.71302   0.98724    0.018
 4407.00    0.70224   0.94860    0.018
 4408.00    1.29230   0.96419    0.018
 4409.00    1.63345   0.99160    0.018
 4410.00    1.14915   0.94638    0.018
 4411.00    0.83484   0.86301    0.018
 4412.00    0.99675   0.84938    0.018
 4413.00    1.17353   0.89781    0.018
 4414.00    1.38595   0.92232    0.018
 4415.00    1.49099   0.92764    0.018
 4416.00    1.37379   0.96753    0.018
 4417.00    1.14841   1.02444    0.018
 4418.00    0.72829   1.05810    0.018
 4419.00    0.66170   1.06608    0.018
 4420.00    1.15161   1.03366    0.018
 4421.00    1.36429   0.95593    0.018
 4422.00    1.19387   0.90072    0.018
 4423.00    1.08194   0.91592    0.018
 4424.00    1.04113   0.96423    0.018
 4425.00    0.98860   1.01494    0.018
 4426.00    0.92350   1.05569    0.018
 4427.00    0.98528   1.05815    0.018
 4428.00    1.16707   1.01816    0.018
 4429.00    1.16407   0.97683    0.018
 4430.00    1.00698   0.97491    0.018
 4431.00    0.78095   0.99565    0.018
 4432.00    0.50432   0.99991    0.018
 4433.00    0.58471   0.99182    0.018
 4434.00    0.89528   0.99564    0.018
 4435.00    0.89360   1.00900    0.018
 4436.00    0.71581   1.00067    0.018
 4437.00    0.69981   0.97908    0.018
 4438.00    0.76323   0.98939    0.018
 4439.00    0.67585   1.00682    0.018
 4440.00    0.52447   0.97916    0.018
 4441.00    0.63007   0.92478    0.018
 4442.00    0.82906   0.90125    0.018
 4443.00    0.93357   0.93902    0.018
 4444.00    1.00903   1.00879    0.018
 4445.00    1.03242   1.06125    0.018
 4446.00    1.04248   1.07409    0.018
 4447.00    0.97300   1.04111    0.018
 4448.00    0.88694   0.98169    0.018
 4449.00    0.89187   0.93431    0.018
 4450.00    0.91176   0.92909    0.018
 4451.00    0.88958   0.97415    0.018
 4452.00    0.86222   1.03427    0.018
 4453.00    0.99479   1.05569    0.017
 4454.00    1.14096   1.04558    0.017
 4455.00    0.90836   1.04560    0.017
 4456.00    0.65706   1.04131    0.017
 4457.00    0.54762   1.02226    0.017
 4458.00    0.44552   1.01980    0.017
 4459.00    0.66274   1.02124    0.017
 4460.00    0.87845   0.98892    0.017
 4461.00    1.06371   0.93198    0.000
 4462.00    1.22051   0.89878    0.000
 4463.00    1.04282   0.91367    0.000
 4464.00    0.87975   0.93622    0.000
 4465.00    0.83523   0.93407    0.000
 4466.00    0.83774   0.92336    0.000
 4467.00    1.12651   0.91450    0.000
 4468.00    1.26743   0.90137    0.000
 4469.00    0.69913   0.91525    0.000
 4470.00    0.30559   0.96733    0.000
 4471.00    0.59457   0.99898    0.000
 4472.00    0.84535   0.99270    0.000
 4473.00    0.97189   0.98394    0.000
 4474.00    1.04289   0.97938    0.000
 4475.00    0.96110   0.96451    0.000
 4476.00    0.92474   0.94918    0.000
 4477.00    0.99543   0.95776    0.000
 4478.00    1.02210   0.98473    0.000
 4479.00    0.95910   1.01758    0.000
 4480.00    0.89882   1.04856    0.000
 4481.00    0.84336   1.05862    0.000
 4482.00    0.79587   1.05134    0.017
 4483.00    0.76074   1.06137    0.017
 4484.00    0.81178   1.08753    0.017
 4485.00    0.98018   1.08389    0.017
 4486.00    0.99446   1.02890    0.017
 4487.00    0.82394   0.95105    0.017
 4488.00    0.79363   0.90441    0.017
 4489.00    0.91157   0.92340    0.017
 4490.00    1.04446   0.99063    0.017
 4491.00    1.19131   1.05156    0.017
 4492.00    1.24131   1.08233    0.017
 4493.00    1.21169   1.08727    0.017
 4494.00    1.12716   1.06117    0.017
 4495.00    1.00289   1.00928    0.017
 4496.00    0.87454   0.96617    0.017
 4497.00    0.74360   0.96495    0.017
 4498.00    0.91269   1.00087    0.017
 4499.00    1.24845   1.03234    0.017
 4500.00    1.18018   1.02023    0.017
 4501.00    0.91671   0.97499    0.017
 4502.00    0.83067   0.95060    0.017
 4503.00    0.81864   0.96551    0.017
 4504.00    0.77343   1.00220    0.017
 4505.00    0.71638   1.04106    0.017
 4506.00    0.89623   1.05799    0.017
 4507.00    1.14750   1.04054    0.017
 4508.00    1.05022   1.01311    0.017
 4509.00    0.86562   1.03204    0.017
 4510.00    1.06670   1.09093    0.017
 4511.00    1.34618   1.12469    0.017
 4512.00    1.33977   1.11702    0.017
 4513.00    1.28775   1.09126    0.017
 4514.00    1.18084   1.06627    0.017
 4515.00    1.06741   1.05807    0.017
 4516.00    1.01040   1.07079    0.017
 4517.00    0.95796   1.08810    0.016
 4518.00    1.07666   1.08419    0.016
 4519.00    1.20313   1.05647    0.017
 4520.00    0.80667   1.02789    0.016
 4521.00    0.41765   1.01141    0.016
 4522.00    0.73627   1.01320    0.016
 4523.00    1.03712   1.02585    0.017
 4524.00    1.00436   1.02277    0.016
 4525.00    0.97021   1.01404    0.016
 4526.00    0.92057   1.02954    0.016
 4527.00    0.86615   1.05577    0.016
 4528.00    0.77433   1.06309    0.016
 4529.00    0.71511   1.03415    0.016
 4530.00    0.84865   1.00389    0.016
 4531.00    0.95906   0.99927    0.016
 4532.00    0.96118   0.98372    0.017
 4533.00    0.93496   0.94814    0.017
 4534.00    0.80043   0.91348    0.017
 4535.00    0.71889   0.89226    0.016
 4536.00    0.80630   0.89463    0.016
 4537.00    0.85358   0.91588    0.016
 4538.00    0.79242   0.94120    0.016
 4539.00    0.76512   0.96112    0.016
 4540.00    0.81625   0.94466    0.016
 4541.00    0.89407   0.90490    0.016
 4542.00    1.02538   0.89673    0.016
 4543.00    1.01088   0.95065    0.016
 4544.00    0.74181   1.03139    0.016
 4545.00    0.61431   1.06123    0.016
 4546.00    0.70317   1.03503    0.016
 4547.00    0.83380   0.99718    0.016
 4548.00    1.02051   0.98264    0.016
 4549.00    1.18854   1.00375    0.016
 4550.00    1.33448   1.02408    0.000
 4551.00    1.25263   1.00737    0.000
 4552.00    0.93333   0.98344    0.000
 4553.00    0.77917   0.98786    0.000
 4554.00    0.77685   0.99648    0.000
 4555.00    0.82864   0.97464    0.000
 4556.00    0.92429   0.93688    0.000
 4557.00    1.05024   0.94296    0.000
 4558.00    1.19780   0.98305    0.000
 4559.00    1.13312   0.98874    0.000
 4560.00    0.93563   0.96528    0.000
 4561.00    0.89427   0.94206    0.000
 4562.00    0.93831   0.93705    0.000
 4563.00    0.99320   0.96918    0.000
 4564.00    1.05325   1.02011    0.000
 4565.00    1.01673   1.04676    0.000
 4566.00    0.94062   1.04933    0.000
 4567.00    0.73471   1.04813    0.000
 4568.00    0.48330   1.05232    0.000
 4569.00    0.60596   1.04718    0.000
 4570.00    0.83916   1.00922    0.000
 4571.00    0.77499   0.96619    0.000
 4572.00    0.63797   0.95848    0.000
 4573.00    0.55523   0.99122    0.000
 4574.00    0.48326   1.04132    0.000
 4575.00    0.52402   1.06631    0.000
 4576.00    0.58223   1.05918    0.000
 4577.00    0.78535   1.02846    0.000
 4578.00    1.00505   0.97903    0.000
 4579.00    1.14367   0.97281    0.000
 4580.00    1.27607   1.02415    0.000
 4581.00    1.07922   1.05106    0.000
 4582.00    0.86866   1.03788    0.000
 4583.00    0.82744   1.03089    0.000
 4584.00    0.79418   1.03051    0.000
 4585.00    1.03973   1.01447    0.000
 4586.00    1.25319   0.97759    0.000
 4587.00    0.90562   0.94541    0.000
 4588.00    0.61578   0.94561    0.000
 4589.00    0.94362   0.96843    0.000
 4590.00    1.19375   0.97542    0.000
 4591.00    0.85649   0.96606    0.000
 4592.00    0.59844   0.96122    0.000
 4593.00    0.79568   0.96410    0.000
 4594.00    0.93423   0.98659    0.000
 4595.00    0.80462   1.01953    0.000
 4596.00    0.73385   1.03744    0.000
 4597.00    0.88324   1.02799    0.000
 4598.00    1.05505   0.99713    0.000
 4599.00    1.29696   0.97213    0.000
 4600.00    1.40310   0.97011    0.000
 4601.00    1.14884   0.97178    0.000
 4602.00    0.99431   0.96515    0.000
 4603.00    1.06702   0.96613    0.000
 4604.00    1.05310   0.97350    0.000
 4605.00    0.86823   0.98312    0.000
 4606.00    0.74861   0.99152    0.000
 4607.00    0.74115   0.97764    0.000
 4608.00    0.78707   0.96689    0.000
 4609.00    0.91334   0.97855    0.000
 4610.00    0.98601   0.98536    0.000
 4611.00    0.98774   0.98135    0.000
 4612.00    0.88229   0.97237    0.000
 4613.00    0.65194   0.97784    0.000
 4614.00    0.62542   1.00803    0.000
 4615.00    0.80839   1.05096    0.000
 4616.00    0.92558   1.07695    0.000
 4617.00    0.98314   1.06580    0.000
 4618.00    0.94442   1.03635    0.000
 4619.00    0.82878   1.01711    0.000
 4620.00    0.77615   1.00792    0.000
 4621.00    0.76782   1.01733    0.000
 4622.00    0.80754   1.03533    0.000
 4623.00    0.87688   1.03384    0.000
 4624.00    0.94075   1.03508    0.000
 4625.00    1.00167   1.03172    0.000
 4626.00    1.01224   1.00921    0.000
 4627.00    0.99926   1.01118    0.000
 4628.00    1.02124   1.03767    0.000
 4629.00    1.05731   1.04101    0.000
 4630.00    1.02762   1.03508    0.000
 4631.00    0.97531   1.03671    0.000
 4632.00    0.95729   1.02578    0.000
 4633.00    0.94919   1.01437    0.000
 4634.00    0.89100   1.02115    0.000
 4635.00    0.82082   1.02064    0.000
 4636.00    0.89745   1.00045    0.000
 4637.00    1.00244   1.00268    0.000
 4638.00    1.03212   1.03318    0.000
 4639.00    1.05050   1.03447    0.000
 4640.00    0.96780   1.00047    0.000
 4641.00    0.87397   0.98049    0.000
 4642.00    1.00419   0.98469    0.000
 4643.00    1.15069   0.98826    0.000
 4644.00    1.10877   0.97411    0.000
 4645.00    1.05972   0.95691    0.000
 4646.00    1.21426   0.94801    0.000
 4647.00    1.36334   0.94692    0.000
 4648.00    1.27192   0.97217    0.000
 4649.00    1.17858   0.99858    0.000
 4650.00    1.05397   0.99241    0.000
 4651.00    0.93255   0.97286    0.000
 4652.00    0.84383   0.94821    0.000
 4653.00    0.75232   0.90759    0.000
 4654.00    0.64052   0.88471    0.000
 4655.00    0.54585   0.89876    0.000
 4656.00    0.54695   0.93011    0.000
 4657.00    0.56708   0.96177    0.000
 4658.00    0.67209   0.98128    0.000
 4659.00    0.77279   0.99234    0.000
 4660.00    0.85771   0.99488    0.000
 4661.00    0.92043   0.96863    0.000
 4662.00    0.91503   0.93796    0.000
 4663.00    0.89762   0.93154    0.000
 4664.00    0.84889   0.95258    0.000
 4665.00    0.85689   1.00120    0.000
 4666.00    0.99206   1.04631    0.000
 4667.00    1.02004   1.05859    0.000
 4668.00    0.83985   1.03584    0.000
 4669.00    0.80353   0.99739    0.000
 4670.00    1.01086   0.96570    0.000
 4671.00    1.16652   0.95889    0.000
 4672.00    1.24551   0.95720    0.000
 4673.00    1.08190   0.91361    0.000
 4674.00    0.60186   0.84900    0.000
 4675.00    0.51465   0.83621    0.000
 4676.00    0.87879   0.88162    0.000
 4677.00    1.00797   0.93602    0.000
 4678.00    0.89907   0.97208    0.000
 4679.00    0.87133   0.97825    0.000
 4680.00    0.91612   0.96390    0.000
 4681.00    1.02961   0.95451    0.000
 4682.00    1.19722   0.96478    0.000
 4683.00    1.23160   0.99171    0.000
 4684.00    1.17371   0.99907    0.000
 4685.00    1.08831   0.97285    0.000
 4686.00    0.98622   0.94461    0.000
 4687.00    0.93025   0.92909    0.000
 4688.00    0.89873   0.92047    0.000
 4689.00    1.06476   0.92659    0.000
 4690.00    1.32169   0.95270    0.000
 4691.00    1.02889   0.97221    0.000
 4692.00    0.51827   0.97293    0.000
 4693.00    0.59115   0.96911    0.000
 4694.00    0.86104   0.95833    0.000
 4695.00    0.86388   0.94950    0.000
 4696.00    0.79093   0.95527    0.000
 4697.00    0.87442   0.95584    0.000
 4698.00    0.99453   0.94371    0.000
 4699.00    1.10853   0.94283    0.000
 4700.00    1.22138   0.95354    0.000
 4701.00    0.99434   0.96594    0.000
 4702.00    0.71786   0.98498    0.000
 4703.00    0.92974   0.99913    0.000
 4704.00    1.19325   0.98330    0.000
 4705.00    0.93707   0.93950    0.000
 4706.00    0.64521   0.91236    0.000
 4707.00    0.90805   0.92051    0.000
 4708.00    1.18975   0.92575    0.000
 4709.00    0.95011   0.90887    0.000
 4710.00    0.71604   0.89347    0.000
 4711.00    0.68928   0.91216    0.000
 4712.00    0.67095   0.94240    0.000
 4713.00    0.78185   0.94411    0.000
 4714.00    0.90732   0.92133    0.000
 4715.00    1.17564   0.90426    0.000
 4716.00    1.39525   0.90164    0.000
 4717.00    1.27036   0.91998    0.000
 4718.00    1.14647   0.95683    0.000
 4719.00    1.02808   0.97197    0.000
 4720.00    0.93497   0.95308    0.000
 4721.00    0.95206   0.92062    0.000
 4722.00    0.99432   0.91323    0.000
 4723.00    1.12687   0.94731    0.000
 4724.00    1.21323   0.98111    0.000
 4725.00    1.16057   0.99305    0.000
 4726.00    1.13997   1.00482    0.000
 4727.00    1.20153   1.01561    0.000
 4728.00    1.25126   1.01011    0.000
 4729.00    1.27489   0.99110    0.000
 4730.00    1.18736   0.98327    0.000
 4731.00    0.88734   1.00044    0.000
 4732.00    0.70529   1.01813    0.000
 4733.00    0.72004   1.00337    0.000
 4734.00    0.74176   0.94907    0.000
 4735.00    0.77368   0.89829    0.000
 4736.00    0.82497   0.88725    0.000
 4737.00    0.90118   0.89741    0.000
 4738.00    0.84338   0.90886    0.000
 4739.00    0.63378   0.92800    0.000
 4740.00    0.65468   0.94577    0.000
 4741.00    0.90588   0.95494    0.000
 4742.00    0.99214   0.96246    0.000
 4743.00    0.93308   0.94609    0.000
 4744.00    0.92789   0.92889    0.000
 4745.00    0.96451   0.95444    0.000
 4746.00    1.00522   0.98148    0.000
 4747.00    1.04871   0.97242    0.000
 4748.00    1.04244   0.95553    0.000
 4749.00    1.00640   0.95794    0.000
 4750.00    0.98299   0.97332    0.000
 4751.00    0.96616   0.97662    0.000
 4752.00    0.92869   0.96763    0.000
 4753.00    0.88186   0.97583    0.000
 4754.00    0.90532   0.99168    0.000
 4755.00    0.95615   0.99025    0.000
 4756.00    1.00977   0.98493    0.000
 4757.00    1.06432   0.98839    0.000
 4758.00    1.03049   0.98661    0.000
 4759.00    0.97210   0.97020    0.000
 4760.00    1.01059   0.95366    0.000
 4761.00    1.07125   0.94259    0.014
 4762.00    1.12498   0.93888    0.014
 4763.00    1.17744   0.93944    0.014
 4764.00    1.07296   0.94243    0.014
 4765.00    0.94638   0.94848    0.014
 4766.00    1.01326   0.95851    0.014
 4767.00    1.09975   0.96772    0.014
 4768.00    1.06508   0.95419    0.014
 4769.00    1.02258   0.92154    0.014
 4770.00    1.01195   0.90315    0.014
 4771.00    1.00223   0.89729    0.014
 4772.00    0.96373   0.88337    0.014
 4773.00    0.92452   0.87252    0.014
 4774.00    0.86512   0.88509    0.014
 4775.00    0.81200   0.91277    0.014
 4776.00    0.84969   0.94273    0.014
 4777.00    0.90117   0.95956    0.014
 4778.00    1.08239   0.94494    0.014
 4779.00    1.23495   0.92340    0.014
 4780.00    1.19125   0.92956    0.013
 4781.00    1.12932   0.95923    0.013
 4782.00    0.97080   0.97681    0.013
 4783.00    0.84137   0.97160    0.013
 4784.00    0.83579   0.97255    0.013
 4785.00    0.85972   0.97758    0.013
 4786.00    0.98740   0.96770    0.013
 4787.00    1.11084   0.95603    0.013
 4788.00    1.22178   0.95272    0.013
 4789.00    1.26697   0.94098    0.013
 4790.00    1.14659   0.91814    0.013
 4791.00    1.01937   0.91514    0.013
 4792.00    0.87734   0.92787    0.013
 4793.00    0.79055   0.91768    0.013
 4794.00    0.80772   0.90847    0.013
 4795.00    0.88148   0.91823    0.013
 4796.00    1.04820   0.91776    0.013
 4797.00    1.10307   0.91421    0.013
 4798.00    0.99675   0.92323    0.013
 4799.00    0.89679   0.93664    0.014
 4800.00    0.80489   0.95870    0.013
 4801.00    0.82379   0.98848    0.013
 4802.00    0.96644   1.00507    0.014
 4803.00    1.04025   0.99666    0.014
 4804.00    1.04625   0.97455    0.013
 4805.00    1.03800   0.94824    0.013
 4806.00    1.01736   0.92373    0.014
 4807.00    1.02814   0.91643    0.014
 4808.00    1.06295   0.93615    0.014
 4809.00    1.07217   0.96783    0.014
 4810.00    1.06417   0.98317    0.013
 4811.00    1.03573   0.96921    0.013
 4812.00    0.99524   0.94116    0.013
 4813.00    0.90505   0.92759    0.013
 4814.00    0.78933   0.92191    0.014
 4815.00    0.80239   0.91420    0.014
 4816.00    0.87278   0.91972    0.013
 4817.00    0.99114   0.93563    0.014
 4818.00    1.12784   0.94334    0.014
 4819.00    1.14844   0.94160    0.014
 4820.00    1.13129   0.93900    0.014
 4821.00    1.08142   0.94019    0.014
 4822.00    1.02265   0.94485    0.014
 4823.00    0.97697   0.95354    0.014
 4824.00    0.93421   0.96474    0.014
 4825.00    0.94448   0.97272    0.014
 4826.00    0.96419   0.97901    0.014
 4827.00    0.88295   0.97932    0.014
 4828.00    0.78795   0.97200    0.014
 4829.00    0.80961   0.95214    0.014
 4830.00    0.84260   0.91049    0.014
 4831.00    0.75254   0.88322    0.014
 4832.00    0.65502   0.90233    0.014
 4833.00    0.74841   0.93420    0.014
 4834.00    0.84640   0.94163    0.014
 4835.00    0.86145   0.92834    0.014
 4836.00    0.87520   0.91817    0.014
 4837.00    0.85491   0.92170    0.014
 4838.00    0.83594   0.91496    0.014
 4839.00    0.83504   0.89365    0.014
 4840.00    0.83962   0.89352    0.014
 4841.00    0.89363   0.91653    0.014
 4842.00    0.94317   0.93079    0.014
 4843.00    0.96304   0.92782    0.014
 4844.00    0.99119   0.92448    0.014
 4845.00    1.06211   0.91806    0.014
 4846.00    1.09374   0.89703    0.014
 4847.00    0.96181   0.87709    0.014
 4848.00    0.83722   0.87873    0.000
 4849.00    0.73788   0.88636    0.000
 4850.00    0.67491   0.87798    0.000
 4851.00    0.71742   0.87574    0.000
 4852.00    0.79129   0.89645    0.000
 4853.00    0.94278   0.91377    0.000
 4854.00    1.01608   0.90312    0.000
 4855.00    0.92260   0.86949    0.000
 4856.00    0.80243   0.84705    0.000
 4857.00    0.63283   0.85650    0.000
 4858.00    0.61261   0.86763    0.000
 4859.00    0.83420   0.86220    0.000
 4860.00    0.98460   0.85238    0.000
 4861.00    1.03391   0.82530    0.000
 4862.00    1.13860   0.77606    0.000
 4863.00    1.31251   0.74862    0.000
 4864.00    1.35005   0.76007    0.000
 4865.00    1.23744   0.76304    0.000
 4866.00    1.17331   0.72220    0.000
 4867.00    1.15625   0.64212    0.000
 4868.00    1.02096   0.56302    0.000
 4869.00    0.78441   0.55602    0.000
 4870.00    0.70502   0.62329    0.000
 4871.00    0.74416   0.68646    0.000
 4872.00    0.77008   0.72398    0.000
 4873.00    0.78722   0.75746    0.000
 4874.00    0.86462   0.78197    0.000
 4875.00    0.97700   0.79360    0.014
 4876.00    0.95479   0.80364    0.014
 4877.00    0.86450   0.79534    0.014
 4878.00    0.83245   0.75543    0.014
 4879.00    0.82590   0.73327    0.014
 4880.00    0.73976   0.76520    0.014
 4881.00    0.62370   0.80959    0.014
 4882.00    0.79144   0.82657    0.014
 4883.00    1.04970   0.83335    0.014
 4884.00    0.98836   0.84663    0.014
 4885.00    0.84183   0.86054    0.014
 4886.00    0.80569   0.88531    0.014
 4887.00    0.79364   0.90313    0.014
 4888.00    0.91306   0.88406    0.014
 4889.00    1.05528   0.86118    0.014
 4890.00    1.07072   0.86752    0.013
 4891.00    1.06948   0.87346    0.013
 4892.00    0.94043   0.85309    0.013
 4893.00    0.79951   0.82891    0.013
 4894.00    0.87730   0.82853    0.013
 4895.00    0.96748   0.84412    0.013
 4896.00    0.79885   0.84968    0.013
 4897.00    0.62680   0.82662    0.013
 4898.00    0.72599   0.78947    0.013
 4899.00    0.83348   0.79793    0.013
 4900.00    1.13782   0.85919    0.014
 4901.00    1.41016   0.91896    0.014
 4902.00    1.26865   0.95376    0.013
 4903.00    1.12618   0.96627    0.013
 4904.00    0.97525   0.96440    0.013
 4905.00    0.85525   0.95762    0.013
 4906.00    0.93429   0.93822    0.013
 4907.00    0.99605   0.91167    0.013
 4908.00    0.97097   0.90603    0.013
 4909.00    0.96409   0.91100    0.013
 4910.00    1.03126   0.89972    0.013
 4911.00    1.09498   0.89034    0.013
 4912.00    1.14708   0.90976    0.013
 4913.00    1.16999   0.94208    0.013
 4914.00    1.10977   0.95096    0.013
 4915.00    1.05767   0.92976    0.013
 4916.00    1.02532   0.89548    0.013
 4917.00    0.99525   0.86398    0.013
 4918.00    0.96996   0.85468    0.013
 4919.00    0.99016   0.87221    0.013
 4920.00    1.09337   0.89505    0.013
 4921.00    1.11893   0.91168    0.013
 4922.00    1.02065   0.92973    0.013
 4923.00    0.96370   0.94204    0.013
 4924.00    0.96458   0.92716    0.013
 4925.00    0.96761   0.87546    0.013
 4926.00    0.97327   0.80631    0.013
 4927.00    0.96962   0.75717    0.013
 4928.00    0.95585   0.75731    0.013
 4929.00    0.92283   0.80249    0.013
 4930.00    0.87138   0.84436    0.013
 4931.00    0.90177   0.84968    0.013
 4932.00    1.00125   0.84686    0.013
 4933.00    1.02696   0.87152    0.013
 4934.00    0.99783   0.90553    0.013
 4935.00    0.99365   0.92574    0.013
 4936.00    1.00576   0.94205    0.013
 4937.00    0.96960   0.95284    0.013
 4938.00    0.90585   0.95226    0.013
 4939.00    0.83823   0.93900    0.013
 4940.00    0.76867   0.90115    0.000
 4941.00    0.80232   0.86417    0.000
 4942.00    0.88042   0.87115    0.000
 4943.00    0.97314   0.89543    0.000
 4944.00    1.07126   0.88406    0.000
 4945.00    1.02894   0.83966    0.000
 4946.00    0.94269   0.80862    0.000
 4947.00    0.92320   0.82765    0.000
 4948.00    0.92114   0.87890    0.000
 4949.00    0.92343   0.91466    0.000
 4950.00    0.92665   0.92992    0.000
 4951.00    0.97478   0.94023    0.000
 4952.00    1.03048   0.93520    0.000
 4953.00    0.86443   0.91824    0.000
 4954.00    0.67018   0.91705    0.000
 4955.00    0.81628   0.93130    0.000
 4956.00    0.99256   0.94052    0.000
 4957.00    0.90794   0.94394    0.000
 4958.00    0.80956   0.94974    0.000
 4959.00    0.94662   0.94845    0.000
 4960.00    1.08694   0.93352    0.000
 4961.00    1.12973   0.91914    0.000
 4962.00    1.16591   0.91051    0.000
 4963.00    1.05836   0.88196    0.000
 4964.00    0.95750   0.81281    0.000
 4965.00    0.93870   0.76270    0.000
 4966.00    0.91732   0.79913    0.000
 4967.00    0.87426   0.87485    0.000
 4968.00    0.85973   0.91297    0.000
 4969.00    1.02331   0.91321    0.000
 4970.00    1.14403   0.91117    0.000
 4971.00    1.05465   0.90827    0.000
 4972.00    0.98352   0.88492    0.000
 4973.00    0.98499   0.85557    0.000
 4974.00    0.96367   0.84632    0.000
 4975.00    0.86691   0.85066    0.000
 4976.00    0.82857   0.85761    0.000
 4977.00    0.95349   0.86587    0.000
 4978.00    1.04942   0.87642    0.000
 4979.00    1.07598   0.89150    0.000
 4980.00    1.10406   0.90437    0.000
 4981.00    1.13525   0.91253    0.000
 4982.00    1.13288   0.91575    0.000
 4983.00    1.07021   0.90975    0.000
 4984.00    0.98793   0.89708    0.000
 4985.00    0.87485   0.87734    0.000
 4986.00    0.84504   0.85727    0.000
 4987.00    0.93010   0.84967    0.000
 4988.00    0.98017   0.83881    0.000
 4989.00    0.98776   0.80295    0.000
 4990.00    0.99058   0.76442    0.000
 4991.00    0.98827   0.75971    0.000
 4992.00    1.04489   0.78326    0.000
 4993.00    1.15716   0.81326    0.000
 4994.00    1.16917   0.84697    0.000
 4995.00    1.09772   0.87337    0.000
 4996.00    0.98949   0.87682    0.000
 4997.00    0.85430   0.86362    0.000
 4998.00    0.83973   0.84949    0.000
 4999.00    0.90278   0.85091    0.000
 5000.00    0.86807   0.86095    0.000
 5001.00    0.77831   0.85907    0.000
 5002.00    0.89207   0.85937    0.000
 5003.00    1.10554   0.87147    0.000
 5004.00    1.13369   0.87731    0.000
 5005.00    1.08338   0.87139    0.000
 5006.00    1.11299   0.85158    0.000
 5007.00    1.17158   0.82224    0.000
 5008.00    1.16858   0.80399    0.000
 5009.00    1.14669   0.80291    0.000
 5010.00    1.09069   0.81044    0.000
 5011.00    1.02599   0.81466    0.000
 5012.00    0.92355   0.79912    0.000
 5013.00    0.81327   0.76863    0.000
 5014.00    0.70620   0.76075    0.000
 5015.00    0.59966   0.79495    0.000
 5016.00    0.73189   0.83662    0.000
 5017.00    0.89343   0.84985    0.000
 5018.00    0.88322   0.83792    0.000
 5019.00    0.85850   0.81009    0.000
 5020.00    0.91665   0.77521    0.000
 5021.00    0.97885   0.75091    0.000
 5022.00    0.89448   0.75161    0.000
 5023.00    0.80943   0.77499    0.000
 5024.00    0.82070   0.79068    0.000
 5025.00    0.83933   0.78281    0.000
 5026.00    1.00545   0.77828    0.000
 5027.00    1.14600   0.79351    0.000
 5028.00    0.98775   0.80623    0.000
 5029.00    0.84314   0.79861    0.012
 5030.00    0.80863   0.79198    0.012
 5031.00    0.78441   0.80879    0.013
 5032.00    0.82261   0.83102    0.013
 5033.00    0.86708   0.83652    0.012
 5034.00    0.94159   0.82259    0.012
 5035.00    0.97931   0.80517    0.012
 5036.00    0.87374   0.81305    0.012
 5037.00    0.81333   0.83726    0.012
 5038.00    0.89943   0.85152    0.013
 5039.00    0.92546   0.86366    0.013
 5040.00    0.78661   0.88282    0.012
 5041.00    0.70900   0.89094    0.012
 5042.00    0.77536   0.86565    0.012
 5043.00    0.86892   0.82048    0.013
 5044.00    1.01775   0.80146    0.012
 5045.00    1.11216   0.81150    0.012
 5046.00    1.11029   0.80403    0.012
 5047.00    1.07846   0.76257    0.012
 5048.00    1.00028   0.71376    0.012
 5049.00    0.89406   0.70624    0.012
 5050.00    0.74972   0.75906    0.013
 5051.00    0.69107   0.82284    0.013
 5052.00    0.73499   0.86150    0.013
 5053.00    0.80580   0.88612    0.013
 5054.00    0.90498   0.89165    0.013
 5055.00    0.88025   0.86284    0.013
 5056.00    0.74018   0.81810    0.013
 5057.00    0.76127   0.79306    0.013
 5058.00    0.91463   0.79206    0.013
 5059.00    0.90021   0.79726    0.013
 5060.00    0.76461   0.80894    0.013
 5061.00    0.83574   0.83215    0.013
 5062.00    1.03797   0.85303    0.013
 5063.00    0.96249   0.85938    0.013
 5064.00    0.73305   0.85824    0.012
 5065.00    0.74186   0.86307    0.013
 5066.00    0.86552   0.87043    0.013
 5067.00    0.86323   0.87323    0.013
 5068.00    0.80850   0.88023    0.013
 5069.00    0.79723   0.89031    0.013
 5070.00    0.80143   0.88574    0.013
 5071.00    0.83275   0.85266    0.013
 5072.00    0.87223   0.80609    0.012
 5073.00    0.90369   0.78962    0.013
 5074.00    0.93314   0.80589    0.013
 5075.00    0.88479   0.81268    0.013
 5076.00    0.82067   0.80836    0.012
 5077.00    0.70365   0.81958    0.012
 5078.00    0.57822   0.83378    0.012
 5079.00    0.72049   0.82295    0.012
 5080.00    0.89442   0.80714    0.012
 5081.00    0.84032   0.81595    0.012
 5082.00    0.76790   0.82742    0.012
 5083.00    0.82466   0.82230    0.012
 5084.00    0.88724   0.82122    0.012
 5085.00    0.96339   0.82478    0.012
 5086.00    1.03694   0.79795    0.012
 5087.00    0.97283   0.74777    0.012
 5088.00    0.90798   0.73075    0.012
 5089.00    0.82915   0.75412    0.011
 5090.00    0.75906   0.77463    0.011
 5091.00    0.78633   0.78105    0.011
 5092.00    0.81019   0.79545    0.012
 5093.00    0.80738   0.81630    0.011
 5094.00    0.81568   0.82509    0.011
 5095.00    0.88933   0.82360    0.012
 5096.00    0.96181   0.82603    0.012
 5097.00    1.02882   0.83271    0.012
 5098.00    1.08244   0.83534    0.012
 5099.00    1.08501   0.83900    0.012
 5100.00    1.07385   0.85185    0.011
 5101.00    1.01903   0.86306    0.011
 5102.00    0.97110   0.85664    0.011
 5103.00    0.94174   0.83598    0.011
 5104.00    0.94080   0.81313    0.011
 5105.00    1.00554   0.78810    0.012
 5106.00    0.99996   0.76055    0.012
 5107.00    0.85368   0.75229    0.012
 5108.00    0.76675   0.77971    0.012
 5109.00    0.78323   0.81493    0.012
 5110.00    0.77780   0.82700    0.012
 5111.00    0.73896   0.81888    0.012
 5112.00    0.71395   0.80864    0.012
 5113.00    0.70745   0.80270    0.012
 5114.00    0.66735   0.79172    0.012
 5115.00    0.58761   0.77633    0.012
 5116.00    0.63104   0.77184    0.012
 5117.00    0.80266   0.77261    0.013
 5118.00    0.86155   0.77377    0.013
 5119.00    0.81697   0.79053    0.012
 5120.00    0.83755   0.81026    0.012
 5121.00    0.91083   0.81843    0.012
 5122.00    0.90789   0.82536    0.012
 5123.00    0.85067   0.83198    0.012
 5124.00    0.80454   0.84012    0.012
 5125.00    0.76533   0.85254    0.012
 5126.00    0.81891   0.85596    0.012
 5127.00    0.92315   0.84454    0.012
 5128.00    0.83788   0.82562    0.012
 5129.00    0.66270   0.80604    0.012
 5130.00    0.72357   0.78316    0.012
 5131.00    0.88106   0.75484    0.012
 5132.00    0.86549   0.74165    0.012
 5133.00    0.78944   0.75203    0.013
 5134.00    0.76643   0.76263    0.012
 5135.00    0.75906   0.76142    0.012
 5136.00    0.66050   0.75666    0.012
 5137.00    0.53967   0.75687    0.012
 5138.00    0.61419   0.76869    0.012
 5139.00    0.72730   0.78829    0.012
 5140.00    0.73881   0.79873    0.012
 5141.00    0.73464   0.79971    0.012
 5142.00    0.67814   0.80853    0.012
 5143.00    0.61568   0.82140    0.012
 5144.00    0.70497   0.81104    0.012
 5145.00    0.80584   0.78349    0.012
 5146.00    0.69529   0.76025    0.012
 5147.00    0.57604   0.75211    0.012
 5148.00    0.61965   0.77100    0.012
 5149.00    0.66326   0.78090    0.012
 5150.00    0.65074   0.75877    0.012
 5151.00    0.63898   0.75415    0.012
 5152.00    0.64029   0.77365    0.012
 5153.00    0.64826   0.77353    0.012
 5154.00    0.72703   0.75707    0.012
 5155.00    0.78623   0.74994    0.012
 5156.00    0.69827   0.75845    0.012
 5157.00    0.63635   0.77151    0.012
 5158.00    0.72366   0.76845    0.012
 5159.00    0.79773   0.75384    0.012
 5160.00    0.81152   0.74561    0.012
 5161.00    0.83406   0.74461    0.012
 5162.00    0.88922   0.75174    0.012
 5163.00    0.93432   0.77234    0.012
 5164.00    0.94806   0.79861    0.012
 5165.00    0.93826   0.81895    0.012
 5166.00    0.86612   0.82535    0.012
 5167.00    0.79580   0.82155    0.012
 5168.00    0.72964   0.82140    0.012
 5169.00    0.65524   0.81435    0.012
 5170.00    0.56461   0.79356    0.012
 5171.00    0.52483   0.77910    0.011
 5172.00    0.57230   0.76012    0.011
 5173.00    0.60003   0.70853    0.012
 5174.00    0.59807   0.63339    0.012
 5175.00    0.55664   0.57568    0.012
 5176.00    0.46306   0.57773    0.012
 5177.00    0.47125   0.63220    0.012
 5178.00    0.59781   0.67092    0.011
 5179.00    0.69177   0.63504    0.011
 5180.00    0.75226   0.56749    0.011
 5181.00    0.87789   0.57178    0.011
 5182.00    1.06248   0.65692    0.011
 5183.00    1.05894   0.73421    0.011
 5184.00    0.90537   0.76009    0.011
 5185.00    0.78928   0.76701    0.011
 5186.00    0.69949   0.77339    0.012
 5187.00    0.76415   0.76882    0.012
 5188.00    0.92386   0.74982    0.012
 5189.00    0.90529   0.71094    0.012
 5190.00    0.79090   0.63916    0.000
 5191.00    0.79266   0.56395    0.000
 5192.00    0.84864   0.56671    0.000
 5193.00    0.90898   0.65533    0.000
 5194.00    0.97107   0.74141    0.000
 5195.00    0.89728   0.77421    0.000
 5196.00    0.77687   0.77464    0.000
 5197.00    0.88737   0.78342    0.000
 5198.00    1.06458   0.78940    0.000
 5199.00    1.00278   0.74918    0.000
 5200.00    0.88391   0.70217    0.000
 5201.00    0.82199   0.70909    0.000
 5202.00    0.77104   0.73713    0.000
 5203.00    0.72144   0.74359    0.000
 5204.00    0.67203   0.75127    0.000
 5205.00    0.65649   0.77070    0.000
 5206.00    0.64465   0.78702    0.000
 5207.00    0.69274   0.80026    0.000
 5208.00    0.74516   0.80561    0.000
 5209.00    0.71163   0.79791    0.000
 5210.00    0.67489   0.78514    0.000
 5211.00    0.51658   0.76859    0.012
 5212.00    0.36964   0.73190    0.012
 5213.00    0.65697   0.68858    0.012
 5214.00    0.92289   0.67635    0.012
 5215.00    0.84167   0.68122    0.012
 5216.00    0.77366   0.67194    0.012
 5217.00    0.84003   0.67732    0.012
 5218.00    0.89253   0.71240    0.012
 5219.00    0.84401   0.75532    0.012
 5220.00    0.80799   0.79431    0.012
 5221.00    0.84164   0.81403    0.012
 5222.00    0.88486   0.80402    0.011
 5223.00    0.97063   0.77251    0.012
 5224.00    1.01081   0.75234    0.012
 5225.00    0.88444   0.76337    0.012
 5226.00    0.77779   0.79233    0.011
 5227.00    0.73148   0.81517    0.011
 5228.00    0.71036   0.82424    0.011
 5229.00    0.75475   0.82803    0.011
 5230.00    0.77631   0.82111    0.011
 5231.00    0.74680   0.79556    0.011
 5232.00    0.73892   0.75597    0.011
 5233.00    0.77298   0.71024    0.011
 5234.00    0.77726   0.66758    0.011
 5235.00    0.73120   0.66183    0.011
 5236.00    0.71819   0.71771    0.011
 5237.00    0.75414   0.78046    0.011
 5238.00    0.76852   0.80571    0.011
 5239.00    0.75479   0.80824    0.011
 5240.00    0.75765   0.78432    0.011
 5241.00    0.77951   0.75057    0.011
 5242.00    0.80657   0.74625    0.011
 5243.00    0.83888   0.76808    0.011
 5244.00    0.86531   0.80023    0.011
 5245.00    0.88649   0.82536    0.011
 5246.00    0.88171   0.83048    0.011
 5247.00    0.85652   0.82392    0.012
 5248.00    0.84938   0.82011    0.012
 5249.00    0.85474   0.82252    0.012
 5250.00    0.84819   0.82041    0.012
 5251.00    0.83442   0.81917    0.012
 5252.00    0.73883   0.83300    0.012
 5253.00    0.59993   0.83687    0.012
 5254.00    0.59432   0.79978    0.012
 5255.00    0.64990   0.75628    0.012
 5256.00    0.73380   0.75645    0.012
 5257.00    0.82889   0.76781    0.012
 5258.00    0.92122   0.75282    0.012
 5259.00    1.01262   0.74903    0.012
 5260.00    0.92114   0.77155    0.012
 5261.00    0.77790   0.78700    0.012
 5262.00    0.59833   0.77669    0.012
 5263.00    0.41029   0.76228    0.012
 5264.00    0.58425   0.78483    0.012
 5265.00    0.82609   0.82753    0.012
 5266.00    0.73487   0.84938    0.012
 5267.00    0.59540   0.84544    0.012
 5268.00    0.63284   0.82221    0.012
 5269.00    0.68889   0.78554    0.012
 5270.00    0.64997   0.74136    0.012
 5271.00    0.60457   0.70126    0.012
 5272.00    0.61723   0.67330    0.012
 5273.00    0.63184   0.65483    0.012
 5274.00    0.57416   0.65745    0.012
 5275.00    0.52013   0.69503    0.012
 5276.00    0.58555   0.70282    0.012
 5277.00    0.65515   0.64037    0.012
 5278.00    0.78856   0.60849    0.012
 5279.00    0.90388   0.67099    0.012
 5280.00    0.84284   0.74194    0.012
 5281.00    0.79049   0.76121    0.012
 5282.00    0.79937   0.75529    0.011
 5283.00    0.81662   0.74143    0.011
 5284.00    0.87927   0.75020    0.011
 5285.00    0.92730   0.79759    0.011
 5286.00    0.91178   0.83463    0.011
 5287.00    0.89121   0.83252    0.011
 5288.00    0.85255   0.80657    0.011
 5289.00    0.81838   0.77887    0.011
 5290.00    0.79769   0.75977    0.011
 5291.00    0.81413   0.74469    0.011
 5292.00    0.92551   0.74834    0.011
 5293.00    0.98570   0.79205    0.011
 5294.00    0.93329   0.84164    0.011
 5295.00    0.88758   0.85497    0.011
 5296.00    0.85465   0.84221    0.011
 5297.00    0.81322   0.83749    0.011
 5298.00    0.75764   0.84853    0.011
 5299.00    0.74554   0.85493    0.011
 5300.00    0.79690   0.84535    0.011
 5301.00    0.78805   0.83129    0.011
 5302.00    0.70195   0.82750    0.011
 5303.00    0.66261   0.81958    0.011
 5304.00    0.67614   0.78424    0.011
 5305.00    0.69376   0.73195    0.011
 5306.00    0.71546   0.71028    0.011
 5307.00    0.70867   0.74336    0.011
 5308.00    0.67681   0.77951    0.011
 5309.00    0.71016   0.77898    0.011
 5310.00    0.79403   0.77671    0.011
 5311.00    0.80894   0.80107    0.011
 5312.00    0.77686   0.83589    0.011
 5313.00    0.71278   0.85365    0.011
 5314.00    0.62960   0.84535    0.011
 5315.00    0.75731   0.82647    0.011
 5316.00    0.99490   0.82436    0.011
 5317.00    0.88602   0.84066    0.011
 5318.00    0.62063   0.85181    0.011
 5319.00    0.58598   0.84866    0.011
 5320.00    0.64098   0.83894    0.011
 5321.00    0.73663   0.82872    0.011
 5322.00    0.84571   0.82431    0.011
 5323.00    0.83454   0.81833    0.011
 5324.00    0.79004   0.80150    0.011
 5325.00    0.74267   0.79361    0.011
 5326.00    0.69466   0.80536    0.011
 5327.00    0.69642   0.81345    0.011
 5328.00    0.70726   0.81214    0.011
 5329.00    0.64818   0.81076    0.011
 5330.00    0.57930   0.80486    0.011
 5331.00    0.54642   0.78290    0.011
 5332.00    0.51718   0.75477    0.011
 5333.00    0.62379   0.75714    0.011
 5334.00    0.73913   0.76477    0.011
 5335.00    0.83323   0.71411    0.011
 5336.00    0.92641   0.63655    0.011
 5337.00    0.90396   0.64047    0.011
 5338.00    0.88203   0.72092    0.011
 5339.00    0.87491   0.78286    0.011
 5340.00    0.86315   0.79092    0.011
 5341.00    0.78484   0.78444    0.011
 5342.00    0.71805   0.80202    0.011
 5343.00    0.75899   0.82294    0.011
 5344.00    0.80472   0.82116    0.011
 5345.00    0.88313   0.81029    0.011
 5346.00    0.93495   0.80563    0.011
 5347.00    0.84639   0.78377    0.011
 5348.00    0.77910   0.73967    0.010
 5349.00    0.80213   0.72776    0.011
 5350.00    0.81735   0.76600    0.011
 5351.00    0.80517   0.80049    0.011
 5352.00    0.82178   0.80759    0.011
 5353.00    0.92323   0.79395    0.011
 5354.00    0.98517   0.78056    0.011
 5355.00    0.94780   0.78449    0.011
 5356.00    0.90250   0.77734    0.011
 5357.00    0.84003   0.76005    0.011
 5358.00    0.82667   0.77002    0.011
 5359.00    0.90557   0.80292    0.011
 5360.00    0.94939   0.82324    0.011
 5361.00    0.93565   0.82427    0.011
 5362.00    0.88565   0.83316    0.011
 5363.00    0.78350   0.85143    0.011
 5364.00    0.70592   0.85760    0.011
 5365.00    0.65944   0.85607    0.011
 5366.00    0.70653   0.85504    0.011
 5367.00    0.85795   0.85378    0.011
 5368.00    0.90255   0.84748   -2.000
 5369.00    0.84214   0.82914   -2.000
 5370.00    0.83330   0.80816   -2.000
 5371.00    0.86918   0.80106   -2.000
 5372.00    0.85880   0.79629   -2.000
 5373.00    0.81309   0.78486   -2.000
 5374.00    0.83710   0.78210   -2.000
 5375.00    0.90791   0.78469   -2.000
 5376.00    0.90308   0.78304   -2.000
 5377.00    0.85376   0.76436   -2.000
 5378.00    0.84791   0.72124   -2.000
 5379.00    0.86436   0.68796   -2.000
 5380.00    0.86969   0.70829   -2.000
 5381.00    0.87007   0.76898   -2.000
 5382.00    0.85555   0.81366   -2.000
 5383.00    0.83534   0.83041    0.011
 5384.00    0.79697   0.82601    0.011
 5385.00    0.75272   0.81335    0.011
 5386.00    0.77411   0.81493    0.011
 5387.00    0.81333   0.82182    0.011
 5388.00    0.85860   0.81572    0.011
 5389.00    0.90522   0.80439    0.010
 5390.00    0.85355   0.79568    0.010
 5391.00    0.78443   0.78602    0.010
 5392.00    0.75509   0.78990    0.010
 5393.00    0.73115   0.80700    0.011
 5394.00    0.80533   0.81396    0.011
 5395.00    0.88899   0.80955    0.011
 5396.00    0.80342   0.80117    0.011
 5397.00    0.70767   0.78587    0.010
 5398.00    0.68354   0.76878    0.010
 5399.00    0.66201   0.76105    0.010
 5400.00    0.76162   0.76029    0.010
 5401.00    0.85388   0.75969    0.010
 5402.00    0.75654   0.75955    0.010
 5403.00    0.66620   0.75858    0.010
 5404.00    0.67070   0.73575    0.010
 5405.00    0.67264   0.70291    0.010
 5406.00    0.65147   0.71590    0.010
 5407.00    0.64585   0.75760    0.010
 5408.00    0.74297   0.77295    0.010
 5409.00    0.81343   0.77335    0.010
 5410.00    0.74671   0.78155    0.010
 5411.00    0.68919   0.77126    0.010
 5412.00    0.66984   0.72820    0.010
 5413.00    0.68137   0.68315    0.010
 5414.00    0.79894   0.67435    0.010
 5415.00    0.87198   0.70737    0.010
 5416.00    0.81618   0.73900    0.010
 5417.00    0.81295   0.73261    0.010
 5418.00    0.93957   0.71422    0.011
 5419.00    1.00539   0.73085    0.011
 5420.00    0.94175   0.76930    0.011
 5421.00    0.87828   0.79026    0.011
 5422.00    0.81514   0.78624    0.011
 5423.00    0.78813   0.78019    0.011
 5424.00    0.81949   0.79338    0.011
 5425.00    0.86656   0.81242    0.011
 5426.00    0.93593   0.81477    0.011
 5427.00    0.99857   0.80183    0.011
 5428.00    1.05282   0.78494    0.011
 5429.00    1.04764   0.78075    0.011
 5430.00    0.97715   0.79129    0.011
 5431.00    0.93361   0.78565    0.011
 5432.00    0.91620   0.76109    0.011
 5433.00    0.87537   0.76160    0.011
 5434.00    0.81452   0.79178    0.010
 5435.00    0.76995   0.81641    0.010
 5436.00    0.73764   0.80060    0.010
 5437.00    0.73719   0.74313    0.010
 5438.00    0.75782   0.71358    0.010
 5439.00    0.73364   0.74205    0.010
 5440.00    0.68351   0.76143    0.010
 5441.00    0.68701   0.74476    0.010
 5442.00    0.71758   0.72237    0.010
 5443.00    0.71976   0.71526    0.010
 5444.00    0.70955   0.72804    0.010
 5445.00    0.65414   0.75333    0.010
 5446.00    0.58178   0.78583    0.010
 5447.00    0.62858   0.81212    0.010
 5448.00    0.71330   0.82411    0.010
 5449.00    0.71359   0.82602    0.010
 5450.00    0.69144   0.82502    0.010
 5451.00    0.70386   0.82379    0.010
 5452.00    0.72380   0.81055    0.010
 5453.00    0.74041   0.77559    0.010
 5454.00    0.75644   0.72525    0.010
 5455.00    0.70015   0.69669    0.010
 5456.00    0.63437   0.72165    0.010
 5457.00    0.58349   0.76625    0.010
 5458.00    0.53398   0.79008    0.010
 5459.00    0.64284   0.79239    0.010
 5460.00    0.76061   0.78596    0.010
 5461.00    0.74475   0.77467    0.010
 5462.00    0.72595   0.74867    0.010
 5463.00    0.71243   0.70949    0.010
 5464.00    0.70182   0.69777    0.010
 5465.00    0.75949   0.73361    0.010
 5466.00    0.81129   0.77721    0.010
 5467.00    0.78757   0.79476    0.010
 5468.00    0.76216   0.78682    0.010
 5469.00    0.72210   0.77058    0.010
 5470.00    0.69096   0.75154    0.010
 5471.00    0.71704   0.73280    0.010
 5472.00    0.72805   0.73796    0.010
 5473.00    0.66350   0.76054    0.010
 5474.00    0.61484   0.76920    0.010
 5475.00    0.63066   0.76935    0.010
 5476.00    0.63894   0.77571    0.010
 5477.00    0.62183   0.77559    0.010
 5478.00    0.61873   0.76317   -2.000
 5479.00    0.65540   0.75682   -2.000
 5480.00    0.66267   0.75843   -2.000
 5481.00    0.59856   0.74898   -2.000
 5482.00    0.58250   0.73936   -2.000
 5483.00    0.66709   0.73442   -2.000
 5484.00    0.64533   0.70798   -2.000
 5485.00    0.42991   0.68427   -2.000
 5486.00    0.42391   0.70747   -2.000
 5487.00    0.75127   0.74920   -2.000
 5488.00    0.80433   0.75598   -2.000
 5489.00    0.47419   0.73015   -2.000
 5490.00    0.36532   0.71692   -2.000
 5491.00    0.52847   0.73166   -2.000
 5492.00    0.71271   0.75827   -2.000
 5493.00    0.91978   0.78139   -2.000
 5494.00    0.97359   0.78198   -2.000
 5495.00    0.88091   0.75789   -2.000
 5496.00    0.77415   0.74041   -2.000
 5497.00    0.65553   0.74753   -2.000
 5498.00    0.65863   0.75679   -2.000
 5499.00    0.75205   0.76257   -2.000
 5500.00    0.79546   0.76867   -2.000
 5501.00    0.80626   0.76303   -2.000
 5502.00    0.79291   0.75563   -1.000
 5503.00    0.76578   0.76178   -1.000
 5504.00    0.75374   0.76377   -1.000
 5505.00    0.74920   0.74831   -1.000
 5506.00    0.73972   0.74454   -1.000
 5507.00    0.72811   0.76611   -1.000
 5508.00    0.65805   0.77634    0.027
 5509.00    0.56646   0.75737    0.011
 5510.00    0.58054   0.73779    0.010
 5511.00    0.62759   0.73762    0.010
 5512.00    0.63294   0.74641    0.010
 5513.00    0.62743   0.74507    0.010
 5514.00    0.61974   0.72718    0.017
 5515.00    0.61159   0.72041    0.136
 5516.00    0.61957   0.74043   -1.000
 5517.00    0.63025   0.75760   -1.000
 5518.00    0.64955   0.75649   -1.000
 5519.00    0.66994   0.74336   -1.000
 5520.00    0.74396   0.72189   -1.000
 5521.00    0.82271   0.70791   -1.000
 5522.00    0.78193   0.71066    0.021
 5523.00    0.73490   0.72244    0.010
 5524.00    0.73827   0.73504    0.010
 5525.00    0.74252   0.74747    0.010
 5526.00    0.74255   0.76586    0.010
 5527.00    0.74199   0.78135    0.010
 5528.00    0.72866   0.78241    0.010
 5529.00    0.71405   0.77615    0.010
 5530.00    0.68400   0.77274    0.010
 5531.00    0.66746   0.77291    0.010
 5532.00    0.76353   0.77232    0.010
 5533.00    0.84465   0.76609    0.010
 5534.00    0.83279   0.75275    0.010
 5535.00    0.82346   0.73056    0.010
 5536.00    0.82652   0.70635    0.023
 5537.00    0.81672   0.70733   -1.000
 5538.00    0.75590   0.73598   -1.000
 5539.00    0.70984   0.75959   -1.000
 5540.00    0.71248   0.76271   -1.000
 5541.00    0.73316   0.75710   -1.000
 5542.00    0.80411   0.74995   -1.000
 5543.00    0.83382   0.74117    0.062
 5544.00    0.76506   0.74167    0.014
 5545.00    0.73286   0.74953    0.009
 5546.00    0.77600   0.75208    0.009
 5547.00    0.77817   0.75644    0.009
 5548.00    0.70690   0.76887    0.009
 5549.00    0.68239   0.77938    0.009
 5550.00    0.73122   0.77652    0.010
 5551.00    0.77048   0.76238    0.010
 5552.00    0.79656   0.75404    0.009
 5553.00    0.80051   0.75530    0.010
 5554.00    0.77765   0.75458    0.010
 5555.00    0.74872   0.75659    0.010
 5556.00    0.71331   0.76986    0.010
 5557.00    0.69550   0.78293    0.010
 5558.00    0.69427   0.78684    0.010
 5559.00    0.69738   0.78586    0.010
 5560.00    0.70411   0.78077    0.010
 5561.00    0.68573   0.76950    0.010
 5562.00    0.64899   0.75638    0.010
 5563.00    0.68023   0.75247    0.010
 5564.00    0.75513   0.75823    0.010
 5565.00    0.74322   0.76079    0.010
 5566.00    0.68255   0.75798    0.010
 5567.00    0.65944   0.75849    0.010
 5568.00    0.65471   0.76084    0.010
 5569.00    0.64357   0.75854    0.009
 5570.00    0.62972   0.74955    0.009
 5571.00    0.63261   0.74020    0.009
 5572.00    0.64155   0.73992    0.010
 5573.00    0.66278   0.74057    0.009
 5574.00    0.68776   0.73379    0.009
 5575.00    0.71328   0.73004    0.009
 5576.00    0.73894   0.73223    0.009
 5577.00    0.75006   0.72963    0.009
 5578.00    0.75816   0.72912    0.009
 5579.00    0.76288   0.73972    0.009
 5580.00    0.76706   0.73855    0.009
 5581.00    0.72427   0.72463    0.009
 5582.00    0.67576   0.72995    0.009
 5583.00    0.66707   0.74615    0.009
 5584.00    0.66172   0.74894    0.009
 5585.00    0.67670   0.74926    0.009
 5586.00    0.69266   0.75285    0.009
 5587.00    0.68122   0.75303    0.009
 5588.00    0.67055   0.75515    0.009
 5589.00    0.72996   0.75578    0.009
 5590.00    0.78733   0.74916    0.009
 5591.00    0.80409   0.74551    0.010
 5592.00    0.81029   0.74476    0.010
 5593.00    0.69378   0.73509    0.010
 5594.00    0.60135   0.71234    0.010
 5595.00    0.70246   0.68407    0.010
 5596.00    0.79133   0.66632    0.010
 5597.00    0.80628   0.66617    0.010
 5598.00    0.81521   0.68080    0.010
 5599.00    0.79547   0.70166    0.010
 5600.00    0.77927   0.71470    0.010
 5601.00    0.77684   0.71506    0.010
 5602.00    0.78576   0.70937    0.010
 5603.00    0.83146   0.71521    0.010
 5604.00    0.83480   0.73910    0.010
 5605.00    0.72213   0.75151    0.010
 5606.00    0.63983   0.73401    0.010
 5607.00    0.62878   0.71362    0.010
 5608.00    0.62038   0.70783    0.010
 5609.00    0.61735   0.70178    0.010
 5610.00    0.63311   0.69070    0.010
 5611.00    0.68204   0.68871    0.010
 5612.00    0.68493   0.70821    0.009
 5613.00    0.61668   0.73913    0.009
 5614.00    0.61558   0.76222    0.009
 5615.00    0.70559   0.77151    0.009
 5616.00    0.77023   0.77074    0.009
 5617.00    0.80455   0.76626    0.009
 5618.00    0.76540   0.76324    0.009
 5619.00    0.64884   0.76498    0.009
 5620.00    0.59145   0.77094    0.009
 5621.00    0.58903   0.77204    0.009
 5622.00    0.62761   0.74995    0.009
 5623.00    0.69978   0.70267    0.009
 5624.00    0.72100   0.67265    0.009
 5625.00    0.70549   0.68896    0.009
 5626.00    0.73772   0.71803    0.010
 5627.00    0.80018   0.72649    0.010
 5628.00    0.82362   0.72400    0.010
 5629.00    0.82548   0.72945    0.009
 5630.00    0.77891   0.74080    0.009
 5631.00    0.70903   0.73929    0.009
 5632.00    0.69452   0.71507    0.009
 5633.00    0.70301   0.69067    0.009
 5634.00    0.70019   0.69366    0.009
 5635.00    0.69335   0.71361    0.009
 5636.00    0.66933   0.72819    0.009
 5637.00    0.64017   0.73930    0.009
 5638.00    0.67623   0.75112    0.009
 5639.00    0.72852   0.75758    0.009
 5640.00    0.74271   0.75665    0.009
 5641.00    0.74919   0.75130    0.009
 5642.00    0.73941   0.74385    0.009
 5643.00    0.72704   0.73595    0.009
 5644.00    0.70903   0.72708    0.009
 5645.00    0.69035   0.71732    0.009
 5646.00    0.65335   0.71328    0.009
 5647.00    0.61489   0.71935    0.009
 5648.00    0.67971   0.72474    0.009
 5649.00    0.74914   0.71857    0.009
 5650.00    0.75664   0.71164    0.009
 5651.00    0.76315   0.71469    0.009
 5652.00    0.75530   0.72068    0.009
 5653.00    0.74782   0.72482    0.009
 5654.00    0.74697   0.72872    0.009
 5655.00    0.75106   0.73314    0.009
 5656.00    0.80994   0.73579    0.009
 5657.00    0.85732   0.73286    0.009
 5658.00    0.81564   0.72826    0.009
 5659.00    0.77675   0.73152    0.009
 5660.00    0.75433   0.74202    0.009
 5661.00    0.72757   0.74762    0.009
 5662.00    0.68064   0.73890    0.009
 5663.00    0.63687   0.72455    0.009
 5664.00    0.60509   0.72250    0.009
 5665.00    0.58589   0.72096    0.009
 5666.00    0.60659   0.69501    0.009
 5667.00    0.62546   0.66956    0.009
 5668.00    0.63944   0.68144    0.009
 5669.00    0.66365   0.70581    0.009
 5670.00    0.71148   0.70631    0.009
 5671.00    0.75339   0.69815    0.009
 5672.00    0.78347   0.70734    0.009
 5673.00    0.77539   0.72660    0.009
 5674.00    0.70096   0.73563    0.009
 5675.00    0.65393   0.72882    0.009
 5676.00    0.64861   0.71759    0.009
 5677.00    0.64410   0.71428    0.009
 5678.00    0.64069   0.71775    0.009
 5679.00    0.66146   0.72205    0.010
 5680.00    0.71071   0.73025    0.010
 5681.00    0.73587   0.74479    0.009
 5682.00    0.73599   0.75446    0.009
 5683.00    0.70857   0.75110    0.009
 5684.00    0.65591   0.74647    0.009
 5685.00    0.58567   0.75050    0.009
 5686.00    0.50123   0.75254    0.009
 5687.00    0.49983   0.74578    0.009
 5688.00    0.55742   0.73972    0.009
 5689.00    0.61627   0.73677    0.009
 5690.00    0.67589   0.72627    0.009
 5691.00    0.72962   0.71193    0.009
 5692.00    0.78014   0.71125    0.009
 5693.00    0.84035   0.72196    0.009
 5694.00    0.90516   0.72484    0.009
 5695.00    0.89916   0.71384    0.009
 5696.00    0.86425   0.70255    0.009
 5697.00    0.84214   0.70408    0.009
 5698.00    0.82449   0.71713    0.009
 5699.00    0.75929   0.73167    0.009
 5700.00    0.68011   0.74263    0.009
 5701.00    0.66342   0.74967    0.009
 5702.00    0.66196   0.74889    0.009
 5703.00    0.64461   0.74271    0.009
 5704.00    0.62414   0.74023    0.009
 5705.00    0.63126   0.74003    0.009
 5706.00    0.64262   0.73167    0.009
 5707.00    0.63261   0.71908    0.009
 5708.00    0.62017   0.71269    0.009
 5709.00    0.62954   0.70551    0.009
 5710.00    0.64055   0.69559    0.009
 5711.00    0.68097   0.69629    0.009
 5712.00    0.72258   0.70901    0.009
 5713.00    0.71464   0.71767    0.009
 5714.00    0.70744   0.71033    0.009
 5715.00    0.74719   0.69459    0.009
 5716.00    0.78201   0.68053    0.009
 5717.00    0.73214   0.66849    0.009
 5718.00    0.68753   0.66510    0.009
 5719.00    0.69840   0.67095    0.009
 5720.00    0.71178   0.67548    0.009
 5721.00    0.74387   0.68678    0.009
 5722.00    0.76636   0.70915    0.009
 5723.00    0.73400   0.72494    0.009
 5724.00    0.71643   0.73099    0.009
 5725.00    0.76602   0.73407    0.009
 5726.00    0.80505   0.73370    0.009
 5727.00    0.80472   0.73478    0.009
 5728.00    0.78847   0.73986    0.009
 5729.00    0.72271   0.74448    0.009
 5730.00    0.68006   0.74999    0.009
 5731.00    0.69848   0.75612    0.009
 5732.00    0.70362   0.75769    0.009
 5733.00    0.67859   0.75453    0.009
 5734.00    0.65120   0.74619    0.009
 5735.00    0.61917   0.73058    0.009
 5736.00    0.60656   0.72058    0.009
 5737.00    0.62723   0.72916    0.009
 5738.00    0.65501   0.74053    0.009
 5739.00    0.69347   0.73428    0.009
 5740.00    0.70492   0.72094    0.000
 5741.00    0.68078   0.72325    0.000
 5742.00    0.69363   0.73786    0.000
 5743.00    0.74944   0.74717    0.000
 5744.00    0.78653   0.74676    0.000
 5745.00    0.80446   0.74096    0.000
 5746.00    0.79270   0.73605    0.000
 5747.00    0.75412   0.73489    0.000
 5748.00    0.69225   0.73551    0.000
 5749.00    0.61183   0.73601    0.000
 5750.00    0.62180   0.73434    0.000
 5751.00    0.69507   0.73020    0.000
 5752.00    0.76548   0.72993    0.000
 5753.00    0.83414   0.73857    0.000
 5754.00    0.82651   0.74850    0.000
 5755.00    0.77796   0.74538    0.000
 5756.00    0.72841   0.72804    0.000
 5757.00    0.67839   0.71674    0.000
 5758.00    0.67024   0.72653    0.000
 5759.00    0.67889   0.74098    0.000
 5760.00    0.71706   0.73779    0.000
 5761.00    0.76534   0.71681    0.000
 5762.00    0.76219   0.69550    0.000
 5763.00    0.74421   0.69353    0.000
 5764.00    0.77904   0.71379    0.000
 5765.00    0.82644   0.73701    0.000
 5766.00    0.80639   0.74811    0.000
 5767.00    0.77340   0.74677    0.000
 5768.00    0.75908   0.73510    0.000
 5769.00    0.74754   0.71761    0.000
 5770.00    0.78111   0.69997    0.000
 5771.00    0.81960   0.69035    0.000
 5772.00    0.81748   0.70021    0.000
 5773.00    0.81245   0.72536    0.000
 5774.00    0.78601   0.74314    0.000
 5775.00    0.75877   0.74726    0.000
 5776.00    0.77130   0.74721    0.000
 5777.00    0.78393   0.74550    0.000
 5778.00    0.79397   0.74153    0.000
 5779.00    0.80021   0.73753    0.000
 5780.00    0.74533   0.73245    0.000
 5781.00    0.69506   0.72752    0.000
 5782.00    0.69145   0.72591    0.000
 5783.00    0.69113   0.72461    0.000
 5784.00    0.71460   0.72596    0.000
 5785.00    0.72859   0.73218    0.000
 5786.00    0.68992   0.73578    0.000
 5787.00    0.66594   0.73225    0.000
 5788.00    0.70709   0.71780    0.000
 5789.00    0.73664   0.69071    0.000
 5790.00    0.72387   0.66776    0.000
 5791.00    0.71235   0.66661   -2.000
 5792.00    0.70462   0.67503   -2.000
 5793.00    0.69584   0.67254   -2.000
 5794.00    0.68434   0.66770   -2.000
 5795.00    0.66392   0.68089   -2.000
 5796.00    0.62357   0.70354   -2.000
 5797.00    0.59724   0.71710   -2.000
 5798.00    0.59801   0.71915   -2.000
 5799.00    0.59824   0.71005   -2.000
 5800.00    0.59755   0.70337   -2.000
 5801.00    0.62683   0.71208   -2.000
 5802.00    0.70041   0.72510   -2.000
 5803.00    0.77192   0.73448   -2.000
 5804.00    0.84072   0.73895   -2.000
 5805.00    0.85546   0.73033   -2.000
 5806.00    0.80831   0.71312   -2.000
 5807.00    0.76076   0.70956   -2.000
 5808.00    0.71282   0.72755   -2.000
 5809.00    0.70915   0.74646   -2.000
 5810.00    0.74492   0.75395   -2.000
 5811.00    0.74909   0.75300    0.000
 5812.00    0.72846   0.74165    0.000
 5813.00    0.69255   0.72456    0.000
 5814.00    0.64610   0.71648    0.000
 5815.00    0.64332   0.71871    0.000
 5816.00    0.66695   0.72401    0.000
 5817.00    0.69190   0.72750    0.000
 5818.00    0.71754   0.72982    0.000
 5819.00    0.72150   0.73400    0.000
 5820.00    0.71551   0.73719    0.000
 5821.00    0.69394   0.73640    0.000
 5822.00    0.66620   0.73321    0.000
 5823.00    0.69845   0.72523    0.000
 5824.00    0.75084   0.71217    0.000
 5825.00    0.76190   0.70508    0.000
 5826.00    0.76129   0.71435    0.000
 5827.00    0.71697   0.73236    0.000
 5828.00    0.66248   0.74354    0.000
 5829.00    0.64677   0.74583    0.000
 5830.00    0.63830   0.74340    0.000
 5831.00    0.66559   0.73808    0.000
 5832.00    0.69805   0.73401    0.000
 5833.00    0.67621   0.73470    0.000
 5834.00    0.64869   0.73797    0.000
 5835.00    0.63338   0.73839    0.000
 5836.00    0.61890   0.73727    0.000
 5837.00    0.64666   0.73798    0.000
 5838.00    0.67580   0.74088    0.000
 5839.00    0.64933   0.74142    0.000
 5840.00    0.62539   0.73818    0.000
 5841.00    0.68231   0.73636    0.000
 5842.00    0.73424   0.73387    0.000
 5843.00    0.71093   0.72705    0.000
 5844.00    0.69184   0.72429    0.000
 5845.00    0.71358   0.73002    0.000
 5846.00    0.73616   0.73088    0.000
 5847.00    0.76460   0.72436    0.000
 5848.00    0.78798   0.72541    0.000
 5849.00    0.78396   0.73531    0.000
 5850.00    0.76028   0.74341    0.000
 5851.00    0.65139   0.74575    0.000
 5852.00    0.56337   0.74437    0.000
 5853.00    0.54986   0.73907    0.000
 5854.00    0.55882   0.73073    0.000
 5855.00    0.63511   0.72118    0.000
 5856.00    0.68625   0.71315    0.000
 5857.00    0.67325   0.71257    0.000
 5858.00    0.66357   0.71710    0.000
 5859.00    0.66118   0.71950    0.000
 5860.00    0.65153   0.71458    0.000
 5861.00    0.62804   0.70087    0.000
 5862.00    0.62737   0.68832    0.000
 5863.00    0.66461   0.69055    0.000
 5864.00    0.68360   0.69821    0.000
 5865.00    0.67599   0.68970    0.000
 5866.00    0.69142   0.66904    0.000
 5867.00    0.73635   0.66321    0.000
 5868.00    0.74920   0.67821    0.000
 5869.00    0.72585   0.69562    0.000
 5870.00    0.72217   0.70367    0.000
 5871.00    0.73807   0.70014    0.000
 5872.00    0.74619   0.69821    0.000
 5873.00    0.74749   0.70448    0.000
 5874.00    0.73223   0.70602    0.000
 5875.00    0.70418   0.69654    0.000
 5876.00    0.70019   0.69231    0.000
 5877.00    0.71255   0.70336    0.000
 5878.00    0.70664   0.71656    0.000
 5879.00    0.68982   0.72224    0.000
 5880.00    0.68143   0.72014    0.000
 5881.00    0.67740   0.71316    0.000
 5882.00    0.65830   0.70780    0.000
 5883.00    0.63240   0.71012    0.000
 5884.00    0.62428   0.71375    0.000
 5885.00    0.62306   0.71011    0.000
 5886.00    0.66622   0.70374    0.000
 5887.00    0.72402   0.69846    0.000
 5888.00    0.73422   0.69016    0.000
 5889.00    0.73125   0.68117    0.000
 5890.00    0.73170   0.68291    0.000
 5891.00    0.73292   0.69091    0.000
 5892.00    0.68235   0.68935    0.000
 5893.00    0.62237   0.68251    0.000
 5894.00    0.57734   0.68320    0.000
 5895.00    0.53439   0.68414    0.000
 5896.00    0.60282   0.66504    0.000
 5897.00    0.68243   0.60724    0.000
 5898.00    0.67751   0.51968    0.000
 5899.00    0.66720   0.47166    0.000
 5900.00    0.64401   0.51144    0.000
 5901.00    0.62053   0.57855    0.009
 5902.00    0.62686   0.61029    0.009
 5903.00    0.63277   0.59857    0.009
 5904.00    0.62651   0.54578    0.008
 5905.00    0.62519   0.51121    0.008
 5906.00    0.69415   0.55243    0.008
 5907.00    0.75349   0.61548    0.008
 5908.00    0.72325   0.64558    0.008
 5909.00    0.69011   0.66143    0.008
 5910.00    0.63722   0.67622    0.008
 5911.00    0.59548   0.68279    0.008
 5912.00    0.61248   0.68515    0.008
 5913.00    0.63344   0.68627    0.008
 5914.00    0.67119   0.68277    0.008
 5915.00    0.70263   0.68027    0.008
 5916.00    0.71204   0.68530    0.008
 5917.00    0.71770   0.69160    0.008
 5918.00    0.71230   0.69269    0.008
 5919.00    0.70896   0.69290    0.008
 5920.00    0.71078   0.69731    0.008
 5921.00    0.71575   0.69714    0.008
 5922.00    0.72752   0.68400    0.008
 5923.00    0.72685   0.66659    0.008
 5924.00    0.70286   0.66111    0.008
 5925.00    0.67957   0.66568    0.008
 5926.00    0.65742   0.67586    0.008
 5927.00    0.66490   0.68525    0.008
 5928.00    0.71493   0.69013    0.008
 5929.00    0.72652   0.69387    0.008
 5930.00    0.68958   0.69135    0.009
 5931.00    0.65384   0.68468    0.009
 5932.00    0.61942   0.68511    0.008
 5933.00    0.63927   0.69094    0.008
 5934.00    0.71241   0.69563    0.008
 5935.00    0.76371   0.69904    0.008
 5936.00    0.79613   0.69703    0.008
 5937.00    0.78411   0.68863    0.008
 5938.00    0.73820   0.67718    0.008
 5939.00    0.70940   0.67112    0.008
 5940.00    0.69208   0.68155    0.008
 5941.00    0.68944   0.69633    0.008
 5942.00    0.69542   0.69518    0.008
 5943.00    0.69000   0.68078    0.008
 5944.00    0.67874   0.67406    0.008
 5945.00    0.69616   0.68371    0.008
 5946.00    0.72629   0.69343    0.008
 5947.00    0.73974   0.69737    0.008
 5948.00    0.74683   0.69989    0.008
 5949.00    0.72942   0.69261    0.008
 5950.00    0.70410   0.67749    0.008
 5951.00    0.68003   0.67308    0.008
 5952.00    0.65630   0.68046    0.008
 5953.00    0.66006   0.68998    0.008
 5954.00    0.66993   0.69836    0.008
 5955.00    0.67005   0.70242    0.008
 5956.00    0.66843   0.69649    0.008
 5957.00    0.69055   0.68093    0.008
 5958.00    0.71587   0.67035    0.009
 5959.00    0.63819   0.67805    0.008
 5960.00    0.55060   0.68821    0.008
 5961.00    0.59023   0.68040    0.008
 5962.00    0.63745   0.66954    0.008
 5963.00    0.68451   0.67674    0.008
 5964.00    0.73103   0.68615    0.008
 5965.00    0.69370   0.67927    0.008
 5966.00    0.65822   0.66921    0.008
 5967.00    0.66971   0.67081    0.008
 5968.00    0.68278   0.68057    0.008
 5969.00    0.71728   0.69187    0.008
 5970.00    0.74657   0.69976    0.008
 5971.00    0.72925   0.70245    0.008
 5972.00    0.71363   0.70074    0.008
 5973.00    0.70919   0.69742    0.008
 5974.00    0.69888   0.69009    0.008
 5975.00    0.65843   0.68407    0.008
 5976.00    0.62132   0.68975    0.008
 5977.00    0.59803   0.69736    0.008
 5978.00    0.58939   0.70077    0.008
 5979.00    0.63090   0.70392    0.008
 5980.00    0.66788   0.70631    0.008
 5981.00    0.69178   0.70536    0.008
 5982.00    0.69696   0.70395    0.008
 5983.00    0.65601   0.69939    0.008
 5984.00    0.61428   0.68749    0.008
 5985.00    0.57093   0.67350    0.008
 5986.00    0.53561   0.66605    0.008
 5987.00    0.51513   0.66752    0.008
 5988.00    0.53657   0.67635    0.008
 5989.00    0.62559   0.68892    0.008
 5990.00    0.69170   0.69470    0.008
 5991.00    0.72539   0.68898    0.008
 5992.00    0.72051   0.67183    0.008
 5993.00    0.66761   0.65313    0.008
 5994.00    0.64083   0.65435    0.008
 5995.00    0.64270   0.67003    0.008
 5996.00    0.64367   0.67856    0.008
 5997.00    0.64378   0.68116    0.008
 5998.00    0.63315   0.68697    0.008
 5999.00    0.61336   0.68967    0.008
 6000.00    0.62013   0.68241    0.008
 6001.00    0.64689   0.67870    0.008
 6002.00    0.67799   0.68935    0.008
 6003.00    0.71197   0.70003    0.008
 6004.00    0.71427   0.69908    0.008
 6005.00    0.69826   0.68923    0.008
 6006.00    0.67069   0.67579    0.008
 6007.00    0.63730   0.66876    0.008
 6008.00    0.61792   0.67286    0.008
 6009.00    0.60464   0.68128    0.008
 6010.00    0.60712   0.68552    0.008
 6011.00    0.61550   0.67768    0.008
 6012.00    0.64847   0.66856    0.008
 6013.00    0.68925   0.67448    0.008
 6014.00    0.72106   0.68095    0.008
 6015.00    0.75048   0.67391    0.008
 6016.00    0.73577   0.65842    0.008
 6017.00    0.71149   0.64478    0.008
 6018.00    0.69612   0.65389    0.008
 6019.00    0.68229   0.67862    0.008
 6020.00    0.70876   0.68908    0.008
 6021.00    0.74048   0.67795    0.008
 6022.00    0.73645   0.66241    0.008
 6023.00    0.72913   0.66223    0.008
 6024.00    0.68615   0.67046    0.008
 6025.00    0.64117   0.66765    0.008
 6026.00    0.63853   0.66241    0.008
 6027.00    0.63691   0.66688    0.008
 6028.00    0.64496   0.66694    0.008
 6029.00    0.65271   0.65790    0.008
 6030.00    0.65338   0.65452    0.008
 6031.00    0.65340   0.65992    0.008
 6032.00    0.64505   0.66499    0.008
 6033.00    0.64386   0.66650    0.008
 6034.00    0.70434   0.67411    0.008
 6035.00    0.75887   0.68065    0.008
 6036.00    0.77535   0.67870    0.008
 6037.00    0.78193   0.68255    0.008
 6038.00    0.73907   0.69046    0.008
 6039.00    0.69965   0.69156    0.008
 6040.00    0.67419   0.68867    0.008
 6041.00    0.65035   0.69122    0.008
 6042.00    0.63193   0.69617    0.008
 6043.00    0.62264   0.69693    0.008
 6044.00    0.63923   0.69554    0.008
 6045.00    0.66712   0.69529    0.008
 6046.00    0.72234   0.69587    0.008
 6047.00    0.75317   0.69531    0.008
 6048.00    0.73302   0.69104    0.008
 6049.00    0.71362   0.68565    0.008
 6050.00    0.69559   0.68441    0.008
 6051.00    0.67605   0.68481    0.008
 6052.00    0.65411   0.69031    0.008
 6053.00    0.62431   0.69743    0.008
 6054.00    0.58356   0.69925    0.008
 6055.00    0.56574   0.69969    0.008
 6056.00    0.57609   0.70074    0.008
 6057.00    0.58522   0.69927    0.008
 6058.00    0.59303   0.69534    0.008
 6059.00    0.60111   0.69755    0.008
 6060.00    0.60943   0.70072    0.008
 6061.00    0.61001   0.69734    0.008
 6062.00    0.60408   0.68921    0.008
 6063.00    0.59667   0.68394    0.008
 6064.00    0.58815   0.68002    0.008
 6065.00    0.60628   0.67437    0.008
 6066.00    0.64174   0.67270    0.008
 6067.00    0.66482   0.67772    0.008
 6068.00    0.68085   0.68612    0.008
 6069.00    0.66123   0.69162    0.008
 6070.00    0.62394   0.69214    0.008
 6071.00    0.61880   0.68688    0.008
 6072.00    0.62744   0.67785    0.008
 6073.00    0.65869   0.66576    0.008
 6074.00    0.69825   0.65041    0.008
 6075.00    0.70326   0.65270    0.008
 6076.00    0.69750   0.67685    0.008
 6077.00    0.65610   0.69633    0.008
 6078.00    0.60544   0.70136    0.008
 6079.00    0.58463   0.70053    0.008
 6080.00    0.57013   0.70054    0.008
 6081.00    0.55293   0.70224    0.009
 6082.00    0.53526   0.70338    0.010
 6083.00    0.48375   0.70317    0.010
 6084.00    0.42798   0.70150    0.010
 6085.00    0.46760   0.69637    0.010
 6086.00    0.51559   0.68838    0.010
 6087.00    0.56363   0.67584    0.010
 6088.00    0.61168   0.66794    0.010
 6089.00    0.63763   0.67163    0.009
 6090.00    0.66256   0.67068    0.008
 6091.00    0.64174   0.66161    0.008
 6092.00    0.62155   0.66199    0.008
 6093.00    0.61478   0.66910    0.008
 6094.00    0.60801   0.66871    0.008
 6095.00    0.60127   0.66675    0.008
 6096.00    0.59567   0.67147    0.008
 6097.00    0.59953   0.67788    0.008
 6098.00    0.60496   0.67435    0.008
 6099.00    0.62004   0.66191    0.008
 6100.00    0.63433   0.65651    0.008
 6101.00    0.64475   0.65961    0.008
 6102.00    0.65625   0.66209    0.008
 6103.00    0.67205   0.66869    0.008
 6104.00    0.68678   0.68053    0.008
 6105.00    0.69794   0.68344    0.008
 6106.00    0.71044   0.67739    0.008
 6107.00    0.72668   0.67507    0.008
 6108.00    0.73982   0.68087    0.008
 6109.00    0.74561   0.68650    0.008
 6110.00    0.74144   0.67582    0.008
 6111.00    0.71677   0.64008    0.008
 6112.00    0.70884   0.61392    0.008
 6113.00    0.73087   0.63161    0.008
 6114.00    0.74047   0.66307    0.008
 6115.00    0.73063   0.67651    0.008
 6116.00    0.71680   0.67324    0.008
 6117.00    0.69747   0.66752    0.008
 6118.00    0.67106   0.67348    0.008
 6119.00    0.63609   0.68110    0.008
 6120.00    0.61440   0.67553    0.008
 6121.00    0.60689   0.66985    0.008
 6122.00    0.61301   0.67663    0.008
 6123.00    0.63196   0.68658    0.008
 6124.00    0.64683   0.68707    0.008
 6125.00    0.65831   0.67687    0.008
 6126.00    0.66056   0.67125    0.008
 6127.00    0.65607   0.67580    0.008
 6128.00    0.64355   0.67298    0.008
 6129.00    0.62589   0.65858    0.008
 6130.00    0.61517   0.63881    0.008
 6131.00    0.60833   0.61975    0.008
 6132.00    0.60822   0.62574    0.008
 6133.00    0.61140   0.65391    0.008
 6134.00    0.62221   0.66896    0.008
 6135.00    0.63623   0.66591    0.008
 6136.00    0.66323   0.65975    0.008
 6137.00    0.69491   0.65498    0.008
 6138.00    0.66560   0.65603    0.008
 6139.00    0.61768   0.66580    0.008
 6140.00    0.60007   0.67580    0.008
 6141.00    0.59016   0.67938    0.008
 6142.00    0.62046   0.67969    0.008
 6143.00    0.65908   0.67270    0.008
 6144.00    0.68569   0.65147    0.008
 6145.00    0.71036   0.61519    0.008
 6146.00    0.68892   0.58170    0.008
 6147.00    0.66189   0.58788    0.008
 6148.00    0.66344   0.63144    0.008
 6149.00    0.66738   0.66395    0.008
 6150.00    0.65776   0.65947    0.008
 6151.00    0.64750   0.64510    0.008
 6152.00    0.61136   0.65273    0.007
 6153.00    0.57559   0.67242    0.007
 6154.00    0.58240   0.68192    0.007
 6155.00    0.58996   0.68059    0.008
 6156.00    0.61217   0.67498    0.008
 6157.00    0.63029   0.66589    0.008
 6158.00    0.60110   0.65522    0.008
 6159.00    0.57115   0.64819    0.008
 6160.00    0.53516   0.64964    0.008
 6161.00    0.50548   0.65831    0.008
 6162.00    0.51380   0.66591    0.008
 6163.00    0.51896   0.66121    0.008
 6164.00    0.50902   0.65087    0.008
 6165.00    0.50585   0.64922    0.008
 6166.00    0.52888   0.65141    0.008
 6167.00    0.55350   0.65094    0.008
 6168.00    0.58319   0.64885    0.008
 6169.00    0.59582   0.63434    0.008
 6170.00    0.56180   0.59714    0.008
 6171.00    0.53835   0.56059    0.008
 6172.00    0.53967   0.55553    0.008
 6173.00    0.54868   0.57957    0.008
 6174.00    0.57325   0.60698    0.008
 6175.00    0.58397   0.62188    0.008
 6176.00    0.57028   0.63080    0.008
 6177.00    0.55460   0.62940    0.008
 6178.00    0.53584   0.60603    0.008
 6179.00    0.53710   0.58608    0.007
 6180.00    0.56548   0.59926    0.007
 6181.00    0.58766   0.62591    0.007
 6182.00    0.60242   0.63541    0.007
 6183.00    0.60392   0.63484    0.008
 6184.00    0.59146   0.63639    0.008
 6185.00    0.61163   0.63528    0.008
 6186.00    0.66206   0.63241    0.008
 6187.00    0.69584   0.63735    0.008
 6188.00    0.71598   0.64407    0.008
 6189.00    0.69570   0.64302    0.008
 6190.00    0.64633   0.64347    0.008
 6191.00    0.59645   0.64968    0.008
 6192.00    0.54624   0.65263    0.008
 6193.00    0.54226   0.65184    0.008
 6194.00    0.56381   0.64959    0.008
 6195.00    0.55829   0.64060    0.008
 6196.00    0.53977   0.62877   -2.000
 6197.00    0.61647   0.62255   -2.000
 6198.00    0.73266   0.62213   -2.000
 6199.00    0.74289   0.61626   -2.000
 6200.00    0.71556   0.59546   -2.000
 6201.00    0.51322   0.58429   -2.000
 6202.00    0.25850   0.60353   -2.000
 6203.00    0.18742   0.62892   -2.000
 6204.00    0.16197   0.64011   -2.000
 6205.00    0.23895   0.64453   -2.000
 6206.00    0.33656   0.64892   -2.000
 6207.00    0.41124   0.64648   -2.000
 6208.00    0.48231   0.63052    0.008
 6209.00    0.51957   0.61434    0.008
 6210.00    0.55285   0.61692    0.008
 6211.00    0.52166   0.63327    0.008
 6212.00    0.48535   0.64548    0.007
 6213.00    0.47519   0.64747    0.007
 6214.00    0.46618   0.64556    0.008
 6215.00    0.53258   0.64602    0.008
 6216.00    0.59958   0.64763    0.008
 6217.00    0.65638   0.64759    0.008
 6218.00    0.70862   0.64670    0.008
 6219.00    0.67780   0.64332    0.008
 6220.00    0.64655   0.63783    0.008
 6221.00    0.61064   0.63098    0.008
 6222.00    0.57897   0.61572    0.008
 6223.00    0.58009   0.59657    0.008
 6224.00    0.58389   0.58641    0.008
 6225.00    0.60333   0.58858    0.008
 6226.00    0.61995   0.60123    0.008
 6227.00    0.62352   0.61284    0.008
 6228.00    0.62337   0.60926    0.008
 6229.00    0.60914   0.59859    0.008
 6230.00    0.59723   0.59694    0.008
 6231.00    0.59266   0.60603    0.008
 6232.00    0.59229   0.61504    0.008
 6233.00    0.60323   0.61531    0.007
 6234.00    0.59875   0.61408    0.007
 6235.00    0.55879   0.61784    0.007
 6236.00    0.52880   0.62150    0.007
 6237.00    0.51866   0.62132    0.007
 6238.00    0.52538   0.61194    0.007
 6239.00    0.56137   0.58893    0.007
 6240.00    0.58694   0.56989    0.007
 6241.00    0.59670   0.57283    0.008
 6242.00    0.59753   0.58872    0.008
 6243.00    0.58643   0.60884    0.008
 6244.00    0.58422   0.62819    0.008
 6245.00    0.59246   0.63597    0.008
 6246.00    0.59490   0.63087    0.008
 6247.00    0.59134   0.62029    0.008
 6248.00    0.58791   0.60812    0.009
 6249.00    0.58459   0.59678    0.009
 6250.00    0.58232   0.59555    0.008
 6251.00    0.58090   0.59829    0.008
 6252.00    0.58091   0.59010    0.008
 6253.00    0.58193   0.58281    0.008
 6254.00    0.57526   0.58595    0.008
 6255.00    0.56380   0.58932    0.008
 6256.00    0.55074   0.59595    0.008
 6257.00    0.53682   0.61095    0.008
 6258.00    0.53033   0.62249    0.008
 6259.00    0.52735   0.62370    0.008
 6260.00    0.56073   0.61561    0.008
 6261.00    0.60892   0.59795    0.009
 6262.00    0.67275   0.58209    0.009
 6263.00    0.74203   0.57905    0.010
 6264.00    0.70794   0.58330    0.009
 6265.00    0.64353   0.58269    0.009
 6266.00    0.56646   0.57365    0.009
 6267.00    0.48632   0.56270    0.008
 6268.00    0.49508   0.56265    0.008
 6269.00    0.52130   0.57849    0.008
 6270.00    0.59187   0.59554    0.008
 6271.00    0.66922   0.60774    0.008
 6272.00    0.67690   0.62086    0.008
 6273.00    0.67671   0.62539    0.008
 6274.00    0.69935   0.61421    0.008
 6275.00    0.72371   0.60533    0.008
 6276.00    0.68118   0.61091    0.008
 6277.00    0.63595   0.61744    0.008
 6278.00    0.60348   0.61472    0.008
 6279.00    0.57208   0.61012    0.008
 6280.00    0.58057   0.61086    0.000
 6281.00    0.59153   0.61634    0.000
 6282.00    0.64459   0.62230    0.000
 6283.00    0.69324   0.62348    0.000
 6284.00    0.69547   0.62140    0.000
 6285.00    0.69185   0.62134    0.000
 6286.00    0.64456   0.62219    0.000
 6287.00    0.60183   0.62168    0.000
 6288.00    0.58508   0.61788    0.000
 6289.00    0.57274   0.60814    0.000
 6290.00    0.58041   0.59995    0.000
 6291.00    0.59680   0.60198    0.000
 6292.00    0.64557   0.61135    0.000
 6293.00    0.68334   0.62080    0.000
 6294.00    0.68701   0.62353    0.000
 6295.00    0.69065   0.62320    0.000
 6296.00    0.69424   0.62781    0.000
 6297.00    0.69318   0.63535    0.000
 6298.00    0.68159   0.64030    0.000
 6299.00    0.65481   0.63767    0.000
 6300.00    0.59822   0.62827    0.000
 6301.00    0.57756   0.61987    0.000
 6302.00    0.61833   0.61625    0.000
 6303.00    0.64995   0.61874    0.000
 6304.00    0.66786   0.62256    0.000
 6305.00    0.67561   0.61626    0.000
 6306.00    0.66999   0.60263    0.000
 6307.00    0.65865   0.59708    0.000
 6308.00    0.64069   0.60359    0.000
 6309.00    0.61974   0.60983    0.000
 6310.00    0.59574   0.60455    0.000
 6311.00    0.57833   0.59444    0.000
 6312.00    0.56687   0.59484    0.000
 6313.00    0.55465   0.60549    0.000
 6314.00    0.54183   0.61285    0.000
 6315.00    0.54885   0.61476    0.000
 6316.00    0.56972   0.62172    0.000
 6317.00    0.58481   0.63315    0.000
 6318.00    0.59637   0.63752    0.000
 6319.00    0.59921   0.63116    0.000
 6320.00    0.59739   0.62025    0.000
 6321.00    0.60439   0.61314    0.007
 6322.00    0.61549   0.61361    0.008
 6323.00    0.60746   0.61310    0.008
 6324.00    0.59176   0.60451    0.008
 6325.00    0.58900   0.59914    0.008
 6326.00    0.59065   0.59986    0.008
 6327.00    0.58829   0.59306    0.008
 6328.00    0.58477   0.58583    0.008
 6329.00    0.58980   0.59415    0.008
 6330.00    0.59686   0.60843    0.008
 6331.00    0.59058   0.61375    0.008
 6332.00    0.58175   0.61430    0.007
 6333.00    0.59775   0.61956    0.007
 6334.00    0.61743   0.62664    0.007
 6335.00    0.64644   0.62929    0.007
 6336.00    0.67645   0.62719    0.007
 6337.00    0.68566   0.62562    0.007
 6338.00    0.69338   0.62827    0.007
 6339.00    0.68486   0.62795    0.007
 6340.00    0.67574   0.62387    0.007
 6341.00    0.63878   0.62571    0.007
 6342.00    0.60266   0.63250    0.007
 6343.00    0.59954   0.63162    0.007
 6344.00    0.59638   0.61461    0.007
 6345.00    0.59264   0.59299    0.007
 6346.00    0.58959   0.58781    0.007
 6347.00    0.59342   0.59881    0.007
 6348.00    0.60245   0.60905    0.007
 6349.00    0.64903   0.61537    0.008
 6350.00    0.68242   0.62300    0.008
 6351.00    0.64285   0.62548    0.008
 6352.00    0.60858   0.61623    0.008
 6353.00    0.59778   0.60217    0.008
 6354.00    0.59740   0.59753    0.008
 6355.00    0.63492   0.60432    0.008
 6356.00    0.66161   0.61123    0.008
 6357.00    0.65530   0.61570    0.008
 6358.00    0.63904   0.62162    0.008
 6359.00    0.59698   0.62608    0.008
 6360.00    0.54900   0.62731    0.007
 6361.00    0.48784   0.62822    0.008
 6362.00    0.44762   0.62657    0.008
 6363.00    0.44783   0.61761    0.008
 6364.00    0.46658   0.60546    0.008
 6365.00    0.51654   0.60174    0.008
 6366.00    0.56028   0.60522    0.007
 6367.00    0.59484   0.60047    0.007
 6368.00    0.60749   0.58717    0.007
 6369.00    0.59170   0.58042    0.007
 6370.00    0.57198   0.58035    0.008
 6371.00    0.54778   0.57665    0.008
 6372.00    0.54086   0.57283    0.008
 6373.00    0.55134   0.57748    0.008
 6374.00    0.57767   0.58805    0.008
 6375.00    0.61808   0.59787    0.008
 6376.00    0.64172   0.60628    0.008
 6377.00    0.65224   0.61539    0.008
 6378.00    0.64704   0.62172    0.008
 6379.00    0.63102   0.61984    0.008
 6380.00    0.63823   0.61524    0.008
 6381.00    0.65946   0.61833    0.008
 6382.00    0.65690   0.62763    0.008
 6383.00    0.64180   0.63305    0.007
 6384.00    0.65421   0.63146    0.007
 6385.00    0.67919   0.62943    0.007
 6386.00    0.68237   0.62952    0.007
 6387.00    0.67697   0.62560    0.007
 6388.00    0.65491   0.61734    0.007
 6389.00    0.62726   0.61209    0.007
 6390.00    0.64459   0.61191    0.007
 6391.00    0.67458   0.61520    0.007
 6392.00    0.68866   0.61983    0.007
 6393.00    0.69905   0.61977    0.008
 6394.00    0.67022   0.61620    0.008
 6395.00    0.63407   0.61752    0.008
 6396.00    0.59095   0.62340    0.008
 6397.00    0.54683   0.62632    0.008
 6398.00    0.56148   0.62553    0.008
 6399.00    0.58225   0.62601    0.008
 6400.00    0.60684   0.62636    0.008
 6401.00    0.63169   0.61848    0.008
 6402.00    0.63557   0.59944    0.008
 6403.00    0.63878   0.58436    0.008
 6404.00    0.63262   0.59125    0.008
 6405.00    0.62688   0.61176    0.008
 6406.00    0.63414   0.62653    0.008
 6407.00    0.64241   0.62946    0.008
 6408.00    0.66591   0.61649    0.008
 6409.00    0.68835   0.59026    0.007
 6410.00    0.70048   0.57838    0.007
 6411.00    0.70872   0.59779    0.007
 6412.00    0.68976   0.62323    0.007
 6413.00    0.67276   0.63328    0.007
 6414.00    0.66631   0.63331    0.007
 6415.00    0.65957   0.62879    0.007
 6416.00    0.65155   0.61898    0.007
 6417.00    0.63737   0.60658    0.007
 6418.00    0.60132   0.60406    0.007
 6419.00    0.57647   0.61365    0.007
 6420.00    0.58516   0.61510    0.007
 6421.00    0.58400   0.60511    0.007
 6422.00    0.55777   0.60294    0.007
 6423.00    0.53893   0.60908    0.007
 6424.00    0.53626   0.61310    0.008
 6425.00    0.54873   0.61659    0.008
 6426.00    0.59000   0.62064    0.008
 6427.00    0.60965   0.62039    0.008
 6428.00    0.59344   0.61379    0.008
 6429.00    0.57771   0.60081    0.008
 6430.00    0.56268   0.58754    0.008
 6431.00    0.56843   0.58823    0.008
 6432.00    0.60076   0.60670    0.008
 6433.00    0.61629   0.62503    0.008
 6434.00    0.61291   0.62823    0.007
 6435.00    0.59675   0.62512    0.007
 6436.00    0.56791   0.62791    0.007
 6437.00    0.58089   0.63333    0.007
 6438.00    0.63054   0.63130    0.007
 6439.00    0.66115   0.61612    0.007
 6440.00    0.67707   0.59470    0.007
 6441.00    0.67303   0.58650    0.007
 6442.00    0.65545   0.59828    0.007
 6443.00    0.64729   0.61400    0.007
 6444.00    0.64474   0.62294    0.007
 6445.00    0.63716   0.62662    0.007
 6446.00    0.62699   0.62544    0.008
 6447.00    0.63105   0.61414    0.008
 6448.00    0.64152   0.59442    0.008
 6449.00    0.63285   0.58775    0.008
 6450.00    0.61678   0.60535    0.008
 6451.00    0.58025   0.62655    0.008
 6452.00    0.53699   0.63473    0.008
 6453.00    0.53266   0.63455    0.008
 6454.00    0.53908   0.63361    0.008
 6455.00    0.55626   0.63570    0.008
 6456.00    0.57588   0.63840    0.007
 6457.00    0.62721   0.63231    0.007
 6458.00    0.68430   0.60794    0.007
 6459.00    0.70103   0.57308    0.007
 6460.00    0.71216   0.55970    0.007
 6461.00    0.70174   0.57999    0.007
 6462.00    0.68918   0.60718    0.007
 6463.00    0.66161   0.62060    0.007
 6464.00    0.63309   0.61723    0.007
 6465.00    0.61557   0.60408    0.007
 6466.00    0.59852   0.59954    0.007
 6467.00    0.63018   0.61133    0.007
 6468.00    0.66214   0.62707    0.007
 6469.00    0.70277   0.63537    0.007
 6470.00    0.74238   0.63202    0.008
 6471.00    0.76744   0.61163    0.008
 6472.00    0.78774   0.58408    0.008
 6473.00    0.76383   0.57833    0.008
 6474.00    0.73943   0.59708    0.008
 6475.00    0.71179   0.61484    0.008
 6476.00    0.68209   0.62374    0.008
 6477.00    0.64159   0.62806    0.008
 6478.00    0.60238   0.62641    0.008
 6479.00    0.56859   0.61917    0.008
 6480.00    0.54679   0.61114    0.007
 6481.00    0.56681   0.60586    0.007
 6482.00    0.58976   0.60884    0.007
 6483.00    0.62129   0.61650    0.007
 6484.00    0.64748   0.61497    0.007
 6485.00    0.66026   0.60859    0.007
 6486.00    0.66687   0.61089    0.007
 6487.00    0.66014   0.61791    0.007
 6488.00    0.64833   0.61939    0.007
 6489.00    0.62700   0.61752    0.007
 6490.00    0.60620   0.61171    0.007
 6491.00    0.58626   0.59634    0.007
 6492.00    0.58808   0.58208    0.007
 6493.00    0.62106   0.58357    0.007
 6494.00    0.63900   0.59630    0.007
 6495.00    0.63795   0.60653    0.007
 6496.00    0.63357   0.61079    0.008
 6497.00    0.62548   0.61322    0.008
 6498.00    0.62912   0.61398    0.008
 6499.00    0.64425   0.60909    0.008
 6500.00    0.65431   0.60068    0.008
 6501.00    0.65999   0.59396    0.008
 6502.00    0.65184   0.58440    0.008
 6503.00    0.63318   0.55986    0.007
 6504.00    0.61075   0.52741    0.007
 6505.00    0.58580   0.51323    0.007
 6506.00    0.56645   0.52153    0.007
 6507.00    0.55038   0.53775    0.007
 6508.00    0.55594   0.55167    0.007
 6509.00    0.57256   0.55995    0.007
 6510.00    0.59140   0.57165    0.007
 6511.00    0.61123   0.58537    0.007
 6512.00    0.63830   0.59354    0.007
 6513.00    0.66813   0.59836    0.007
 6514.00    0.67205   0.60266    0.007
 6515.00    0.66761   0.60699    0.007
 6516.00    0.64396   0.60948    0.007
 6517.00    0.61511   0.60615    0.007
 6518.00    0.62396   0.59933    0.007
 6519.00    0.64116   0.59756    0.007
 6520.00    0.61817   0.60272    0.008
 6521.00    0.58810   0.60721    0.008
 6522.00    0.57480   0.60747    0.008
 6523.00    0.56376   0.60679    0.007
 6524.00    0.58360   0.60376    0.008
 6525.00    0.60641   0.59653    0.008
 6526.00    0.61050   0.58996    0.008
 6527.00    0.61349   0.58620    0.008
 6528.00    0.61592   0.58255    0.000
 6529.00    0.61835   0.58475    0.000
 6530.00    0.62204   0.59598    0.000
 6531.00    0.62578   0.60541    0.000
 6532.00    0.63070   0.60718    0.000
 6533.00    0.63428   0.60594    0.000
 6534.00    0.61985   0.60733    0.000
 6535.00    0.60591   0.60687    0.000
 6536.00    0.59632   0.59848    0.000
 6537.00    0.58899   0.59070    0.000
 6538.00    0.59652   0.59314    0.000
 6539.00    0.60660   0.60069    0.000
 6540.00    0.62975   0.60399    0.000
 6541.00    0.65125   0.59930    0.000
 6542.00    0.66593   0.59028    0.000
 6543.00    0.67356   0.58636    0.000
 6544.00    0.65708   0.59232    0.000
 6545.00    0.64507   0.60178    0.000
 6546.00    0.64593   0.60435    0.000
 6547.00    0.66071   0.60028    0.000
 6548.00    0.70970   0.59957    0.000
 6549.00    0.74301   0.60567    0.000
 6550.00    0.74307   0.60964    0.000
 6551.00    0.74368   0.60517    0.000
 6552.00    0.74529   0.59667    0.000
 6553.00    0.72852   0.59034    0.000
 6554.00    0.68216   0.58515    0.000
 6555.00    0.64003   0.57462    0.000
 6556.00    0.60387   0.56252    0.000
 6557.00    0.57121   0.56383    0.000
 6558.00    0.54289   0.57564    0.000
 6559.00    0.53542   0.58293    0.000
 6560.00    0.55076   0.58038    0.000
 6561.00    0.67659   0.57292    0.000
 6562.00    0.90916   0.56721    0.000
 6563.00    1.19596   0.56152    0.000
 6564.00    1.52896   0.55160    0.000
 6565.00    1.76299   0.54185    0.000
 6566.00    1.92278   0.54004    0.000
 6567.00    1.86460   0.54493    0.000
 6568.00    1.66275   0.54686    0.000
 6569.00    1.38306   0.54119    0.000
 6570.00    1.05846   0.52464    0.000
 6571.00    0.85783   0.47919    0.000
 6572.00    0.71953   0.40607    0.000
 6573.00    0.68042   0.37463    0.000
 6574.00    0.68447   0.42816    0.000
 6575.00    0.66257   0.50116    0.000
 6576.00    0.63098   0.53907    0.000
 6577.00    0.59835   0.55396    0.000
 6578.00    0.56539   0.55586    0.000
 6579.00    0.58583   0.54913    0.000
 6580.00    0.62039   0.54862    0.000
 6581.00    0.64995   0.55379    0.000
 6582.00    0.67843   0.55173    0.000
 6583.00    0.77266   0.54346    0.000
 6584.00    0.87817   0.53892    0.000
 6585.00    1.03556   0.54396    0.000
 6586.00    1.19968   0.56002    0.000
 6587.00    1.21613   0.57676    0.000
 6588.00    1.21908   0.58451    0.000
 6589.00    1.06783   0.58279    0.000
 6590.00    0.90807   0.57416    0.000
 6591.00    0.77081   0.56703    0.000
 6592.00    0.63528   0.57091    0.000
 6593.00    0.61823   0.57920    0.000
 6594.00    0.60214   0.58287    0.000
 6595.00    0.60836   0.58118    0.000
 6596.00    0.61443   0.57813    0.000
 6597.00    0.61853   0.58192    0.000
 6598.00    0.61980   0.59003    0.000
 6599.00    0.59667   0.59355    0.000
 6600.00    0.57851   0.59266    0.000
 6601.00    0.59191   0.58286    0.000
 6602.00    0.60754   0.55930    0.000
 6603.00    0.63427   0.53758    0.000
 6604.00    0.65367   0.54227    0.000
 6605.00    0.64350   0.56473    0.000
 6606.00    0.63075   0.57795    0.000
 6607.00    0.60936   0.57736    0.000
 6608.00    0.59251   0.57191    0.000
 6609.00    0.58856   0.57230    0.007
 6610.00    0.60201   0.58223    0.007
 6611.00    0.65752   0.59210    0.007
 6612.00    0.68797   0.59363    0.007
 6613.00    0.66611   0.58922    0.008
 6614.00    0.63319   0.58257    0.008
 6615.00    0.58017   0.57631    0.007
 6616.00    0.55107   0.57322    0.007
 6617.00    0.55990   0.57004    0.007
 6618.00    0.57221   0.56237    0.007
 6619.00    0.58937   0.55558    0.007
 6620.00    0.59551   0.56358    0.007
 6621.00    0.58817   0.58122    0.007
 6622.00    0.58241   0.58905    0.007
 6623.00    0.57835   0.58387    0.007
 6624.00    0.57686   0.58061    0.007
 6625.00    0.57780   0.58724    0.007
 6626.00    0.57763   0.59179    0.007
 6627.00    0.57652   0.58884    0.007
 6628.00    0.58392   0.58623    0.007
 6629.00    0.59761   0.58844    0.007
 6630.00    0.60335   0.59246    0.007
 6631.00    0.60393   0.59413    0.007
 6632.00    0.59384   0.59106    0.007
 6633.00    0.57769   0.58186    0.007
 6634.00    0.58080   0.56854    0.007
 6635.00    0.59343   0.56234    0.007
 6636.00    0.60049   0.56984    0.007
 6637.00    0.60515   0.57798    0.008
 6638.00    0.60928   0.57930    0.007
 6639.00    0.61321   0.57759    0.007
 6640.00    0.63724   0.57467    0.007
 6641.00    0.66751   0.57133    0.007
 6642.00    0.67426   0.56493    0.007
 6643.00    0.67491   0.55416    0.007
 6644.00    0.68520   0.54914    0.007
 6645.00    0.69752   0.55799    0.007
 6646.00    0.69356   0.57101    0.007
 6647.00    0.68689   0.57857    0.007
 6648.00    0.66750   0.57925    0.007
 6649.00    0.64651   0.57418    0.007
 6650.00    0.60432   0.57110    0.007
 6651.00    0.56028   0.57640    0.007
 6652.00    0.54681   0.57664    0.007
 6653.00    0.53491   0.56341    0.007
 6654.00    0.54465   0.55709    0.007
 6655.00    0.55452   0.56611    0.007
 6656.00    0.54688   0.57356    0.007
 6657.00    0.53983   0.57224    0.007
 6658.00    0.54525   0.57070    0.007
 6659.00    0.55302   0.57395    0.007
 6660.00    0.58923   0.57563    0.007
 6661.00    0.62546   0.57233    0.008
 6662.00    0.66173   0.56938    0.008
 6663.00    0.68933   0.56902    0.008
 6664.00    0.66333   0.56970    0.007
 6665.00    0.64226   0.57148    0.007
 6666.00    0.64511   0.57074    0.007
 6667.00    0.64355   0.56939    0.007
 6668.00    0.62462   0.57104    0.007
 6669.00    0.61087   0.57104    0.007
 6670.00    0.61410   0.56727    0.007
 6671.00    0.61758   0.56328    0.007
 6672.00    0.62173   0.55681    0.007
 6673.00    0.62138   0.54542    0.007
 6674.00    0.61031   0.54364    0.007
 6675.00    0.60459   0.55246    0.007
 6676.00    0.60985   0.55659    0.007
 6677.00    0.59867   0.55581    0.007
 6678.00    0.55814   0.55670    0.007
 6679.00    0.53474   0.56338    0.008
 6680.00    0.53810   0.57138    0.008
 6681.00    0.55648   0.57465    0.008
 6682.00    0.59548   0.57327    0.007
 6683.00    0.62357   0.57212    0.007
 6684.00    0.63850   0.57281    0.008
 6685.00    0.63203   0.57371    0.008
 6686.00    0.60276   0.56811    0.007
 6687.00    0.58298   0.54842    0.007
 6688.00    0.57210   0.52885    0.007
 6689.00    0.58315   0.53509    0.007
 6690.00    0.61238   0.55435    0.007
 6691.00    0.61769   0.56073    0.007
 6692.00    0.60559   0.56070    0.007
 6693.00    0.59646   0.56353    0.007
 6694.00    0.58924   0.56732    0.007
 6695.00    0.58933   0.56844    0.007
 6696.00    0.59351   0.56728    0.000
 6697.00    0.58562   0.56519    0.000
 6698.00    0.57184   0.56291    0.000
 6699.00    0.58213   0.56379    0.000
 6700.00    0.60255   0.56635    0.000
 6701.00    0.61610   0.56741    0.000
 6702.00    0.62718   0.56662    0.000
 6703.00    0.63141   0.56634    0.000
 6704.00    0.63355   0.56477    0.000
 6705.00    0.64027   0.55795    0.000
 6706.00    0.64815   0.54739    0.000
 6707.00    0.66478   0.54369    0.000
 6708.00    0.68321   0.54787    0.000
 6709.00    0.68863   0.55503    0.000
 6710.00    0.69194   0.56367    0.000
 6711.00    0.68655   0.56762    0.000
 6712.00    0.68010   0.56460    0.000
 6713.00    0.65403   0.55728    0.000
 6714.00    0.62632   0.55057    0.000
 6715.00    0.62702   0.55119    0.000
 6716.00    0.62908   0.55744    0.000
 6717.00    0.76061   0.56106    0.000
 6718.00    0.89294   0.56128    0.000
 6719.00    0.96777   0.56021    0.000
 6720.00    1.03577   0.55592    0.000
 6721.00    0.97051   0.55408    0.000
 6722.00    0.90355   0.55545    0.000
 6723.00    0.81693   0.55270    0.000
 6724.00    0.73259   0.54688    0.000
 6725.00    0.66633   0.53996    0.000
 6726.00    0.60389   0.53112    0.000
 6727.00    0.56431   0.52214    0.000
 6728.00    0.53279   0.52313    0.000
 6729.00    0.53944   0.53767    0.000
 6730.00    0.56115   0.54962    0.000
 6731.00    0.64108   0.55018    0.000
 6732.00    0.72510   0.54790    0.000
 6733.00    0.82232   0.55176    0.000
 6734.00    0.89497   0.55672    0.000
 6735.00    0.90066   0.55403    0.000
 6736.00    0.87741   0.54709    0.000
 6737.00    0.78652   0.54637    0.000
 6738.00    0.69427   0.55064    0.000
 6739.00    0.59927   0.55419    0.000
 6740.00    0.51433   0.55719    0.000
 6741.00    0.44709   0.55853    0.000
 6742.00    0.41994   0.55674    0.000
 6743.00    0.45455   0.55269    0.000
 6744.00    0.50229   0.55053    0.000
 6745.00    0.56780   0.55229    0.000
 6746.00    0.61786   0.55544    0.000
 6747.00    0.64952   0.55333    0.000
 6748.00    0.66041   0.54557    0.000
 6749.00    0.64950   0.54034    0.000
 6750.00    0.62447   0.54261    0.000
 6751.00    0.58637   0.54747    0.000
 6752.00    0.59630   0.54579    0.000
 6753.00    0.64544   0.54033    0.009
 6754.00    0.66732   0.54145    0.009
 6755.00    0.66964   0.54627    0.009
 6756.00    0.66558   0.54617    0.009
 6757.00    0.65750   0.54313    0.009
 6758.00    0.60636   0.54058    0.009
 6759.00    0.53149   0.53786    0.009
 6760.00    0.49675   0.53536    0.009
 6761.00    0.48123   0.53781    0.009
 6762.00    0.50725   0.53969    0.009
 6763.00    0.55045   0.53668    0.009
 6764.00    0.59583   0.53885    0.009
 6765.00    0.64197   0.54421    0.009
 6766.00    0.65975   0.54792    0.009
 6767.00    0.66907   0.55236    0.009
 6768.00    0.67444   0.55672    0.009
 6769.00    0.67883   0.55914    0.009
 6770.00    0.65748   0.56041    0.009
 6771.00    0.63097   0.55899    0.008
 6772.00    0.63135   0.55495    0.008
 6773.00    0.63595   0.55449    0.008
 6774.00    0.63315   0.55635    0.008
 6775.00    0.62950   0.55505    0.008
 6776.00    0.57567   0.54789    0.008
 6777.00    0.51788   0.53867    0.008
 6778.00    0.51783   0.53625    0.008
 6779.00    0.52029   0.54153    0.008
 6780.00    0.51461   0.54328    0.008
 6781.00    0.50932   0.53943    0.008
 6782.00    0.52659   0.53980    0.008
 6783.00    0.54138   0.54675    0.008
 6784.00    0.51104   0.55448    0.008
 6785.00    0.48055   0.55894    0.008
 6786.00    0.44835   0.56043    0.008
 6787.00    0.42268   0.55931    0.008
 6788.00    0.44726   0.55894    0.008
 6789.00    0.47722   0.56165    0.008
 6790.00    0.53855   0.56214    0.008
 6791.00    0.59515   0.55808    0.008
 6792.00    0.62980   0.54967    0.008
 6793.00    0.66501   0.53802    0.008
 6794.00    0.70236   0.52840    0.008
 6795.00    0.71263   0.52646    0.008
 6796.00    0.63740   0.53040    0.008
 6797.00    0.58745   0.53771    0.008
 6798.00    0.60521   0.54561    0.008
 6799.00    0.61596   0.54786    0.008
 6800.00    0.61062   0.54628    0.008
 6801.00    0.61228   0.54712    0.008
 6802.00    0.62787   0.54745    0.008
 6803.00    0.64389   0.54285    0.008
 6804.00    0.66065   0.53869    0.008
 6805.00    0.65489   0.53876    0.008
 6806.00    0.61496   0.53969    0.008
 6807.00    0.58991   0.54175    0.008
 6808.00    0.58470   0.54379    0.008
 6809.00    0.57114   0.54460    0.008
 6810.00    0.54779   0.54600    0.008
 6811.00    0.57299   0.54840    0.008
 6812.00    0.64844   0.55030    0.008
 6813.00    0.68218   0.54844    0.009
 6814.00    0.67785   0.54477    0.009
 6815.00    0.62510   0.54498    0.009
 6816.00    0.53340   0.54544    0.008
 6817.00    0.51019   0.54304    0.008
 6818.00    0.53546   0.54343    0.008
 6819.00    0.55684   0.54396    0.008
 6820.00    0.57581   0.54141    0.008
 6821.00    0.57661   0.54175    0.008
 6822.00    0.56756   0.54490    0.008
 6823.00    0.58271   0.54552    0.008
 6824.00    0.60926   0.54099    0.008
 6825.00    0.60599   0.53605    0.008
 6826.00    0.59059   0.53911    0.008
 6827.00    0.58242   0.54715    0.008
 6828.00    0.57676   0.55040    0.008
 6829.00    0.60163   0.54666    0.008
 6830.00    0.63544   0.54104    0.008
 6831.00    0.63444   0.54063    0.008
 6832.00    0.62501   0.54636    0.008
 6833.00    0.66611   0.55202    0.008
 6834.00    0.71710   0.55380    0.008
 6835.00    0.68247   0.55326    0.008
 6836.00    0.63479   0.55207    0.008
 6837.00    0.60852   0.54741    0.008
 6838.00    0.58465   0.53951    0.008
 6839.00    0.54553   0.53599    0.009
 6840.00    0.50527   0.54055    0.009
 6841.00    0.46037   0.54708    0.008
 6842.00    0.41528   0.54858    0.008
 6843.00    0.49687   0.54640    0.017
 6844.00    0.58037   0.54726   -1.000
 6845.00    0.70534   0.55103   -1.000
 6846.00    0.82034   0.55163   -1.000
 6847.00    0.76695   0.54785   -1.000
 6848.00    0.71828   0.54221   -1.000
 6849.00    0.71889   0.53494   -1.000
 6850.00    0.71613   0.52683   -1.000
 6851.00    0.68824   0.51922   -1.000
 6852.00    0.66057   0.51590   -1.000
 6853.00    0.63412   0.52077   -1.000
 6854.00    0.61378   0.53151    0.086
 6855.00    0.62110   0.54095    0.013
 6856.00    0.62158   0.54439    0.008
 6857.00    0.59675   0.54451    0.008
 6858.00    0.57503   0.54516    0.008
 6859.00    0.56290   0.54509    0.008
 6860.00    0.55175   0.54389    0.008
 6861.00    0.54317   0.54294    0.008
 6862.00    0.52937   0.54327    0.008
 6863.00    0.50380   0.54366    0.008
 6864.00    0.48907   0.53809    0.008
 6865.00    0.49558   0.52680    0.008
 6866.00    0.51296   0.52204    0.008
 6867.00    0.54889   0.52588    0.008
 6868.00    0.58655   0.53000    0.008
 6869.00    0.62681   0.53281    0.008
 6870.00    0.65140   0.53168    0.008
 6871.00    0.65540   0.52434    0.008
 6872.00    0.65289   0.52045    0.008
 6873.00    0.64285   0.52836    0.008
 6874.00    0.62572   0.54059    0.008
 6875.00    0.60134   0.54524    0.008
 6876.00    0.59609   0.54131    0.008
 6877.00    0.60804   0.53228    0.008
 6878.00    0.58983   0.52292    0.008
 6879.00    0.54769   0.52309    0.008
 6880.00    0.52505   0.53195    0.008
 6881.00    0.51602   0.53520    0.008
 6882.00    0.54754   0.52972    0.008
 6883.00    0.60387   0.52660    0.008
 6884.00    0.64063   0.52944    0.008
 6885.00    0.66693   0.53168    0.008
 6886.00    0.67345   0.53239    0.008
 6887.00    0.67079   0.53600    0.008
 6888.00    0.62111   0.54156    0.008
 6889.00    0.55264   0.54366    0.008
 6890.00    0.57044   0.54160    0.008
 6891.00    0.61764   0.53613    0.008
 6892.00    0.59250   0.52822    0.008
 6893.00    0.54663   0.52410    0.008
 6894.00    0.53680   0.52831    0.008
 6895.00    0.53552   0.53510    0.008
 6896.00    0.58365   0.53642    0.008
 6897.00    0.64120   0.53675    0.008
 6898.00    0.68103   0.54176    0.008
 6899.00    0.71824   0.54615    0.008
 6900.00    0.67226   0.54788    0.008
 6901.00    0.61730   0.55025    0.008
 6902.00    0.64954   0.55005    0.008
 6903.00    0.68795   0.54664    0.008
 6904.00    0.64875   0.54489    0.008
 6905.00    0.60676   0.54322    0.008
 6906.00    0.58822   0.54033    0.008
 6907.00    0.57062   0.54039    0.008
 6908.00    0.58297   0.54429    0.008
 6909.00    0.59565   0.54567    0.008
 6910.00    0.61361   0.54164    0.008
 6911.00    0.62757   0.53985    0.008
 6912.00    0.60140   0.54436    0.008
 6913.00    0.58351   0.54829    0.008
 6914.00    0.62513   0.54687    0.008
 6915.00    0.65740   0.54390    0.008
 6916.00    0.63815   0.54444    0.008
 6917.00    0.61595   0.54826    0.008
 6918.00    0.58073   0.55071    0.008
 6919.00    0.55213   0.55095    0.008
 6920.00    0.54754   0.55041    0.008
 6921.00    0.53860   0.54841    0.008
 6922.00    0.51642   0.54484    0.008
 6923.00    0.50957   0.53946    0.008
 6924.00    0.54238   0.53280    0.008
 6925.00    0.58054   0.53092    0.008
 6926.00    0.63059   0.53414    0.008
 6927.00    0.64449   0.53576    0.008
 6928.00    0.58875   0.53713    0.008
 6929.00    0.53309   0.54084    0.008
 6930.00    0.47755   0.54492    0.008
 6931.00    0.45130   0.54793    0.008
 6932.00    0.46818   0.54906    0.008
 6933.00    0.48386   0.54582    0.008
 6934.00    0.49797   0.53655    0.008
 6935.00    0.51492   0.52684    0.008
 6936.00    0.53510   0.52389    0.008
 6937.00    0.56272   0.52885    0.008
 6938.00    0.59782   0.53627    0.008
 6939.00    0.61939   0.54060    0.008
 6940.00    0.62895   0.54175    0.008
 6941.00    0.59420   0.54119    0.008
 6942.00    0.52480   0.53804    0.008
 6943.00    0.49128   0.53259    0.008
 6944.00    0.48244   0.53130    0.008
 6945.00    0.50870   0.53678    0.008
 6946.00    0.55610   0.54138    0.008
 6947.00    0.57764   0.54081    0.008
 6948.00    0.58557   0.53879    0.008
 6949.00    0.56889   0.53988    0.008
 6950.00    0.54098   0.54397    0.008
 6951.00    0.53340   0.54741    0.008
 6952.00    0.53381   0.54626    0.008
 6953.00    0.54886   0.54020    0.008
 6954.00    0.56881   0.53140    0.008
 6955.00    0.56910   0.52306    0.008
 6956.00    0.56387   0.52245    0.008
 6957.00    0.54521   0.53094    0.008
 6958.00    0.52344   0.53988    0.008
 6959.00    0.54041   0.54417    0.008
 6960.00    0.56457   0.54354    0.008
 6961.00    0.59329   0.53772    0.008
 6962.00    0.62267   0.53143    0.008
 6963.00    0.61812   0.52891    0.008
 6964.00    0.61006   0.52821    0.008
 6965.00    0.60260   0.52950    0.008
 6966.00    0.59517   0.53444    0.008
 6967.00    0.57219   0.53983    0.008
 6968.00    0.54871   0.54174    0.008
 6969.00    0.57863   0.54148    0.008
 6970.00    0.60815   0.54163    0.008
 6971.00    0.62534   0.54281    0.008
 6972.00    0.63758   0.54407    0.008
 6973.00    0.57625   0.54505    0.008
 6974.00    0.51665   0.54594    0.008
 6975.00    0.47361   0.54440    0.008
 6976.00    0.44724   0.54034    0.008
 6977.00    0.53680   0.54013    0.008
 6978.00    0.61511   0.54604    0.008
 6979.00    0.63311   0.55085    0.008
 6980.00    0.63399   0.54898    0.008
 6981.00    0.56114   0.54273    0.008
 6982.00    0.50471   0.54006    0.008
 6983.00    0.50657   0.54464    0.008
 6984.00    0.51617   0.54808    0.008
 6985.00    0.54884   0.54324    0.008
 6986.00    0.58356   0.53476    0.008
 6987.00    0.62351   0.52538    0.008
 6988.00    0.63243   0.51122    0.008
 6989.00    0.57353   0.49949    0.008
 6990.00    0.51063   0.50446    0.008
 6991.00    0.44017   0.52193    0.008
 6992.00    0.40046   0.53675    0.008
 6993.00    0.41165   0.54491    0.008
 6994.00    0.42420   0.54883    0.008
 6995.00    0.43870   0.54947    0.008
 6996.00    0.48035   0.54862    0.008
 6997.00    0.55663   0.54764    0.008
 6998.00    0.61429   0.54504    0.008
 6999.00    0.65100   0.53931    0.008
 7000.00    0.63498   0.53456    0.008
 7001.00    0.56667   0.53659    0.008
 7002.00    0.53683   0.54302    0.008
 7003.00    0.54064   0.54691    0.008
 7004.00    0.55576   0.54529    0.008
 7005.00    0.57959   0.54169    0.008
 7006.00    0.59084   0.54127    0.008
 7007.00    0.59357   0.54370    0.008
 7008.00    0.59554   0.54382    0.008
 7009.00    0.59707   0.53749    0.008
 7010.00    0.56980   0.52814    0.008
 7011.00    0.52762   0.52555    0.008
 7012.00    0.52364   0.53219    0.008
 7013.00    0.53679   0.53828    0.008
 7014.00    0.57305   0.53581    0.008
 7015.00    0.61822   0.52934    0.008
 7016.00    0.63746   0.52676    0.008
 7017.00    0.64819   0.52852    0.008
 7018.00    0.63353   0.53232    0.008
 7019.00    0.61188   0.53707    0.008
 7020.00    0.59560   0.53995    0.008
 7021.00    0.58053   0.53813    0.008
 7022.00    0.57272   0.53543    0.008
 7023.00    0.56622   0.53699    0.008
 7024.00    0.58061   0.53872    0.009
 7025.00    0.59789   0.53159    0.009
 7026.00    0.60343   0.51514    0.009
 7027.00    0.60780   0.50458    0.008
 7028.00    0.62946   0.51356    0.008
 7029.00    0.65219   0.53190    0.008
 7030.00    0.69740   0.54330    0.008
 7031.00    0.74278   0.54662    0.008
 7032.00    0.66310   0.54424    0.008
 7033.00    0.58478   0.53512    0.008
 7034.00    0.54388   0.52339    0.008
 7035.00    0.50336   0.51885    0.008
 7036.00    0.46807   0.52435    0.008
 7037.00    0.43789   0.53185    0.008
 7038.00    0.45484   0.53544    0.008
 7039.00    0.46883   0.53730    0.008
 7040.00    0.46284   0.53983    0.008
 7041.00    0.47233   0.54160    0.008
 7042.00    0.56276   0.54079    0.009
 7043.00    0.64031   0.53831    0.009
 7044.00    0.66364   0.53695    0.009
 7045.00    0.66709   0.53817    0.009
 7046.00    0.60138   0.54160    0.009
 7047.00    0.54588   0.54155    0.009
 7048.00    0.52026   0.53095    0.009
 7049.00    0.51635   0.51993    0.008
 7050.00    0.56663   0.52643   -2.000
 7051.00    0.59731   0.54564   -2.000
 7052.00    0.58587   0.56012   -2.000
 7053.00    0.57305   0.56414   -2.000
 7054.00    0.55767   0.55960   -2.000
 7055.00    0.55450   0.55014   -2.000
 7056.00    0.57126   0.54450   -2.000
 7057.00    0.61426   0.54871   -2.000
 7058.00    0.69480   0.55734   -2.000
 7059.00    0.68055   0.56262   -2.000
 7060.00    0.54703   0.56225   -2.000
 7061.00    0.50456   0.55763   -2.000
 7062.00    0.56306   0.54729   -2.000
 7063.00    0.62750   0.53035   -2.000
 7064.00    0.69776   0.51505   -2.000
 7065.00    0.67144   0.50886   -2.000
 7066.00    0.56181   0.51115   -2.000
 7067.00    0.53654   0.51820   -2.000
 7068.00    0.57536   0.52308   -2.000
 7069.00    0.61375   0.51935   -2.000
 7070.00    0.65183   0.50895   -2.000
 7071.00    0.66141   0.50175   -2.000
 7072.00    0.65432   0.50322   -2.000
 7073.00    0.67228   0.50838   -2.000
 7074.00    0.70302   0.51309   -2.000
 7075.00    0.68452   0.51691   -2.000
 7076.00    0.64429   0.51529   -2.000
 7077.00    0.61995   0.50691   -2.000
 7078.00    0.60163   0.49638   -2.000
 7079.00    0.62305   0.49095   -2.000
 7080.00    0.65725   0.49743   -2.000
 7081.00    0.67948   0.51137   -2.000
 7082.00    0.69849   0.52069   -2.000
 7083.00    0.68818   0.52228   -2.000
 7084.00    0.67140   0.52166   -2.000
 7085.00    0.64770   0.52116   -2.000
 7086.00    0.62278   0.51966   -2.000
 7087.00    0.62160   0.51862   -2.000
 7088.00    0.62359   0.51986   -2.000
 7089.00    0.55233   0.52213   -2.000
 7090.00    0.47411   0.52433   -2.000
 7091.00    0.51692   0.52700   -2.000
 7092.00    0.56683   0.52642   -2.000
 7093.00    0.52067   0.51783   -2.000
 7094.00    0.47224   0.50238   -2.000
 7095.00    0.43674   0.48804   -2.000
 7096.00    0.40250   0.48499   -2.000
 7097.00    0.39993   0.48999   -2.000
 7098.00    0.39877   0.49062   -2.000
 7099.00    0.41645   0.48625   -2.000
 7100.00    0.43312   0.48178   -2.000
 7101.00    0.44085   0.47913   -2.000
 7102.00    0.45250   0.48024   -2.000
 7103.00    0.48974   0.48219   -2.000
 7104.00    0.51814   0.48201   -2.000
 7105.00    0.50147   0.48249   -2.000
 7106.00    0.48869   0.48312   -2.000
 7107.00    0.49190   0.48383   -2.000
 7108.00    0.49819   0.48596   -2.000
 7109.00    0.51498   0.49074   -2.000
 7110.00    0.55277   0.49694   -2.000
 7111.00    0.65094   0.49840   -2.000
 7112.00    0.69232   0.49487   -2.000
 7113.00    0.59438   0.49012   -2.000
 7114.00    0.53783   0.49006   -2.000
 7115.00    0.56886   0.49579   -2.000
 7116.00    0.58730   0.50001   -2.000
 7117.00    0.58259   0.49671   -2.000
 7118.00    0.60115   0.49170   -2.000
 7119.00    0.65710   0.49152   -2.000
 7120.00    0.65783   0.49203   -2.000
 7121.00    0.58072   0.48732   -2.000
 7122.00    0.56713   0.48184   -2.000
 7123.00    0.63235   0.48323   -2.000
 7124.00    0.71213   0.48976   -2.000
 7125.00    0.80782   0.49452   -2.000
 7126.00    0.75494   0.49632   -2.000
 7127.00    0.55879   0.49755   -2.000
 7128.00    0.42557   0.49751   -2.000
 7129.00    0.34588   0.49585   -2.000
 7130.00    0.33523   0.49432   -2.000
 7131.00    0.37630   0.49288   -2.000
 7132.00    0.38983   0.48996   -2.000
 7133.00    0.38525   0.48763   -2.000
 7134.00    0.35484   0.49036   -2.000
 7135.00    0.30956   0.49268   -2.000
 7136.00    0.37357   0.48709   -2.000
 7137.00    0.49243   0.47934   -2.000
 7138.00    0.53140   0.47785   -2.000
 7139.00    0.53568   0.47990   -2.000
 7140.00    0.53703   0.47621   -2.000
 7141.00    0.53729   0.46738   -2.000
 7142.00    0.59952   0.46448   -2.000
 7143.00    0.68133   0.47130   -2.000
 7144.00    0.60405   0.48053   -2.000
 7145.00    0.48483   0.48726   -2.000
 7146.00    0.52170   0.48966   -2.000
 7147.00    0.59222   0.49077   -2.000
 7148.00    0.53672   0.49302   -2.000
 7149.00    0.45969   0.48992   -2.000
 7150.00    0.57287   0.48354   -2.000
 7151.00    0.71068   0.48425   -2.000
 7152.00    0.70444   0.49087   -2.000
 7153.00    0.68511   0.49338   -2.000
 7154.00    0.64546   0.49183   -2.000
 7155.00    0.60469   0.49071   -2.000
 7156.00    0.53600   0.49021   -2.000
 7157.00    0.46829   0.48823   -2.000
 7158.00    0.54441   0.47991   -2.000
 7159.00    0.61684   0.47073   -2.000
 7160.00    0.60545   0.47285   -2.000
 7161.00    0.58255   0.48130   -2.000
 7162.00    0.41478   0.48823   -2.000
 7163.00    0.25984   0.49576   -2.000
 7164.00    0.21440   0.50168   -2.000
 7165.00    0.20275   0.50021   -2.000
 7166.00    0.40519   0.49518   -2.000
 7167.00    0.57570   0.49715   -2.000
 7168.00    0.58773   0.50449   -2.000
 7169.00    0.57727   0.50418   -2.000
 7170.00    0.47634   0.49677   -2.000
 7171.00    0.40461   0.49240   -2.000
 7172.00    0.43041   0.49514   -2.000
 7173.00    0.45411   0.49695   -2.000
 7174.00    0.47188   0.48528   -2.000
 7175.00    0.49533   0.46886   -2.000
 7176.00    0.53247   0.46168   -2.000
 7177.00    0.56120   0.47044   -2.000
 7178.00    0.57243   0.48536   -2.000
 7179.00    0.59797   0.49366   -2.000
 7180.00    0.64944   0.49310   -2.000
 7181.00    0.65229   0.49061   -2.000
 7182.00    0.57819   0.49289   -2.000
 7183.00    0.50777   0.49842   -2.000
 7184.00    0.44249   0.50055   -2.000
 7185.00    0.43151   0.49694   -2.000
 7186.00    0.48695   0.48961   -2.000
 7187.00    0.51510   0.48387   -2.000
 7188.00    0.51382   0.48740   -2.000
 7189.00    0.51754   0.49454   -2.000
 7190.00    0.52599   0.49062   -2.000
 7191.00    0.47240   0.47655   -2.000
 7192.00    0.36679   0.46788   -2.000
 7193.00    0.35531   0.47485   -2.000
 7194.00    0.41330   0.49033   -2.000
 7195.00    0.45630   0.49785   -2.000
 7196.00    0.48956   0.49463   -2.000
 7197.00    0.50475   0.48494   -2.000
 7198.00    0.50968   0.47125   -2.000
 7199.00    0.52072   0.46384   -2.000
 7200.00    0.53477   0.46699   -2.000
 7201.00    0.48932   0.47558   -2.000
 7202.00    0.41845   0.48268   -2.000
 7203.00    0.36012   0.48175   -2.000
 7204.00    0.30638   0.47824   -2.000
 7205.00    0.28934   0.48084   -2.000
 7206.00    0.28367   0.48731   -2.000
 7207.00    0.35852   0.48695   -2.000
 7208.00    0.45414   0.48111   -2.000
 7209.00    0.41820   0.48111   -2.000
 7210.00    0.35459   0.48588   -2.000
 7211.00    0.37477   0.48703   -2.000
 7212.00    0.40887   0.48313   -2.000
 7213.00    0.37902   0.48070   -2.000
 7214.00    0.34118   0.48624   -2.000
 7215.00    0.38697   0.49460   -2.000
 7216.00    0.44001   0.49468   -2.000
 7217.00    0.44284   0.48062   -2.000
 7218.00    0.44313   0.46265   -2.000
