###################################################################
## OUTPUT of StarlightChains_v04.for    [Cid@UFSC - 01/Apr/2007] ##
###################################################################

## Some input info
KUG0210-078._26_33.txt                   [arq_obs]
Base.CB07.vall.4m                        [arq_base]
Masks.EmLines.NEW.gm                     [arq_masks]
StCv04.C11.config                        [arq_config]
   66                                    [N_base]
    0                                    [N_YAV_components = # of components with extra extinction!]
    0                                    [i_FitPowerLaw (1/0 = Yes/No)]
-9.99                                    [alpha_PowerLaw]
CCM                                      [red_law_option]
 1.458241                                [q_norm = A(l_norm)/A(V)]

## (Re)Sampling Parameters
 3741.00                                 [l_ini (A)]
 7218.00                                 [l_fin (A)]
    1.00                                 [dl    (A)]     (OBS: dl_cushion =    50.00 A)

## Normalization info
 4020.00                                 [l_norm (A) - for base]
 4010.00                                 [llow_norm (A) - window for f_obs]
 4060.00                                 [lupp_norm (A) - window for f_obs]
4.148660E-17                             [fobs_norm (in input units)]

## S/N
 3691.00                                 [llow_SN (A) - window for S/N]
 7268.00                                 [lupp_SN (A) - window for S/N]
   3.713                                 [S/N in S/N window]
   6.041                                 [S/N in norm. window]
   0.038                                 [S/N_err in S/N window]
   0.062                                 [S/N_err in norm. window]
  1.0000                                 [fscale_chi2]

## etc...
    -2007329                             [idum_orig]
  2432                                   [NOl_eff]
  2426                                   [Nl_eff]
     6    NSIGMA                         [Ntot_cliped & clip_method]
  1117340                                [Nglobal_steps]
   7                                     [N_chains]
  43                                     [NEX0s_base = N_base in EX0s-fits]
 0   0   1        6   2.0   4.153E+03    [Clip-Bug, RC-Crash & Burn-In warning-flags, n_censored_weights, wei_nsig_threshold & wei_limit]
    56     55.894     55.492      0.402  [idt_all, wdt_TotTime, wdt_UsrTime & wdt_SysTime (sec)]

## Synthesis Results - Best model ##

 3.96363E-05                             [chi2/Nl_eff]
    10.41363                             [adev (%)]

    94.92020                             [sum-of-x (%)]
 4.51505E-17                             [Flux_tot (units of input spectrum!)]
 4.90175E-13                             [Mini_tot (???)]
 2.47127E-13                             [Mcor_tot (???)]

 258.62                                  [v0_min  (km/s)]
   0.00                                  [vd_min  (km/s)]
 0.1018                                  [AV_min  (mag)]
 0.0000                                  [YAV_min (mag)]

# j     x_j(%)      Mini_j(%)     Mcor_j(%)     age_j(yr)     Z_j      (L/M)_j    YAV?  Mstars   component_j        a/Fe...       SSP_chi2r SSP_adev(%)   SSP_AV   SSP_x(%)
  1     16.4506     1.4592E-01    2.8943E-01    1.000000E+06  0.00400  1.094E-02    0   1.0000   age020_m42            0.0000     5.6763E-05    15.5498   1.6074    89.3232
  2      0.0000     0.0000E+00    0.0000E+00    3.160000E+06  0.00400  4.007E-02    0   0.9999   age045_m42            0.0000     6.5393E-05    15.8902   0.8217    96.8213
  3      0.0970     3.7079E-04    6.9781E-04    5.010000E+06  0.00400  2.539E-02    0   0.9488   age055_m42            0.0000     6.1345E-05    15.5930   1.1761    93.6935
  4      0.0000     0.0000E+00    0.0000E+00    6.610000E+06  0.00400  2.620E-02    0   0.9220   age061_m42            0.0000     6.8489E-05    15.6938   0.7613    96.7058
  5      0.0000     0.0000E+00    0.0000E+00    1.000000E+07  0.00400  1.322E-02    0   0.8862   age070_m42            0.0000     5.8628E-05    13.7135   0.5748    96.7414
  6      0.0000     0.0000E+00    0.0000E+00    1.445000E+07  0.00400  7.883E-03    0   0.8571   age078_m42            0.0000     5.6294E-05    13.8873   0.9044    94.1936
  7      0.0000     0.0000E+00    0.0000E+00    2.512000E+07  0.00400  5.251E-03    0   0.8174   age090_m42            0.0000     5.8095E-05    13.3554   0.4572    97.0310
  8      0.0000     0.0000E+00    0.0000E+00    4.000000E+07  0.00400  3.649E-03    0   0.7851   age104_m42            0.0000     6.0727E-05    13.6065   0.2112    98.2892
  9      0.0000     0.0000E+00    0.0000E+00    5.500000E+07  0.00400  3.098E-03    0   0.7629   age110_m42            0.0000     7.0793E-05    14.6990   0.3133    99.3885
 10      0.0000     0.0000E+00    0.0000E+00    1.015200E+08  0.00400  2.228E-03    0   0.7207   age116_m42            0.0000     8.1289E-05    15.4316   0.3025   100.2207
 11      0.0000     0.0000E+00    0.0000E+00    2.861200E+08  0.00400  1.093E-03    0   0.6648   age125_m42            0.0000     8.6076E-05    14.9546  -0.2461   102.7045
 12      0.0000     0.0000E+00    0.0000E+00    5.088000E+08  0.00400  6.597E-04    0   0.6365   age130_m42            0.0000     1.0119E-04    16.1576  -0.3138   104.8507
 13      0.0000     0.0000E+00    0.0000E+00    1.434000E+09  0.00400  2.132E-04    0   0.5798   age139_m42            0.0000     1.0687E-04    14.7761  -1.0000   102.6788
 14      0.0000     0.0000E+00    0.0000E+00    4.250000E+09  0.00400  5.895E-05    0   0.5377   age158_m42            0.0000     1.4510E-04    18.0214  -1.0000    90.6568
 15      4.8148     1.3311E+01    1.3761E+01    7.500000E+09  0.00400  3.510E-05    0   0.5212   age171_m42            0.0000     1.8402E-04    20.8425  -1.0000    86.0446
 16      0.0000     0.0000E+00    0.0000E+00    1.300000E+10  0.00400  2.005E-05    0   0.5034   age193_m42            0.0000     2.2494E-04    23.8747  -1.0000    81.8451
 17      5.5964     3.5612E+01    3.5085E+01    1.800000E+10  0.00400  1.525E-05    0   0.4967   age213_m42            0.0000     2.2586E-04    24.2853  -1.0000    81.0189
 18      0.0000     0.0000E+00    0.0000E+00    1.000000E+06  0.00800  1.238E-02    0   1.0000   age020_m52            0.0000     5.7073E-05    15.5672   1.6032    89.5180
 19      0.2778     8.7698E-04    1.7336E-03    3.160000E+06  0.00800  3.074E-02    0   0.9966   age045_m52            0.0000     5.8191E-05    15.6262   1.5210    90.4334
 20      2.8194     1.0255E-02    1.9207E-02    5.010000E+06  0.00800  2.668E-02    0   0.9443   age055_m52            0.0000     5.9798E-05    15.4487   1.2712    92.5697
 21      0.6510     2.9574E-03    5.3832E-03    6.610000E+06  0.00800  2.136E-02    0   0.9177   age061_m52            0.0000     5.1826E-05    13.6868   0.0694    97.9902
 22      0.0000     0.0000E+00    0.0000E+00    1.000000E+07  0.00800  1.215E-02    0   0.8827   age070_m52            0.0000     5.4017E-05    13.1215   0.7856    95.8212
 23      0.0000     0.0000E+00    0.0000E+00    1.445000E+07  0.00800  8.717E-03    0   0.8552   age078_m52            0.0000     5.6810E-05    13.7939   0.8700    95.5044
 24      0.0000     0.0000E+00    0.0000E+00    2.512000E+07  0.00800  5.592E-03    0   0.8162   age090_m52            0.0000     5.8670E-05    13.2426   0.5230    98.1165
 25      0.0000     0.0000E+00    0.0000E+00    4.000000E+07  0.00800  3.896E-03    0   0.7841   age104_m52            0.0000     6.4097E-05    13.7745   0.4056    99.5156
 26      0.0000     0.0000E+00    0.0000E+00    1.015200E+08  0.00800  2.148E-03    0   0.7226   age116_m52            0.0000     7.5859E-05    14.8401   0.2955   100.3815
 27      0.0000     0.0000E+00    0.0000E+00    2.861200E+08  0.00800  9.925E-04    0   0.6683   age125_m52            0.0000     1.0161E-04    15.9961  -0.2429   105.6340
 28      0.0000     0.0000E+00    0.0000E+00    9.047900E+08  0.00800  3.141E-04    0   0.6138   age135_m52            0.0000     1.1867E-04    16.6382  -1.0000   110.0524
 29      0.0000     0.0000E+00    0.0000E+00    1.434000E+09  0.00800  1.719E-04    0   0.5853   age139_m52            0.0000     1.4102E-04    16.5507  -1.0000    97.0978
 30      0.0000     0.0000E+00    0.0000E+00    2.500000E+09  0.00800  7.872E-05    0   0.5600   age150_m52            0.0000     1.9422E-04    20.8106  -1.0000    88.8464
 31      0.0000     0.0000E+00    0.0000E+00    4.250000E+09  0.00800  4.336E-05    0   0.5426   age158_m52            0.0000     1.9718E-04    21.0811  -1.0000    87.6552
 32      0.0000     0.0000E+00    0.0000E+00    6.250000E+09  0.00800  3.159E-05    0   0.5319   age166_m52            0.0000     2.5500E-04    24.7705  -1.0000    82.8903
 33      1.5476     1.1034E+01    1.1103E+01    1.300000E+10  0.00800  1.361E-05    0   0.5073   age193_m52            0.0000     3.9660E-04    33.1061  -1.0000    70.8382
 34      4.0299     3.9558E+01    3.9153E+01    1.800000E+10  0.00800  9.886E-06    0   0.4990   age213_m52            0.0000     4.4977E-04    34.7367  -1.0000    67.6011
 35      0.0000     0.0000E+00    0.0000E+00    1.000000E+06  0.02000  1.544E-02    0   1.0000   age020_m62            0.0000     5.7451E-05    15.5806   1.6009    89.6894
 36     10.2736     2.6501E-02    5.1817E-02    3.160000E+06  0.02000  3.762E-02    0   0.9858   age045_m62            0.0000     5.8743E-05    15.6436   1.5380    90.5256
 37      3.5634     1.0491E-02    1.9440E-02    5.010000E+06  0.02000  3.296E-02    0   0.9342   age055_m62            0.0000     6.5878E-05    15.8991   1.1159    95.2639
 38     16.4579     1.3840E-01    2.4324E-01    8.710000E+06  0.02000  1.154E-02    0   0.8861   age067_m62            0.0000     4.0704E-05     9.5607   0.4087    94.7986
 39      0.0000     0.0000E+00    0.0000E+00    1.445000E+07  0.02000  7.663E-03    0   0.8472   age078_m62            0.0000     4.7674E-05    11.9075   0.4813    96.9420
 40      0.0000     0.0000E+00    0.0000E+00    2.512000E+07  0.02000  4.532E-03    0   0.8099   age090_m62            0.0000     4.9870E-05    11.7473   0.4804    96.4829
 41      0.0000     0.0000E+00    0.0000E+00    5.500000E+07  0.02000  2.733E-03    0   0.7595   age110_m62            0.0000     6.3971E-05    13.6866   0.3989    98.5407
 42      0.0000     0.0000E+00    0.0000E+00    1.609000E+08  0.02000  1.369E-03    0   0.6985   age120_m62            0.0000     9.1436E-05    15.3150   0.1611   102.9302
 43      0.0000     0.0000E+00    0.0000E+00    2.861200E+08  0.02000  9.013E-04    0   0.6714   age125_m62            0.0000     1.1347E-04    16.2944  -0.1357   106.9915
 44      0.0000     0.0000E+00    0.0000E+00    5.088000E+08  0.02000  5.028E-04    0   0.6449   age130_m62            0.0000     1.3062E-04    18.2103  -0.6157   112.2561
 45      0.0000     0.0000E+00    0.0000E+00    9.047900E+08  0.02000  2.428E-04    0   0.6179   age135_m62            0.0000     1.2206E-04    16.8955  -1.0000   108.5302
 46      0.0000     0.0000E+00    0.0000E+00    1.434000E+09  0.02000  1.263E-04    0   0.5908   age139_m62            0.0000     1.4882E-04    17.2584  -1.0000    98.6200
 47      0.0000     0.0000E+00    0.0000E+00    2.500000E+09  0.02000  5.985E-05    0   0.5673   age150_m62            0.0000     2.1684E-04    21.6299  -1.0000    89.3358
 48      0.0000     0.0000E+00    0.0000E+00    4.250000E+09  0.02000  3.271E-05    0   0.5468   age158_m62            0.0000     3.0801E-04    26.9211  -1.0000    81.1402
 49      0.0000     0.0000E+00    0.0000E+00    1.000000E+10  0.02000  1.360E-05    0   0.5167   age181_m62            0.0000     4.3696E-04    32.7315  -1.0000    71.7739
 50      0.0000     0.0000E+00    0.0000E+00    1.800000E+10  0.02000  7.124E-06    0   0.5013   age213_m62            0.0000     5.2787E-04    35.6270  -1.0000    65.6544
 51      9.4064     3.5216E-02    6.9837E-02    1.000000E+06  0.05000  2.592E-02    0   0.9998   age020_m72            0.0000     5.8044E-05    15.5279   1.6015    89.5526
 52      1.9038     3.8132E-03    7.2435E-03    3.160000E+06  0.05000  4.845E-02    0   0.9577   age045_m72            0.0000     6.1652E-05    15.8700   1.3977    92.1773
 53      5.8804     1.8576E-02    3.3702E-02    5.010000E+06  0.05000  3.072E-02    0   0.9147   age055_m72            0.0000     5.2173E-05    13.3984   1.0213    94.0438
 54     10.0864     6.7271E-02    1.1845E-01    6.610000E+06  0.05000  1.455E-02    0   0.8877   age061_m72            0.0000     4.1015E-05     9.4868   0.5033    94.2165
 55      0.0000     0.0000E+00    0.0000E+00    1.000000E+07  0.05000  9.074E-03    0   0.8524   age070_m72            0.0000     5.3164E-05    13.6471   1.1953    93.7655
 56      1.0637     2.4288E-02    3.8068E-02    2.512000E+07  0.05000  4.250E-03    0   0.7902   age090_m72            0.0000     5.8705E-05    13.4927   0.8864    95.8853
 57      0.0000     0.0000E+00    0.0000E+00    4.000000E+07  0.05000  3.087E-03    0   0.7618   age104_m72            0.0000     6.2159E-05    13.2646   0.6636    97.4067
 58      0.0000     0.0000E+00    0.0000E+00    1.015200E+08  0.05000  1.700E-03    0   0.7096   age116_m72            0.0000     8.5398E-05    14.6639   0.3365   101.7572
 59      0.0000     0.0000E+00    0.0000E+00    2.861200E+08  0.05000  7.384E-04    0   0.6633   age125_m72            0.0000     1.2501E-04    17.3258  -0.3219   109.7156
 60      0.0000     0.0000E+00    0.0000E+00    5.088000E+08  0.05000  3.819E-04    0   0.6372   age130_m72            0.0000     1.2553E-04    18.6568  -0.8998   113.5304
 61      0.0000     0.0000E+00    0.0000E+00    9.047900E+08  0.05000  1.676E-04    0   0.6110   age135_m72            0.0000     1.5923E-04    18.1650  -1.0000   101.1632
 62      0.0000     0.0000E+00    0.0000E+00    1.434000E+09  0.05000  8.837E-05    0   0.5874   age139_m72            0.0000     2.2702E-04    21.8026  -1.0000    90.5489
 63      0.0000     0.0000E+00    0.0000E+00    2.500000E+09  0.05000  4.233E-05    0   0.5598   age150_m72            0.0000     3.1991E-04    27.0908  -1.0000    81.7508
 64      0.0000     0.0000E+00    0.0000E+00    6.250000E+09  0.05000  1.435E-05    0   0.5249   age166_m72            0.0000     4.7136E-04    34.2159  -1.0000    69.0348
 65      0.0000     0.0000E+00    0.0000E+00    1.300000E+10  0.05000  6.513E-06    0   0.5036   age193_m72            0.0000     5.9314E-04    37.6320  -1.0000    62.2049
 66      0.0000     0.0000E+00    0.0000E+00    1.800000E+10  0.05000  4.527E-06    0   0.4945   age213_m72            0.0000     6.6423E-04    39.1899  -1.0000    57.8905


## Synthesis Results - Average & Chains ##

# j      x_j: min, <> & last-chain-values for 1 ...  7 chains
  1     16.4506      1.2257      0.1968      0.0000      5.2697      1.1529      2.3583      0.0000      0.0000
  2      0.0000      1.4264      0.0000      2.6309      2.3642      0.0000      0.2327      0.3572      0.0273
  3      0.0970      1.0239      2.3662      0.0000      2.0436      3.2729      1.7545      3.2346      0.0793
  4      0.0000      1.2138      5.6533      3.1521      0.0000      5.5432      0.3400      0.3056      0.0000
  5      0.0000      1.3144      0.0000      0.8235      1.3822      2.7778      2.5291      4.5526      3.5810
  6      0.0000      1.0603      0.0000      2.3263      0.0000      0.0000      0.0000      0.0000      0.4337
  7      0.0000      1.4177      9.6671      7.3608      0.0000      0.0000      0.0277      0.4562      8.7115
  8      0.0000      1.5562      0.0000      0.0000      3.3197      3.3830      8.7313      0.5841      6.5815
  9      0.0000      1.0935      1.0167      5.2533      2.1781      1.1138      1.3565      0.0000      1.8382
 10      0.0000      1.1471      1.0980      0.3526      0.0000      2.3664      1.4207      0.0000      3.3691
 11      0.0000      1.2410      5.4984      1.0399      4.8711      2.4299      0.2690      0.0611      1.4371
 12      0.0000      1.3401      1.0061      0.0000      3.6529      0.2865      3.5907      2.9231      2.2889
 13      0.0000      1.0115      0.7750      0.0238      3.5424      1.3837      0.0000      2.6721      0.0000
 14      0.0000      0.9933      0.1218      0.4967      3.4302      0.0000      0.3259      0.0000      0.0000
 15      4.8148      1.4692      2.2895      3.2687      0.8693      3.0115      2.4471      0.8990      0.0000
 16      0.0000      1.1239      0.0000      0.0000      0.5595      1.3406      2.3722      0.3322      0.6963
 17      5.5964      0.9824      0.0000      3.2863      0.0000      3.2191      3.9699      0.0000      0.1133
 18      0.0000      1.0965      1.4072      1.9865      0.2084      0.8678      0.1486      0.8540      0.7297
 19      0.2778      1.3216      0.7365      1.1521      0.0000      7.0624      1.6443      0.4518      0.4590
 20      2.8194      1.2539      0.0000      4.8356      2.3198      3.3631      1.4403      2.0269      0.5287
 21      0.6510      1.1225      0.1747      0.9673      0.5101      0.0000      0.4215      0.0000      0.0000
 22      0.0000      1.6120      0.0000      0.0000      3.9282      0.2004      5.9875      2.6850      1.9206
 23      0.0000      1.1396      0.0000      0.4764      2.7655      1.4330      0.4558      0.0000      5.2272
 24      0.0000      1.2055      0.0000      0.0000      2.0598      0.0000      0.8113      0.7818      2.4186
 25      0.0000      1.2069      2.4496      2.1235      2.7295      5.7823      1.9093      1.1375      4.5740
 26      0.0000      1.1764      0.0000      1.6847      1.7142      1.1732      0.4223      9.5273      3.0498
 27      0.0000      1.9003      1.2901      2.4292      1.3438      1.0021      1.4547      2.9001      1.2670
 28      0.0000      1.0789      2.5764      0.0000      0.2277      0.0000      0.0000      5.7762      0.6253
 29      0.0000      1.3855      2.3010      0.5219      3.4351      0.0000      0.0000      0.0000      4.1593
 30      0.0000      1.1893      2.0081      1.8829      0.0000      1.3659      1.0972      0.0000      0.9670
 31      0.0000      0.8091      2.8043      2.5260      1.1811      0.0000      0.8307      1.7702      0.0000
 32      0.0000      0.9151      3.0926      0.0000      0.9132      1.0457      0.0000      0.1470      0.5424
 33      1.5476      1.4176      2.9550      1.7148      1.2086      0.9730      0.5205      0.7376      0.0000
 34      4.0299      0.8548      1.8979      1.1755      0.0000      0.0000      0.9707      1.4792      1.1620
 35      0.0000      1.4489      3.2851      0.9803      2.3350      0.0000      8.5637      0.0000      4.9198
 36     10.2736      1.3030      0.7418      4.5220      2.5238      0.0000      0.3543      0.0000      0.3708
 37      3.5634      1.0099      0.7327      0.0000      0.3793      2.4183      0.9459      4.4038      2.1403
 38     16.4579      1.0712      0.3882      0.1482      0.0000      0.0000      2.9641      1.3627      0.0000
 39      0.0000      1.4076      0.0000      3.5069      0.8692      1.4202      3.7583      0.0000      3.2068
 40      0.0000      0.9189      0.0000      0.0000      0.7879      1.2109      0.0000      0.0000      0.2374
 41      0.0000      1.4587      5.1602      2.9494      0.0000      0.7032      2.6921      3.4533      4.9773
 42      0.0000      1.4465      1.1133      0.0104      2.4804      0.0000      0.0000      2.3551      1.9268
 43      0.0000      0.8930      2.8696      0.6705      0.0000      1.1355      0.0000      1.4580      1.3910
 44      0.0000      1.2125      2.0904      4.2925      1.7388      0.0000      3.7299      0.0000      0.6355
 45      0.0000      0.9081      0.0000      4.1964      0.0000      1.3847      1.8676      2.9811      0.0000
 46      0.0000      1.4618      1.7436      0.0000      3.4563      0.6189      0.1459      2.6487      2.9630
 47      0.0000      1.1765      2.4289      0.0000      0.1826      4.4154      0.0000      2.8591      1.7644
 48      0.0000      0.9652      0.0000      0.7662      0.8685      0.8336      4.1091      1.2408      0.0000
 49      0.0000      1.0453      4.0588      0.0000      0.3462      0.0000      0.0000      0.6917      1.9015
 50      0.0000      0.7182      0.0000      0.6375      0.0000      1.3887      0.2043      0.4872      1.7845
 51      9.4064      1.4906      2.7204      3.2510      0.5398      0.0000      1.3259      3.7801      5.5163
 52      1.9038      1.6807      3.2833      2.0367      0.0000      0.7985      3.0338      8.5094      0.0000
 53      5.8804      1.2303      0.0000      4.1004      0.6237      5.1152      1.8080      3.4681      0.4523
 54     10.0864      1.5507      2.4471      1.5252      1.9233      4.5476      0.9379      0.0000      0.0000
 55      0.0000      1.0773      0.0000      1.0924      0.6223      0.2325      0.0825      1.4035      0.6222
 56      1.0637      0.9825      2.3647      2.6948      1.1174      3.2120      2.1752      1.4691      1.7514
 57      0.0000      1.0182      3.8276      5.5206      1.4528      0.0000      0.0000      0.0000      0.0000
 58      0.0000      0.8219      3.9916      0.0000      3.7811      2.6780      0.9693      0.0000      0.0000
 59      0.0000      1.4005      0.3244      0.0000      0.0000      4.6250      5.4833      0.6535      1.5702
 60      0.0000      1.1390      1.6763      0.9955      5.3463      0.7554      0.1680      0.0000      1.6721
 61      0.0000      1.1788      4.5265      0.0000      0.0000      0.4886      0.7130      0.0912      0.0000
 62      0.0000      1.0481      0.5621      1.0255      3.7537      2.9828      1.9902      3.1605      0.0383
 63      0.0000      1.3213      0.0542      0.1383      2.1028      1.0962      0.0000      1.1220      0.0000
 64      0.0000      0.8471      0.4053      0.0000      0.0000      0.0455      2.6500      0.0000      0.0000
 65      0.0000      9.4043      0.8273      1.9330      2.3330      1.8612      0.0000      0.0000      0.0000
 66      0.0000     18.2364      0.0000      2.7185      5.4248      3.8229      2.1327      8.9762      6.3328

# j      m_j: min, <> & last-chain-values for 1 ...  7 chains
  1  2.8943E-01  3.5561E-03  2.7080E-03  0.0000E+00  4.5736E-02  1.0274E-02  2.7958E-02  0.0000E+00  0.0000E+00
  2  0.0000E+00  1.1297E-03  0.0000E+00  7.5306E-03  5.6016E-03  0.0000E+00  7.5327E-04  6.7211E-04  6.4706E-05
  3  6.9781E-04  1.2144E-03  1.3309E-02  0.0000E+00  7.2508E-03  1.1923E-02  8.5036E-03  9.1134E-03  2.8146E-04
  4  0.0000E+00  1.3557E-03  2.9943E-02  1.2724E-02  0.0000E+00  1.9017E-02  1.5517E-03  8.1079E-04  0.0000E+00
  5  0.0000E+00  2.7966E-03  0.0000E+00  6.3319E-03  8.7974E-03  1.8152E-02  2.1989E-02  2.3010E-02  2.2796E-02
  6  0.0000E+00  3.6590E-03  0.0000E+00  2.9013E-02  0.0000E+00  0.0000E+00  0.0000E+00  0.0000E+00  4.4782E-03
  7  0.0000E+00  7.0046E-03  2.2649E-01  1.3143E-01  0.0000E+00  0.0000E+00  5.5834E-04  5.3543E-03  1.2878E-01
  8  0.0000E+00  1.0627E-02  0.0000E+00  0.0000E+00  6.7816E-02  7.0957E-02  2.4365E-01  9.4758E-03  1.3447E-01
  9  0.0000E+00  8.5469E-03  3.7681E-02  1.4839E-01  5.0926E-02  2.6739E-02  4.3326E-02  0.0000E+00  4.2987E-02
 10  0.0000E+00  1.1777E-02  5.3458E-02  1.3084E-02  0.0000E+00  7.4624E-02  5.9605E-02  0.0000E+00  1.0349E-01
 11  0.0000E+00  2.3957E-02  5.0335E-01  7.2550E-02  2.8131E-01  1.4408E-01  2.1224E-02  2.8023E-03  8.3006E-02
 12  0.0000E+00  4.1039E-02  1.4610E-01  0.0000E+00  3.3463E-01  2.6946E-02  4.4933E-01  2.1264E-01  2.0972E-01
 13  0.0000E+00  8.7311E-02  3.1720E-01  7.4275E-03  9.1468E-01  3.6685E-01  0.0000E+00  5.4790E-01  0.0000E+00
 14  0.0000E+00  2.8757E-01  1.6717E-01  5.1964E-01  2.9707E+00  0.0000E+00  3.8552E-01  0.0000E+00  0.0000E+00
 15  1.3761E+01  6.9245E-01  5.1169E+00  5.5675E+00  1.2257E+00  4.3593E+00  4.7129E+00  1.0064E+00  0.0000E+00
 16  0.0000E+00  8.9560E-01  0.0000E+00  0.0000E+00  1.3338E+00  3.2812E+00  7.7249E+00  6.2891E-01  1.6601E+00
 17  3.5085E+01  1.0156E+00  0.0000E+00  1.2278E+01  0.0000E+00  1.0221E+01  1.6770E+01  0.0000E+00  3.5057E-01
 18  0.0000E+00  2.8111E-03  1.7108E-02  1.8406E-02  1.5984E-03  6.8334E-03  1.5566E-03  5.2007E-03  5.5970E-03
 19  1.7336E-03  1.3599E-03  3.5936E-03  4.2844E-03  0.0000E+00  2.2321E-02  6.9139E-03  1.1045E-03  1.4130E-03
 20  1.9207E-02  1.4087E-03  0.0000E+00  1.9632E-02  7.7959E-03  1.1604E-02  6.6118E-03  5.4090E-03  1.7769E-03
 21  5.3832E-03  1.5307E-03  1.1295E-03  4.7672E-03  2.0810E-03  0.0000E+00  2.3486E-03  0.0000E+00  0.0000E+00
 22  0.0000E+00  3.7170E-03  0.0000E+00  0.0000E+00  2.7097E-02  1.4191E-03  5.6418E-02  1.4707E-02  1.3250E-02
 23  0.0000E+00  3.5484E-03  0.0000E+00  5.3616E-03  2.5761E-02  1.3705E-02  5.7997E-03  0.0000E+00  4.8700E-02
 24  0.0000E+00  5.5845E-03  0.0000E+00  0.0000E+00  2.8546E-02  0.0000E+00  1.5358E-02  8.6036E-03  3.3524E-02
 25  0.0000E+00  7.7093E-03  7.4202E-02  4.9023E-02  5.2157E-02  1.1345E-01  4.9839E-02  1.7261E-02  8.7419E-02
 26  0.0000E+00  1.2560E-02  0.0000E+00  6.5008E-02  5.4753E-02  3.8474E-02  1.8427E-02  2.4165E-01  9.7431E-02
 27  0.0000E+00  4.0614E-02  1.3074E-01  1.8763E-01  8.5912E-02  6.5781E-02  1.2704E-01  1.4723E-01  8.1018E-02
 28  0.0000E+00  6.6919E-02  7.5776E-01  0.0000E+00  4.2252E-02  0.0000E+00  0.0000E+00  8.5104E-01  1.1605E-01
 29  0.0000E+00  1.4973E-01  1.1792E+00  2.0385E-01  1.1105E+00  0.0000E+00  0.0000E+00  0.0000E+00  1.3449E+00
 30  0.0000E+00  2.6853E-01  2.1501E+00  1.5365E+00  0.0000E+00  9.4727E-01  1.0123E+00  0.0000E+00  6.5324E-01
 31  0.0000E+00  3.2136E-01  5.2818E+00  3.6258E+00  1.4034E+00  0.0000E+00  1.3483E+00  1.6702E+00  0.0000E+00
 32  0.0000E+00  4.8904E-01  7.8373E+00  0.0000E+00  1.4600E+00  1.7164E+00  0.0000E+00  1.8664E-01  8.6736E-01
 33  1.1103E+01  1.6771E+00  1.6578E+01  7.3319E+00  4.2772E+00  3.5355E+00  2.5165E+00  2.0729E+00  0.0000E+00
 34  3.9153E+01  1.3695E+00  1.4418E+01  6.8060E+00  0.0000E+00  0.0000E+00  6.3548E+00  5.6292E+00  5.5699E+00
 35  0.0000E+00  2.9784E-03  3.2023E-02  7.2826E-03  1.4359E-02  0.0000E+00  7.1936E-02  0.0000E+00  3.0260E-02
 36  5.1817E-02  1.0837E-03  2.9257E-03  1.3592E-02  6.2793E-03  0.0000E+00  1.2042E-03  0.0000E+00  9.2284E-04
 37  1.9440E-02  9.0854E-04  3.1257E-03  0.0000E+00  1.0208E-03  6.6819E-03  3.4771E-03  9.4109E-03  5.7610E-03
 38  2.4324E-01  2.6106E-03  4.4862E-03  1.3050E-03  0.0000E+00  0.0000E+00  2.9519E-02  7.8890E-03  0.0000E+00
 39  0.0000E+00  4.9394E-03  0.0000E+00  4.4474E-02  9.1240E-03  1.5306E-02  5.3891E-02  0.0000E+00  3.3668E-02
 40  0.0000E+00  5.2123E-03  0.0000E+00  0.0000E+00  1.3369E-02  2.1095E-02  0.0000E+00  0.0000E+00  4.0284E-03
 41  0.0000E+00  1.2867E-02  2.1583E-01  9.4019E-02  0.0000E+00  1.9052E-02  9.7031E-02  7.2357E-02  1.3135E-01
 42  0.0000E+00  2.3425E-02  8.5496E-02  6.1104E-04  1.2016E-01  0.0000E+00  0.0000E+00  9.0598E-02  9.3361E-02
 43  0.0000E+00  2.1113E-02  3.2173E-01  5.7292E-02  0.0000E+00  8.2456E-02  0.0000E+00  8.1889E-02  9.8404E-02
 44  0.0000E+00  4.9362E-02  4.0353E-01  6.3154E-01  2.1176E-01  0.0000E+00  6.2048E-01  0.0000E+00  7.7404E-02
 45  0.0000E+00  7.3347E-02  0.0000E+00  1.2250E+00  0.0000E+00  3.4352E-01  6.1643E-01  5.7200E-01  0.0000E+00
 46  0.0000E+00  2.1703E-01  1.2276E+00  0.0000E+00  1.5351E+00  2.8222E-01  8.8502E-02  9.3417E-01  1.3162E+00
 47  0.0000E+00  3.5394E-01  3.4651E+00  0.0000E+00  1.6429E-01  4.0800E+00  0.0000E+00  2.0433E+00  1.5882E+00
 48  0.0000E+00  5.1213E-01  0.0000E+00  1.4691E+00  1.3785E+00  1.3585E+00  8.9090E+00  1.5639E+00  0.0000E+00
 49  0.0000E+00  1.2605E+00  2.3210E+01  0.0000E+00  1.2489E+00  0.0000E+00  0.0000E+00  1.9813E+00  6.8604E+00
 50  0.0000E+00  1.6040E+00  0.0000E+00  5.1458E+00  0.0000E+00  9.5262E+00  1.8645E+00  2.5848E+00  1.1925E+01
 51  6.9837E-02  1.8249E-03  1.5793E-02  1.4384E-02  1.9770E-03  0.0000E+00  6.6330E-03  1.0993E-02  2.0206E-02
 52  7.2435E-03  1.0545E-03  9.7681E-03  4.6181E-03  0.0000E+00  1.5387E-03  7.7777E-03  1.2682E-02  0.0000E+00
 53  3.3702E-02  1.1627E-03  0.0000E+00  1.4005E-02  1.7633E-03  1.4848E-02  6.9822E-03  7.7858E-03  1.2788E-03
 54  1.1845E-01  3.0028E-03  2.2471E-02  1.0673E-02  1.1141E-02  2.7048E-02  7.4212E-03  0.0000E+00  0.0000E+00
 55  0.0000E+00  3.2121E-03  0.0000E+00  1.1771E-02  5.5507E-03  2.1294E-03  1.0053E-03  9.9407E-03  5.5506E-03
 56  3.8068E-02  5.7978E-03  6.6175E-02  5.7472E-02  1.9727E-02  5.8219E-02  5.2455E-02  2.0595E-02  3.0924E-02
 57  0.0000E+00  7.9755E-03  1.4217E-01  1.5627E-01  3.4040E-02  0.0000E+00  0.0000E+00  0.0000E+00  0.0000E+00
 58  0.0000E+00  1.0889E-02  2.5077E-01  0.0000E+00  1.4985E-01  1.0897E-01  5.2475E-02  0.0000E+00  0.0000E+00
 59  0.0000E+00  3.9932E-02  4.3857E-02  0.0000E+00  0.0000E+00  4.0501E-01  6.3884E-01  4.4258E-02  1.3395E-01
 60  0.0000E+00  6.0320E-02  4.2097E-01  1.9052E-01  8.4696E-01  1.2287E-01  3.6353E-02  0.0000E+00  2.6495E-01
 61  0.0000E+00  1.3640E-01  2.4837E+00  0.0000E+00  0.0000E+00  1.7365E-01  3.3712E-01  2.5065E-02  0.0000E+00
 62  0.0000E+00  2.2113E-01  5.6239E-01  7.8193E-01  2.3690E+00  1.9329E+00  1.7158E+00  1.5839E+00  2.4189E-02
 63  0.0000E+00  5.5460E-01  1.0792E-01  2.0986E-01  2.6404E+00  1.4132E+00  0.0000E+00  1.1188E+00  0.0000E+00
 64  0.0000E+00  9.8346E-01  2.2312E+00  0.0000E+00  0.0000E+00  1.6232E-01  1.2572E+01  0.0000E+00  0.0000E+00
 65  0.0000E+00  2.3080E+01  9.6280E+00  1.7145E+01  1.7128E+01  1.4029E+01  0.0000E+00  0.0000E+00  0.0000E+00
 66  0.0000E+00  6.3226E+01  0.0000E+00  3.4062E+01  5.6263E+01  4.0709E+01  3.0215E+01  7.3926E+01  6.5692E+01

# AV, chi2 & Mass for <> & i_chain = 1 ...  7 solutions
AV       0.1018      1.5418      1.0588      1.2353      1.2132      1.1102      1.1075      0.8840      1.2587
chi2 3.9636E-05  6.6567E-03  1.0951E-03  1.0290E-03  1.4880E-03  1.1029E-03  8.8499E-04  9.0808E-04  1.1236E-03
Mass 2.4713E-13  1.0366E-11  1.1428E-12  1.9006E-12  2.2287E-12  1.8905E-12  1.4158E-12  1.8039E-12  2.3688E-12
 258.62                                  [v0_min (km/s) before EX0s...]
   0.00                                  [vd_min (km/s) before EX0s...]


## Synthetic spectrum (Best Model) ##l_obs f_obs f_syn wei
 3478    [Nl_obs]
 3741.00    0.83184   0.88583    0.000
 3742.00    0.84424   0.92995    0.000
 3743.00    0.82334   0.96111    0.000
 3744.00    0.86936   0.97850    0.000
 3745.00    0.95437   0.98034    0.132
 3746.00    1.03362   0.96983    0.130
 3747.00    1.10996   0.95328    0.125
 3748.00    1.10085   0.92985    0.128
 3749.00    1.05418   0.90080    0.134
 3750.00    1.01173   0.86816    0.129
 3751.00    0.97089   0.81877    0.121
 3752.00    0.93512   0.75606    0.119
 3753.00    0.90097   0.72182    0.119
 3754.00    0.88786   0.74793    0.117
 3755.00    0.88039   0.81024    0.114
 3756.00    0.91129   0.86809    0.112
 3757.00    0.95061   0.90959    0.110
 3758.00    0.93912   0.94035    0.110
 3759.00    0.91876   0.95937    0.110
 3760.00    0.90875   0.95850    0.111
 3761.00    0.90012   0.95044    0.112
 3762.00    0.94355   0.94776    0.114
 3763.00    0.99187   0.95433    0.116
 3764.00    0.94589   0.96941    0.116
 3765.00    0.89448   0.97710    0.115
 3766.00    0.88679   0.97261    0.110
 3767.00    0.87944   0.96673    0.106
 3768.00    0.78813   0.95804    0.102
 3769.00    0.69987   0.93307    0.098
 3770.00    0.68585   0.89464    0.098
 3771.00    0.67313   0.85344    0.097
 3772.00    0.67747   0.80250    0.100
 3773.00    0.68893   0.74538    0.103
 3774.00    0.76277   0.72556    0.104
 3775.00    0.82453   0.76637    0.105
 3776.00    0.80787   0.82893    0.103
 3777.00    0.78979   0.87908    0.102
 3778.00    0.76449   0.91768    0.103
 3779.00    0.76522   0.94877    0.105
 3780.00    0.87248   0.97009    0.107
 3781.00    0.97347   0.98365    0.110
 3782.00    1.05313   0.99794    0.116
 3783.00    1.09033   1.01604    0.121
 3784.00    1.00604   1.02866    0.119
 3785.00    0.94360   1.03229    0.117
 3786.00    0.93457   1.03335    0.114
 3787.00    0.93623   1.03208    0.112
 3788.00    0.96043   1.02367    0.111
 3789.00    0.99183   1.01012    0.110
 3790.00    1.03641   0.99940    0.109
 3791.00    1.05733   0.99225    0.108
 3792.00    1.04039   0.98410    0.109
 3793.00    0.99293   0.97140    0.108
 3794.00    0.90258   0.95530    0.105
 3795.00    0.82858   0.93999    0.102
 3796.00    0.77477   0.91947    0.101
 3797.00    0.75069   0.88426    0.100
 3798.00    0.75901   0.83586    0.102
 3799.00    0.76388   0.77554    0.103
 3800.00    0.76542   0.70688    0.103
 3801.00    0.79643   0.66425    0.105
 3802.00    0.85239   0.68651    0.108
 3803.00    0.91946   0.75800    0.110
 3804.00    0.99481   0.83188    0.113
 3805.00    1.00910   0.88634    0.112
 3806.00    0.98338   0.92690    0.109
 3807.00    0.93794   0.95567    0.106
 3808.00    0.88118   0.96496    0.104
 3809.00    0.86546   0.95757    0.103
 3810.00    0.87025   0.95866    0.101
 3811.00    0.88999   0.98052    0.105
 3812.00    0.91618   1.00451    0.112
 3813.00    0.93559   1.01767    0.111
 3814.00    0.95248   1.02141    0.108
 3815.00    0.94725   1.01715    0.107
 3816.00    0.93506   1.00587    0.108
 3817.00    0.93816   0.99443    0.109
 3818.00    0.94526   0.98539    0.109
 3819.00    0.87157   0.97999    0.105
 3820.00    0.78057   0.97716    0.101
 3821.00    0.78446   0.95441    0.101
 3822.00    0.80444   0.89600    0.102
 3823.00    0.78095   0.85618    0.105
 3824.00    0.75188   0.88345    0.109
 3825.00    0.63394   0.93788    0.104
 3826.00    0.50803   0.96850    0.099
 3827.00    0.56176   0.96692    0.099
 3828.00    0.62515   0.95225    0.099
 3829.00    0.74613   0.94145    0.104
 3830.00    0.86696   0.93442    0.110
 3831.00    0.87837   0.92472    0.112
 3832.00    0.89096   0.91022    0.114
 3833.00    0.92963   0.89172    0.108
 3834.00    0.96263   0.86217    0.103
 3835.00    0.92499   0.81508    0.104
 3836.00    0.88902   0.75560    0.105
 3837.00    0.86716   0.68921    0.103
 3838.00    0.85727   0.63472    0.102
 3839.00    0.92270   0.63026    0.102
 3840.00    0.96169   0.67523    0.103
 3841.00    0.87023   0.73168    0.102
 3842.00    0.78899   0.78485    0.102
 3843.00    0.74868   0.83307    0.100
 3844.00    0.75492   0.87299    0.099
 3845.00    0.91596   0.90694    0.103
 3846.00    1.01407   0.93411    0.107
 3847.00    0.93546   0.95314    0.000
 3848.00    0.89241   0.96462    0.000
 3849.00    0.93476   0.97144    0.000
 3850.00    0.95281   0.97834    0.000
 3851.00    0.92046   0.98276    0.000
 3852.00    0.90397   0.98020    0.000
 3853.00    0.91608   0.97263    0.000
 3854.00    0.92045   0.97193    0.000
 3855.00    0.91259   0.98233    0.000
 3856.00    0.91284   0.98932    0.000
 3857.00    0.92430   0.98622    0.000
 3858.00    0.94130   0.97610    0.000
 3859.00    0.96505   0.96461    0.000
 3860.00    0.95371   0.96352    0.000
 3861.00    0.90469   0.96735    0.000
 3862.00    0.88384   0.96195    0.000
 3863.00    0.88968   0.95346    0.000
 3864.00    0.84941   0.95683    0.000
 3865.00    0.77062   0.96960    0.000
 3866.00    0.73432   0.97684    0.000
 3867.00    0.72927   0.97425    0.000
 3868.00    0.68306   0.97045    0.000
 3869.00    0.61026   0.96783    0.000
 3870.00    0.55839   0.95858    0.000
 3871.00    0.51836   0.95485    0.000
 3872.00    0.52946   0.96566    0.000
 3873.00    0.56571   0.96820    0.000
 3874.00    0.59478   0.94891    0.000
 3875.00    0.62079   0.92598    0.000
 3876.00    0.62920   0.92676    0.000
 3877.00    0.63119   0.94582    0.000
 3878.00    0.62754   0.95467    0.000
 3879.00    0.62214   0.94449    0.000
 3880.00    0.67584   0.93157    0.000
 3881.00    0.74472   0.92388    0.091
 3882.00    0.82810   0.92231    0.092
 3883.00    0.91451   0.92477    0.094
 3884.00    0.91433   0.91640    0.095
 3885.00    0.89988   0.89468    0.097
 3886.00    0.90098   0.87683    0.098
 3887.00    0.90400   0.86521    0.100
 3888.00    0.95225   0.83752    0.100
 3889.00    1.00438   0.78558    0.100
 3890.00    0.96467   0.72206    0.101
 3891.00    0.92039   0.65271    0.102
 3892.00    0.92498   0.60264    0.101
 3893.00    0.93017   0.61733    0.100
 3894.00    0.92211   0.68842    0.100
 3895.00    0.91046   0.76477    0.101
 3896.00    0.82523   0.81975    0.098
 3897.00    0.74896   0.85471    0.095
 3898.00    0.77870   0.87701    0.094
 3899.00    0.79608   0.89658    0.093
 3900.00    0.71277   0.91628    0.091
 3901.00    0.63915   0.92539    0.088
 3902.00    0.62472   0.92391    0.085
 3903.00    0.60846   0.92828    0.082
 3904.00    0.58337   0.94277    0.081
 3905.00    0.56291   0.95344    0.080
 3906.00    0.56055   0.95523    0.080
 3907.00    0.58846   0.95610    0.081
 3908.00    0.71502   0.95357    0.084
 3909.00    0.80505   0.94830    0.086
 3910.00    0.79434   0.95228    0.087
 3911.00    0.79081   0.96502    0.088
 3912.00    0.80418   0.97607    0.089
 3913.00    0.81554   0.97925    0.090
 3914.00    0.82278   0.97565    0.091
 3915.00    0.82321   0.97174    0.092
 3916.00    0.81152   0.97228    0.093
 3917.00    0.81846   0.97460    0.093
 3918.00    0.85432   0.97544    0.094
 3919.00    0.89052   0.97349    0.095
 3920.00    0.92719   0.96831    0.095
 3921.00    0.94227   0.95509    0.096
 3922.00    0.93142   0.93133    0.095
 3923.00    0.90007   0.90914    0.095
 3924.00    0.84700   0.90414    0.093
 3925.00    0.84022   0.91596    0.093
 3926.00    0.87669   0.92549    0.095
 3927.00    0.94351   0.92452    0.096
 3928.00    1.03534   0.91767    0.098
 3929.00    0.99527   0.90384    0.099
 3930.00    0.85960   0.89124    0.100
 3931.00    0.83453   0.88821    0.101
 3932.00    0.87985   0.88821    0.104
 3933.00    0.88133   0.88585    0.103
 3934.00    0.85841   0.87854    0.101
 3935.00    0.83848   0.86450    0.100
 3936.00    0.81999   0.84513    0.100
 3937.00    0.88991   0.83267    0.101
 3938.00    0.99678   0.83850    0.103
 3939.00    1.00071   0.85627    0.102
 3940.00    0.96782   0.87597    0.101
 3941.00    0.91839   0.89313    0.099
 3942.00    0.86397   0.90734    0.098
 3943.00    0.86114   0.91903    0.098
 3944.00    0.87126   0.92530    0.098
 3945.00    0.85441   0.92656    0.097
 3946.00    0.83205   0.92355    0.097
 3947.00    0.88879   0.91582    0.098
 3948.00    0.95819   0.91431    0.098
 3949.00    0.96037   0.92667    0.099
 3950.00    0.95452   0.93742    0.099
 3951.00    0.99743   0.93647    0.100
 3952.00    1.04430   0.93582    0.101
 3953.00    0.92223   0.94257    0.098
 3954.00    0.79239   0.94813    0.095
 3955.00    0.84311   0.94310    0.096
 3956.00    0.89591   0.93344    0.097
 3957.00    0.93678   0.92905    0.098
 3958.00    0.97180   0.92797    0.097
 3959.00    0.89609   0.92386    0.095
 3960.00    0.82987   0.91883    0.000
 3961.00    0.87056   0.91854    0.000
 3962.00    0.90940   0.91907    0.000
 3963.00    0.93371   0.90810    0.000
 3964.00    0.93666   0.87901    0.000
 3965.00    0.81292   0.84723    0.000
 3966.00    0.72590   0.82595    0.000
 3967.00    0.81122   0.79990    0.000
 3968.00    0.88119   0.76446    0.000
 3969.00    0.89228   0.73187    0.000
 3970.00    0.89523   0.69269    0.000
 3971.00    0.87216   0.63412    0.000
 3972.00    0.87876   0.56595    0.000
 3973.00    0.96574   0.52067    0.000
 3974.00    1.01711   0.53458    0.000
 3975.00    0.98581   0.59873    0.000
 3976.00    0.96955   0.66968    0.000
 3977.00    0.98353   0.72962    0.000
 3978.00    0.99987   0.78157    0.000
 3979.00    1.02032   0.82114    0.000
 3980.00    1.05650   0.84804    0.000
 3981.00    1.11675   0.86952    0.100
 3982.00    1.12950   0.88850    0.100
 3983.00    1.07834   0.90400    0.100
 3984.00    1.05924   0.91227    0.100
 3985.00    1.07810   0.91006    0.100
 3986.00    1.04102   0.90555    0.099
 3987.00    0.94554   0.91106    0.097
 3988.00    0.90665   0.92392    0.095
 3989.00    0.91990   0.93266    0.093
 3990.00    0.97281   0.93717    0.093
 3991.00    1.05793   0.94351    0.095
 3992.00    1.07391   0.94698    0.095
 3993.00    1.04050   0.94474    0.096
 3994.00    1.01742   0.94475    0.095
 3995.00    1.00082   0.94999    0.094
 3996.00    1.03327   0.95378    0.094
 3997.00    1.09260   0.94754    0.095
 3998.00    1.03885   0.93615    0.094
 3999.00    0.93125   0.93202    0.092
 4000.00    0.90480   0.93278    0.092
 4001.00    0.91170   0.93185    0.092
 4002.00    0.93033   0.93605    0.092
 4003.00    0.95308   0.94634    0.092
 4004.00    0.99532   0.95196    0.093
 4005.00    1.04334   0.95226    0.093
 4006.00    1.04478   0.95161    0.093
 4007.00    1.03479   0.94456    0.093
 4008.00    1.04757   0.92778    0.093
 4009.00    1.06488   0.91521    0.093
 4010.00    0.98231   0.91633    0.092
 4011.00    0.88423   0.91539    0.090
 4012.00    0.89923   0.90333    0.090
 4013.00    0.92723   0.90022    0.089
 4014.00    1.00000   0.91652    0.092
 4015.00    1.07623   0.93443    0.095
 4016.00    1.04141   0.94287    0.094
 4017.00    1.00191   0.94630    0.094
 4018.00    1.00188   0.94929    0.092
 4019.00    1.00289   0.95143    0.091
 4020.00    1.03348   0.94825    0.092
 4021.00    1.06557   0.94409    0.094
 4022.00    1.12389   0.94652    0.094
 4023.00    1.17497   0.94929    0.094
 4024.00    1.14805   0.94460    0.093
 4025.00    1.11758   0.93534    0.092
 4026.00    1.06007   0.92257    0.093
 4027.00    1.00604   0.89699    0.094
 4028.00    0.97218   0.85278    0.094
 4029.00    0.93606   0.81116    0.094
 4030.00    0.88960   0.81474    0.093
 4031.00    0.84399   0.86382    0.092
 4032.00    0.80165   0.90788    0.090
 4033.00    0.77926   0.91935    0.089
 4034.00    0.81939   0.91262    0.089
 4035.00    0.84429   0.90699    0.089
 4036.00    0.82866   0.90558    0.089
 4037.00    0.82019   0.90610    0.089
 4038.00    0.82804   0.91024    0.090
 4039.00    0.87133   0.92274    0.091
 4040.00    0.98467   0.94157    0.093
 4041.00    1.05094   0.95446    0.094
 4042.00    1.03612   0.95545    0.094
 4043.00    1.01631   0.94688    0.094
 4044.00    0.98899   0.93597    0.093
 4045.00    0.95542   0.93303    0.093
 4046.00    0.91357   0.93339    0.093
 4047.00    0.90993   0.92211    0.093
 4048.00    0.95090   0.90034    0.094
 4049.00    0.99646   0.88726    0.094
 4050.00    1.04675   0.89755    0.094
 4051.00    1.05428   0.91900    0.094
 4052.00    1.02295   0.93210    0.093
 4053.00    1.01658   0.93806    0.093
 4054.00    1.03016   0.94210    0.093
 4055.00    1.03212   0.94043    0.092
 4056.00    1.02590   0.93274    0.092
 4057.00    1.02080   0.92362    0.092
 4058.00    1.01640   0.91681    0.092
 4059.00    0.99082   0.91505    0.092
 4060.00    0.95381   0.91479    0.091
 4061.00    0.95206   0.91228    0.091
 4062.00    0.96683   0.91189    0.091
 4063.00    0.99112   0.91544    0.091
 4064.00    1.01925   0.91839    0.092
 4065.00    0.99951   0.91362    0.091
 4066.00    0.96326   0.89787    0.091
 4067.00    0.92209   0.88573    0.090
 4068.00    0.87948   0.89294    0.089
 4069.00    0.87114   0.90608    0.090
 4070.00    0.87104   0.90639    0.090
 4071.00    0.87775   0.89948    0.090
 4072.00    0.88578   0.89403    0.091
 4073.00    0.93101   0.88704    0.090
 4074.00    0.98186   0.87610    0.089
 4075.00    1.03270   0.86868    0.090
 4076.00    1.08354   0.87807    0.092
 4077.00    1.04093   0.89497    0.092
 4078.00    0.99147   0.89161    0.092
 4079.00    0.95193   0.87136    0.091
 4080.00    0.91276   0.85967    0.090
 4081.00    0.90583   0.86276    0.090
 4082.00    0.90195   0.87418    0.089
 4083.00    1.00666   0.89063    0.091
 4084.00    1.09833   0.90621    0.092
 4085.00    0.97516   0.91177    0.091
 4086.00    0.86005   0.90506    0.090
 4087.00    0.82788   0.89205    0.089
 4088.00    0.80667   0.88270    0.089
 4089.00    0.86585   0.88386    0.090
 4090.00    0.93181   0.89082    0.092
 4091.00    1.03579   0.89113    0.094
 4092.00    1.10308   0.88279    0.000
 4093.00    1.00622   0.88051    0.000
 4094.00    0.94798   0.88625    0.000
 4095.00    1.03158   0.88332    0.000
 4096.00    1.08216   0.87236    0.000
 4097.00    1.03116   0.86408    0.000
 4098.00    0.99961   0.84853    0.000
 4099.00    1.01892   0.81651    0.000
 4100.00    1.03634   0.78041    0.000
 4101.00    1.04952   0.75234    0.000
 4102.00    1.03700   0.72458    0.000
 4103.00    0.97445   0.67593    0.000
 4104.00    0.93681   0.60379    0.000
 4105.00    0.94143   0.55183    0.000
 4106.00    0.94220   0.56776    0.000
 4107.00    0.93723   0.63406    0.000
 4108.00    0.94355   0.70239    0.000
 4109.00    0.96463   0.75598    0.000
 4110.00    1.00056   0.79447    0.000
 4111.00    1.05358   0.81781    0.000
 4112.00    1.04338   0.83048    0.000
 4113.00    0.96903   0.83665    0.088
 4114.00    0.96127   0.84079    0.088
 4115.00    1.01313   0.84824    0.087
 4116.00    1.00226   0.86033    0.087
 4117.00    0.94189   0.87153    0.087
 4118.00    0.92615   0.87379    0.123
 4119.00    0.94139   0.86999    0.450
 4120.00    0.97535   0.87134   -1.000
 4121.00    1.02069   0.87219   -1.000
 4122.00    1.02005   0.85912   -1.000
 4123.00    0.99499   0.84017   -1.000
 4124.00    1.04506   0.83115   -1.000
 4125.00    1.12978   0.83981   -1.000
 4126.00    1.11062   0.86137    0.249
 4127.00    1.05020   0.88104    0.104
 4128.00    1.01082   0.89298    0.090
 4129.00    0.97855   0.89660    0.089
 4130.00    0.97019   0.88908    0.089
 4131.00    0.96863   0.87608    0.088
 4132.00    0.93225   0.86896    0.088
 4133.00    0.88769   0.86833    0.088
 4134.00    0.90566   0.86372    0.088
 4135.00    0.93544   0.85420    0.088
 4136.00    0.97784   0.84909    0.089
 4137.00    1.02209   0.85431    0.090
 4138.00    1.08025   0.86735    0.090
 4139.00    1.13989   0.88166    0.091
 4140.00    1.10490   0.88834    0.091
 4141.00    1.06337   0.88828    0.091
 4142.00    0.98070   0.88956    0.090
 4143.00    0.89662   0.89050    0.088
 4144.00    0.93828   0.88522    0.089
 4145.00    0.97824   0.86423    0.090
 4146.00    0.95397   0.82204    0.091
 4147.00    0.93219   0.78694    0.092
 4148.00    0.94907   0.79709    0.091
 4149.00    0.96678   0.83757    0.091
 4150.00    0.99278   0.86679    0.092
 4151.00    1.01623   0.87677    0.094
 4152.00    1.02160   0.87518    0.095
 4153.00    1.00603   0.86776    0.096
 4154.00    0.87621   0.86496    0.092
 4155.00    0.77647   0.86604    0.089
 4156.00    0.80817   0.86115    0.090
 4157.00    0.82052   0.85529    0.090
 4158.00    0.76331   0.85678    0.088
 4159.00    0.75154   0.85996    0.086
 4160.00    0.87689   0.86148    0.086
 4161.00    0.97829   0.86784    0.086
 4162.00    1.01815   0.87769    0.088
 4163.00    1.01290   0.88283    0.089
 4164.00    0.90802   0.88170    0.088
 4165.00    0.87595   0.87896    0.087
 4166.00    0.98335   0.87764    0.088
 4167.00    1.03399   0.87566    0.088
 4168.00    0.98976   0.87248    0.088
 4169.00    0.98735   0.87078    0.088
 4170.00    1.04621   0.86732    0.089
 4171.00    1.03059   0.85935    0.088
 4172.00    0.91905   0.85419    0.087
 4173.00    0.87607   0.85791    0.086
 4174.00    0.91090   0.86097    0.087
 4175.00    0.93289   0.85138    0.088
 4176.00    0.94203   0.83711    0.087
 4177.00    0.92800   0.83404    0.086
 4178.00    0.89354   0.84138    0.085
 4179.00    0.84507   0.84850    0.084
 4180.00    0.78570   0.85021    0.083
 4181.00    0.81463   0.84879    0.083
 4182.00    0.90395   0.85082    0.085
 4183.00    0.91316   0.85851    0.085
 4184.00    0.87436   0.86309    0.084
 4185.00    0.83798   0.85932    0.084
 4186.00    0.80286   0.85529    0.084
 4187.00    0.81873   0.85623    0.083
 4188.00    0.85773   0.85725    0.083
 4189.00    0.85173   0.85385    0.083
 4190.00    0.82817   0.84443    0.083
 4191.00    0.81156   0.83732    0.083
 4192.00    0.79725   0.83998    0.083
 4193.00    0.82168   0.84412    0.083
 4194.00    0.85691   0.84613    0.083
 4195.00    0.86902   0.85101    0.084
 4196.00    0.87584   0.86056    0.084
 4197.00    0.90349   0.86763    0.085
 4198.00    0.93497   0.86160    0.086
 4199.00    0.91354   0.84704    0.086
 4200.00    0.88464   0.83567    0.086
 4201.00    0.86668   0.82557    0.085
 4202.00    0.84984   0.81234    0.083
 4203.00    0.85536   0.80451    0.082
 4204.00    0.86234   0.80700    0.081
 4205.00    0.87820   0.81363    0.082
 4206.00    0.89440   0.82262    0.082
 4207.00    0.95035   0.83341    0.084
 4208.00    1.00162   0.84026    0.085
 4209.00    0.91526   0.84462    0.083
 4210.00    0.83434   0.85131    0.082
 4211.00    0.83260   0.85810    0.083
 4212.00    0.83714   0.86082    0.084
 4213.00    0.90098   0.85715    0.084
 4214.00    0.95038   0.85244    0.084
 4215.00    0.90056   0.85219    0.084
 4216.00    0.86008   0.85339    0.085
 4217.00    0.86932   0.85118    0.084
 4218.00    0.87543   0.84173    0.084
 4219.00    0.86814   0.82945    0.084
 4220.00    0.85163   0.83016    0.083
 4221.00    0.80257   0.84387    0.083
 4222.00    0.76507   0.85429    0.083
 4223.00    0.76177   0.85812    0.083
 4224.00    0.74538   0.85937    0.083
 4225.00    0.69595   0.85464    0.083
 4226.00    0.68311   0.84252    0.083
 4227.00    0.74975   0.82896    0.083
 4228.00    0.82165   0.81295    0.083
 4229.00    0.90345   0.79024    0.083
 4230.00    0.90387   0.77047    0.083
 4231.00    0.77030   0.77494    0.082
 4232.00    0.71015   0.80399    0.081
 4233.00    0.75598   0.83014    0.081
 4234.00    0.76750   0.84125    0.080
 4235.00    0.73546   0.84247    0.080
 4236.00    0.69600   0.83502    0.079
 4237.00    0.64825   0.82783    0.079
 4238.00    0.65747   0.82805    0.079
 4239.00    0.72292   0.82428    0.079
 4240.00    0.77004   0.81564    0.080
 4241.00    0.80119   0.81642    0.079
 4242.00    0.80094   0.82331    0.080
 4243.00    0.77661   0.82720    0.081
 4244.00    0.77276   0.82991    0.082
 4245.00    0.78271   0.83194    0.082
 4246.00    0.79836   0.83268    0.083
 4247.00    0.81738   0.83928    0.084
 4248.00    0.77309   0.84928    0.084
 4249.00    0.69620   0.84846    0.084
 4250.00    0.65803   0.83594    0.084
 4251.00    0.63714   0.82442    0.084
 4252.00    0.67505   0.81946    0.083
 4253.00    0.73549   0.81496    0.082
 4254.00    0.83931   0.81065    0.082
 4255.00    0.95726   0.81531    0.082
 4256.00    0.90792   0.81906    0.081
 4257.00    0.81291   0.80806    0.081
 4258.00    0.84704   0.79864    0.081
 4259.00    0.91011   0.80720    0.082
 4260.00    0.93932   0.82417    0.082
 4261.00    0.96247   0.83184    0.082
 4262.00    0.86336   0.82337    0.082
 4263.00    0.74752   0.80867    0.082
 4264.00    0.75408   0.79936    0.082
 4265.00    0.77260   0.80428    0.082
 4266.00    0.73873   0.82143    0.081
 4267.00    0.70166   0.83576    0.080
 4268.00    0.71893   0.83981    0.080
 4269.00    0.73773   0.83260    0.079
 4270.00    0.76873   0.80973    0.079
 4271.00    0.79723   0.78992    0.079
 4272.00    0.75990   0.79645    0.080
 4273.00    0.72524   0.80757    0.080
 4274.00    0.72746   0.79806    0.081
 4275.00    0.73381   0.78072    0.082
 4276.00    0.77775   0.77704    0.082
 4277.00    0.81439   0.78248    0.081
 4278.00    0.80234   0.78060    0.081
 4279.00    0.79374   0.77908    0.080
 4280.00    0.80303   0.79028    0.079
 4281.00    0.81911   0.80820    0.079
 4282.00    0.86359   0.82082   -2.000
 4283.00    0.89888   0.81888   -2.000
 4284.00    0.90251   0.80810   -2.000
 4285.00    0.90827   0.80252   -2.000
 4286.00    0.92025   0.80137   -2.000
 4287.00    0.91643   0.80112   -2.000
 4288.00    0.87343   0.79863   -2.000
 4289.00    0.83555   0.79317   -2.000
 4290.00    0.80863   0.79369   -2.000
 4291.00    0.78903   0.79675   -2.000
 4292.00    0.78304   0.78750   -2.000
 4293.00    0.78741   0.77029   -2.000
 4294.00    0.80856   0.76429   -2.000
 4295.00    0.82676   0.77682   -2.000
 4296.00    0.84075   0.79585   -2.000
 4297.00    0.83120   0.80219   -2.000
 4298.00    0.79218   0.79313    0.082
 4299.00    0.75883   0.78828    0.081
 4300.00    0.73172   0.78895    0.081
 4301.00    0.72130   0.78313    0.081
 4302.00    0.72713   0.76893    0.081
 4303.00    0.69600   0.75182    0.082
 4304.00    0.63314   0.74559    0.081
 4305.00    0.65413   0.75012    0.081
 4306.00    0.73846   0.74871    0.082
 4307.00    0.78411   0.74385    0.082
 4308.00    0.80406   0.74802    0.081
 4309.00    0.76675   0.75430    0.080
 4310.00    0.69613   0.75182    0.078
 4311.00    0.69581   0.73978    0.079
 4312.00    0.73112   0.72930    0.081
 4313.00    0.76988   0.73268    0.082
 4314.00    0.81017   0.74587    0.082
 4315.00    0.82007   0.75805    0.080
 4316.00    0.81853   0.76498    0.079
 4317.00    0.83085   0.76842    0.080
 4318.00    0.84761   0.77530    0.081
 4319.00    0.83470   0.79276    0.081
 4320.00    0.81386   0.81354    0.081
 4321.00    0.77418   0.82219    0.081
 4322.00    0.73037   0.81942    0.081
 4323.00    0.80393   0.81366    0.082
 4324.00    0.89792   0.80967    0.084
 4325.00    0.87143   0.80777    0.083
 4326.00    0.82901   0.80145    0.082
 4327.00    0.86779   0.78220    0.083
 4328.00    0.91415   0.75508    0.084
 4329.00    0.81424   0.73442    0.083
 4330.00    0.70595   0.73846    0.000
 4331.00    0.77640   0.76596    0.000
 4332.00    0.85036   0.79032    0.000
 4333.00    0.85096   0.79533    0.000
 4334.00    0.84892   0.78690    0.000
 4335.00    0.78354   0.77790    0.000
 4336.00    0.72542   0.77201    0.000
 4337.00    0.76171   0.76574    0.000
 4338.00    0.79457   0.75917    0.000
 4339.00    0.79758   0.74578    0.000
 4340.00    0.79815   0.71037    0.000
 4341.00    0.78292   0.65335    0.000
 4342.00    0.76987   0.59244    0.000
 4343.00    0.76779   0.53252    0.000
 4344.00    0.76707   0.49345    0.000
 4345.00    0.77188   0.51926    0.000
 4346.00    0.77853   0.59198    0.000
 4347.00    0.79140   0.65089    0.000
 4348.00    0.79495   0.68498    0.000
 4349.00    0.77192   0.71154    0.000
 4350.00    0.76206   0.73005    0.000
 4351.00    0.78433   0.74239    0.085
 4352.00    0.80343   0.75726    0.085
 4353.00    0.81587   0.76875    0.084
 4354.00    0.83210   0.76111    0.083
 4355.00    0.85523   0.73961    0.081
 4356.00    0.87335   0.73460    0.080
 4357.00    0.88347   0.75394    0.081
 4358.00    0.86601   0.77361    0.082
 4359.00    0.80991   0.78477    0.082
 4360.00    0.74578   0.79494    0.081
 4361.00    0.67176   0.80056    0.078
 4362.00    0.65820   0.79425    0.078
 4363.00    0.71039   0.78578    0.080
 4364.00    0.75898   0.78915    0.081
 4365.00    0.80412   0.79930    0.080
 4366.00    0.84192   0.80553    0.080
 4367.00    0.87350   0.80760    0.081
 4368.00    0.88206   0.81107    0.081
 4369.00    0.87347   0.81240    0.081
 4370.00    0.87291   0.80051    0.081
 4371.00    0.87761   0.78513    0.081
 4372.00    0.84809   0.78275    0.081
 4373.00    0.79897   0.78860    0.080
 4374.00    0.75749   0.79057    0.080
 4375.00    0.71982   0.78871    0.080
 4376.00    0.73503   0.78527    0.080
 4377.00    0.77306   0.77715    0.081
 4378.00    0.75526   0.76522    0.080
 4379.00    0.71680   0.76167    0.078
 4380.00    0.69926   0.77364    0.079
 4381.00    0.68828   0.79078    0.079
 4382.00    0.72233   0.79784    0.079
 4383.00    0.76816   0.79457    0.079
 4384.00    0.70663   0.79148    0.078
 4385.00    0.62217   0.78515    0.077
 4386.00    0.63876   0.76010    0.077
 4387.00    0.67244   0.72433    0.077
 4388.00    0.74268   0.71071    0.077
 4389.00    0.81760   0.72707    0.077
 4390.00    0.76697   0.74211    0.077
 4391.00    0.70514   0.73155    0.077
 4392.00    0.67757   0.72319    0.077
 4393.00    0.65183   0.73936    0.077
 4394.00    0.71732   0.75768    0.077
 4395.00    0.78458   0.76993    0.077
 4396.00    0.85022   0.78325    0.077
 4397.00    0.90845   0.78644    0.078
 4398.00    0.80393   0.77539    0.076
 4399.00    0.70546   0.76747    0.075
 4400.00    0.68168   0.77938    0.076
 4401.00    0.66625   0.79800    0.078
 4402.00    0.72102   0.80060    0.078
 4403.00    0.76159   0.78766    0.079
 4404.00    0.71321   0.77376    0.077
 4405.00    0.67654   0.77560    0.075
 4406.00    0.69748   0.78769    0.076
 4407.00    0.71810   0.78032    0.076
 4408.00    0.73747   0.75362    0.077
 4409.00    0.76336   0.74322    0.077
 4410.00    0.81087   0.75626    0.077
 4411.00    0.83852   0.76479    0.077
 4412.00    0.81054   0.76354    0.078
 4413.00    0.76716   0.77102    0.078
 4414.00    0.68686   0.78577    0.078
 4415.00    0.64537   0.79440    0.079
 4416.00    0.68419   0.79926    0.079
 4417.00    0.71065   0.79388    0.079
 4418.00    0.71485   0.76657    0.079
 4419.00    0.73503   0.74182    0.078
 4420.00    0.78039   0.74295    0.077
 4421.00    0.78390   0.75824    0.077
 4422.00    0.72959   0.77711    0.077
 4423.00    0.72705   0.79362    0.077
 4424.00    0.78749   0.79799    0.077
 4425.00    0.81769   0.79094    0.078
 4426.00    0.81549   0.78030    0.079
 4427.00    0.82762   0.77862    0.079
 4428.00    0.85330   0.78414    0.079
 4429.00    0.85111   0.78394    0.079
 4430.00    0.82568   0.77761    0.079
 4431.00    0.77883   0.77442    0.079
 4432.00    0.71626   0.77900    0.078
 4433.00    0.70918   0.78019    0.078
 4434.00    0.73787   0.77224    0.078
 4435.00    0.72114   0.77229    0.079
 4436.00    0.67879   0.77867    0.080
 4437.00    0.64111   0.77338    0.080
 4438.00    0.60572   0.75853    0.079
 4439.00    0.58227   0.74789    0.079
 4440.00    0.56389   0.75119    0.080
 4441.00    0.62810   0.76582    0.080
 4442.00    0.72231   0.78427    0.080
 4443.00    0.74715   0.79675    0.081
 4444.00    0.75065   0.79218    0.082
 4445.00    0.74522   0.77435    0.082
 4446.00    0.73750   0.75710    0.082
 4447.00    0.76498   0.75267    0.082
 4448.00    0.79981   0.76530    0.081
 4449.00    0.78587   0.78387    0.081
 4450.00    0.76392   0.78794    0.081
 4451.00    0.72616   0.78022    0.081
 4452.00    0.68646   0.78001    0.080
 4453.00    0.72060   0.78378    0.080
 4454.00    0.76102   0.78082    0.079
 4455.00    0.67294   0.77883    0.079
 4456.00    0.57852   0.77834    0.079
 4457.00    0.58685   0.77177    0.078
 4458.00    0.59782   0.75785    0.077
 4459.00    0.67168   0.74573    0.078
 4460.00    0.74213   0.74834    0.080
 4461.00    0.74348   0.75661    0.000
 4462.00    0.73965   0.75773    0.000
 4463.00    0.67497   0.75457    0.000
 4464.00    0.62810   0.75225    0.000
 4465.00    0.72565   0.74722    0.000
 4466.00    0.80229   0.74703    0.000
 4467.00    0.75170   0.76077    0.000
 4468.00    0.71821   0.77092    0.000
 4469.00    0.76672   0.76802    0.000
 4470.00    0.80526   0.76260    0.000
 4471.00    0.80483   0.75802    0.000
 4472.00    0.79972   0.74922    0.000
 4473.00    0.77944   0.73255    0.000
 4474.00    0.75875   0.70557    0.000
 4475.00    0.73695   0.68010    0.000
 4476.00    0.72425   0.69515    0.000
 4477.00    0.73297   0.74487    0.000
 4478.00    0.75758   0.77682    0.000
 4479.00    0.81454   0.78207    0.000
 4480.00    0.82719   0.78577    0.000
 4481.00    0.76130   0.79411    0.000
 4482.00    0.73284   0.79424    0.080
 4483.00    0.76244   0.77643    0.080
 4484.00    0.77420   0.74648    0.080
 4485.00    0.76167   0.72790    0.080
 4486.00    0.75443   0.73723    0.079
 4487.00    0.75353   0.76392    0.079
 4488.00    0.73502   0.78394    0.078
 4489.00    0.69789   0.79322    0.077
 4490.00    0.70249   0.79561    0.077
 4491.00    0.74601   0.78878    0.080
 4492.00    0.76836   0.77283    0.081
 4493.00    0.77331   0.75839    0.080
 4494.00    0.74996   0.75772    0.079
 4495.00    0.70614   0.76992    0.078
 4496.00    0.73540   0.78117    0.078
 4497.00    0.81109   0.77929    0.080
 4498.00    0.82136   0.76579    0.080
 4499.00    0.79529   0.75633    0.079
 4500.00    0.76258   0.75713    0.079
 4501.00    0.72665   0.76589    0.079
 4502.00    0.77230   0.77797    0.079
 4503.00    0.85198   0.78441    0.080
 4504.00    0.84937   0.78001    0.080
 4505.00    0.81739   0.77143    0.079
 4506.00    0.77284   0.77598    0.077
 4507.00    0.72449   0.79353    0.075
 4508.00    0.75220   0.80369    0.076
 4509.00    0.79896   0.80148    0.077
 4510.00    0.80200   0.79357    0.077
 4511.00    0.79614   0.78582    0.077
 4512.00    0.82662   0.78341    0.078
 4513.00    0.86289   0.78639    0.079
 4514.00    0.78622   0.78903    0.079
 4515.00    0.69611   0.78498    0.078
 4516.00    0.77164   0.77557    0.079
 4517.00    0.86056   0.76773    0.079
 4518.00    0.82858   0.76270    0.078
 4519.00    0.79111   0.76289    0.076
 4520.00    0.76588   0.76884    0.078
 4521.00    0.74172   0.76853    0.079
 4522.00    0.76450   0.76431    0.079
 4523.00    0.78496   0.76916    0.078
 4524.00    0.76179   0.77867    0.078
 4525.00    0.74366   0.78238    0.078
 4526.00    0.78200   0.77187    0.078
 4527.00    0.81407   0.75906    0.079
 4528.00    0.79705   0.75714    0.079
 4529.00    0.77905   0.75518    0.079
 4530.00    0.75519   0.74729    0.079
 4531.00    0.73567   0.73629    0.079
 4532.00    0.73647   0.72452    0.079
 4533.00    0.73969   0.71968    0.079
 4534.00    0.75215   0.72641    0.079
 4535.00    0.75554   0.73841    0.079
 4536.00    0.73001   0.74844    0.079
 4537.00    0.71963   0.74293    0.079
 4538.00    0.75017   0.72703    0.079
 4539.00    0.76931   0.72024    0.079
 4540.00    0.76204   0.73448    0.077
 4541.00    0.76314   0.76073    0.077
 4542.00    0.78103   0.77172    0.077
 4543.00    0.78044   0.76229    0.078
 4544.00    0.74759   0.74342    0.077
 4545.00    0.71655   0.72938    0.077
 4546.00    0.68827   0.73506    0.077
 4547.00    0.70215   0.74965    0.077
 4548.00    0.77263   0.75134    0.077
 4549.00    0.81610   0.74711    0.078
 4550.00    0.82764   0.75115    0.000
 4551.00    0.81434   0.75586    0.000
 4552.00    0.77512   0.75008    0.000
 4553.00    0.73179   0.73785    0.000
 4554.00    0.68466   0.73950    0.000
 4555.00    0.66792   0.74841    0.000
 4556.00    0.67580   0.74037    0.000
 4557.00    0.71981   0.73049    0.000
 4558.00    0.78960   0.73055    0.000
 4559.00    0.80063   0.73417    0.000
 4560.00    0.77489   0.74511    0.000
 4561.00    0.76477   0.76203    0.000
 4562.00    0.76319   0.77112    0.000
 4563.00    0.76753   0.77199    0.000
 4564.00    0.77469   0.77076    0.000
 4565.00    0.74888   0.77128    0.000
 4566.00    0.70955   0.76974    0.000
 4567.00    0.70681   0.75864    0.000
 4568.00    0.71689   0.74703    0.000
 4569.00    0.75624   0.74511    0.000
 4570.00    0.80425   0.75172    0.000
 4571.00    0.79343   0.75936    0.000
 4572.00    0.76819   0.76262    0.000
 4573.00    0.73524   0.76557    0.000
 4574.00    0.70076   0.76211    0.000
 4575.00    0.69870   0.74674    0.000
 4576.00    0.70165   0.74378    0.000
 4577.00    0.69100   0.75893    0.000
 4578.00    0.67880   0.76360    0.000
 4579.00    0.68546   0.75848    0.000
 4580.00    0.69357   0.76100    0.000
 4581.00    0.77767   0.76428    0.000
 4582.00    0.86493   0.75944    0.000
 4583.00    0.84054   0.74744    0.000
 4584.00    0.81441   0.73667    0.000
 4585.00    0.75507   0.73620    0.000
 4586.00    0.69910   0.74304    0.000
 4587.00    0.70194   0.74554    0.000
 4588.00    0.70485   0.74362    0.000
 4589.00    0.70843   0.74229    0.000
 4590.00    0.71832   0.74145    0.000
 4591.00    0.77589   0.74704    0.000
 4592.00    0.81399   0.75700    0.000
 4593.00    0.74010   0.76112    0.000
 4594.00    0.68505   0.75269    0.000
 4595.00    0.71607   0.74010    0.000
 4596.00    0.73967   0.73594    0.000
 4597.00    0.73548   0.73982    0.000
 4598.00    0.72015   0.74087    0.000
 4599.00    0.67000   0.73570    0.000
 4600.00    0.64041   0.73380    0.000
 4601.00    0.66539   0.73888    0.000
 4602.00    0.70829   0.74631    0.000
 4603.00    0.79205   0.74917    0.000
 4604.00    0.83036   0.74141    0.000
 4605.00    0.77903   0.73137    0.000
 4606.00    0.75581   0.73243    0.000
 4607.00    0.78094   0.73935    0.000
 4608.00    0.79128   0.74419    0.000
 4609.00    0.77933   0.74266    0.000
 4610.00    0.75896   0.74005    0.000
 4611.00    0.72741   0.74347    0.000
 4612.00    0.71195   0.75413    0.000
 4613.00    0.71522   0.76141    0.000
 4614.00    0.70975   0.75905    0.000
 4615.00    0.69529   0.75496    0.000
 4616.00    0.70613   0.75189    0.000
 4617.00    0.73992   0.74679    0.000
 4618.00    0.76284   0.74868    0.000
 4619.00    0.77709   0.75582    0.000
 4620.00    0.79680   0.75530    0.000
 4621.00    0.82035   0.75468    0.000
 4622.00    0.76839   0.74908    0.000
 4623.00    0.66988   0.73824    0.000
 4624.00    0.67586   0.74034    0.000
 4625.00    0.73810   0.75163    0.000
 4626.00    0.75781   0.75520    0.000
 4627.00    0.75761   0.75610    0.000
 4628.00    0.76729   0.75675    0.000
 4629.00    0.78095   0.75228    0.000
 4630.00    0.77940   0.74812    0.000
 4631.00    0.77262   0.74954    0.000
 4632.00    0.77130   0.74850    0.000
 4633.00    0.77155   0.73892    0.000
 4634.00    0.79421   0.73393    0.000
 4635.00    0.82225   0.74162    0.000
 4636.00    0.74008   0.74684    0.000
 4637.00    0.63661   0.74013    0.000
 4638.00    0.59120   0.73492    0.000
 4639.00    0.55451   0.73673    0.000
 4640.00    0.61069   0.73870    0.000
 4641.00    0.67710   0.73289    0.000
 4642.00    0.72754   0.72202    0.000
 4643.00    0.77683   0.71523    0.000
 4644.00    0.70928   0.71519    0.000
 4645.00    0.63732   0.72037    0.000
 4646.00    0.66777   0.72667    0.000
 4647.00    0.69820   0.73166    0.000
 4648.00    0.70891   0.73445    0.000
 4649.00    0.71964   0.72882    0.000
 4650.00    0.73063   0.70869    0.000
 4651.00    0.73905   0.69044    0.000
 4652.00    0.72120   0.68837    0.000
 4653.00    0.70654   0.69413    0.000
 4654.00    0.71519   0.69811    0.000
 4655.00    0.72644   0.70553    0.000
 4656.00    0.75220   0.72000    0.000
 4657.00    0.76708   0.72988    0.000
 4658.00    0.73341   0.72182    0.000
 4659.00    0.70967   0.71326    0.000
 4660.00    0.72227   0.71499    0.000
 4661.00    0.72497   0.72359    0.000
 4662.00    0.69727   0.73938    0.000
 4663.00    0.66237   0.75356    0.000
 4664.00    0.60869   0.75583    0.000
 4665.00    0.60564   0.74426    0.000
 4666.00    0.71608   0.73070    0.000
 4667.00    0.78251   0.72542    0.000
 4668.00    0.76347   0.72687    0.000
 4669.00    0.73993   0.72619    0.000
 4670.00    0.70873   0.71281    0.000
 4671.00    0.71473   0.69234    0.000
 4672.00    0.77591   0.68566    0.000
 4673.00    0.78570   0.69678    0.000
 4674.00    0.72846   0.71424    0.000
 4675.00    0.67533   0.72791    0.000
 4676.00    0.62691   0.72985    0.000
 4677.00    0.62961   0.72216    0.000
 4678.00    0.68410   0.71716    0.000
 4679.00    0.72724   0.71843    0.000
 4680.00    0.76023   0.72469    0.000
 4681.00    0.73606   0.72856    0.000
 4682.00    0.66687   0.72574    0.000
 4683.00    0.66395   0.71905    0.000
 4684.00    0.70691   0.71367    0.000
 4685.00    0.72482   0.70906    0.000
 4686.00    0.72749   0.70785    0.000
 4687.00    0.74153   0.71246    0.000
 4688.00    0.76159   0.70930    0.000
 4689.00    0.75627   0.69292    0.000
 4690.00    0.73927   0.68608    0.000
 4691.00    0.68102   0.69730    0.000
 4692.00    0.60641   0.71112    0.000
 4693.00    0.60799   0.71894    0.000
 4694.00    0.63529   0.71922    0.000
 4695.00    0.67977   0.71451    0.000
 4696.00    0.72913   0.71643    0.000
 4697.00    0.70916   0.72261    0.000
 4698.00    0.67295   0.72691    0.000
 4699.00    0.65771   0.73169    0.000
 4700.00    0.64641   0.73490    0.000
 4701.00    0.65692   0.72965    0.000
 4702.00    0.67059   0.71204    0.000
 4703.00    0.64960   0.69892    0.000
 4704.00    0.62494   0.70297    0.000
 4705.00    0.64272   0.70879    0.000
 4706.00    0.66341   0.70363    0.000
 4707.00    0.65034   0.69741    0.000
 4708.00    0.63612   0.69996    0.000
 4709.00    0.67026   0.70643    0.000
 4710.00    0.70199   0.70774    0.000
 4711.00    0.65304   0.70448    0.000
 4712.00    0.60794   0.69954    0.000
 4713.00    0.62196   0.69651    0.000
 4714.00    0.63798   0.70138    0.000
 4715.00    0.67369   0.71358    0.000
 4716.00    0.70283   0.70749    0.000
 4717.00    0.68554   0.68875    0.000
 4718.00    0.67422   0.68422    0.000
 4719.00    0.69535   0.69665    0.000
 4720.00    0.70734   0.70863    0.000
 4721.00    0.67950   0.71870    0.000
 4722.00    0.67484   0.72465    0.000
 4723.00    0.75331   0.72912    0.000
 4724.00    0.81180   0.73189    0.000
 4725.00    0.81012   0.73066    0.000
 4726.00    0.77865   0.72499    0.000
 4727.00    0.67086   0.72274    0.000
 4728.00    0.61767   0.72811    0.000
 4729.00    0.68485   0.73325    0.000
 4730.00    0.72555   0.72822    0.000
 4731.00    0.71564   0.71114    0.000
 4732.00    0.70179   0.69647    0.000
 4733.00    0.68138   0.69472    0.000
 4734.00    0.67508   0.69815    0.000
 4735.00    0.68943   0.70063    0.000
 4736.00    0.70181   0.70516    0.000
 4737.00    0.71167   0.70994    0.000
 4738.00    0.69734   0.71277    0.000
 4739.00    0.65562   0.71574    0.000
 4740.00    0.66400   0.71098    0.000
 4741.00    0.72242   0.70524    0.000
 4742.00    0.73332   0.71147    0.000
 4743.00    0.70234   0.71754    0.000
 4744.00    0.68000   0.71355    0.000
 4745.00    0.66437   0.70745    0.000
 4746.00    0.69387   0.70781    0.000
 4747.00    0.75418   0.71392    0.000
 4748.00    0.79076   0.71677    0.000
 4749.00    0.81315   0.71449    0.000
 4750.00    0.78186   0.71666    0.000
 4751.00    0.72255   0.72096    0.000
 4752.00    0.67585   0.72023    0.000
 4753.00    0.63485   0.71871    0.000
 4754.00    0.64318   0.71944    0.000
 4755.00    0.67070   0.71841    0.000
 4756.00    0.68574   0.71361    0.000
 4757.00    0.69665   0.70932    0.000
 4758.00    0.67496   0.70624    0.000
 4759.00    0.64421   0.70537    0.000
 4760.00    0.66242   0.70494    0.000
 4761.00    0.69182   0.70436    0.075
 4762.00    0.70256   0.70418    0.075
 4763.00    0.70988   0.70614    0.074
 4764.00    0.70266   0.70911    0.074
 4765.00    0.69339   0.70457    0.074
 4766.00    0.67574   0.69270    0.074
 4767.00    0.65724   0.68520    0.074
 4768.00    0.63485   0.68361    0.074
 4769.00    0.61220   0.68143    0.074
 4770.00    0.64254   0.67983    0.074
 4771.00    0.67439   0.68395    0.075
 4772.00    0.66102   0.69106    0.075
 4773.00    0.64729   0.69886    0.075
 4774.00    0.62339   0.70323    0.073
 4775.00    0.59992   0.69827    0.072
 4776.00    0.58266   0.69122    0.072
 4777.00    0.56725   0.69280    0.072
 4778.00    0.56910   0.70170    0.071
 4779.00    0.57514   0.70694    0.070
 4780.00    0.60985   0.70540    0.070
 4781.00    0.63624   0.70505    0.071
 4782.00    0.61858   0.70448    0.069
 4783.00    0.60594   0.69921    0.068
 4784.00    0.61467   0.69495    0.069
 4785.00    0.62222   0.69506    0.070
 4786.00    0.62568   0.69291    0.069
 4787.00    0.62601   0.68686    0.069
 4788.00    0.61711   0.68690    0.070
 4789.00    0.61392   0.69059    0.071
 4790.00    0.62511   0.68599    0.071
 4791.00    0.63141   0.68229    0.071
 4792.00    0.62713   0.68435    0.070
 4793.00    0.64213   0.68369    0.069
 4794.00    0.69340   0.68504    0.069
 4795.00    0.71551   0.68922    0.070
 4796.00    0.68969   0.69226    0.070
 4797.00    0.67335   0.69833    0.071
 4798.00    0.67068   0.70750    0.071
 4799.00    0.68351   0.71252    0.071
 4800.00    0.71597   0.71022    0.072
 4801.00    0.70442   0.70392    0.073
 4802.00    0.64370   0.69570    0.072
 4803.00    0.61666   0.68808    0.071
 4804.00    0.62278   0.68682    0.071
 4805.00    0.63283   0.69305    0.071
 4806.00    0.64630   0.70012    0.070
 4807.00    0.65161   0.70213    0.070
 4808.00    0.65068   0.69771    0.070
 4809.00    0.63278   0.69019    0.070
 4810.00    0.60347   0.68706    0.069
 4811.00    0.60651   0.68608    0.069
 4812.00    0.62860   0.68450    0.068
 4813.00    0.65070   0.68630    0.069
 4814.00    0.67280   0.68958    0.069
 4815.00    0.68772   0.69073    0.070
 4816.00    0.69943   0.68925    0.070
 4817.00    0.69642   0.68765    0.070
 4818.00    0.68776   0.68808    0.069
 4819.00    0.65664   0.68981    0.069
 4820.00    0.61821   0.69260    0.069
 4821.00    0.65330   0.69720    0.069
 4822.00    0.70840   0.69919    0.069
 4823.00    0.67961   0.69698    0.068
 4824.00    0.63207   0.69450    0.068
 4825.00    0.63041   0.69535    0.068
 4826.00    0.63693   0.69272    0.069
 4827.00    0.62123   0.67978    0.069
 4828.00    0.60250   0.67149    0.070
 4829.00    0.59744   0.67852    0.069
 4830.00    0.59372   0.68853    0.069
 4831.00    0.61030   0.68929    0.069
 4832.00    0.62811   0.68141    0.070
 4833.00    0.66123   0.67597    0.069
 4834.00    0.69438   0.67889    0.069
 4835.00    0.66089   0.67914    0.069
 4836.00    0.62786   0.67302    0.069
 4837.00    0.60689   0.67437    0.068
 4838.00    0.59000   0.68249    0.067
 4839.00    0.62887   0.68592    0.068
 4840.00    0.66086   0.68417    0.068
 4841.00    0.63077   0.68379    0.067
 4842.00    0.60570   0.68176    0.067
 4843.00    0.61396   0.67449    0.067
 4844.00    0.62296   0.66856    0.067
 4845.00    0.63573   0.66994    0.068
 4846.00    0.64589   0.67190    0.069
 4847.00    0.64517   0.66764    0.069
 4848.00    0.64558   0.66669    0.000
 4849.00    0.64989   0.67390    0.000
 4850.00    0.65063   0.67874    0.000
 4851.00    0.64104   0.67399    0.000
 4852.00    0.62603   0.66224    0.000
 4853.00    0.59757   0.65575    0.000
 4854.00    0.57721   0.65873    0.000
 4855.00    0.57412   0.65923    0.000
 4856.00    0.56047   0.65450    0.000
 4857.00    0.52724   0.64961    0.000
 4858.00    0.51106   0.63688    0.000
 4859.00    0.52250   0.61497    0.000
 4860.00    0.52808   0.60010    0.000
 4861.00    0.52536   0.59516    0.000
 4862.00    0.54683   0.58034    0.000
 4863.00    0.59853   0.54378    0.000
 4864.00    0.60320   0.48489    0.000
 4865.00    0.55609   0.43115    0.000
 4866.00    0.53742   0.43291    0.000
 4867.00    0.54638   0.48703    0.000
 4868.00    0.53656   0.53847    0.000
 4869.00    0.51064   0.57097    0.000
 4870.00    0.51007   0.59462    0.000
 4871.00    0.52862   0.61083    0.000
 4872.00    0.52539   0.62172    0.000
 4873.00    0.50772   0.63186    0.000
 4874.00    0.50090   0.63211    0.000
 4875.00    0.50037   0.61963    0.070
 4876.00    0.51545   0.61522    0.070
 4877.00    0.53844   0.62895    0.070
 4878.00    0.54457   0.64342    0.069
 4879.00    0.54332   0.64777    0.069
 4880.00    0.56137   0.65078    0.069
 4881.00    0.58668   0.65577    0.069
 4882.00    0.61118   0.65937    0.070
 4883.00    0.63543   0.66709    0.072
 4884.00    0.59638   0.67194    0.071
 4885.00    0.54046   0.66398    0.070
 4886.00    0.52581   0.65708    0.070
 4887.00    0.52017   0.66038    0.069
 4888.00    0.51107   0.66193    0.069
 4889.00    0.50138   0.65533    0.069
 4890.00    0.52565   0.64910    0.070
 4891.00    0.55439   0.65079    0.072
 4892.00    0.54307   0.65544    0.071
 4893.00    0.52801   0.65477    0.070
 4894.00    0.53388   0.64440    0.070
 4895.00    0.54093   0.63201    0.070
 4896.00    0.59191   0.63884    0.073
 4897.00    0.64364   0.66087    0.075
 4898.00    0.66833   0.67835    0.074
 4899.00    0.69003   0.68868    0.074
 4900.00    0.64084   0.69299    0.072
 4901.00    0.59384   0.69337    0.071
 4902.00    0.57515   0.69100    0.072
 4903.00    0.56191   0.68155    0.072
 4904.00    0.59621   0.67061    0.072
 4905.00    0.62504   0.67012    0.071
 4906.00    0.61879   0.67251    0.073
 4907.00    0.61624   0.66770    0.074
 4908.00    0.63236   0.66487    0.074
 4909.00    0.63518   0.67241    0.074
 4910.00    0.58392   0.68134    0.073
 4911.00    0.54739   0.68155    0.073
 4912.00    0.56055   0.67533    0.072
 4913.00    0.58375   0.66642    0.072
 4914.00    0.63553   0.65702    0.071
 4915.00    0.64479   0.65577    0.070
 4916.00    0.55063   0.66275    0.071
 4917.00    0.49132   0.66873    0.072
 4918.00    0.50517   0.67230    0.072
 4919.00    0.53933   0.67814    0.072
 4920.00    0.61059   0.68174    0.072
 4921.00    0.63295   0.67486    0.073
 4922.00    0.57736   0.65610    0.072
 4923.00    0.52879   0.63225    0.072
 4924.00    0.49003   0.61071    0.072
 4925.00    0.49539   0.59467    0.071
 4926.00    0.55510   0.59887    0.071
 4927.00    0.58201   0.61729    0.071
 4928.00    0.57331   0.63125    0.071
 4929.00    0.57651   0.63845    0.071
 4930.00    0.59109   0.65390    0.069
 4931.00    0.58686   0.66929    0.069
 4932.00    0.56673   0.67667    0.071
 4933.00    0.54771   0.68212    0.071
 4934.00    0.52952   0.68485    0.069
 4935.00    0.56221   0.68426    0.068
 4936.00    0.62814   0.67853    0.070
 4937.00    0.63915   0.66225    0.070
 4938.00    0.61877   0.64914    0.070
 4939.00    0.62243   0.65471    0.070
 4940.00    0.63808   0.66444    0.000
 4941.00    0.62417   0.66013    0.000
 4942.00    0.59753   0.64500    0.000
 4943.00    0.58983   0.63559    0.000
 4944.00    0.58911   0.64234    0.000
 4945.00    0.63456   0.65706    0.000
 4946.00    0.69445   0.66353    0.000
 4947.00    0.69384   0.66686    0.000
 4948.00    0.67745   0.67265    0.000
 4949.00    0.61972   0.67373    0.000
 4950.00    0.55318   0.66999    0.000
 4951.00    0.55448   0.67126    0.000
 4952.00    0.56720   0.67625    0.000
 4953.00    0.60990   0.67913    0.000
 4954.00    0.65640   0.68082    0.000
 4955.00    0.64147   0.68279    0.000
 4956.00    0.62108   0.68092    0.000
 4957.00    0.59649   0.67511    0.000
 4958.00    0.57168   0.66946    0.000
 4959.00    0.62565   0.66340    0.000
 4960.00    0.68004   0.64912    0.000
 4961.00    0.64909   0.62326    0.000
 4962.00    0.61981   0.61064    0.000
 4963.00    0.62677   0.62770    0.000
 4964.00    0.63314   0.65126    0.000
 4965.00    0.63214   0.66044    0.000
 4966.00    0.63004   0.65962    0.000
 4967.00    0.61866   0.65917    0.000
 4968.00    0.60611   0.65697    0.000
 4969.00    0.58631   0.64860    0.000
 4970.00    0.57406   0.64110    0.000
 4971.00    0.59879   0.63986    0.000
 4972.00    0.61996   0.64083    0.000
 4973.00    0.62695   0.64280    0.000
 4974.00    0.62599   0.64518    0.000
 4975.00    0.59872   0.64879    0.000
 4976.00    0.58948   0.65401    0.000
 4977.00    0.63063   0.65801    0.000
 4978.00    0.65287   0.66121    0.000
 4979.00    0.62986   0.66235    0.000
 4980.00    0.60304   0.66007    0.000
 4981.00    0.56837   0.65580    0.000
 4982.00    0.54175   0.64888    0.000
 4983.00    0.52960   0.64307    0.000
 4984.00    0.51353   0.64056    0.000
 4985.00    0.49130   0.63335    0.000
 4986.00    0.52230   0.61827    0.000
 4987.00    0.62673   0.60768    0.000
 4988.00    0.66013   0.61052    0.000
 4989.00    0.60730   0.61980    0.000
 4990.00    0.57662   0.62956    0.000
 4991.00    0.56963   0.64024    0.000
 4992.00    0.57662   0.64686    0.000
 4993.00    0.59680   0.64558    0.000
 4994.00    0.60862   0.63943    0.000
 4995.00    0.61349   0.63421    0.000
 4996.00    0.62382   0.63706    0.000
 4997.00    0.63816   0.64050    0.000
 4998.00    0.61697   0.63843    0.000
 4999.00    0.57292   0.64007    0.000
 5000.00    0.54929   0.64534    0.000
 5001.00    0.53714   0.64679    0.000
 5002.00    0.53751   0.64376    0.000
 5003.00    0.54402   0.63445    0.000
 5004.00    0.56229   0.62125    0.000
 5005.00    0.58555   0.61324    0.000
 5006.00    0.60750   0.61347    0.000
 5007.00    0.62897   0.62028    0.000
 5008.00    0.60335   0.62310    0.000
 5009.00    0.56327   0.61565    0.000
 5010.00    0.55149   0.60473    0.000
 5011.00    0.54693   0.60496    0.000
 5012.00    0.55508   0.61831    0.000
 5013.00    0.56587   0.63001    0.000
 5014.00    0.53253   0.63150    0.000
 5015.00    0.49198   0.62645    0.000
 5016.00    0.49356   0.61674    0.000
 5017.00    0.50032   0.60493    0.000
 5018.00    0.52980   0.59266    0.000
 5019.00    0.56121   0.58224    0.000
 5020.00    0.54797   0.58493    0.000
 5021.00    0.53256   0.59702    0.000
 5022.00    0.50819   0.60633    0.000
 5023.00    0.48420   0.61244    0.000
 5024.00    0.49150   0.62025    0.000
 5025.00    0.49927   0.62323    0.000
 5026.00    0.51664   0.61780    0.000
 5027.00    0.53288   0.61586    0.000
 5028.00    0.53588   0.62255    0.000
 5029.00    0.53831   0.62802    0.070
 5030.00    0.53614   0.62758    0.070
 5031.00    0.53569   0.62170    0.071
 5032.00    0.54559   0.61827    0.070
 5033.00    0.55326   0.62446    0.070
 5034.00    0.55028   0.63169    0.069
 5035.00    0.54003   0.63465    0.069
 5036.00    0.50151   0.63845    0.068
 5037.00    0.47233   0.64444    0.068
 5038.00    0.47347   0.64502    0.068
 5039.00    0.48548   0.63287    0.069
 5040.00    0.52731   0.61732    0.069
 5041.00    0.55997   0.61507    0.069
 5042.00    0.57106   0.61874    0.069
 5043.00    0.58005   0.61239    0.068
 5044.00    0.58473   0.59369    0.068
 5045.00    0.57160   0.57576    0.067
 5046.00    0.52698   0.58002    0.066
 5047.00    0.49284   0.60429    0.066
 5048.00    0.47491   0.62379    0.067
 5049.00    0.47793   0.63448    0.067
 5050.00    0.50943   0.64116    0.066
 5051.00    0.52743   0.63730    0.065
 5052.00    0.52928   0.62331    0.065
 5053.00    0.54795   0.61191    0.065
 5054.00    0.58437   0.61010    0.065
 5055.00    0.56899   0.61130    0.066
 5056.00    0.50542   0.61380    0.066
 5057.00    0.46945   0.62070    0.066
 5058.00    0.45613   0.62920    0.065
 5059.00    0.46314   0.63149    0.064
 5060.00    0.48484   0.62900    0.065
 5061.00    0.53313   0.62930    0.065
 5062.00    0.59827   0.63508    0.066
 5063.00    0.62076   0.63820    0.066
 5064.00    0.61962   0.63857    0.066
 5065.00    0.58718   0.64140    0.065
 5066.00    0.53966   0.64377    0.064
 5067.00    0.53858   0.63884    0.064
 5068.00    0.55683   0.62344    0.065
 5069.00    0.57329   0.60818    0.065
 5070.00    0.58912   0.60807    0.064
 5071.00    0.56143   0.61525    0.065
 5072.00    0.52065   0.61604    0.065
 5073.00    0.53614   0.61555    0.065
 5074.00    0.56568   0.62080    0.064
 5075.00    0.55875   0.62299    0.065
 5076.00    0.54443   0.61650    0.067
 5077.00    0.52413   0.61321    0.066
 5078.00    0.50289   0.61769    0.065
 5079.00    0.53426   0.61977    0.065
 5080.00    0.57185   0.61800    0.065
 5081.00    0.57804   0.61901    0.064
 5082.00    0.58172   0.61802    0.063
 5083.00    0.53360   0.60383    0.063
 5084.00    0.48315   0.58810    0.064
 5085.00    0.49391   0.58806    0.064
 5086.00    0.50707   0.59674    0.064
 5087.00    0.60383   0.60053    0.064
 5088.00    0.69304   0.60307    0.065
 5089.00    0.64184   0.61032    0.064
 5090.00    0.59261   0.61671    0.063
 5091.00    0.56550   0.61779    0.063
 5092.00    0.54715   0.61751    0.063
 5093.00    0.59706   0.61956    0.065
 5094.00    0.63348   0.62061    0.066
 5095.00    0.59049   0.61992    0.067
 5096.00    0.55735   0.62202    0.069
 5097.00    0.57020   0.62762    0.067
 5098.00    0.57370   0.63054    0.066
 5099.00    0.54152   0.62631    0.065
 5100.00    0.51832   0.61845    0.064
 5101.00    0.52366   0.61110    0.064
 5102.00    0.52982   0.60281    0.065
 5103.00    0.53819   0.59390    0.067
 5104.00    0.54813   0.59391    0.068
 5105.00    0.56166   0.60432    0.068
 5106.00    0.55759   0.61323    0.067
 5107.00    0.51828   0.61444    0.066
 5108.00    0.49474   0.61121    0.066
 5109.00    0.49865   0.60835    0.067
 5110.00    0.49374   0.60562    0.067
 5111.00    0.47540   0.59994    0.067
 5112.00    0.47659   0.59583    0.067
 5113.00    0.50397   0.59677    0.068
 5114.00    0.52905   0.59680    0.069
 5115.00    0.55141   0.59846    0.070
 5116.00    0.55897   0.60498    0.070
 5117.00    0.55114   0.60905    0.071
 5118.00    0.52286   0.61060    0.070
 5119.00    0.47579   0.61361    0.070
 5120.00    0.46134   0.61736    0.069
 5121.00    0.47329   0.62213    0.067
 5122.00    0.48255   0.62578    0.066
 5123.00    0.48989   0.62424    0.066
 5124.00    0.47887   0.61848    0.066
 5125.00    0.45639   0.61115    0.067
 5126.00    0.48193   0.60326    0.067
 5127.00    0.53367   0.59329    0.068
 5128.00    0.54309   0.58462    0.068
 5129.00    0.53243   0.58446    0.067
 5130.00    0.53042   0.58838    0.067
 5131.00    0.53194   0.58850    0.066
 5132.00    0.53516   0.58660    0.066
 5133.00    0.53897   0.58633    0.065
 5134.00    0.51725   0.58812    0.065
 5135.00    0.48801   0.59344    0.064
 5136.00    0.52768   0.59889    0.065
 5137.00    0.58418   0.60009    0.066
 5138.00    0.55236   0.60170    0.066
 5139.00    0.50309   0.60864    0.065
 5140.00    0.52159   0.61195    0.064
 5141.00    0.55053   0.60568    0.064
 5142.00    0.50730   0.59649    0.063
 5143.00    0.45585   0.58843    0.062
 5144.00    0.48449   0.58840    0.061
 5145.00    0.51925   0.59558    0.061
 5146.00    0.52068   0.59267    0.062
 5147.00    0.52073   0.58366    0.063
 5148.00    0.48315   0.58515    0.063
 5149.00    0.44716   0.58990    0.063
 5150.00    0.49168   0.58785    0.062
 5151.00    0.53525   0.58498    0.062
 5152.00    0.56240   0.58635    0.063
 5153.00    0.58472   0.59139    0.063
 5154.00    0.55569   0.59276    0.063
 5155.00    0.52681   0.58634    0.062
 5156.00    0.49897   0.57980    0.063
 5157.00    0.47871   0.57810    0.063
 5158.00    0.50179   0.57928    0.064
 5159.00    0.52003   0.58318    0.065
 5160.00    0.51623   0.59157    0.065
 5161.00    0.51657   0.60241    0.064
 5162.00    0.53239   0.61113    0.064
 5163.00    0.53992   0.61288    0.065
 5164.00    0.52163   0.61177    0.066
 5165.00    0.49904   0.61214    0.066
 5166.00    0.46511   0.60906    0.065
 5167.00    0.43933   0.60365    0.065
 5168.00    0.43210   0.59968    0.065
 5169.00    0.43084   0.58875    0.065
 5170.00    0.44133   0.56363    0.065
 5171.00    0.45629   0.53247    0.065
 5172.00    0.47894   0.51405    0.065
 5173.00    0.47911   0.52071    0.066
 5174.00    0.44548   0.54133    0.066
 5175.00    0.44067   0.54711    0.066
 5176.00    0.47393   0.52606    0.067
 5177.00    0.47981   0.50702    0.067
 5178.00    0.45382   0.52055    0.066
 5179.00    0.44788   0.55266    0.066
 5180.00    0.46249   0.57388    0.066
 5181.00    0.48766   0.58135    0.066
 5182.00    0.52237   0.58502    0.065
 5183.00    0.51570   0.58578    0.065
 5184.00    0.47604   0.58218    0.065
 5185.00    0.43514   0.57430    0.064
 5186.00    0.39338   0.55637    0.064
 5187.00    0.40575   0.52562    0.065
 5188.00    0.45144   0.50453    0.065
 5189.00    0.46805   0.51901    0.066
 5190.00    0.46905   0.55463    0.000
 5191.00    0.45866   0.57993    0.000
 5192.00    0.44297   0.58678    0.000
 5193.00    0.48829   0.58752    0.000
 5194.00    0.55816   0.59136    0.000
 5195.00    0.50299   0.58697    0.000
 5196.00    0.40490   0.56958    0.000
 5197.00    0.43963   0.55941    0.000
 5198.00    0.51274   0.56541    0.000
 5199.00    0.49027   0.57273    0.000
 5200.00    0.44497   0.57658    0.000
 5201.00    0.47971   0.58320    0.000
 5202.00    0.52985   0.58987    0.000
 5203.00    0.51007   0.59458    0.000
 5204.00    0.47984   0.59709    0.000
 5205.00    0.46076   0.59537    0.000
 5206.00    0.44291   0.59098    0.000
 5207.00    0.44711   0.58683    0.000
 5208.00    0.45289   0.57821    0.000
 5209.00    0.48300   0.56192    0.000
 5210.00    0.51402   0.54948    0.000
 5211.00    0.52366   0.54809    0.063
 5212.00    0.53252   0.54741    0.063
 5213.00    0.51677   0.54505    0.063
 5214.00    0.50477   0.55045    0.063
 5215.00    0.55356   0.56319    0.063
 5216.00    0.59807   0.57844    0.064
 5217.00    0.59898   0.59285    0.065
 5218.00    0.59555   0.60077    0.065
 5219.00    0.56058   0.59727    0.064
 5220.00    0.53219   0.58717    0.063
 5221.00    0.54048   0.58303    0.063
 5222.00    0.54482   0.58905    0.062
 5223.00    0.53162   0.59829    0.062
 5224.00    0.52025   0.60444    0.062
 5225.00    0.51552   0.60825    0.063
 5226.00    0.50956   0.60985    0.064
 5227.00    0.49978   0.60519    0.064
 5228.00    0.48858   0.59315    0.064
 5229.00    0.47366   0.57682    0.063
 5230.00    0.48146   0.55900    0.064
 5231.00    0.54005   0.54676    0.065
 5232.00    0.56614   0.55389    0.066
 5233.00    0.52920   0.57687    0.066
 5234.00    0.52209   0.59491    0.065
 5235.00    0.56539   0.60229    0.065
 5236.00    0.58766   0.60085    0.064
 5237.00    0.57880   0.58958    0.065
 5238.00    0.57518   0.57952    0.066
 5239.00    0.57838   0.58066    0.066
 5240.00    0.55236   0.59062    0.067
 5241.00    0.49281   0.60234    0.066
 5242.00    0.49367   0.60876    0.066
 5243.00    0.55562   0.60833    0.065
 5244.00    0.56157   0.60549    0.065
 5245.00    0.51754   0.60466    0.066
 5246.00    0.50865   0.60464    0.067
 5247.00    0.52740   0.60344    0.067
 5248.00    0.53163   0.60531    0.067
 5249.00    0.52584   0.60974    0.068
 5250.00    0.50687   0.60429    0.069
 5251.00    0.47991   0.58722    0.069
 5252.00    0.46443   0.57716    0.068
 5253.00    0.45503   0.57996    0.066
 5254.00    0.51235   0.57971    0.067
 5255.00    0.60030   0.57476    0.068
 5256.00    0.58841   0.57754    0.067
 5257.00    0.53705   0.58567    0.067
 5258.00    0.52958   0.58830    0.067
 5259.00    0.53690   0.58396    0.068
 5260.00    0.54897   0.58432    0.068
 5261.00    0.56239   0.59614    0.068
 5262.00    0.54937   0.60898    0.068
 5263.00    0.53018   0.61319    0.068
 5264.00    0.51009   0.60875    0.068
 5265.00    0.48983   0.59812    0.068
 5266.00    0.48866   0.58331    0.068
 5267.00    0.49024   0.56712    0.068
 5268.00    0.46317   0.55330    0.068
 5269.00    0.43308   0.54383    0.068
 5270.00    0.44453   0.54031    0.067
 5271.00    0.45881   0.54845    0.067
 5272.00    0.48780   0.55958    0.068
 5273.00    0.51729   0.54945    0.069
 5274.00    0.50199   0.52708    0.067
 5275.00    0.48758   0.52923    0.065
 5276.00    0.50325   0.55489    0.065
 5277.00    0.51786   0.57329    0.065
 5278.00    0.51630   0.57752    0.064
 5279.00    0.51317   0.57607    0.064
 5280.00    0.49472   0.57464    0.064
 5281.00    0.47929   0.58335    0.064
 5282.00    0.48511   0.60002    0.063
 5283.00    0.49221   0.60882    0.062
 5284.00    0.50625   0.60536    0.062
 5285.00    0.51721   0.59569    0.062
 5286.00    0.51476   0.58556    0.063
 5287.00    0.52106   0.57730    0.063
 5288.00    0.55869   0.57373    0.064
 5289.00    0.59132   0.58202    0.065
 5290.00    0.60893   0.59992    0.065
 5291.00    0.61952   0.61239    0.065
 5292.00    0.61212   0.61281    0.065
 5293.00    0.59961   0.60877    0.066
 5294.00    0.57588   0.60843    0.067
 5295.00    0.56088   0.61075    0.067
 5296.00    0.56251   0.61040    0.067
 5297.00    0.58342   0.60681    0.067
 5298.00    0.63644   0.60458    0.067
 5299.00    0.63820   0.60366    0.067
 5300.00    0.56513   0.59575    0.066
 5301.00    0.51978   0.57809    0.065
 5302.00    0.51003   0.56196    0.066
 5303.00    0.51272   0.56211    0.066
 5304.00    0.52949   0.57507    0.066
 5305.00    0.54771   0.58275    0.066
 5306.00    0.56738   0.58226    0.066
 5307.00    0.57800   0.58600    0.066
 5308.00    0.58067   0.59731    0.067
 5309.00    0.58653   0.60813    0.067
 5310.00    0.59489   0.61008    0.066
 5311.00    0.59334   0.60419    0.066
 5312.00    0.58505   0.59950    0.067
 5313.00    0.55137   0.60205    0.066
 5314.00    0.50252   0.60721    0.065
 5315.00    0.49501   0.60840    0.065
 5316.00    0.50903   0.60626    0.066
 5317.00    0.52888   0.60347    0.065
 5318.00    0.55135   0.60144    0.064
 5319.00    0.55017   0.60000    0.064
 5320.00    0.53982   0.59592    0.065
 5321.00    0.53480   0.59083    0.065
 5322.00    0.53155   0.59107    0.065
 5323.00    0.51764   0.59476    0.063
 5324.00    0.50078   0.59511    0.062
 5325.00    0.55185   0.59313    0.063
 5326.00    0.61840   0.59209    0.064
 5327.00    0.55960   0.58874    0.063
 5328.00    0.47790   0.58093    0.062
 5329.00    0.49079   0.57601    0.063
 5330.00    0.51695   0.57813    0.064
 5331.00    0.50049   0.57049    0.063
 5332.00    0.47974   0.54404    0.062
 5333.00    0.51500   0.52547    0.062
 5334.00    0.55385   0.53928    0.063
 5335.00    0.57076   0.56718    0.063
 5336.00    0.58688   0.58248    0.063
 5337.00    0.55017   0.58365    0.062
 5338.00    0.51427   0.58538    0.061
 5339.00    0.50176   0.59240    0.060
 5340.00    0.49253   0.59556    0.060
 5341.00    0.53052   0.59257    0.060
 5342.00    0.56595   0.59002    0.060
 5343.00    0.57744   0.58699    0.061
 5344.00    0.58274   0.57609    0.062
 5345.00    0.54588   0.56405    0.062
 5346.00    0.51063   0.56596    0.062
 5347.00    0.48386   0.57832    0.062
 5348.00    0.47291   0.58666    0.062
 5349.00    0.52910   0.58618    0.063
 5350.00    0.56547   0.58053    0.063
 5351.00    0.53234   0.57896    0.064
 5352.00    0.51763   0.58019    0.064
 5353.00    0.55724   0.57608    0.063
 5354.00    0.57361   0.57313    0.063
 5355.00    0.53160   0.58088    0.064
 5356.00    0.51176   0.59216    0.065
 5357.00    0.53990   0.59727    0.066
 5358.00    0.55002   0.59894    0.067
 5359.00    0.52632   0.60372    0.067
 5360.00    0.50960   0.60835    0.067
 5361.00    0.50431   0.60921    0.067
 5362.00    0.49827   0.60931    0.067
 5363.00    0.49116   0.60966    0.065
 5364.00    0.48359   0.60816    0.064
 5365.00    0.47546   0.60262    0.065
 5366.00    0.47483   0.59403    0.065
 5367.00    0.48256   0.58798    0.065
 5368.00    0.49032   0.58631   -2.000
 5369.00    0.49810   0.58415   -2.000
 5370.00    0.52412   0.58195   -2.000
 5371.00    0.56595   0.58260   -2.000
 5372.00    0.57358   0.58344   -2.000
 5373.00    0.55507   0.58013   -2.000
 5374.00    0.53764   0.56849   -2.000
 5375.00    0.52092   0.55227   -2.000
 5376.00    0.50999   0.54664   -2.000
 5377.00    0.50245   0.56048   -2.000
 5378.00    0.51244   0.58164   -2.000
 5379.00    0.53142   0.59465   -2.000
 5380.00    0.52026   0.59781   -2.000
 5381.00    0.49571   0.59542   -2.000
 5382.00    0.50531   0.59409   -2.000
 5383.00    0.52794   0.59611    0.062
 5384.00    0.52905   0.59556    0.062
 5385.00    0.52318   0.59099    0.063
 5386.00    0.54326   0.58682    0.062
 5387.00    0.57039   0.58398    0.061
 5388.00    0.56974   0.58234    0.062
 5389.00    0.56290   0.58496    0.062
 5390.00    0.56746   0.58945    0.062
 5391.00    0.57405   0.59097    0.061
 5392.00    0.54022   0.58992    0.060
 5393.00    0.50092   0.58611    0.059
 5394.00    0.50149   0.57956    0.060
 5395.00    0.50591   0.57415    0.061
 5396.00    0.46965   0.57254    0.061
 5397.00    0.43095   0.57217    0.061
 5398.00    0.45949   0.57131    0.062
 5399.00    0.48975   0.57017    0.062
 5400.00    0.51252   0.56512    0.062
 5401.00    0.53490   0.55325    0.062
 5402.00    0.54723   0.54817    0.061
 5403.00    0.55398   0.56047    0.061
 5404.00    0.48496   0.57359    0.062
 5405.00    0.42524   0.57596    0.062
 5406.00    0.44917   0.57632    0.063
 5407.00    0.47071   0.57659    0.064
 5408.00    0.47651   0.56730    0.063
 5409.00    0.48102   0.54983    0.063
 5410.00    0.47890   0.53754    0.064
 5411.00    0.47904   0.54060    0.065
 5412.00    0.48857   0.55270    0.064
 5413.00    0.50050   0.55571    0.063
 5414.00    0.52067   0.54569    0.064
 5415.00    0.54233   0.53883    0.065
 5416.00    0.56827   0.54712    0.065
 5417.00    0.58146   0.56189    0.065
 5418.00    0.56317   0.57158    0.064
 5419.00    0.55287   0.57462    0.064
 5420.00    0.55961   0.57771    0.065
 5421.00    0.55918   0.58451    0.065
 5422.00    0.54547   0.58885    0.064
 5423.00    0.54214   0.58704    0.064
 5424.00    0.55557   0.58222    0.063
 5425.00    0.56278   0.57896    0.063
 5426.00    0.56117   0.58081    0.064
 5427.00    0.55291   0.58289    0.065
 5428.00    0.53635   0.57708    0.064
 5429.00    0.54496   0.57071    0.064
 5430.00    0.58125   0.57543    0.064
 5431.00    0.56935   0.58592    0.064
 5432.00    0.51074   0.58862    0.063
 5433.00    0.49086   0.57393    0.063
 5434.00    0.50410   0.55338    0.062
 5435.00    0.50639   0.55154    0.061
 5436.00    0.50045   0.56206    0.061
 5437.00    0.50259   0.56242    0.061
 5438.00    0.51009   0.55496    0.060
 5439.00    0.52606   0.54989    0.060
 5440.00    0.54695   0.55144    0.060
 5441.00    0.56225   0.55944    0.060
 5442.00    0.57473   0.57076    0.061
 5443.00    0.55411   0.58194    0.061
 5444.00    0.51903   0.58930    0.062
 5445.00    0.52407   0.59231    0.062
 5446.00    0.54417   0.59304    0.061
 5447.00    0.55706   0.59346    0.061
 5448.00    0.56765   0.59203    0.061
 5449.00    0.55177   0.58300    0.061
 5450.00    0.52884   0.56445    0.061
 5451.00    0.53876   0.54480    0.062
 5452.00    0.55582   0.54093    0.062
 5453.00    0.53417   0.55443    0.062
 5454.00    0.50584   0.56727    0.062
 5455.00    0.49439   0.57143    0.062
 5456.00    0.48515   0.57051    0.061
 5457.00    0.53866   0.56730    0.063
 5458.00    0.59796   0.56001    0.064
 5459.00    0.58536   0.54713    0.064
 5460.00    0.56872   0.53595    0.064
 5461.00    0.51603   0.54118    0.063
 5462.00    0.46321   0.55810    0.061
 5463.00    0.48065   0.57041    0.063
 5464.00    0.50051   0.57190    0.064
 5465.00    0.57699   0.56723    0.065
 5466.00    0.64383   0.56151    0.065
 5467.00    0.58675   0.55527    0.064
 5468.00    0.53440   0.55241    0.064
 5469.00    0.52296   0.55780    0.064
 5470.00    0.51587   0.56354    0.065
 5471.00    0.53659   0.56407    0.065
 5472.00    0.55221   0.56616    0.065
 5473.00    0.54227   0.56933    0.064
 5474.00    0.52901   0.56728    0.063
 5475.00    0.50223   0.56243    0.064
 5476.00    0.49014   0.56096    0.064
 5477.00    0.52747   0.55895    0.064
 5478.00    0.55343   0.55394   -2.000
 5479.00    0.54710   0.55172   -2.000
 5480.00    0.53214   0.54750   -2.000
 5481.00    0.49622   0.53644   -2.000
 5482.00    0.48209   0.53539   -2.000
 5483.00    0.51364   0.55032   -2.000
 5484.00    0.50042   0.56114   -2.000
 5485.00    0.40566   0.55683   -2.000
 5486.00    0.35443   0.54786   -2.000
 5487.00    0.37247   0.54823   -2.000
 5488.00    0.41932   0.55661   -2.000
 5489.00    0.50641   0.56598   -2.000
 5490.00    0.54310   0.57057   -2.000
 5491.00    0.51781   0.56625   -2.000
 5492.00    0.51789   0.55818   -2.000
 5493.00    0.54546   0.55683   -2.000
 5494.00    0.55091   0.56081   -2.000
 5495.00    0.53521   0.56237   -2.000
 5496.00    0.52472   0.56419   -2.000
 5497.00    0.51860   0.56583   -2.000
 5498.00    0.52181   0.56337   -2.000
 5499.00    0.53194   0.56259   -2.000
 5500.00    0.51271   0.56397   -2.000
 5501.00    0.47435   0.55984   -2.000
 5502.00    0.47625   0.55353    0.193
 5503.00    0.50113   0.55708    0.075
 5504.00    0.52944   0.56500    0.063
 5505.00    0.55947   0.56232    0.064
 5506.00    0.53556   0.55304    0.063
 5507.00    0.48849   0.55044    0.063
 5508.00    0.49804   0.55463    0.062
 5509.00    0.52845   0.55700    0.063
 5510.00    0.52547   0.55193    0.063
 5511.00    0.51207   0.54384    0.064
 5512.00    0.50528   0.54536    0.064
 5513.00    0.50020   0.55489    0.063
 5514.00    0.51576   0.55859    0.064
 5515.00    0.53570   0.55613    0.064
 5516.00    0.54843   0.54959    0.064
 5517.00    0.55994   0.54113    0.064
 5518.00    0.55546   0.53794    0.064
 5519.00    0.54896   0.54061    0.064
 5520.00    0.53836   0.54607    0.064
 5521.00    0.52741   0.55237    0.064
 5522.00    0.49758   0.55923    0.063
 5523.00    0.46676   0.56679    0.061
 5524.00    0.46016   0.57051    0.060
 5525.00    0.45462   0.56911    0.059
 5526.00    0.49611   0.56693    0.060
 5527.00    0.53426   0.56627    0.062
 5528.00    0.50060   0.56640    0.061
 5529.00    0.47150   0.56505    0.061
 5530.00    0.49797   0.56017    0.061
 5531.00    0.51882   0.55230    0.060
 5532.00    0.49290   0.54264    0.059
 5533.00    0.46984   0.53773    0.058
 5534.00    0.46454   0.54550    0.060
 5535.00    0.46876   0.55797    0.061
 5536.00    0.51950   0.56284    0.060
 5537.00    0.55386   0.56088    0.059
 5538.00    0.52314   0.55761    0.058
 5539.00    0.50323   0.55371    0.058
 5540.00    0.51895   0.55154    0.059
 5541.00    0.53611   0.55479    0.060
 5542.00    0.55732   0.55827    0.059
 5543.00    0.55540   0.55903    0.058
 5544.00    0.49827   0.56235    0.059
 5545.00    0.46519   0.56746    0.059
 5546.00    0.48169   0.56899    0.059
 5547.00    0.50873   0.56454    0.059
 5548.00    0.55467   0.55854    0.060
 5549.00    0.57318   0.55683    0.060
 5550.00    0.54869   0.55725    0.060
 5551.00    0.53012   0.55752    0.060
 5552.00    0.51969   0.56110    0.060
 5553.00    0.53006   0.56685    0.061
 5554.00    0.56564   0.56961    0.062
 5555.00    0.57423   0.56945    0.063
 5556.00    0.55400   0.56824    0.063
 5557.00    0.53916   0.56495    0.062
 5558.00    0.52940   0.55958    0.061
 5559.00    0.54723   0.55573    0.061
 5560.00    0.58799   0.55623    0.063
 5561.00    0.58856   0.55787    0.063
 5562.00    0.55975   0.55709    0.063
 5563.00    0.55849   0.55694    0.062
 5564.00    0.57492   0.55838    0.062
 5565.00    0.56108   0.55859    0.062
 5566.00    0.53024   0.55673    0.063
 5567.00    0.50421   0.55280    0.062
 5568.00    0.48055   0.54947    0.060
 5569.00    0.48066   0.54899    0.060
 5570.00    0.49081   0.54747    0.060
 5571.00    0.50113   0.54551    0.060
 5572.00    0.51150   0.54654    0.059
 5573.00    0.49835   0.54699    0.059
 5574.00    0.47799   0.54505    0.059
 5575.00    0.48463   0.54705    0.058
 5576.00    0.49814   0.55061    0.057
 5577.00    0.52485   0.54615    0.058
 5578.00    0.55430   0.54311    0.059
 5579.00    0.55906   0.54948    0.059
 5580.00    0.55978   0.55289    0.058
 5581.00    0.54370   0.55157    0.058
 5582.00    0.52557   0.55327    0.058
 5583.00    0.56062   0.55413    0.058
 5584.00    0.60015   0.55425    0.059
 5585.00    0.59640   0.55585    0.059
 5586.00    0.59055   0.55358    0.059
 5587.00    0.53525   0.55013    0.058
 5588.00    0.48033   0.55075    0.058
 5589.00    0.49182   0.55016    0.059
 5590.00    0.50078   0.54420    0.060
 5591.00    0.45978   0.53339    0.060
 5592.00    0.42551   0.52234    0.059
 5593.00    0.46942   0.51763    0.061
 5594.00    0.50875   0.52002    0.062
 5595.00    0.51121   0.52731    0.063
 5596.00    0.51316   0.53277    0.063
 5597.00    0.51208   0.53345    0.064
 5598.00    0.51373   0.53273    0.064
 5599.00    0.52839   0.53460    0.063
 5600.00    0.53282   0.54227    0.062
 5601.00    0.49755   0.55078    0.063
 5602.00    0.47083   0.54649    0.064
 5603.00    0.47174   0.53428    0.063
 5604.00    0.47634   0.52975    0.062
 5605.00    0.49105   0.53026    0.063
 5606.00    0.51074   0.52737    0.062
 5607.00    0.54213   0.52405    0.061
 5608.00    0.56597   0.52710    0.060
 5609.00    0.57450   0.53831    0.060
 5610.00    0.57056   0.54882    0.059
 5611.00    0.54458   0.55494    0.058
 5612.00    0.52444   0.55744    0.057
 5613.00    0.51332   0.55747    0.057
 5614.00    0.50283   0.55597    0.056
 5615.00    0.49322   0.55501    0.057
 5616.00    0.48155   0.55645    0.057
 5617.00    0.46744   0.55844    0.056
 5618.00    0.46791   0.55510    0.056
 5619.00    0.48375   0.54005    0.055
 5620.00    0.50065   0.52155    0.055
 5621.00    0.51852   0.52050    0.056
 5622.00    0.52767   0.53309    0.057
 5623.00    0.52968   0.53979    0.056
 5624.00    0.52930   0.53909    0.056
 5625.00    0.52719   0.53967    0.056
 5626.00    0.51588   0.54430    0.056
 5627.00    0.49873   0.54709    0.056
 5628.00    0.50774   0.54080    0.056
 5629.00    0.53122   0.52896    0.056
 5630.00    0.53238   0.52587    0.056
 5631.00    0.52279   0.53381    0.057
 5632.00    0.52776   0.54046    0.057
 5633.00    0.53878   0.54302    0.057
 5634.00    0.54620   0.54603    0.057
 5635.00    0.55235   0.54830    0.058
 5636.00    0.53630   0.54911    0.058
 5637.00    0.51360   0.54895    0.059
 5638.00    0.51288   0.54781    0.058
 5639.00    0.51763   0.54593    0.058
 5640.00    0.53526   0.54270    0.058
 5641.00    0.55550   0.53815    0.060
 5642.00    0.55866   0.53463    0.060
 5643.00    0.55912   0.53452    0.059
 5644.00    0.54947   0.53506    0.059
 5645.00    0.53863   0.53268    0.059
 5646.00    0.55479   0.52979    0.058
 5647.00    0.57309   0.53306    0.058
 5648.00    0.56526   0.53697    0.058
 5649.00    0.55627   0.53775    0.058
 5650.00    0.56829   0.53812    0.058
 5651.00    0.57969   0.53874    0.058
 5652.00    0.54860   0.53981    0.057
 5653.00    0.51841   0.54034    0.057
 5654.00    0.50460   0.53988    0.056
 5655.00    0.49234   0.54112    0.056
 5656.00    0.49723   0.54494    0.055
 5657.00    0.50204   0.54875    0.054
 5658.00    0.50619   0.54852    0.055
 5659.00    0.50543   0.54340    0.055
 5660.00    0.47581   0.53975    0.055
 5661.00    0.45543   0.53955    0.054
 5662.00    0.47811   0.53036    0.054
 5663.00    0.49672   0.51423    0.053
 5664.00    0.49988   0.51412    0.053
 5665.00    0.50089   0.52795    0.054
 5666.00    0.49509   0.53133    0.054
 5667.00    0.48836   0.52472    0.055
 5668.00    0.47913   0.52468    0.055
 5669.00    0.46923   0.53284    0.055
 5670.00    0.45780   0.53817    0.055
 5671.00    0.46813   0.53648    0.055
 5672.00    0.52192   0.53158    0.056
 5673.00    0.56405   0.52937    0.057
 5674.00    0.58589   0.53158    0.058
 5675.00    0.58403   0.53385    0.059
 5676.00    0.54611   0.53592    0.059
 5677.00    0.52526   0.54069    0.060
 5678.00    0.52724   0.54618    0.060
 5679.00    0.51226   0.54643    0.060
 5680.00    0.47730   0.54278    0.059
 5681.00    0.46455   0.54323    0.058
 5682.00    0.47489   0.54636    0.057
 5683.00    0.50072   0.54415    0.057
 5684.00    0.54073   0.53948    0.058
 5685.00    0.56478   0.53891    0.058
 5686.00    0.57593   0.53849    0.057
 5687.00    0.56292   0.53311    0.057
 5688.00    0.53275   0.52944    0.057
 5689.00    0.52624   0.53325    0.056
 5690.00    0.53450   0.53645    0.056
 5691.00    0.54237   0.53376    0.055
 5692.00    0.55003   0.52785    0.055
 5693.00    0.54440   0.52598    0.055
 5694.00    0.53247   0.52987    0.055
 5695.00    0.53411   0.53656    0.055
 5696.00    0.54130   0.54192    0.054
 5697.00    0.56086   0.54602    0.055
 5698.00    0.58474   0.54713    0.055
 5699.00    0.58159   0.54425    0.055
 5700.00    0.57050   0.54045    0.055
 5701.00    0.55921   0.53892    0.055
 5702.00    0.54786   0.53700    0.054
 5703.00    0.52837   0.53300    0.054
 5704.00    0.50727   0.53158    0.054
 5705.00    0.48657   0.52990    0.054
 5706.00    0.46592   0.52494    0.053
 5707.00    0.48413   0.52295    0.053
 5708.00    0.50674   0.52709    0.052
 5709.00    0.52769   0.53266    0.053
 5710.00    0.54851   0.53249    0.055
 5711.00    0.52757   0.52638    0.055
 5712.00    0.50494   0.52067    0.055
 5713.00    0.48673   0.51445    0.056
 5714.00    0.46977   0.50928    0.056
 5715.00    0.50280   0.51128    0.056
 5716.00    0.53447   0.51354    0.056
 5717.00    0.54277   0.51609    0.056
 5718.00    0.54979   0.52710    0.056
 5719.00    0.54323   0.53562    0.057
 5720.00    0.53995   0.53789    0.057
 5721.00    0.56128   0.53905    0.057
 5722.00    0.58006   0.53834    0.057
 5723.00    0.58429   0.53712    0.057
 5724.00    0.58697   0.53933    0.058
 5725.00    0.58270   0.54209    0.057
 5726.00    0.57586   0.54371    0.057
 5727.00    0.55947   0.54572    0.056
 5728.00    0.54002   0.54649    0.055
 5729.00    0.51106   0.54545    0.055
 5730.00    0.49543   0.54343    0.055
 5731.00    0.51501   0.53681    0.054
 5732.00    0.52504   0.52958    0.054
 5733.00    0.51338   0.53128    0.053
 5734.00    0.50990   0.53845    0.053
 5735.00    0.52247   0.53895    0.054
 5736.00    0.52601   0.53318    0.054
 5737.00    0.51406   0.53270    0.054
 5738.00    0.51217   0.53850    0.053
 5739.00    0.52535   0.54257    0.053
 5740.00    0.52731   0.54348    0.000
 5741.00    0.51449   0.54159    0.000
 5742.00    0.50026   0.53952    0.000
 5743.00    0.48438   0.53796    0.000
 5744.00    0.49737   0.53580    0.000
 5745.00    0.53993   0.53515    0.000
 5746.00    0.55769   0.53660    0.000
 5747.00    0.55306   0.53763    0.000
 5748.00    0.53932   0.53609    0.000
 5749.00    0.51833   0.53856    0.000
 5750.00    0.51853   0.54384    0.000
 5751.00    0.53358   0.54533    0.000
 5752.00    0.54318   0.53889    0.000
 5753.00    0.54943   0.53157    0.000
 5754.00    0.53334   0.53421    0.000
 5755.00    0.50526   0.54163    0.000
 5756.00    0.50346   0.54284    0.000
 5757.00    0.51392   0.53543    0.000
 5758.00    0.51577   0.52540    0.000
 5759.00    0.51417   0.52165    0.000
 5760.00    0.51692   0.52854    0.000
 5761.00    0.52117   0.53881    0.000
 5762.00    0.51932   0.54454    0.000
 5763.00    0.51570   0.54577    0.000
 5764.00    0.49689   0.54213    0.000
 5765.00    0.47447   0.53487    0.000
 5766.00    0.50414   0.52695    0.000
 5767.00    0.54382   0.52034    0.000
 5768.00    0.55702   0.52042    0.000
 5769.00    0.56627   0.53020    0.000
 5770.00    0.54577   0.53855    0.000
 5771.00    0.52203   0.54056    0.000
 5772.00    0.54168   0.54053    0.000
 5773.00    0.56444   0.54032    0.000
 5774.00    0.56849   0.53905    0.000
 5775.00    0.57185   0.53840    0.000
 5776.00    0.56939   0.53719    0.000
 5777.00    0.56634   0.53508    0.000
 5778.00    0.54272   0.53437    0.000
 5779.00    0.51941   0.53317    0.000
 5780.00    0.50119   0.53216    0.000
 5781.00    0.48498   0.53387    0.000
 5782.00    0.48925   0.53542    0.000
 5783.00    0.49347   0.53530    0.000
 5784.00    0.49742   0.53175    0.000
 5785.00    0.50201   0.52187    0.000
 5786.00    0.51022   0.51046    0.000
 5787.00    0.51808   0.50846    0.000
 5788.00    0.52446   0.51308    0.000
 5789.00    0.52838   0.51347    0.000
 5790.00    0.52337   0.51019    0.000
 5791.00    0.51696   0.51403   -2.000
 5792.00    0.50631   0.52316   -2.000
 5793.00    0.50241   0.52829   -2.000
 5794.00    0.51608   0.53074   -2.000
 5795.00    0.51623   0.52740   -2.000
 5796.00    0.48621   0.52239   -2.000
 5797.00    0.47727   0.52547   -2.000
 5798.00    0.50913   0.53194   -2.000
 5799.00    0.52509   0.53691   -2.000
 5800.00    0.51426   0.54010   -2.000
 5801.00    0.51060   0.53790   -2.000
 5802.00    0.51754   0.52904   -2.000
 5803.00    0.52117   0.52450   -2.000
 5804.00    0.52052   0.53148   -2.000
 5805.00    0.52083   0.53897   -2.000
 5806.00    0.52223   0.54181   -2.000
 5807.00    0.52365   0.54358   -2.000
 5808.00    0.52510   0.54222   -2.000
 5809.00    0.52961   0.53571   -2.000
 5810.00    0.53687   0.53152   -2.000
 5811.00    0.53724   0.53217    0.000
 5812.00    0.53222   0.53449    0.000
 5813.00    0.51873   0.53580    0.000
 5814.00    0.49940   0.53617    0.000
 5815.00    0.49644   0.53668    0.000
 5816.00    0.50338   0.53566    0.000
 5817.00    0.51056   0.53426    0.000
 5818.00    0.51787   0.53362    0.000
 5819.00    0.51932   0.53229    0.000
 5820.00    0.51810   0.52713    0.000
 5821.00    0.54722   0.52304    0.000
 5822.00    0.58831   0.52550    0.000
 5823.00    0.56373   0.53223    0.000
 5824.00    0.51709   0.53615    0.000
 5825.00    0.51587   0.53720    0.000
 5826.00    0.52748   0.53767    0.000
 5827.00    0.53281   0.53621    0.000
 5828.00    0.53668   0.53381    0.000
 5829.00    0.54013   0.53314    0.000
 5830.00    0.54350   0.53511    0.000
 5831.00    0.53302   0.53606    0.000
 5832.00    0.52053   0.53599    0.000
 5833.00    0.48369   0.53641    0.000
 5834.00    0.44430   0.53731    0.000
 5835.00    0.46428   0.53777    0.000
 5836.00    0.48828   0.53671    0.000
 5837.00    0.50433   0.53652    0.000
 5838.00    0.52012   0.53577    0.000
 5839.00    0.55240   0.53262    0.000
 5840.00    0.58365   0.53074    0.000
 5841.00    0.58181   0.53358    0.000
 5842.00    0.58000   0.53471    0.000
 5843.00    0.57863   0.53134    0.000
 5844.00    0.57332   0.52978    0.000
 5845.00    0.52977   0.53315    0.000
 5846.00    0.49181   0.53719    0.000
 5847.00    0.49304   0.53870    0.000
 5848.00    0.49566   0.53822    0.000
 5849.00    0.50570   0.53634    0.000
 5850.00    0.51211   0.53377    0.000
 5851.00    0.50277   0.52998    0.000
 5852.00    0.49595   0.52543    0.000
 5853.00    0.49816   0.52384    0.000
 5854.00    0.50581   0.52503    0.000
 5855.00    0.52976   0.52539    0.000
 5856.00    0.54162   0.52308    0.000
 5857.00    0.52267   0.51664    0.000
 5858.00    0.50525   0.50936    0.000
 5859.00    0.49116   0.50973    0.000
 5860.00    0.48177   0.51508    0.000
 5861.00    0.48134   0.51357    0.000
 5862.00    0.49373   0.50420    0.000
 5863.00    0.52745   0.50007    0.000
 5864.00    0.53572   0.50596    0.000
 5865.00    0.50692   0.51373    0.000
 5866.00    0.49378   0.51772    0.000
 5867.00    0.50069   0.51572    0.000
 5868.00    0.51354   0.51384    0.000
 5869.00    0.53308   0.51650    0.000
 5870.00    0.53811   0.51797    0.000
 5871.00    0.52869   0.51328    0.000
 5872.00    0.51428   0.50978    0.000
 5873.00    0.49550   0.51382    0.000
 5874.00    0.49414   0.51985    0.000
 5875.00    0.50626   0.52323    0.000
 5876.00    0.51206   0.52349    0.000
 5877.00    0.51356   0.52026    0.000
 5878.00    0.50989   0.51682    0.000
 5879.00    0.50314   0.50537    0.000
 5880.00    0.49695   0.48947    0.000
 5881.00    0.49105   0.48344    0.000
 5882.00    0.48846   0.49150    0.000
 5883.00    0.48736   0.50688    0.000
 5884.00    0.48244   0.50790    0.000
 5885.00    0.47604   0.50463    0.000
 5886.00    0.47067   0.50537    0.000
 5887.00    0.46564   0.50899    0.000
 5888.00    0.46470   0.50868    0.000
 5889.00    0.46489   0.50586    0.000
 5890.00    0.45545   0.50554    0.000
 5891.00    0.44381   0.50580    0.000
 5892.00    0.44848   0.50098    0.000
 5893.00    0.45611   0.47951    0.000
 5894.00    0.43490   0.43811    0.000
 5895.00    0.40966   0.40739    0.000
 5896.00    0.43375   0.42039    0.000
 5897.00    0.46279   0.45270    0.000
 5898.00    0.49974   0.47025    0.000
 5899.00    0.53720   0.47027    0.000
 5900.00    0.54542   0.44698    0.000
 5901.00    0.55272   0.42583    0.054
 5902.00    0.53873   0.43953    0.053
 5903.00    0.52406   0.46672    0.052
 5904.00    0.48971   0.47990    0.051
 5905.00    0.45869   0.48694    0.050
 5906.00    0.47486   0.49508    0.050
 5907.00    0.49099   0.49985    0.050
 5908.00    0.50672   0.50241    0.050
 5909.00    0.51880   0.50389    0.049
 5910.00    0.50607   0.50280    0.048
 5911.00    0.49383   0.50126    0.048
 5912.00    0.48412   0.50300    0.048
 5913.00    0.48038   0.50611    0.049
 5914.00    0.50191   0.50650    0.049
 5915.00    0.52051   0.50613    0.048
 5916.00    0.52887   0.50828    0.048
 5917.00    0.53027   0.50865    0.048
 5918.00    0.51118   0.50316    0.048
 5919.00    0.49467   0.49537    0.048
 5920.00    0.48461   0.49329    0.049
 5921.00    0.48154   0.49529    0.049
 5922.00    0.49359   0.49953    0.049
 5923.00    0.50796   0.50266    0.050
 5924.00    0.52667   0.50376    0.051
 5925.00    0.53470   0.50551    0.051
 5926.00    0.52526   0.50506    0.051
 5927.00    0.51584   0.50249    0.051
 5928.00    0.50642   0.50249    0.050
 5929.00    0.49206   0.50456    0.050
 5930.00    0.47146   0.50626    0.050
 5931.00    0.46493   0.50751    0.050
 5932.00    0.47407   0.50705    0.051
 5933.00    0.50469   0.50435    0.051
 5934.00    0.55638   0.50014    0.051
 5935.00    0.57241   0.49724    0.051
 5936.00    0.55757   0.50044    0.051
 5937.00    0.53756   0.50659    0.051
 5938.00    0.51361   0.50708    0.050
 5939.00    0.50039   0.50194    0.049
 5940.00    0.49438   0.49870    0.049
 5941.00    0.49455   0.50230    0.048
 5942.00    0.49834   0.50656    0.048
 5943.00    0.50459   0.50870    0.048
 5944.00    0.51209   0.50955    0.049
 5945.00    0.51775   0.50568    0.049
 5946.00    0.52260   0.49855    0.048
 5947.00    0.52360   0.49713    0.048
 5948.00    0.52312   0.50101    0.047
 5949.00    0.51561   0.50460    0.046
 5950.00    0.50583   0.50786    0.046
 5951.00    0.50596   0.51062    0.047
 5952.00    0.50877   0.50916    0.048
 5953.00    0.51725   0.50225    0.049
 5954.00    0.52700   0.49681    0.050
 5955.00    0.53789   0.49877    0.050
 5956.00    0.54898   0.50242    0.051
 5957.00    0.53316   0.49987    0.050
 5958.00    0.51371   0.49603    0.050
 5959.00    0.48990   0.49882    0.050
 5960.00    0.46568   0.50175    0.050
 5961.00    0.46604   0.49797    0.050
 5962.00    0.46786   0.49371    0.050
 5963.00    0.48371   0.49500    0.050
 5964.00    0.49992   0.49985    0.051
 5965.00    0.51626   0.50527    0.050
 5966.00    0.53296   0.50844    0.050
 5967.00    0.55858   0.50953    0.050
 5968.00    0.58196   0.50902    0.050
 5969.00    0.57528   0.50782    0.049
 5970.00    0.56733   0.50489    0.049
 5971.00    0.54802   0.50231    0.049
 5972.00    0.53108   0.50424    0.049
 5973.00    0.52972   0.50731    0.048
 5974.00    0.52860   0.50905    0.048
 5975.00    0.52876   0.51046    0.048
 5976.00    0.52843   0.51122    0.048
 5977.00    0.52610   0.51064    0.047
 5978.00    0.52588   0.50985    0.047
 5979.00    0.53289   0.50831    0.047
 5980.00    0.53868   0.50409    0.047
 5981.00    0.54099   0.49882    0.047
 5982.00    0.54391   0.49528    0.047
 5983.00    0.54833   0.49360    0.048
 5984.00    0.55333   0.49561    0.049
 5985.00    0.55958   0.50050    0.049
 5986.00    0.55905   0.50436    0.050
 5987.00    0.54600   0.50387    0.049
 5988.00    0.52768   0.49793    0.049
 5989.00    0.50087   0.49032    0.048
 5990.00    0.49116   0.49005    0.048
 5991.00    0.50562   0.49644    0.050
 5992.00    0.52053   0.50044    0.050
 5993.00    0.53598   0.50089    0.051
 5994.00    0.54417   0.50220    0.050
 5995.00    0.54438   0.50333    0.050
 5996.00    0.53384   0.50181    0.050
 5997.00    0.51291   0.50159    0.050
 5998.00    0.50500   0.50614    0.049
 5999.00    0.50821   0.51086    0.049
 6000.00    0.50785   0.51104    0.049
 6001.00    0.50482   0.50744    0.049
 6002.00    0.50878   0.50281    0.049
 6003.00    0.51735   0.50007    0.048
 6004.00    0.52215   0.50019    0.048
 6005.00    0.52477   0.50193    0.047
 6006.00    0.53008   0.50278    0.047
 6007.00    0.53674   0.49954    0.047
 6008.00    0.55379   0.49590    0.048
 6009.00    0.57538   0.49815    0.048
 6010.00    0.56790   0.50117    0.048
 6011.00    0.54955   0.49921    0.047
 6012.00    0.50922   0.49325    0.046
 6013.00    0.46192   0.48761    0.046
 6014.00    0.45538   0.49005    0.047
 6015.00    0.45964   0.49887    0.049
 6016.00    0.47710   0.50364    0.050
 6017.00    0.49743   0.50071    0.050
 6018.00    0.49859   0.49565    0.050
 6019.00    0.49647   0.49579    0.050
 6020.00    0.50680   0.49874    0.049
 6021.00    0.51875   0.49710    0.049
 6022.00    0.51719   0.49440    0.049
 6023.00    0.51438   0.49573    0.050
 6024.00    0.52042   0.49623    0.050
 6025.00    0.52696   0.49334    0.050
 6026.00    0.53033   0.49179    0.050
 6027.00    0.53362   0.49360    0.050
 6028.00    0.53657   0.49534    0.049
 6029.00    0.53948   0.49589    0.049
 6030.00    0.54151   0.49883    0.049
 6031.00    0.54315   0.50191    0.049
 6032.00    0.53990   0.50162    0.049
 6033.00    0.53666   0.50312    0.049
 6034.00    0.53347   0.50661    0.048
 6035.00    0.53181   0.50746    0.048
 6036.00    0.54003   0.50577    0.048
 6037.00    0.54467   0.50565    0.047
 6038.00    0.53152   0.50764    0.047
 6039.00    0.51715   0.50913    0.046
 6040.00    0.49788   0.50922    0.046
 6041.00    0.48534   0.50859    0.046
 6042.00    0.49542   0.50785    0.046
 6043.00    0.50519   0.50743    0.047
 6044.00    0.51409   0.50584    0.047
 6045.00    0.51775   0.50414    0.048
 6046.00    0.50871   0.50416    0.048
 6047.00    0.50111   0.50474    0.048
 6048.00    0.49649   0.50675    0.048
 6049.00    0.49422   0.50949    0.048
 6050.00    0.49621   0.51101    0.048
 6051.00    0.50228   0.51160    0.048
 6052.00    0.51484   0.51189    0.048
 6053.00    0.52427   0.51108    0.049
 6054.00    0.52933   0.50968    0.049
 6055.00    0.53677   0.51027    0.049
 6056.00    0.54710   0.51132    0.050
 6057.00    0.54613   0.51020    0.050
 6058.00    0.53294   0.50773    0.050
 6059.00    0.52152   0.50578    0.049
 6060.00    0.51178   0.50369    0.049
 6061.00    0.51733   0.50105    0.048
 6062.00    0.53574   0.49977    0.048
 6063.00    0.54243   0.50068    0.048
 6064.00    0.54044   0.50380    0.048
 6065.00    0.53294   0.50696    0.048
 6066.00    0.52186   0.50816    0.047
 6067.00    0.52732   0.50637    0.046
 6068.00    0.54221   0.50237    0.047
 6069.00    0.54665   0.49619    0.046
 6070.00    0.54592   0.48842    0.046
 6071.00    0.54509   0.48851    0.046
 6072.00    0.54421   0.49858    0.046
 6073.00    0.53963   0.50751    0.046
 6074.00    0.53369   0.51092    0.046
 6075.00    0.52254   0.51149    0.046
 6076.00    0.50978   0.51192    0.046
 6077.00    0.51004   0.51259    0.046
 6078.00    0.51368   0.51256    0.046
 6079.00    0.51667   0.51209    0.047
 6080.00    0.51951   0.51165    0.047
 6081.00    0.53441   0.51025    0.048
 6082.00    0.55132   0.50706    0.048
 6083.00    0.54409   0.50175    0.048
 6084.00    0.53382   0.49837    0.048
 6085.00    0.52081   0.49906    0.049
 6086.00    0.50757   0.49777    0.049
 6087.00    0.52122   0.49402    0.049
 6088.00    0.53627   0.49394    0.049
 6089.00    0.52816   0.49691    0.049
 6090.00    0.51940   0.49701    0.048
 6091.00    0.49503   0.49659    0.048
 6092.00    0.47189   0.49915    0.048
 6093.00    0.47521   0.50209    0.047
 6094.00    0.47926   0.50011    0.046
 6095.00    0.49214   0.49423    0.046
 6096.00    0.50418   0.49163    0.046
 6097.00    0.50927   0.49336    0.046
 6098.00    0.51235   0.49490    0.046
 6099.00    0.50308   0.49825    0.045
 6100.00    0.49377   0.50352    0.044
 6101.00    0.48426   0.50489    0.045
 6102.00    0.47510   0.50217    0.045
 6103.00    0.46729   0.50119    0.046
 6104.00    0.46007   0.50354    0.046
 6105.00    0.45482   0.50553    0.046
 6106.00    0.45119   0.50073    0.046
 6107.00    0.45206   0.48453    0.047
 6108.00    0.46012   0.47197    0.048
 6109.00    0.48532   0.47822    0.049
 6110.00    0.50731   0.49190    0.049
 6111.00    0.52273   0.49875    0.049
 6112.00    0.52834   0.49817    0.048
 6113.00    0.51637   0.49584    0.047
 6114.00    0.50737   0.49786    0.047
 6115.00    0.50301   0.50083    0.048
 6116.00    0.49192   0.49878    0.049
 6117.00    0.47158   0.49679    0.049
 6118.00    0.45758   0.49984    0.048
 6119.00    0.45125   0.50399    0.048
 6120.00    0.45230   0.50458    0.048
 6121.00    0.46123   0.50103    0.048
 6122.00    0.47602   0.49913    0.047
 6123.00    0.49631   0.50077    0.047
 6124.00    0.50818   0.49898    0.047
 6125.00    0.51307   0.49158    0.046
 6126.00    0.51597   0.48126    0.045
 6127.00    0.51742   0.47146    0.045
 6128.00    0.52355   0.47377    0.045
 6129.00    0.53268   0.48660    0.045
 6130.00    0.53782   0.49389    0.046
 6131.00    0.54072   0.49311    0.046
 6132.00    0.52799   0.49083    0.046
 6133.00    0.50764   0.48944    0.047
 6134.00    0.48819   0.49072    0.047
 6135.00    0.46914   0.49620    0.047
 6136.00    0.45704   0.50143    0.048
 6137.00    0.44746   0.50260    0.048
 6138.00    0.44792   0.50149    0.049
 6139.00    0.45145   0.49746    0.050
 6140.00    0.46050   0.48741    0.050
 6141.00    0.47094   0.47093    0.048
 6142.00    0.47351   0.45593    0.048
 6143.00    0.47445   0.45876    0.047
 6144.00    0.48738   0.47800    0.048
 6145.00    0.50226   0.49150    0.048
 6146.00    0.50230   0.48840    0.048
 6147.00    0.50053   0.48193    0.048
 6148.00    0.49634   0.48609    0.047
 6149.00    0.49194   0.49599    0.046
 6150.00    0.49700   0.50156    0.046
 6151.00    0.50252   0.50159    0.046
 6152.00    0.51946   0.49926    0.046
 6153.00    0.53606   0.49462    0.046
 6154.00    0.52336   0.48816    0.045
 6155.00    0.51060   0.48288    0.044
 6156.00    0.49662   0.48283    0.045
 6157.00    0.48370   0.48775    0.046
 6158.00    0.48311   0.49280    0.046
 6159.00    0.48300   0.49194    0.047
 6160.00    0.48680   0.48742    0.046
 6161.00    0.48820   0.48602    0.046
 6162.00    0.47516   0.48571    0.047
 6163.00    0.46347   0.48375    0.047
 6164.00    0.45818   0.48065    0.048
 6165.00    0.44996   0.47283    0.048
 6166.00    0.43043   0.45583    0.047
 6167.00    0.41763   0.43832    0.046
 6168.00    0.42658   0.43424    0.047
 6169.00    0.44128   0.44333    0.048
 6170.00    0.47173   0.45455    0.048
 6171.00    0.48864   0.46124    0.048
 6172.00    0.47385   0.46548    0.047
 6173.00    0.46540   0.46530    0.046
 6174.00    0.46979   0.45560    0.048
 6175.00    0.47494   0.44772    0.048
 6176.00    0.48141   0.45406    0.047
 6177.00    0.48894   0.46555    0.047
 6178.00    0.49810   0.46929    0.047
 6179.00    0.50068   0.46857    0.046
 6180.00    0.49435   0.46917    0.046
 6181.00    0.49387   0.46967    0.046
 6182.00    0.50039   0.46984    0.045
 6183.00    0.50753   0.47280    0.045
 6184.00    0.51531   0.47580    0.045
 6185.00    0.50715   0.47539    0.045
 6186.00    0.48418   0.47575    0.046
 6187.00    0.47238   0.47830    0.046
 6188.00    0.46969   0.47943    0.046
 6189.00    0.47143   0.47883    0.046
 6190.00    0.47637   0.47715    0.047
 6191.00    0.48674   0.47261    0.047
 6192.00    0.50055   0.46694    0.046
 6193.00    0.49535   0.46379    0.047
 6194.00    0.47966   0.46274    0.048
 6195.00    0.43604   0.45867    0.050
 6196.00    0.37902   0.44881   -2.000
 6197.00    0.37635   0.44447   -2.000
 6198.00    0.39620   0.45332   -2.000
 6199.00    0.39274   0.46423   -2.000
 6200.00    0.38101   0.46940   -2.000
 6201.00    0.38963   0.47174   -2.000
 6202.00    0.40435   0.47344   -2.000
 6203.00    0.42625   0.47226   -2.000
 6204.00    0.44994   0.46588   -2.000
 6205.00    0.47677   0.45964   -2.000
 6206.00    0.50424   0.46091   -2.000
 6207.00    0.50817   0.46745   -2.000
 6208.00    0.50839   0.47250    0.050
 6209.00    0.49952   0.47368    0.048
 6210.00    0.48959   0.47330    0.046
 6211.00    0.47834   0.47406    0.046
 6212.00    0.46698   0.47548    0.045
 6213.00    0.46288   0.47627    0.045
 6214.00    0.45909   0.47602    0.044
 6215.00    0.47300   0.47375    0.044
 6216.00    0.48718   0.47043    0.044
 6217.00    0.50530   0.46684    0.044
 6218.00    0.52176   0.45964    0.044
 6219.00    0.50810   0.45103    0.045
 6220.00    0.49475   0.44651    0.046
 6221.00    0.48472   0.44689    0.047
 6222.00    0.47844   0.45189    0.047
 6223.00    0.50118   0.45654    0.048
 6224.00    0.51681   0.45466    0.048
 6225.00    0.49089   0.45085    0.048
 6226.00    0.46860   0.45110    0.048
 6227.00    0.46314   0.45418    0.048
 6228.00    0.45656   0.45617    0.049
 6229.00    0.44572   0.45533    0.048
 6230.00    0.43369   0.45509    0.048
 6231.00    0.41786   0.45695    0.047
 6232.00    0.40956   0.45828    0.046
 6233.00    0.42144   0.45787    0.045
 6234.00    0.43695   0.45329    0.045
 6235.00    0.46078   0.44287    0.045
 6236.00    0.47840   0.43498    0.045
 6237.00    0.48363   0.43689    0.045
 6238.00    0.48808   0.44413    0.044
 6239.00    0.49116   0.45301    0.045
 6240.00    0.48814   0.46114    0.045
 6241.00    0.47584   0.46415    0.045
 6242.00    0.47149   0.46190    0.044
 6243.00    0.47776   0.45704    0.044
 6244.00    0.48680   0.45106    0.045
 6245.00    0.49910   0.44631    0.045
 6246.00    0.51503   0.44675    0.045
 6247.00    0.53474   0.44809    0.046
 6248.00    0.54584   0.44417    0.046
 6249.00    0.54906   0.44137    0.046
 6250.00    0.53905   0.44295    0.046
 6251.00    0.51839   0.44412    0.046
 6252.00    0.49738   0.44713    0.046
 6253.00    0.47612   0.45403    0.047
 6254.00    0.46737   0.45972    0.047
 6255.00    0.46640   0.46121    0.048
 6256.00    0.46042   0.45786    0.047
 6257.00    0.45173   0.44952    0.047
 6258.00    0.44513   0.44247    0.047
 6259.00    0.43953   0.44180    0.048
 6260.00    0.42754   0.44412    0.050
 6261.00    0.41295   0.44352    0.053
 6262.00    0.42255   0.43857    0.054
 6263.00    0.44058   0.43270    0.055
 6264.00    0.45466   0.43258    0.055
 6265.00    0.46757   0.44009    0.055
 6266.00    0.47931   0.44720    0.052
 6267.00    0.49077   0.45231    0.049
 6268.00    0.51760   0.45881    0.047
 6269.00    0.54744   0.46136    0.046
 6270.00    0.56136   0.45698    0.045
 6271.00    0.57284   0.45403    0.045
 6272.00    0.55061   0.45657    0.045
 6273.00    0.52458   0.45832    0.045
 6274.00    0.52062   0.45644    0.045
 6275.00    0.51833   0.45505    0.046
 6276.00    0.51947   0.45660    0.046
 6277.00    0.52075   0.45966    0.046
 6278.00    0.52353   0.46180    0.046
 6279.00    0.52611   0.46138    0.046
 6280.00    0.51963   0.46026    0.000
 6281.00    0.51236   0.46020    0.000
 6282.00    0.49157   0.46047    0.000
 6283.00    0.47179   0.46027    0.000
 6284.00    0.46256   0.45810    0.000
 6285.00    0.45749   0.45300    0.000
 6286.00    0.48354   0.44949    0.000
 6287.00    0.50649   0.45121    0.000
 6288.00    0.51188   0.45567    0.000
 6289.00    0.51311   0.45926    0.000
 6290.00    0.49552   0.45991    0.000
 6291.00    0.48311   0.46065    0.000
 6292.00    0.48995   0.46449    0.000
 6293.00    0.50155   0.46897    0.000
 6294.00    0.52789   0.47139    0.000
 6295.00    0.54455   0.47011    0.000
 6296.00    0.53566   0.46611    0.000
 6297.00    0.52836   0.46260    0.000
 6298.00    0.52468   0.46119    0.000
 6299.00    0.52122   0.46226    0.000
 6300.00    0.51820   0.46254    0.000
 6301.00    0.50890   0.45777    0.000
 6302.00    0.48883   0.45158    0.000
 6303.00    0.47570   0.45095    0.000
 6304.00    0.47299   0.45541    0.000
 6305.00    0.47266   0.45792    0.000
 6306.00    0.47549   0.45477    0.000
 6307.00    0.48271   0.45086    0.000
 6308.00    0.49503   0.45227    0.000
 6309.00    0.50356   0.45717    0.000
 6310.00    0.50820   0.45971    0.000
 6311.00    0.51535   0.46033    0.000
 6312.00    0.52477   0.46413    0.000
 6313.00    0.52678   0.46951    0.000
 6314.00    0.52290   0.47091    0.000
 6315.00    0.51579   0.46819    0.000
 6316.00    0.50642   0.46428    0.000
 6317.00    0.50243   0.46192    0.000
 6318.00    0.50174   0.46248    0.000
 6319.00    0.51639   0.46199    0.000
 6320.00    0.53926   0.45811    0.000
 6321.00    0.55370   0.45669    0.043
 6322.00    0.56421   0.45763    0.043
 6323.00    0.55588   0.45438    0.044
 6324.00    0.54001   0.45182    0.044
 6325.00    0.52351   0.45613    0.045
 6326.00    0.50680   0.46156    0.045
 6327.00    0.50669   0.46297    0.045
 6328.00    0.51134   0.46365    0.045
 6329.00    0.52057   0.46658    0.045
 6330.00    0.53088   0.46894    0.046
 6331.00    0.53035   0.46929    0.046
 6332.00    0.52774   0.46871    0.046
 6333.00    0.52609   0.46900    0.047
 6334.00    0.52459   0.47036    0.048
 6335.00    0.52240   0.46950    0.047
 6336.00    0.52013   0.46831    0.047
 6337.00    0.52569   0.47104    0.046
 6338.00    0.53181   0.47491    0.046
 6339.00    0.52751   0.47350    0.046
 6340.00    0.52283   0.46409    0.046
 6341.00    0.50292   0.45394    0.045
 6342.00    0.48348   0.45304    0.045
 6343.00    0.48284   0.45918    0.044
 6344.00    0.48331   0.46416    0.044
 6345.00    0.50140   0.46774    0.044
 6346.00    0.51846   0.47150    0.044
 6347.00    0.52518   0.47216    0.043
 6348.00    0.53040   0.46766    0.043
 6349.00    0.52482   0.46064    0.043
 6350.00    0.52141   0.45704    0.043
 6351.00    0.53004   0.45779    0.044
 6352.00    0.53663   0.45994    0.044
 6353.00    0.53427   0.46323    0.045
 6354.00    0.52972   0.46799    0.045
 6355.00    0.51726   0.47172    0.046
 6356.00    0.50869   0.47268    0.046
 6357.00    0.51201   0.47205    0.047
 6358.00    0.51408   0.46966    0.047
 6359.00    0.51288   0.46460    0.047
 6360.00    0.50281   0.45938    0.047
 6361.00    0.47296   0.45857    0.047
 6362.00    0.44895   0.45984    0.047
 6363.00    0.43622   0.45618    0.047
 6364.00    0.43485   0.44992    0.046
 6365.00    0.45264   0.44830    0.047
 6366.00    0.46921   0.44937    0.047
 6367.00    0.48401   0.44812    0.046
 6368.00    0.49753   0.44673    0.045
 6369.00    0.50939   0.44879    0.044
 6370.00    0.51505   0.45299    0.043
 6371.00    0.51364   0.45692    0.044
 6372.00    0.52070   0.46087    0.044
 6373.00    0.53629   0.46544    0.044
 6374.00    0.54489   0.46799    0.044
 6375.00    0.54727   0.46637    0.045
 6376.00    0.54532   0.46433    0.045
 6377.00    0.53996   0.46623    0.045
 6378.00    0.53601   0.47070    0.045
 6379.00    0.53303   0.47355    0.045
 6380.00    0.53953   0.47326    0.045
 6381.00    0.55176   0.47241    0.045
 6382.00    0.54955   0.47184    0.046
 6383.00    0.53972   0.46868    0.047
 6384.00    0.52887   0.46344    0.047
 6385.00    0.51755   0.46037    0.046
 6386.00    0.50326   0.46044    0.046
 6387.00    0.48782   0.46255    0.046
 6388.00    0.48807   0.46518    0.046
 6389.00    0.49359   0.46548    0.045
 6390.00    0.49970   0.46409    0.045
 6391.00    0.50596   0.46448    0.045
 6392.00    0.50603   0.46644    0.044
 6393.00    0.50465   0.46692    0.044
 6394.00    0.49855   0.46606    0.044
 6395.00    0.49157   0.46582    0.045
 6396.00    0.48148   0.46571    0.045
 6397.00    0.47095   0.46223    0.044
 6398.00    0.48170   0.45376    0.044
 6399.00    0.49467   0.44812    0.044
 6400.00    0.51540   0.45309    0.044
 6401.00    0.53665   0.46305    0.045
 6402.00    0.54776   0.46975    0.045
 6403.00    0.55854   0.47086    0.045
 6404.00    0.53517   0.46371    0.044
 6405.00    0.51243   0.45103    0.044
 6406.00    0.50959   0.44729    0.045
 6407.00    0.50830   0.45753    0.046
 6408.00    0.52999   0.46863    0.046
 6409.00    0.54869   0.47337    0.046
 6410.00    0.53858   0.47409    0.046
 6411.00    0.53049   0.47187    0.046
 6412.00    0.53655   0.46696    0.047
 6413.00    0.54378   0.46195    0.047
 6414.00    0.55736   0.46254    0.048
 6415.00    0.56598   0.46690    0.048
 6416.00    0.55312   0.46532    0.047
 6417.00    0.54089   0.45944    0.046
 6418.00    0.53093   0.45827    0.045
 6419.00    0.52272   0.46117    0.045
 6420.00    0.51977   0.46403    0.045
 6421.00    0.51639   0.46653    0.044
 6422.00    0.51189   0.46803    0.044
 6423.00    0.50895   0.46732    0.044
 6424.00    0.50941   0.46393    0.044
 6425.00    0.50969   0.45737    0.044
 6426.00    0.50962   0.45089    0.044
 6427.00    0.50527   0.45201    0.045
 6428.00    0.49382   0.46150    0.046
 6429.00    0.47923   0.46959    0.047
 6430.00    0.46009   0.47083    0.047
 6431.00    0.45021   0.47033    0.047
 6432.00    0.45216   0.47192    0.047
 6433.00    0.46406   0.47340    0.047
 6434.00    0.48718   0.47088    0.047
 6435.00    0.50254   0.46246    0.047
 6436.00    0.51019   0.45271    0.047
 6437.00    0.51538   0.45116    0.047
 6438.00    0.51841   0.45816    0.047
 6439.00    0.51576   0.46511    0.047
 6440.00    0.50873   0.46862    0.047
 6441.00    0.50619   0.47049    0.047
 6442.00    0.50670   0.47032    0.046
 6443.00    0.50661   0.46400    0.045
 6444.00    0.50615   0.45404    0.045
 6445.00    0.50649   0.45260    0.045
 6446.00    0.50725   0.46229    0.045
 6447.00    0.50913   0.47166    0.045
 6448.00    0.51152   0.47546    0.044
 6449.00    0.51552   0.47659    0.044
 6450.00    0.52014   0.47689    0.045
 6451.00    0.52082   0.47733    0.045
 6452.00    0.52019   0.47693    0.045
 6453.00    0.51380   0.47201    0.045
 6454.00    0.50581   0.45892    0.045
 6455.00    0.50552   0.44324    0.045
 6456.00    0.50698   0.43985    0.045
 6457.00    0.49554   0.45075    0.045
 6458.00    0.48176   0.46282    0.045
 6459.00    0.47989   0.46829    0.046
 6460.00    0.47969   0.46586    0.047
 6461.00    0.49154   0.45994    0.047
 6462.00    0.50460   0.45993    0.047
 6463.00    0.51824   0.46709    0.047
 6464.00    0.53192   0.47421    0.047
 6465.00    0.52185   0.47697    0.047
 6466.00    0.51116   0.47298    0.047
 6467.00    0.51727   0.45991    0.045
 6468.00    0.52348   0.44632    0.043
 6469.00    0.53274   0.44684    0.044
 6470.00    0.54011   0.45790    0.044
 6471.00    0.52101   0.46655    0.044
 6472.00    0.50373   0.47088    0.043
 6473.00    0.50330   0.47282    0.044
 6474.00    0.50325   0.47196    0.044
 6475.00    0.50565   0.46888    0.044
 6476.00    0.50683   0.46508    0.044
 6477.00    0.50161   0.46232    0.044
 6478.00    0.49857   0.46309    0.044
 6479.00    0.50472   0.46399    0.044
 6480.00    0.51300   0.46069    0.044
 6481.00    0.52867   0.45834    0.045
 6482.00    0.53806   0.46170    0.045
 6483.00    0.52901   0.46622    0.045
 6484.00    0.52229   0.46748    0.045
 6485.00    0.52142   0.46615    0.045
 6486.00    0.52673   0.46081    0.045
 6487.00    0.54534   0.45151    0.046
 6488.00    0.55889   0.44548    0.047
 6489.00    0.56299   0.44793    0.047
 6490.00    0.55755   0.45452    0.046
 6491.00    0.53653   0.45918    0.045
 6492.00    0.52135   0.46125    0.044
 6493.00    0.51451   0.46228    0.044
 6494.00    0.50687   0.46185    0.043
 6495.00    0.49822   0.45897    0.043
 6496.00    0.48903   0.45502    0.043
 6497.00    0.47927   0.45185    0.043
 6498.00    0.47680   0.44596    0.043
 6499.00    0.48146   0.43236    0.044
 6500.00    0.49101   0.41736    0.044
 6501.00    0.50477   0.41150    0.045
 6502.00    0.51952   0.41456    0.045
 6503.00    0.53502   0.42179    0.045
 6504.00    0.54354   0.42887    0.045
 6505.00    0.54739   0.43433    0.046
 6506.00    0.54615   0.44152    0.046
 6507.00    0.54194   0.44860    0.045
 6508.00    0.54600   0.45312    0.046
 6509.00    0.55430   0.45572    0.046
 6510.00    0.55293   0.45751    0.046
 6511.00    0.54728   0.45937    0.046
 6512.00    0.54562   0.45974    0.045
 6513.00    0.54547   0.45722    0.045
 6514.00    0.54689   0.45440    0.045
 6515.00    0.54881   0.45511    0.045
 6516.00    0.53273   0.45824    0.045
 6517.00    0.51179   0.46000    0.045
 6518.00    0.51036   0.45978    0.044
 6519.00    0.51326   0.45858    0.044
 6520.00    0.52142   0.45580    0.044
 6521.00    0.53052   0.45197    0.044
 6522.00    0.53773   0.44936    0.045
 6523.00    0.54469   0.44802    0.045
 6524.00    0.52952   0.44750    0.044
 6525.00    0.51224   0.45045    0.043
 6526.00    0.48805   0.45576    0.044
 6527.00    0.46344   0.45903    0.044
 6528.00    0.46133   0.45947    0.000
 6529.00    0.45993   0.45914    0.000
 6530.00    0.48212   0.45940    0.000
 6531.00    0.50451   0.45804    0.000
 6532.00    0.53178   0.45433    0.000
 6533.00    0.55754   0.45280    0.000
 6534.00    0.56297   0.45570    0.000
 6535.00    0.56554   0.45916    0.000
 6536.00    0.54268   0.45926    0.000
 6537.00    0.52612   0.45615    0.000
 6538.00    0.55087   0.45309    0.000
 6539.00    0.57187   0.45325    0.000
 6540.00    0.57375   0.45675    0.000
 6541.00    0.57327   0.46012    0.000
 6542.00    0.56300   0.46047    0.000
 6543.00    0.55406   0.45910    0.000
 6544.00    0.54964   0.45959    0.000
 6545.00    0.54739   0.46211    0.000
 6546.00    0.55135   0.46319    0.000
 6547.00    0.55623   0.46073    0.000
 6548.00    0.56338   0.45628    0.000
 6549.00    0.56679   0.45218    0.000
 6550.00    0.56228   0.44804    0.000
 6551.00    0.55749   0.44194    0.000
 6552.00    0.55219   0.43768    0.000
 6553.00    0.54713   0.44053    0.000
 6554.00    0.54245   0.44574    0.000
 6555.00    0.53962   0.44665    0.000
 6556.00    0.53943   0.44368    0.000
 6557.00    0.54075   0.44052    0.000
 6558.00    0.54395   0.43836    0.000
 6559.00    0.54435   0.43488    0.000
 6560.00    0.54167   0.42880    0.000
 6561.00    0.53998   0.42347    0.000
 6562.00    0.53923   0.42166    0.000
 6563.00    0.54529   0.42126    0.000
 6564.00    0.55714   0.41809    0.000
 6565.00    0.56181   0.41010    0.000
 6566.00    0.56109   0.39157    0.000
 6567.00    0.55038   0.35211    0.000
 6568.00    0.53309   0.30708    0.000
 6569.00    0.52435   0.30216    0.000
 6570.00    0.52053   0.34470    0.000
 6571.00    0.50895   0.38934    0.000
 6572.00    0.49347   0.41227    0.000
 6573.00    0.49880   0.42244    0.000
 6574.00    0.51318   0.42578    0.000
 6575.00    0.52824   0.42644    0.000
 6576.00    0.54354   0.42966    0.000
 6577.00    0.55126   0.43179    0.000
 6578.00    0.55658   0.42878    0.000
 6579.00    0.56945   0.42483    0.000
 6580.00    0.58430   0.42498    0.000
 6581.00    0.58752   0.43018    0.000
 6582.00    0.58822   0.43750    0.000
 6583.00    0.59181   0.44245    0.000
 6584.00    0.59590   0.44396    0.000
 6585.00    0.59761   0.44312    0.000
 6586.00    0.59902   0.44099    0.000
 6587.00    0.59210   0.43937    0.000
 6588.00    0.58442   0.44157    0.000
 6589.00    0.56068   0.44547    0.000
 6590.00    0.53604   0.44698    0.000
 6591.00    0.54468   0.44679    0.000
 6592.00    0.55391   0.44641    0.000
 6593.00    0.55072   0.44944    0.000
 6594.00    0.54720   0.45332    0.000
 6595.00    0.53590   0.45446    0.000
 6596.00    0.52608   0.45261    0.000
 6597.00    0.53501   0.44512    0.000
 6598.00    0.54324   0.43259    0.000
 6599.00    0.54547   0.42512    0.000
 6600.00    0.54480   0.43050    0.000
 6601.00    0.52560   0.44101    0.000
 6602.00    0.51118   0.44611    0.000
 6603.00    0.52059   0.44486    0.000
 6604.00    0.52705   0.44211    0.000
 6605.00    0.52162   0.44330    0.000
 6606.00    0.51689   0.44872    0.000
 6607.00    0.51448   0.45287    0.000
 6608.00    0.51418   0.45295    0.000
 6609.00    0.51982   0.45015    0.046
 6610.00    0.52474   0.44621    0.046
 6611.00    0.52793   0.44345    0.046
 6612.00    0.52901   0.44227    0.046
 6613.00    0.52569   0.44025    0.045
 6614.00    0.53044   0.43637    0.045
 6615.00    0.54982   0.43516    0.045
 6616.00    0.56195   0.44116    0.044
 6617.00    0.56261   0.44851    0.043
 6618.00    0.55659   0.44957    0.043
 6619.00    0.54128   0.44653    0.043
 6620.00    0.53339   0.44626    0.043
 6621.00    0.53459   0.44977    0.043
 6622.00    0.53491   0.45150    0.044
 6623.00    0.53428   0.45065    0.046
 6624.00    0.52976   0.44988    0.047
 6625.00    0.52155   0.45054    0.047
 6626.00    0.51453   0.45173    0.047
 6627.00    0.50851   0.45174    0.047
 6628.00    0.51578   0.44933    0.047
 6629.00    0.53287   0.44429    0.048
 6630.00    0.53815   0.43872    0.047
 6631.00    0.53576   0.43729    0.046
 6632.00    0.53284   0.44059    0.046
 6633.00    0.52963   0.44352    0.047
 6634.00    0.53577   0.44413    0.047
 6635.00    0.54655   0.44352    0.045
 6636.00    0.54472   0.44250    0.046
 6637.00    0.53750   0.44118    0.047
 6638.00    0.53571   0.43826    0.047
 6639.00    0.53590   0.43432    0.046
 6640.00    0.55558   0.43380    0.046
 6641.00    0.58131   0.43780    0.047
 6642.00    0.58902   0.44225    0.047
 6643.00    0.59207   0.44439    0.048
 6644.00    0.56565   0.44400    0.047
 6645.00    0.53301   0.44253    0.046
 6646.00    0.51745   0.44269    0.046
 6647.00    0.50474   0.44423    0.046
 6648.00    0.50397   0.44159    0.046
 6649.00    0.50471   0.43498    0.047
 6650.00    0.50734   0.43380    0.047
 6651.00    0.51014   0.43895    0.046
 6652.00    0.51970   0.44222    0.047
 6653.00    0.52961   0.44176    0.047
 6654.00    0.54018   0.44166    0.048
 6655.00    0.55038   0.44229    0.048
 6656.00    0.53388   0.44076    0.047
 6657.00    0.51818   0.43758    0.046
 6658.00    0.51944   0.43586    0.046
 6659.00    0.51949   0.43639    0.046
 6660.00    0.50491   0.43744    0.046
 6661.00    0.49209   0.43795    0.046
 6662.00    0.49375   0.43752    0.045
 6663.00    0.49712   0.43741    0.044
 6664.00    0.51113   0.43786    0.045
 6665.00    0.52268   0.43741    0.045
 6666.00    0.52226   0.43608    0.045
 6667.00    0.51960   0.43412    0.045
 6668.00    0.50812   0.42993    0.045
 6669.00    0.49891   0.42544    0.045
 6670.00    0.49715   0.42684    0.046
 6671.00    0.50101   0.43098    0.046
 6672.00    0.52051   0.43194    0.047
 6673.00    0.53593   0.43179    0.047
 6674.00    0.54165   0.43365    0.048
 6675.00    0.54536   0.43751    0.048
 6676.00    0.54498   0.44052    0.047
 6677.00    0.54058   0.44129    0.047
 6678.00    0.52902   0.44075    0.047
 6679.00    0.51677   0.44027    0.047
 6680.00    0.50342   0.43980    0.046
 6681.00    0.50144   0.43805    0.046
 6682.00    0.51506   0.42973    0.046
 6683.00    0.52518   0.41448    0.046
 6684.00    0.53109   0.40648    0.046
 6685.00    0.52762   0.41312    0.046
 6686.00    0.51416   0.42405    0.045
 6687.00    0.50100   0.42779    0.045
 6688.00    0.48810   0.42801    0.045
 6689.00    0.48148   0.43016    0.045
 6690.00    0.48005   0.43233    0.045
 6691.00    0.48869   0.43279    0.046
 6692.00    0.50466   0.43215    0.046
 6693.00    0.52137   0.43118    0.046
 6694.00    0.53854   0.43089    0.046
 6695.00    0.53780   0.43220    0.047
 6696.00    0.52703   0.43342    0.000
 6697.00    0.53003   0.43359    0.000
 6698.00    0.53972   0.43332    0.000
 6699.00    0.54683   0.43313    0.000
 6700.00    0.55285   0.43188    0.000
 6701.00    0.53848   0.42862    0.000
 6702.00    0.51677   0.42551    0.000
 6703.00    0.50074   0.42577    0.000
 6704.00    0.48645   0.42827    0.000
 6705.00    0.48722   0.43123    0.000
 6706.00    0.49180   0.43413    0.000
 6707.00    0.51075   0.43492    0.000
 6708.00    0.53266   0.43304    0.000
 6709.00    0.53102   0.42996    0.000
 6710.00    0.52557   0.42826    0.000
 6711.00    0.51254   0.42944    0.000
 6712.00    0.49859   0.43159    0.000
 6713.00    0.51438   0.43276    0.000
 6714.00    0.53263   0.43284    0.000
 6715.00    0.54721   0.43198    0.000
 6716.00    0.56160   0.43025    0.000
 6717.00    0.54937   0.43024    0.000
 6718.00    0.53651   0.43055    0.000
 6719.00    0.50910   0.42805    0.000
 6720.00    0.48354   0.42410    0.000
 6721.00    0.49394   0.41977    0.000
 6722.00    0.50275   0.41435    0.000
 6723.00    0.49328   0.40932    0.000
 6724.00    0.48339   0.41031    0.000
 6725.00    0.47018   0.41705    0.000
 6726.00    0.46015   0.42129    0.000
 6727.00    0.46913   0.42138    0.000
 6728.00    0.48188   0.42159    0.000
 6729.00    0.51254   0.42380    0.000
 6730.00    0.53967   0.42506    0.000
 6731.00    0.55319   0.42346    0.000
 6732.00    0.56324   0.42185    0.000
 6733.00    0.56206   0.42287    0.000
 6734.00    0.55238   0.42510    0.000
 6735.00    0.51952   0.42650    0.000
 6736.00    0.49665   0.42727    0.000
 6737.00    0.49712   0.42689    0.000
 6738.00    0.49708   0.42574    0.000
 6739.00    0.49604   0.42489    0.000
 6740.00    0.50464   0.42517    0.000
 6741.00    0.53020   0.42611    0.000
 6742.00    0.53189   0.42680    0.000
 6743.00    0.49684   0.42552    0.000
 6744.00    0.47770   0.42241    0.000
 6745.00    0.48009   0.42037    0.000
 6746.00    0.48573   0.42143    0.000
 6747.00    0.49524   0.42323    0.000
 6748.00    0.49729   0.42142    0.000
 6749.00    0.49151   0.41891    0.000
 6750.00    0.48103   0.42049    0.000
 6751.00    0.46620   0.42281    0.000
 6752.00    0.47440   0.42228    0.000
 6753.00    0.50140   0.42041    0.050
 6754.00    0.50343   0.41827    0.051
 6755.00    0.48753   0.41588    0.051
 6756.00    0.47883   0.41496    0.051
 6757.00    0.47469   0.41661    0.052
 6758.00    0.45971   0.41665    0.052
 6759.00    0.43876   0.41552    0.053
 6760.00    0.48625   0.41834    0.055
 6761.00    0.56655   0.42191    0.058
 6762.00    0.59441   0.42423    0.059
 6763.00    0.60057   0.42639    0.060
 6764.00    0.57992   0.42791    0.060
 6765.00    0.54979   0.42852    0.059
 6766.00    0.55080   0.42865    0.059
 6767.00    0.56111   0.42786    0.059
 6768.00    0.58093   0.42650    0.059
 6769.00    0.60312   0.42678    0.058
 6770.00    0.58839   0.42742    0.056
 6771.00    0.56625   0.42590    0.055
 6772.00    0.56461   0.42171    0.054
 6773.00    0.56618   0.41785    0.052
 6774.00    0.53999   0.41856    0.051
 6775.00    0.51056   0.42152    0.050
 6776.00    0.50296   0.42156    0.051
 6777.00    0.49709   0.42024    0.051
 6778.00    0.52190   0.42196    0.052
 6779.00    0.54804   0.42543    0.053
 6780.00    0.55693   0.42832    0.054
 6781.00    0.56527   0.43034    0.054
 6782.00    0.55619   0.43126    0.054
 6783.00    0.54784   0.43108    0.053
 6784.00    0.55253   0.43104    0.054
 6785.00    0.55709   0.43127    0.055
 6786.00    0.56029   0.43005    0.055
 6787.00    0.56236   0.42661    0.055
 6788.00    0.55571   0.42086    0.055
 6789.00    0.54950   0.41486    0.056
 6790.00    0.54580   0.41171    0.055
 6791.00    0.54197   0.41220    0.055
 6792.00    0.53755   0.41448    0.056
 6793.00    0.53489   0.41778    0.056
 6794.00    0.53885   0.42050    0.055
 6795.00    0.54063   0.42045    0.055
 6796.00    0.53551   0.41929    0.053
 6797.00    0.53727   0.41975    0.052
 6798.00    0.55744   0.41988    0.052
 6799.00    0.56745   0.41802    0.052
 6800.00    0.55414   0.41707    0.051
 6801.00    0.53344   0.41825    0.051
 6802.00    0.49803   0.41966    0.051
 6803.00    0.48345   0.42102    0.051
 6804.00    0.50494   0.42149    0.052
 6805.00    0.51664   0.42194    0.053
 6806.00    0.51348   0.42338    0.054
 6807.00    0.49944   0.42462    0.054
 6808.00    0.47090   0.42510    0.054
 6809.00    0.47243   0.42426    0.054
 6810.00    0.50925   0.42266    0.054
 6811.00    0.51137   0.42259    0.055
 6812.00    0.47757   0.42191    0.056
 6813.00    0.47578   0.42102    0.057
 6814.00    0.50320   0.42227    0.058
 6815.00    0.50975   0.42259    0.058
 6816.00    0.49950   0.42145    0.056
 6817.00    0.51302   0.42211    0.055
 6818.00    0.54338   0.42311    0.054
 6819.00    0.55214   0.42278    0.052
 6820.00    0.54748   0.42028    0.051
 6821.00    0.53491   0.41784    0.051
 6822.00    0.51804   0.41945    0.052
 6823.00    0.53201   0.42300    0.052
 6824.00    0.56052   0.42370    0.052
 6825.00    0.56690   0.42159    0.052
 6826.00    0.56429   0.41988    0.053
 6827.00    0.54909   0.42134    0.054
 6828.00    0.52952   0.42432    0.055
 6829.00    0.51395   0.42582    0.055
 6830.00    0.49956   0.42594    0.055
 6831.00    0.50919   0.42614    0.056
 6832.00    0.52465   0.42563    0.057
 6833.00    0.53020   0.42217    0.056
 6834.00    0.53381   0.41818    0.056
 6835.00    0.51138   0.41826    0.056
 6836.00    0.48498   0.42153    0.057
 6837.00    0.49853   0.42397    0.058
 6838.00    0.51657   0.42286    0.058
 6839.00    0.52431   0.42167    0.058
 6840.00    0.53129   0.42392    0.057
 6841.00    0.51518   0.42626    0.057
 6842.00    0.49816   0.42610    0.056
 6843.00    0.47937   0.42448    0.055
 6844.00    0.46196   0.42191    0.054
 6845.00    0.49954   0.41843    0.054
 6846.00    0.53439   0.41478    0.054
 6847.00    0.52324   0.41127    0.053
 6848.00    0.51012   0.41073    0.053
 6849.00    0.47635   0.41447    0.054
 6850.00    0.45068   0.41973    0.055
 6851.00    0.48523   0.42316    0.056
 6852.00    0.51781   0.42310    0.057
 6853.00    0.53923   0.42234    0.057
 6854.00    0.55627   0.42274    0.057
 6855.00    0.55352   0.42215    0.058
 6856.00    0.54920   0.42062    0.059
 6857.00    0.53905   0.42005    0.059
 6858.00    0.53080   0.42056    0.059
 6859.00    0.52840   0.42006    0.058
 6860.00    0.52583   0.41609    0.057
 6861.00    0.52280   0.41162    0.057
 6862.00    0.50846   0.41185    0.056
 6863.00    0.46853   0.41447    0.054
 6864.00    0.45831   0.41594    0.054
 6865.00    0.50621   0.41683    0.055
 6866.00    0.53984   0.41487    0.056
 6867.00    0.54911   0.41056    0.056
 6868.00    0.53612   0.41070    0.056
 6869.00    0.48988   0.41703    0.056
 6870.00    0.46873   0.42310    0.056
 6871.00    0.48053   0.42363    0.055
 6872.00    0.49901   0.42031    0.055
 6873.00    0.52524   0.41595    0.056
 6874.00    0.54910   0.41293    0.056
 6875.00    0.57055   0.41440    0.057
 6876.00    0.56108   0.41766    0.057
 6877.00    0.52377   0.41646    0.058
 6878.00    0.50529   0.41355    0.058
 6879.00    0.50176   0.41451    0.057
 6880.00    0.50660   0.41710    0.057
 6881.00    0.51730   0.41795    0.058
 6882.00    0.52057   0.41960    0.058
 6883.00    0.51931   0.42257    0.057
 6884.00    0.48546   0.42506    0.056
 6885.00    0.43419   0.42539    0.054
 6886.00    0.45799   0.42376    0.053
 6887.00    0.51661   0.41974    0.054
 6888.00    0.54119   0.41521    0.055
 6889.00    0.55217   0.41379    0.057
 6890.00    0.54564   0.41602    0.057
 6891.00    0.53314   0.41840    0.056
 6892.00    0.51701   0.41819    0.056
 6893.00    0.49983   0.41959    0.057
 6894.00    0.50801   0.42267    0.057
 6895.00    0.52220   0.42388    0.058
 6896.00    0.55562   0.42440    0.060
 6897.00    0.59271   0.42552    0.061
 6898.00    0.55200   0.42507    0.060
 6899.00    0.49980   0.42392    0.059
 6900.00    0.48953   0.42391    0.059
 6901.00    0.48378   0.42339    0.059
 6902.00    0.50277   0.42221    0.060
 6903.00    0.52351   0.42257    0.060
 6904.00    0.51196   0.42419    0.060
 6905.00    0.49926   0.42365    0.059
 6906.00    0.50393   0.42047    0.057
 6907.00    0.50857   0.42034    0.055
 6908.00    0.50996   0.42421    0.056
 6909.00    0.51126   0.42642    0.056
 6910.00    0.51126   0.42541    0.056
 6911.00    0.51081   0.42425    0.056
 6912.00    0.50591   0.42615    0.056
 6913.00    0.49724   0.42902    0.055
 6914.00    0.46154   0.42988    0.055
 6915.00    0.43780   0.42963    0.055
 6916.00    0.48003   0.42864    0.056
 6917.00    0.50532   0.42653    0.058
 6918.00    0.45588   0.42466    0.058
 6919.00    0.43108   0.42178    0.058
 6920.00    0.49560   0.41831    0.060
 6921.00    0.53131   0.41941    0.061
 6922.00    0.47942   0.42170    0.059
 6923.00    0.44462   0.42188    0.058
 6924.00    0.45396   0.42293    0.059
 6925.00    0.46347   0.42337    0.060
 6926.00    0.47333   0.42418    0.059
 6927.00    0.48614   0.42616    0.059
 6928.00    0.50460   0.42682    0.059
 6929.00    0.51447   0.42430    0.058
 6930.00    0.50992   0.41872    0.057
 6931.00    0.50870   0.41550    0.057
 6932.00    0.51239   0.41679    0.057
 6933.00    0.50526   0.42142    0.057
 6934.00    0.48411   0.42528    0.057
 6935.00    0.48215   0.42653    0.057
 6936.00    0.50210   0.42626    0.058
 6937.00    0.49789   0.42510    0.058
 6938.00    0.46938   0.42304    0.059
 6939.00    0.46172   0.42013    0.059
 6940.00    0.47256   0.42133    0.059
 6941.00    0.49265   0.42477    0.059
 6942.00    0.51998   0.42558    0.061
 6943.00    0.52065   0.42476    0.061
 6944.00    0.50298   0.42437    0.060
 6945.00    0.50502   0.42551    0.060
 6946.00    0.51895   0.42738    0.060
 6947.00    0.49416   0.42857    0.060
 6948.00    0.44900   0.42779    0.059
 6949.00    0.46540   0.42499    0.059
 6950.00    0.50988   0.42009    0.059
 6951.00    0.50266   0.41608    0.059
 6952.00    0.47513   0.41912    0.058
 6953.00    0.48983   0.42536    0.058
 6954.00    0.51867   0.42841    0.057
 6955.00    0.53353   0.42922    0.056
 6956.00    0.54448   0.42789    0.056
 6957.00    0.52018   0.42424    0.056
 6958.00    0.48772   0.42212    0.056
 6959.00    0.45927   0.42115    0.057
 6960.00    0.43155   0.41992    0.058
 6961.00    0.45261   0.42159    0.059
 6962.00    0.48065   0.42549    0.060
 6963.00    0.48661   0.42765    0.060
 6964.00    0.49028   0.42762    0.060
 6965.00    0.46522   0.42758    0.060
 6966.00    0.43824   0.42795    0.060
 6967.00    0.50157   0.42885    0.062
 6968.00    0.56777   0.42947    0.064
 6969.00    0.51524   0.43021    0.062
 6970.00    0.46536   0.43067    0.061
 6971.00    0.49642   0.42897    0.060
 6972.00    0.52532   0.42746    0.058
 6973.00    0.52196   0.42891    0.058
 6974.00    0.51649   0.43200    0.058
 6975.00    0.49079   0.43256    0.058
 6976.00    0.46862   0.43017    0.058
 6977.00    0.47098   0.42755    0.058
 6978.00    0.47487   0.42801    0.057
 6979.00    0.48697   0.43037    0.058
 6980.00    0.49842   0.42981    0.058
 6981.00    0.50707   0.42658    0.059
 6982.00    0.51087   0.42289    0.059
 6983.00    0.49751   0.41697    0.058
 6984.00    0.48870   0.40738    0.057
 6985.00    0.49345   0.40377    0.060
 6986.00    0.50032   0.41221    0.062
 6987.00    0.51254   0.42222    0.062
 6988.00    0.53404   0.42787    0.062
 6989.00    0.57580   0.43076    0.061
 6990.00    0.57297   0.43167    0.060
 6991.00    0.48557   0.43191    0.059
 6992.00    0.44517   0.43216    0.058
 6993.00    0.48259   0.43122    0.060
 6994.00    0.49074   0.42775    0.060
 6995.00    0.45639   0.42341    0.059
 6996.00    0.45050   0.42242    0.058
 6997.00    0.48094   0.42500    0.058
 6998.00    0.49077   0.42859    0.057
 6999.00    0.47741   0.42941    0.057
 7000.00    0.46364   0.42742    0.057
 7001.00    0.44945   0.42642    0.057
 7002.00    0.46207   0.42748    0.057
 7003.00    0.49816   0.42835    0.057
 7004.00    0.51025   0.42707    0.059
 7005.00    0.50383   0.42245    0.060
 7006.00    0.48360   0.41931    0.061
 7007.00    0.45400   0.42172    0.061
 7008.00    0.43124   0.42653    0.061
 7009.00    0.41255   0.42745    0.061
 7010.00    0.41906   0.42332    0.061
 7011.00    0.43863   0.42043    0.060
 7012.00    0.44791   0.42114    0.061
 7013.00    0.45259   0.42338    0.062
 7014.00    0.46242   0.42542    0.062
 7015.00    0.47425   0.42760    0.061
 7016.00    0.45373   0.42800    0.061
 7017.00    0.42259   0.42606    0.060
 7018.00    0.43543   0.42612    0.058
 7019.00    0.46037   0.42856    0.057
 7020.00    0.48463   0.42761    0.057
 7021.00    0.50872   0.41945    0.057
 7022.00    0.46855   0.40928    0.058
 7023.00    0.41676   0.41011    0.059
 7024.00    0.42223   0.42106    0.064
 7025.00    0.43563   0.42927    0.070
 7026.00    0.48524   0.43177    0.072
 7027.00    0.53843   0.43195    0.074
 7028.00    0.49848   0.42929    0.074
 7029.00    0.45269   0.42311    0.074
 7030.00    0.45616   0.41853    0.075
 7031.00    0.46110   0.41984    0.076
 7032.00    0.48508   0.42423    0.069
 7033.00    0.50715   0.42594    0.064
 7034.00    0.47690   0.42586    0.064
 7035.00    0.44878   0.42717    0.063
 7036.00    0.45047   0.42946    0.063
 7037.00    0.45059   0.43083    0.062
 7038.00    0.43613   0.43003    0.060
 7039.00    0.42947   0.42847    0.059
 7040.00    0.47536   0.42782    0.059
 7041.00    0.51023   0.42930    0.060
 7042.00    0.48749   0.43107    0.059
 7043.00    0.46904   0.42744    0.058
 7044.00    0.46866   0.41911    0.058
 7045.00    0.46766   0.41832    0.058
 7046.00    0.46448   0.42828    0.059
 7047.00    0.45996   0.43778    0.060
 7048.00    0.45146   0.44192    0.061
 7049.00    0.44314   0.44233    0.062
 7050.00    0.43526   0.43932   -2.000
 7051.00    0.43804   0.43562   -2.000
 7052.00    0.46374   0.43604   -2.000
 7053.00    0.48674   0.43975   -2.000
 7054.00    0.50467   0.44284   -2.000
 7055.00    0.52339   0.44295   -2.000
 7056.00    0.54341   0.44047   -2.000
 7057.00    0.54557   0.43630   -2.000
 7058.00    0.52217   0.42889   -2.000
 7059.00    0.50613   0.41962   -2.000
 7060.00    0.49933   0.41146   -2.000
 7061.00    0.51058   0.40665   -2.000
 7062.00    0.54184   0.40836   -2.000
 7063.00    0.55834   0.41366   -2.000
 7064.00    0.56041   0.41553   -2.000
 7065.00    0.55849   0.41160   -2.000
 7066.00    0.55314   0.40611   -2.000
 7067.00    0.53453   0.40440   -2.000
 7068.00    0.50585   0.40598   -2.000
 7069.00    0.48883   0.40780   -2.000
 7070.00    0.47959   0.40999   -2.000
 7071.00    0.50979   0.40997   -2.000
 7072.00    0.56303   0.40656   -2.000
 7073.00    0.56860   0.40394   -2.000
 7074.00    0.54987   0.40157   -2.000
 7075.00    0.53970   0.40236   -2.000
 7076.00    0.53331   0.40805   -2.000
 7077.00    0.52527   0.41367   -2.000
 7078.00    0.51660   0.41610   -2.000
 7079.00    0.52434   0.41720   -2.000
 7080.00    0.53737   0.41769   -2.000
 7081.00    0.56791   0.41697   -2.000
 7082.00    0.60316   0.41620   -2.000
 7083.00    0.60868   0.41614   -2.000
 7084.00    0.60763   0.41689   -2.000
 7085.00    0.55346   0.41755   -2.000
 7086.00    0.48995   0.41872   -2.000
 7087.00    0.48615   0.41943   -2.000
 7088.00    0.49034   0.41722   -2.000
 7089.00    0.51376   0.41104   -2.000
 7090.00    0.53901   0.40248   -2.000
 7091.00    0.54349   0.39778   -2.000
 7092.00    0.54675   0.39903   -2.000
 7093.00    0.52727   0.39725   -2.000
 7094.00    0.50742   0.39094   -2.000
 7095.00    0.51369   0.38674   -2.000
 7096.00    0.51846   0.38603   -2.000
 7097.00    0.48615   0.38782   -2.000
 7098.00    0.45434   0.39074   -2.000
 7099.00    0.42922   0.39078   -2.000
 7100.00    0.40381   0.39018   -2.000
 7101.00    0.37591   0.38949   -2.000
 7102.00    0.36269   0.38906   -2.000
 7103.00    0.44542   0.38967   -2.000
 7104.00    0.50775   0.39174   -2.000
 7105.00    0.46620   0.39693   -2.000
 7106.00    0.43417   0.39953   -2.000
 7107.00    0.44129   0.39875   -2.000
 7108.00    0.44927   0.39572   -2.000
 7109.00    0.46013   0.39367   -2.000
 7110.00    0.46306   0.39548   -2.000
 7111.00    0.44317   0.39944   -2.000
 7112.00    0.42981   0.40080   -2.000
 7113.00    0.43246   0.39985   -2.000
 7114.00    0.42218   0.40026   -2.000
 7115.00    0.38456   0.40104   -2.000
 7116.00    0.37230   0.39849   -2.000
 7117.00    0.40669   0.39400   -2.000
 7118.00    0.44546   0.39319   -2.000
 7119.00    0.49129   0.39684   -2.000
 7120.00    0.52322   0.40024   -2.000
 7121.00    0.53556   0.40128   -2.000
 7122.00    0.52486   0.40279   -2.000
 7123.00    0.48560   0.40440   -2.000
 7124.00    0.43318   0.40475   -2.000
 7125.00    0.36637   0.40437   -2.000
 7126.00    0.35330   0.40382   -2.000
 7127.00    0.39205   0.40262   -2.000
 7128.00    0.38134   0.40037   -2.000
 7129.00    0.32857   0.40123   -2.000
 7130.00    0.30874   0.40254   -2.000
 7131.00    0.31359   0.39692   -2.000
 7132.00    0.35368   0.38795   -2.000
 7133.00    0.41698   0.38425   -2.000
 7134.00    0.49149   0.38589   -2.000
 7135.00    0.57247   0.38591   -2.000
 7136.00    0.56595   0.38182   -2.000
 7137.00    0.51553   0.37826   -2.000
 7138.00    0.51781   0.38002   -2.000
 7139.00    0.54298   0.38433   -2.000
 7140.00    0.51690   0.38826   -2.000
 7141.00    0.47174   0.39038   -2.000
 7142.00    0.46705   0.39108   -2.000
 7143.00    0.47514   0.39192   -2.000
 7144.00    0.48616   0.39064   -2.000
 7145.00    0.49795   0.38810   -2.000
 7146.00    0.47947   0.38873   -2.000
 7147.00    0.45447   0.39193   -2.000
 7148.00    0.45396   0.39369   -2.000
 7149.00    0.45764   0.39402   -2.000
 7150.00    0.43160   0.39423   -2.000
 7151.00    0.40171   0.39403   -2.000
 7152.00    0.40412   0.39365   -2.000
 7153.00    0.40945   0.38983   -2.000
 7154.00    0.40155   0.38345   -2.000
 7155.00    0.39292   0.38317   -2.000
 7156.00    0.41345   0.38809   -2.000
 7157.00    0.43427   0.39194   -2.000
 7158.00    0.42452   0.39557   -2.000
 7159.00    0.41565   0.39958   -2.000
 7160.00    0.42658   0.40059   -2.000
 7161.00    0.43714   0.39900   -2.000
 7162.00    0.44298   0.40001   -2.000
 7163.00    0.45497   0.40383   -2.000
 7164.00    0.51935   0.40383   -2.000
 7165.00    0.58806   0.39939   -2.000
 7166.00    0.68419   0.39578   -2.000
 7167.00    0.74104   0.39659   -2.000
 7168.00    0.60292   0.39938   -2.000
 7169.00    0.48547   0.39676   -2.000
 7170.00    0.45124   0.38901   -2.000
 7171.00    0.43803   0.38367   -2.000
 7172.00    0.49505   0.38683   -2.000
 7173.00    0.54316   0.39396   -2.000
 7174.00    0.56615   0.39783   -2.000
 7175.00    0.56788   0.39747   -2.000
 7176.00    0.51834   0.39694   -2.000
 7177.00    0.48204   0.39887   -2.000
 7178.00    0.47332   0.40170   -2.000
 7179.00    0.46474   0.40312   -2.000
 7180.00    0.45642   0.40220   -2.000
 7181.00    0.45361   0.39963   -2.000
 7182.00    0.45950   0.39706   -2.000
 7183.00    0.45408   0.39764   -2.000
 7184.00    0.43293   0.40033   -2.000
 7185.00    0.43659   0.39964   -2.000
 7186.00    0.47058   0.39421   -2.000
 7187.00    0.49665   0.38929   -2.000
 7188.00    0.51417   0.39058   -2.000
 7189.00    0.49163   0.39779   -2.000
 7190.00    0.43101   0.40371   -2.000
 7191.00    0.40935   0.40433   -2.000
 7192.00    0.42034   0.39997   -2.000
 7193.00    0.43468   0.39155   -2.000
 7194.00    0.45149   0.38518   -2.000
 7195.00    0.46672   0.38501   -2.000
 7196.00    0.48091   0.38960   -2.000
 7197.00    0.46542   0.39595   -2.000
 7198.00    0.43309   0.39797   -2.000
 7199.00    0.37609   0.39686   -2.000
 7200.00    0.30691   0.39774   -2.000
 7201.00    0.32694   0.40046   -2.000
 7202.00    0.38506   0.40002   -2.000
 7203.00    0.45024   0.39540   -2.000
 7204.00    0.51799   0.39338   -2.000
 7205.00    0.52802   0.39590   -2.000
 7206.00    0.52018   0.39809   -2.000
 7207.00    0.50950   0.39584   -2.000
 7208.00    0.49809   0.39174   -2.000
 7209.00    0.07287   0.39327   -2.000
 7210.00   -0.43939   0.39903   -2.000
 7211.00   -0.17141   0.40152   -2.000
 7212.00    0.22616   0.39651   -2.000
 7213.00    0.53665   0.38670   -2.000
 7214.00    0.83627   0.38236   -2.000
 7215.00    0.88040   0.38527   -2.000
 7216.00    0.90240   0.39138   -2.000
 7217.00    0.88357   0.39840   -2.000
 7218.00    0.86267   0.40113   -2.000
