###################################################################
## OUTPUT of StarlightChains_v04.for    [Cid@UFSC - 01/Apr/2007] ##
###################################################################

## Some input info
KUG0210-078._43_32.txt                   [arq_obs]
Base.CB07.vall.4m                        [arq_base]
Masks.EmLines.NEW.gm                     [arq_masks]
StCv04.C11.config                        [arq_config]
   66                                    [N_base]
    0                                    [N_YAV_components = # of components with extra extinction!]
    0                                    [i_FitPowerLaw (1/0 = Yes/No)]
-9.99                                    [alpha_PowerLaw]
CCM                                      [red_law_option]
 1.458241                                [q_norm = A(l_norm)/A(V)]

## (Re)Sampling Parameters
 3741.00                                 [l_ini (A)]
 7218.00                                 [l_fin (A)]
    1.00                                 [dl    (A)]     (OBS: dl_cushion =    50.00 A)

## Normalization info
 4020.00                                 [l_norm (A) - for base]
 4010.00                                 [llow_norm (A) - window for f_obs]
 4060.00                                 [lupp_norm (A) - window for f_obs]
1.142293E-17                             [fobs_norm (in input units)]

## S/N
 3691.00                                 [llow_SN (A) - window for S/N]
 7268.00                                 [lupp_SN (A) - window for S/N]
   3.740                                 [S/N in S/N window]
   4.747                                 [S/N in norm. window]
   0.010                                 [S/N_err in S/N window]
   0.013                                 [S/N_err in norm. window]
  1.0000                                 [fscale_chi2]

## etc...
    -2007804                             [idum_orig]
  2429                                   [NOl_eff]
  2391                                   [Nl_eff]
    38    NSIGMA                         [Ntot_cliped & clip_method]
   825930                                [Nglobal_steps]
   7                                     [N_chains]
  15                                     [NEX0s_base = N_base in EX0s-fits]
 0   0   1       38   2.0   2.967E+03    [Clip-Bug, RC-Crash & Burn-In warning-flags, n_censored_weights, wei_nsig_threshold & wei_limit]
    16     16.276     15.701      0.575  [idt_all, wdt_TotTime, wdt_UsrTime & wdt_SysTime (sec)]

## Synthesis Results - Best model ##

 1.03838E-05                             [chi2/Nl_eff]
    20.39583                             [adev (%)]

   107.14524                             [sum-of-x (%)]
 3.51792E-18                             [Flux_tot (units of input spectrum!)]
 1.03138E-13                             [Mini_tot (???)]
 5.48264E-14                             [Mcor_tot (???)]

-415.65                                  [v0_min  (km/s)]
  50.11                                  [vd_min  (km/s)]
-0.9283                                  [AV_min  (mag)]
 0.0000                                  [YAV_min (mag)]

# j     x_j(%)      Mini_j(%)     Mcor_j(%)     age_j(yr)     Z_j      (L/M)_j    YAV?  Mstars   component_j        a/Fe...       SSP_chi2r SSP_adev(%)   SSP_AV   SSP_x(%)
  1      0.0000     0.0000E+00    0.0000E+00    1.000000E+06  0.00400  1.094E-02    0   1.0000   age020_m42            0.0000     1.4243E-05    29.1610   2.6748    87.1978
  2      0.0000     0.0000E+00    0.0000E+00    3.160000E+06  0.00400  4.007E-02    0   0.9999   age045_m42            0.0000     1.2574E-05    26.6160   1.9157    93.8475
  3      0.0000     0.0000E+00    0.0000E+00    5.010000E+06  0.00400  2.539E-02    0   0.9488   age055_m42            0.0000     1.3347E-05    27.5897   2.2550    91.1034
  4      0.0000     0.0000E+00    0.0000E+00    6.610000E+06  0.00400  2.620E-02    0   0.9220   age061_m42            0.0000     1.2596E-05    26.2912   1.8485    93.8427
  5      0.0000     0.0000E+00    0.0000E+00    1.000000E+07  0.00400  1.322E-02    0   0.8862   age070_m42            0.0000     1.3257E-05    28.0920   1.6201    94.2158
  6      0.0000     0.0000E+00    0.0000E+00    1.445000E+07  0.00400  7.883E-03    0   0.8571   age078_m42            0.0000     1.3675E-05    28.6956   1.9490    91.8714
  7      0.0000     0.0000E+00    0.0000E+00    2.512000E+07  0.00400  5.251E-03    0   0.8174   age090_m42            0.0000     1.3315E-05    28.2917   1.4987    94.4793
  8      0.0000     0.0000E+00    0.0000E+00    4.000000E+07  0.00400  3.649E-03    0   0.7851   age104_m42            0.0000     1.2924E-05    27.6429   1.2579    95.5992
  9      0.0000     0.0000E+00    0.0000E+00    5.500000E+07  0.00400  3.098E-03    0   0.7629   age110_m42            0.0000     1.2448E-05    26.2374   1.3807    96.5170
 10      0.0000     0.0000E+00    0.0000E+00    1.015200E+08  0.00400  2.228E-03    0   0.7207   age116_m42            0.0000     1.2172E-05    25.1254   1.3799    97.2784
 11      0.0000     0.0000E+00    0.0000E+00    2.861200E+08  0.00400  1.093E-03    0   0.6648   age125_m42            0.0000     1.2105E-05    25.0294   0.8195    99.5860
 12      0.0000     0.0000E+00    0.0000E+00    5.088000E+08  0.00400  6.597E-04    0   0.6365   age130_m42            0.0000     1.1691E-05    23.4451   0.7774   101.3809
 13      0.0000     0.0000E+00    0.0000E+00    1.434000E+09  0.00400  2.132E-04    0   0.5798   age139_m42            0.0000     1.0759E-05    22.5693  -0.2164   103.8738
 14      0.0000     0.0000E+00    0.0000E+00    4.250000E+09  0.00400  5.895E-05    0   0.5377   age158_m42            0.0000     1.0953E-05    22.4991  -0.6757   100.3190
 15      0.0000     0.0000E+00    0.0000E+00    7.500000E+09  0.00400  3.510E-05    0   0.5212   age171_m42            0.0000     1.1026E-05    22.0621  -0.8792    99.9829
 16      0.0000     0.0000E+00    0.0000E+00    1.300000E+10  0.00400  2.005E-05    0   0.5034   age193_m42            0.0000     1.1211E-05    22.1955  -1.0000    98.6338
 17      0.0000     0.0000E+00    0.0000E+00    1.800000E+10  0.00400  1.525E-05    0   0.4967   age213_m42            0.0000     1.1264E-05    22.6283  -1.0000    97.7414
 18      0.0000     0.0000E+00    0.0000E+00    1.000000E+06  0.00800  1.238E-02    0   1.0000   age020_m52            0.0000     1.4278E-05    29.1831   2.6712    87.3651
 19      0.0000     0.0000E+00    0.0000E+00    3.160000E+06  0.00800  3.074E-02    0   0.9966   age045_m52            0.0000     1.4165E-05    28.9891   2.5913    88.1977
 20      0.0000     0.0000E+00    0.0000E+00    5.010000E+06  0.00800  2.668E-02    0   0.9443   age055_m52            0.0000     1.3613E-05    28.0785   2.3451    90.1513
 21      0.0000     0.0000E+00    0.0000E+00    6.610000E+06  0.00800  2.136E-02    0   0.9177   age061_m52            0.0000     1.3046E-05    28.3624   1.1204    95.2697
 22      0.0000     0.0000E+00    0.0000E+00    1.000000E+07  0.00800  1.215E-02    0   0.8827   age070_m52            0.0000     1.3802E-05    29.1131   1.8152    93.5534
 23      0.0000     0.0000E+00    0.0000E+00    1.445000E+07  0.00800  8.717E-03    0   0.8552   age078_m52            0.0000     1.3563E-05    28.5458   1.9120    93.1904
 24      0.0000     0.0000E+00    0.0000E+00    2.512000E+07  0.00800  5.592E-03    0   0.8162   age090_m52            0.0000     1.3304E-05    28.3197   1.5603    95.6274
 25      0.0000     0.0000E+00    0.0000E+00    4.000000E+07  0.00800  3.896E-03    0   0.7841   age104_m52            0.0000     1.2865E-05    27.3724   1.4516    96.9055
 26      0.0000     0.0000E+00    0.0000E+00    1.015200E+08  0.00800  2.148E-03    0   0.7226   age116_m52            0.0000     1.2297E-05    25.8038   1.3615    97.5988
 27      0.0000     0.0000E+00    0.0000E+00    2.861200E+08  0.00800  9.925E-04    0   0.6683   age125_m52            0.0000     1.1567E-05    23.4689   0.8381   102.4948
 28      0.0000     0.0000E+00    0.0000E+00    9.047900E+08  0.00800  3.141E-04    0   0.6138   age135_m52            0.0000     1.0819E-05    21.8788  -0.0163   108.1598
 29     28.3931     5.2581E+00    5.7895E+00    1.434000E+09  0.00800  1.719E-04    0   0.5853   age139_m52            0.0000     1.0798E-05    22.5837  -0.5852   105.4177
 30      0.0000     0.0000E+00    0.0000E+00    2.500000E+09  0.00800  7.872E-05    0   0.5600   age150_m52            0.0000     1.0740E-05    21.4984  -0.8878   103.6016
 31      0.0000     0.0000E+00    0.0000E+00    4.250000E+09  0.00800  4.336E-05    0   0.5426   age158_m52            0.0000     1.0913E-05    21.6569  -0.9010   102.5557
 32      0.0000     0.0000E+00    0.0000E+00    6.250000E+09  0.00800  3.159E-05    0   0.5319   age166_m52            0.0000     1.1044E-05    21.9777  -1.0000   100.7626
 33      0.0000     0.0000E+00    0.0000E+00    1.300000E+10  0.00800  1.361E-05    0   0.5073   age193_m52            0.0000     1.4149E-05    28.6991  -1.0000    90.1313
 34      0.0000     0.0000E+00    0.0000E+00    1.800000E+10  0.00800  9.886E-06    0   0.4990   age213_m52            0.0000     1.5769E-05    30.1644  -1.0000    87.1965
 35      0.0000     0.0000E+00    0.0000E+00    1.000000E+06  0.02000  1.544E-02    0   1.0000   age020_m62            0.0000     1.4361E-05    29.3299   2.6689    87.5258
 36      0.0000     0.0000E+00    0.0000E+00    3.160000E+06  0.02000  3.762E-02    0   0.9858   age045_m62            0.0000     1.4386E-05    29.1996   2.6068    88.3055
 37      0.0000     0.0000E+00    0.0000E+00    5.010000E+06  0.02000  3.296E-02    0   0.9342   age055_m62            0.0000     1.2986E-05    26.8299   2.2017    92.6164
 38      0.0000     0.0000E+00    0.0000E+00    8.710000E+06  0.02000  1.154E-02    0   0.8861   age067_m62            0.0000     1.6321E-05    34.1168   1.3643    93.0367
 39      0.0000     0.0000E+00    0.0000E+00    1.445000E+07  0.02000  7.663E-03    0   0.8472   age078_m62            0.0000     1.4283E-05    30.5575   1.4886    94.7322
 40      0.0000     0.0000E+00    0.0000E+00    2.512000E+07  0.02000  4.532E-03    0   0.8099   age090_m62            0.0000     1.4324E-05    30.4373   1.4818    94.3698
 41      0.0000     0.0000E+00    0.0000E+00    5.500000E+07  0.02000  2.733E-03    0   0.7595   age110_m62            0.0000     1.2928E-05    27.5334   1.4406    96.0638
 42      0.0000     0.0000E+00    0.0000E+00    1.609000E+08  0.02000  1.369E-03    0   0.6985   age120_m62            0.0000     1.2040E-05    24.7317   1.2291   100.1281
 43      0.0000     0.0000E+00    0.0000E+00    2.861200E+08  0.02000  9.013E-04    0   0.6714   age125_m62            0.0000     1.1662E-05    23.1132   0.9468   103.8948
 44      0.0000     0.0000E+00    0.0000E+00    5.088000E+08  0.02000  5.028E-04    0   0.6449   age130_m62            0.0000     1.1046E-05    21.4360   0.5120   108.2782
 45      0.0000     0.0000E+00    0.0000E+00    9.047900E+08  0.02000  2.428E-04    0   0.6179   age135_m62            0.0000     1.0677E-05    21.5379  -0.0925   107.9616
 46      0.0000     0.0000E+00    0.0000E+00    1.434000E+09  0.02000  1.263E-04    0   0.5908   age139_m62            0.0000     1.0828E-05    21.6592  -0.5391   106.2923
 47      0.0000     0.0000E+00    0.0000E+00    2.500000E+09  0.02000  5.985E-05    0   0.5673   age150_m62            0.0000     1.0937E-05    20.8423  -0.9373   105.6655
 48      0.0000     0.0000E+00    0.0000E+00    4.250000E+09  0.02000  3.271E-05    0   0.5468   age158_m62            0.0000     1.1585E-05    22.4250  -1.0000   100.1302
 49      0.0000     0.0000E+00    0.0000E+00    1.000000E+10  0.02000  1.360E-05    0   0.5167   age181_m62            0.0000     1.4906E-05    27.5095  -1.0000    91.9056
 50      0.0000     0.0000E+00    0.0000E+00    1.800000E+10  0.02000  7.124E-06    0   0.5013   age213_m62            0.0000     1.8289E-05    30.8491  -1.0000    86.0498
 51      0.0000     0.0000E+00    0.0000E+00    1.000000E+06  0.05000  2.592E-02    0   0.9998   age020_m72            0.0000     1.4631E-05    29.8396   2.6652    87.4005
 52      0.0000     0.0000E+00    0.0000E+00    3.160000E+06  0.05000  4.845E-02    0   0.9577   age045_m72            0.0000     1.3822E-05    28.2050   2.4766    89.8003
 53      0.0000     0.0000E+00    0.0000E+00    5.010000E+06  0.05000  3.072E-02    0   0.9147   age055_m72            0.0000     1.4402E-05    30.0664   2.0450    92.0007
 54      0.0000     0.0000E+00    0.0000E+00    6.610000E+06  0.05000  1.455E-02    0   0.8877   age061_m72            0.0000     1.8062E-05    36.4190   1.4228    92.8052
 55      0.0000     0.0000E+00    0.0000E+00    1.000000E+07  0.05000  9.074E-03    0   0.8524   age070_m72            0.0000     1.4675E-05    30.2847   2.2144    91.7985
 56      0.0000     0.0000E+00    0.0000E+00    2.512000E+07  0.05000  4.250E-03    0   0.7902   age090_m72            0.0000     1.3840E-05    28.9541   1.9120    93.7493
 57      0.0000     0.0000E+00    0.0000E+00    4.000000E+07  0.05000  3.087E-03    0   0.7618   age104_m72            0.0000     1.3638E-05    28.5985   1.6836    95.2608
 58      0.0000     0.0000E+00    0.0000E+00    1.015200E+08  0.05000  1.700E-03    0   0.7096   age116_m72            0.0000     1.2427E-05    25.7001   1.3881    99.1926
 59      0.0000     0.0000E+00    0.0000E+00    2.861200E+08  0.05000  7.384E-04    0   0.6633   age125_m72            0.0000     1.1334E-05    22.2464   0.7828   106.2222
 60     37.4523     3.1219E+00    3.7422E+00    5.088000E+08  0.05000  3.819E-04    0   0.6372   age130_m72            0.0000     1.0713E-05    21.3695   0.2474   109.1754
 61      0.0000     0.0000E+00    0.0000E+00    9.047900E+08  0.05000  1.676E-04    0   0.6110   age135_m72            0.0000     1.0600E-05    20.8734  -0.4925   108.3300
 62      0.0000     0.0000E+00    0.0000E+00    1.434000E+09  0.05000  8.837E-05    0   0.5874   age139_m72            0.0000     1.0991E-05    20.7823  -0.9529   107.5876
 63      0.0000     0.0000E+00    0.0000E+00    2.500000E+09  0.05000  4.233E-05    0   0.5598   age150_m72            0.0000     1.1739E-05    22.3362  -1.0000   101.1193
 64     41.2999     9.1620E+01    9.0468E+01    6.250000E+09  0.05000  1.435E-05    0   0.5249   age166_m72            0.0000     1.6154E-05    29.3309  -1.0000    89.2359
 65      0.0000     0.0000E+00    0.0000E+00    1.300000E+10  0.05000  6.513E-06    0   0.5036   age193_m72            0.0000     2.1370E-05    33.8321  -1.0000    82.8553
 66      0.0000     0.0000E+00    0.0000E+00    1.800000E+10  0.05000  4.527E-06    0   0.4945   age213_m72            0.0000     2.5052E-05    36.4107  -1.0000    78.3689


## Synthesis Results - Average & Chains ##

# j      x_j: min, <> & last-chain-values for 1 ...  7 chains
  1      0.0000      1.3180      0.9183      0.6564      2.1651      0.6776      0.8923      0.0000      0.5947
  2      0.0000      1.2003      0.0000      0.2372      0.9533      0.2717      0.2970      0.3622      0.0000
  3      0.0000      0.8170      0.4965      0.2529      0.1213      0.0716      0.2380      0.1286      0.1382
  4      0.0000      0.9026      0.0000      0.2502      0.1105      0.0921      0.4125      0.1258      0.0831
  5      0.0000      0.8268      0.0000      0.0047      0.1138      0.0000      0.0000      0.1238      0.0000
  6      0.0000      1.1021      0.0000      0.3188      0.0000      0.0098      0.0789      0.0266      0.0727
  7      0.0000      0.9918      0.2804      0.7678      0.8884      0.1261      0.3002      0.0051      0.0000
  8      0.0000      0.9907      0.0790      0.2367      0.6842      0.6772      0.1638      0.4391      0.0239
  9      0.0000      1.1173      0.0000      0.4668      0.2203      0.0787      0.0000      0.1921      0.0695
 10      0.0000      1.3788      0.1410      0.3175      0.3754      0.0000      0.1697      0.0000      0.1240
 11      0.0000      1.1472      0.0000      0.1033      0.0000      0.0000      0.0000      0.0279      0.0000
 12      0.0000      1.1375      1.4154      0.5891      0.0000      0.4419      0.0000      0.0319      0.0196
 13      0.0000      1.3445      0.1081      0.2301      0.6224      0.2994      0.1337      0.0402      0.0563
 14      0.0000      0.7454      0.2445      0.4881      0.5432      0.1604      0.0952      0.0205      0.0288
 15      0.0000      0.9238      0.0000      0.2233      0.0077      0.0000      0.1607      0.0000      0.0173
 16      0.0000      1.2960      0.0571      0.0000      0.0000      0.1516      0.0000      0.0000      0.0000
 17      0.0000      0.8214      0.2430      0.0000      0.0000      0.0000      0.0929      0.6175      0.0098
 18      0.0000      1.0977      0.5004      0.4287      0.0000      0.6135      0.3273      0.1855      0.5396
 19      0.0000      1.2610      0.6343      0.5491      0.5722      0.9374      0.5886      0.4170      0.3414
 20      0.0000      1.8036      0.1863      0.0000      1.8596      0.0000      0.2858      0.4885      0.0000
 21      0.0000      0.9129      0.0000      0.1712      0.0000      0.0000      0.0000      0.0213      0.0721
 22      0.0000      1.0738      0.0000      0.0000      0.0111      0.0000      0.0151      0.0000      0.0000
 23      0.0000      0.9946      0.2145      0.4549      0.2266      0.0670      0.0922      0.0091      0.0537
 24      0.0000      0.7565      0.0686      0.2357      0.2827      0.0000      0.5111      0.0000      0.0000
 25      0.0000      1.0099      0.0000      0.3257      0.0000      0.0108      0.1425      0.2019      0.1135
 26      0.0000      1.1746      0.7022      0.0471      0.4437      0.2641      0.0275      0.0114      0.0131
 27      0.0000      1.1649      0.5507      0.0000      0.4531      0.2557      0.1823      0.0129      0.0120
 28      0.0000      1.2202      0.7048      1.7251      1.8720      1.7616      2.3839      2.2619      2.1568
 29     28.3931      3.1695      4.4388      4.5983      4.6249      4.4609      4.6330      7.6771      3.9753
 30      0.0000      0.8072      0.4048      0.0457      0.0000      0.1447      0.0000      0.0303      0.0329
 31      0.0000      1.0743      0.0017      0.2534      0.2342      0.0000      0.1520      0.0978      0.0000
 32      0.0000      0.8994      0.0000      0.0000      0.0198      0.0563      0.0000      0.0072      0.0012
 33      0.0000      0.7165      0.0000      0.0000      0.0000      0.0000      0.0071      0.0000      0.0167
 34      0.0000      0.8144      0.2998      0.0409      0.8626      0.1951      0.1833      0.0000      0.0000
 35      0.0000      1.0569      0.4294      0.0478      0.0000      0.3046      0.2080      0.0000      0.0799
 36      0.0000      0.9308      0.6153      0.1614      0.0000      0.0143      0.2032      0.0000      0.0162
 37      0.0000      1.0352      0.5270      0.5933      0.3278      0.1276      0.0000      0.0599      0.0000
 38      0.0000      0.9594      0.3563      0.0233      0.4828      0.0610      0.0021      0.0406      0.0194
 39      0.0000      1.0512      0.2253      0.4712      0.0000      0.0635      0.1023      0.0124      0.0000
 40      0.0000      0.7836      0.7309      0.0000      0.0000      0.2631      0.0000      0.0359      0.0736
 41      0.0000      1.0436      0.0000      0.0782      0.0000      0.0000      0.1278      0.0255      0.0139
 42      0.0000      1.0284      0.0000      0.1807      0.3470      0.2026      0.3402      0.1695      0.0002
 43      0.0000      1.1441      1.6813      0.0000      0.8782      0.0000      0.5155      0.2668      0.0000
 44      0.0000      0.7921      0.0000      0.1946      0.4741      0.4018      0.2966      0.0092      0.0000
 45      0.0000      0.8432      0.9936      0.2310      0.2476      0.2378      0.0000      0.0577      0.0485
 46      0.0000      1.2724      1.0721      1.0651      1.3374      1.0769      1.0607      0.8737      1.4567
 47      0.0000      1.3148      0.2197      0.0000      0.1876      0.0691      0.4795      0.0000      0.0697
 48      0.0000      0.8620      0.1223      0.0000      0.1676      0.0399      0.2067      0.0000      0.0000
 49      0.0000      1.1347      0.2782      0.1638      0.7285      0.2862      0.1185      0.0277      0.0000
 50      0.0000      0.7516      0.3133      0.0433      0.6983      0.0979      0.1998      0.0000      0.0342
 51      0.0000      0.9328      0.2082      0.1168      0.1187      0.1525      0.1211      0.0000      0.0408
 52      0.0000      1.0974      0.4504      0.0559      0.3284      0.1358      0.0779      0.0000      0.0219
 53      0.0000      1.6575      1.0396      2.5723      2.9032      3.1397      2.2434      0.7870      2.0778
 54      0.0000     15.0702     26.8301     25.9899     23.8676     26.8908     26.3945     27.8327     28.8985
 55      0.0000      2.1002      2.7235      2.9950      3.1935      2.8379      3.0603      2.4506      2.6983
 56      0.0000      1.2440      0.4651      0.4104      0.1076      0.0779      0.2714      0.0000      0.0000
 57      0.0000      1.1076      0.4260      0.3072      1.3323      0.0322      0.0944      0.0346      0.0215
 58      0.0000      0.9640      0.8909      0.0601      0.1021      0.2059      0.2694      0.0000      0.0868
 59      0.0000      1.0931      0.0000      0.0000      1.1437      0.0217      0.3457      0.2848      0.0000
 60     37.4523      1.2064      0.0339      0.3430      0.1949      0.0000      0.1853      0.3423      0.0280
 61      0.0000     30.7408     54.8445     56.3000     50.2011     58.1984     56.7109     58.8098     60.8869
 62      0.0000     10.4063     16.1370     17.9937     15.7194     17.5049     18.3221     17.8579     19.3453
 63      0.0000      0.9733      0.0000      0.0000      0.0854      0.1371      0.0000      0.0018      0.0000
 64     41.2999      0.9242      0.1990      0.1116      0.4628      0.0000      0.0000      1.2171      0.0898
 65      0.0000      0.8468      0.0000      0.0769      0.1229      0.0303      0.0000      0.0000      0.0000
 66      0.0000      0.8892      0.0000      0.0000      0.0941      0.2128      0.1966      0.0052      0.0000

# j      m_j: min, <> & last-chain-values for 1 ...  7 chains
  1  0.0000E+00  1.6420E-02  2.0399E-02  1.5496E-02  4.0146E-02  1.4709E-02  1.9219E-02  0.0000E+00  1.4088E-02
  2  0.0000E+00  4.0823E-03  0.0000E+00  1.5289E-03  4.8255E-03  1.6103E-03  1.7466E-03  2.0569E-03  0.0000E+00
  3  0.0000E+00  4.1612E-03  4.5085E-03  2.4410E-03  9.1962E-04  6.3566E-04  2.0960E-03  1.0933E-03  1.3387E-03
  4  0.0000E+00  4.3292E-03  0.0000E+00  2.2737E-03  7.8887E-04  7.6981E-04  3.4209E-03  1.0071E-03  7.5823E-04
  5  0.0000E+00  7.5540E-03  0.0000E+00  8.1866E-05  1.5478E-03  0.0000E+00  0.0000E+00  1.8886E-03  0.0000E+00
  6  0.0000E+00  1.6332E-02  0.0000E+00  8.9508E-03  0.0000E+00  2.5236E-04  2.0221E-03  6.5843E-04  2.0486E-03
  7  0.0000E+00  2.1042E-02  1.0608E-02  3.0865E-02  2.8053E-02  4.6601E-03  1.1011E-02  1.8181E-04  0.0000E+00
  8  0.0000E+00  2.9051E-02  4.1328E-03  1.3152E-02  2.9860E-02  3.4603E-02  8.3036E-03  2.1498E-02  1.3350E-03
  9  0.0000E+00  3.7500E-02  0.0000E+00  2.9687E-02  1.1004E-02  4.6028E-03  0.0000E+00  1.0767E-02  4.4380E-03
 10  0.0000E+00  6.0788E-02  1.1082E-02  2.6522E-02  2.4632E-02  0.0000E+00  1.2933E-02  0.0000E+00  1.0392E-02
 11  0.0000E+00  9.5103E-02  0.0000E+00  1.6224E-02  0.0000E+00  0.0000E+00  0.0000E+00  3.8603E-03  0.0000E+00
 12  0.0000E+00  1.4959E-01  3.3187E-01  1.4678E-01  0.0000E+00  1.0125E-01  0.0000E+00  6.9966E-03  4.8930E-03
 13  0.0000E+00  4.9834E-01  7.1453E-02  1.6160E-01  3.4335E-01  1.9339E-01  8.5703E-02  2.4889E-02  3.9700E-02
 14  0.0000E+00  9.2671E-01  5.4202E-01  1.1497E+00  1.0051E+00  3.4751E-01  2.0456E-01  4.2622E-02  6.8164E-02
 15  0.0000E+00  1.8697E+00  0.0000E+00  8.5620E-01  2.3146E-02  0.0000E+00  5.6216E-01  0.0000E+00  6.6422E-02
 16  0.0000E+00  4.4347E+00  3.4816E-01  0.0000E+00  0.0000E+00  9.0399E-01  0.0000E+00  0.0000E+00  0.0000E+00
 17  0.0000E+00  3.6462E+00  1.9231E+00  0.0000E+00  0.0000E+00  0.0000E+00  7.1289E-01  4.5764E+00  8.2363E-02
 18  0.0000E+00  1.2085E-02  9.8223E-03  8.9424E-03  0.0000E+00  1.1770E-02  6.2301E-03  3.4095E-03  1.1295E-02
 19  0.0000E+00  5.5720E-03  4.9976E-03  4.5978E-03  3.7633E-03  7.2174E-03  4.4968E-03  3.0763E-03  2.8678E-03
 20  0.0000E+00  8.7003E-03  1.6022E-03  0.0000E+00  1.3351E-02  0.0000E+00  2.3834E-03  3.9341E-03  0.0000E+00
 21  0.0000E+00  5.3456E-03  0.0000E+00  1.8991E-03  0.0000E+00  0.0000E+00  0.0000E+00  2.0855E-04  8.0270E-04
 22  0.0000E+00  1.0633E-02  0.0000E+00  0.0000E+00  1.6320E-04  0.0000E+00  2.5870E-04  0.0000E+00  0.0000E+00
 23  0.0000E+00  1.3299E-02  5.1142E-03  1.1527E-02  4.5102E-03  1.5615E-03  2.1321E-03  2.0221E-04  1.3664E-03
 24  0.0000E+00  1.5050E-02  2.4323E-03  8.8864E-03  8.3692E-03  0.0000E+00  1.7579E-02  0.0000E+00  0.0000E+00
 25  0.0000E+00  2.7702E-02  0.0000E+00  1.6930E-02  0.0000E+00  5.1571E-04  6.7582E-03  9.2487E-03  5.9209E-03
 26  0.0000E+00  5.3857E-02  5.7407E-02  4.0913E-03  3.0281E-02  2.1101E-02  2.1810E-03  8.7163E-04  1.1394E-03
 27  0.0000E+00  1.0691E-01  9.0119E-02  0.0000E+00  6.1883E-02  4.0885E-02  2.8932E-02  1.9830E-03  2.1015E-03
 28  0.0000E+00  3.2497E-01  3.3468E-01  8.7061E-01  7.4205E-01  8.1757E-01  1.0977E+00  1.0058E+00  1.0921E+00
 29  5.7895E+00  1.4709E+00  3.6728E+00  4.0435E+00  3.1943E+00  3.6072E+00  3.7173E+00  5.9482E+00  3.5075E+00
 30  0.0000E+00  7.8263E-01  6.9980E-01  8.4027E-02  0.0000E+00  2.4454E-01  0.0000E+00  4.9124E-02  6.0721E-02
 31  0.0000E+00  1.8323E+00  5.0675E-03  8.1898E-01  5.9459E-01  0.0000E+00  4.4820E-01  2.7836E-01  0.0000E+00
 32  0.0000E+00  2.0640E+00  0.0000E+00  0.0000E+00  6.7750E-02  2.2515E-01  0.0000E+00  2.7477E-02  5.4228E-03
 33  0.0000E+00  3.6397E+00  0.0000E+00  0.0000E+00  0.0000E+00  0.0000E+00  6.2536E-02  0.0000E+00  1.6142E-01
 34  0.0000E+00  5.6029E+00  3.6774E+00  5.3326E-01  8.8324E+00  2.3390E+00  2.1803E+00  0.0000E+00  0.0000E+00
 35  0.0000E+00  9.3293E-03  6.7589E-03  7.9918E-04  0.0000E+00  4.6855E-03  3.1740E-03  0.0000E+00  1.3414E-03
 36  0.0000E+00  3.3244E-03  3.9185E-03  1.0924E-03  0.0000E+00  8.9030E-05  1.2549E-03  0.0000E+00  1.1020E-04
 37  0.0000E+00  3.9992E-03  3.6297E-03  4.3427E-03  1.8849E-03  8.5881E-04  0.0000E+00  3.8660E-04  0.0000E+00
 38  0.0000E+00  1.0040E-02  6.6486E-03  4.6282E-04  7.5200E-03  1.1126E-03  3.8229E-05  7.0955E-04  3.8513E-04
 39  0.0000E+00  1.5840E-02  6.0525E-03  1.3455E-02  0.0000E+00  1.6682E-03  2.6660E-03  3.1262E-04  0.0000E+00
 40  0.0000E+00  1.9085E-02  3.1740E-02  0.0000E+00  0.0000E+00  1.1168E-02  0.0000E+00  1.4612E-03  3.4080E-03
 41  0.0000E+00  3.9527E-02  0.0000E+00  5.6123E-03  0.0000E+00  0.0000E+00  8.3668E-03  1.6130E-03  9.9832E-04
 42  0.0000E+00  7.1514E-02  0.0000E+00  2.3812E-02  3.5920E-02  2.4554E-02  4.0898E-02  1.9678E-02  2.6773E-05
 43  0.0000E+00  1.1616E-01  3.0437E-01  0.0000E+00  1.3270E-01  0.0000E+00  9.0496E-02  4.5230E-02  0.0000E+00
 44  0.0000E+00  1.3847E-01  0.0000E+00  6.4452E-02  1.2336E-01  1.2240E-01  8.9641E-02  2.6968E-03  0.0000E+00
 45  0.0000E+00  2.9245E-01  6.1448E-01  1.5183E-01  1.2784E-01  1.4374E-01  0.0000E+00  3.3400E-02  3.1981E-02
 46  0.0000E+00  8.1123E-01  1.2187E+00  1.2867E+00  1.2691E+00  1.1964E+00  1.1692E+00  9.3003E-01  1.7657E+00
 47  0.0000E+00  1.6985E+00  5.0605E-01  0.0000E+00  3.6070E-01  1.5547E-01  1.0711E+00  0.0000E+00  1.7113E-01
 48  0.0000E+00  1.9638E+00  4.9695E-01  0.0000E+00  5.6824E-01  1.5834E-01  8.1410E-01  0.0000E+00  0.0000E+00
 49  0.0000E+00  5.8756E+00  2.5685E+00  1.6072E+00  5.6143E+00  2.5822E+00  1.0611E+00  2.3941E-01  0.0000E+00
 50  0.0000E+00  7.2085E+00  5.3578E+00  7.8743E-01  9.9677E+00  1.6364E+00  3.3133E+00  0.0000E+00  6.2279E-01
 51  0.0000E+00  4.9037E-03  1.9516E-03  1.1639E-03  9.2875E-04  1.3967E-03  1.1008E-03  0.0000E+00  4.0778E-04
 52  0.0000E+00  2.9566E-03  2.1638E-03  2.8526E-04  1.3167E-03  6.3769E-04  3.6305E-04  0.0000E+00  1.1216E-04
 53  0.0000E+00  6.7264E-03  7.5225E-03  1.9780E-02  1.7535E-02  2.2202E-02  1.5740E-02  5.3324E-03  1.6032E-02
 54  0.0000E+00  1.2531E-01  3.9779E-01  4.0951E-01  2.9539E-01  3.8963E-01  3.7947E-01  3.8641E-01  4.5688E-01
 55  0.0000E+00  2.6889E-02  6.2172E-02  7.2661E-02  6.0854E-02  6.3313E-02  6.7744E-02  5.2385E-02  6.5683E-02
 56  0.0000E+00  3.1525E-02  2.1015E-02  1.9708E-02  4.0588E-03  3.4414E-03  1.1890E-02  0.0000E+00  0.0000E+00
 57  0.0000E+00  3.7253E-02  2.5545E-02  1.9581E-02  6.6694E-02  1.8852E-03  5.4903E-03  1.9457E-03  1.3740E-03
 58  0.0000E+00  5.4840E-02  9.0375E-02  6.4770E-03  8.6459E-03  2.0407E-02  2.6499E-02  0.0000E+00  9.3915E-03
 59  0.0000E+00  1.3384E-01  0.0000E+00  0.0000E+00  2.0840E-01  4.6381E-03  7.3174E-02  5.8223E-02  0.0000E+00
 60  3.7422E+00  2.7435E-01  1.3743E-02  1.4779E-01  6.5967E-02  0.0000E+00  7.2853E-02  1.2995E-01  1.2111E-02
 61  0.0000E+00  1.5274E+01  4.8588E+01  5.3007E+01  3.7124E+01  5.0388E+01  4.8718E+01  4.8787E+01  5.7519E+01
 62  0.0000E+00  9.4276E+00  2.6067E+01  3.0889E+01  2.1195E+01  2.7634E+01  2.8699E+01  2.7011E+01  3.3322E+01
 63  0.0000E+00  1.7543E+00  0.0000E+00  0.0000E+00  2.2906E-01  4.3048E-01  0.0000E+00  5.3724E-03  0.0000E+00
 64  9.0468E+01  4.6074E+00  1.7687E+00  1.0547E+00  3.4337E+00  0.0000E+00  0.0000E+00  1.0131E+01  8.5077E-01
 65  0.0000E+00  8.9239E+00  0.0000E+00  1.5363E+00  1.9271E+00  5.5703E-01  0.0000E+00  0.0000E+00  0.0000E+00
 66  0.0000E+00  1.3238E+01  0.0000E+00  0.0000E+00  2.0845E+00  5.5194E+00  5.0606E+00  1.3045E-01  0.0000E+00

# AV, chi2 & Mass for <> & i_chain = 1 ...  7 solutions
AV      -0.9283     -0.4397     -0.4700     -0.4955     -0.4638     -0.5177     -0.5245     -0.5571     -0.5328
chi2 1.0384E-05  1.7587E-05  1.6083E-05  1.5975E-05  1.6017E-05  1.5906E-05  1.5865E-05  1.5554E-05  1.5676E-05
Mass 5.4826E-14  4.6436E-14  2.5003E-14  2.2736E-14  3.0202E-14  2.3996E-14  2.3964E-14  2.3753E-14  2.1551E-14
-415.65                                  [v0_min (km/s) before EX0s...]
  50.11                                  [vd_min (km/s) before EX0s...]


## Synthetic spectrum (Best Model) ##l_obs f_obs f_syn wei
 3478    [Nl_obs]
 3741.00   -0.12756   0.43430    0.000
 3742.00   -0.20266   0.39955    0.000
 3743.00   -0.23711   0.35371    0.000
 3744.00   -0.10053   0.33004    0.000
 3745.00    0.13570   0.36565    0.028
 3746.00    0.35315   0.44452    0.028
 3747.00    0.56107   0.52473    0.028
 3748.00    0.52020   0.59343    0.028
 3749.00    0.36993   0.65480    0.028
 3750.00    0.51050   0.68628    0.028
 3751.00    0.76086   0.65512    0.028
 3752.00    0.65874   0.57561    0.027
 3753.00    0.44364   0.51535    0.027
 3754.00    0.58761   0.51733    0.027
 3755.00    0.82779   0.55488    0.027
 3756.00    0.91491   0.58463    0.027
 3757.00    0.96844   0.59146    0.026
 3758.00    0.76407   0.58456    0.026
 3759.00    0.51468   0.58173    0.027
 3760.00    0.56389   0.57521    0.037
 3761.00    0.65276   0.54632    0.069
 3762.00    0.61132   0.51852    0.039
 3763.00    0.55763   0.51459    0.025
 3764.00    0.53375   0.51290    0.024
 3765.00    0.51159   0.50810    0.024
 3766.00    0.63735   0.53116    0.025
 3767.00    0.76603   0.58028    0.025
 3768.00    0.82211   0.61770    0.026
 3769.00    0.88142   0.63011    0.026
 3770.00    1.01901   0.63854    0.027
 3771.00    1.15741   0.65936    0.027
 3772.00    1.30656   0.68590    0.027
 3773.00    1.42835   0.71281    0.027
 3774.00    1.31005   0.74606    0.026
 3775.00    1.16252   0.77522    0.025
 3776.00    0.82549   0.78465    0.025
 3777.00    0.53485   0.78466    0.025
 3778.00    0.47903   0.79122    0.025
 3779.00    0.45035   0.78535    0.025
 3780.00    0.53275   0.73572    0.025
 3781.00    0.60493   0.66328    0.026
 3782.00    0.64242   0.61514    0.026
 3783.00    0.66708   0.59497    0.026
 3784.00    0.65505   0.58994    0.026
 3785.00    0.62415   0.60207    0.026
 3786.00    0.54712   0.61776    0.026
 3787.00    0.41753   0.60615    0.026
 3788.00    0.17717   0.56366    0.026
 3789.00    0.15800   0.51642    0.026
 3790.00    0.54397   0.48258    0.026
 3791.00    0.73574   0.45250    0.025
 3792.00    0.61664   0.41621    0.025
 3793.00    0.46624   0.40103    0.025
 3794.00    0.27187   0.43748    0.024
 3795.00    0.25748   0.50933    0.024
 3796.00    0.46555   0.58053    0.024
 3797.00    0.63498   0.64012    0.025
 3798.00    0.76231   0.68612    0.027
 3799.00    0.78485   0.70513    0.027
 3800.00    0.70670   0.69107    0.026
 3801.00    0.63397   0.66249    0.025
 3802.00    0.56583   0.65816    0.025
 3803.00    0.44649   0.69578    0.024
 3804.00    0.28894   0.74756    0.023
 3805.00    0.23191   0.77788    0.023
 3806.00    0.24077   0.76859    0.023
 3807.00    0.38780   0.71920    0.023
 3808.00    0.61410   0.65570    0.024
 3809.00    0.66354   0.61158    0.024
 3810.00    0.62457   0.60011    0.024
 3811.00    0.52229   0.62250    0.025
 3812.00    0.39263   0.65736    0.027
 3813.00    0.53635   0.65940    0.026
 3814.00    0.78146   0.61793    0.024
 3815.00    0.66667   0.58112    0.024
 3816.00    0.43875   0.59057    0.024
 3817.00    0.20396   0.61673    0.024
 3818.00   -0.03264   0.60300    0.000
 3819.00    0.07054   0.55266    0.024
 3820.00    0.24651   0.51219    0.024
 3821.00    0.34735   0.49894    0.024
 3822.00    0.43544   0.49777    0.024
 3823.00    0.42361   0.49787    0.025
 3824.00    0.39896   0.49795    0.025
 3825.00    0.25952   0.48756    0.025
 3826.00    0.10978   0.45240    0.024
 3827.00    0.00344   0.40181    0.026
 3828.00   -0.10057   0.36283    0.000
 3829.00    0.14775   0.34953    0.026
 3830.00    0.39759   0.36003    0.024
 3831.00    0.17954   0.38040    0.024
 3832.00   -0.01744   0.39427    0.000
 3833.00    0.25354   0.40275    0.024
 3834.00    0.51236   0.41808    0.024
 3835.00    0.61996   0.45076    0.025
 3836.00    0.68971   0.50745    0.025
 3837.00    0.43958   0.57251    0.025
 3838.00    0.23748   0.61721    0.025
 3839.00    0.33753   0.63617    0.024
 3840.00    0.43153   0.64415    0.024
 3841.00    0.49573   0.65771    0.023
 3842.00    0.50248   0.67480    0.023
 3843.00    0.27934   0.67159    0.023
 3844.00    0.10739   0.65014    0.023
 3845.00    0.10566   0.65035    0.023
 3846.00    0.15035   0.68234    0.023
 3847.00    0.32538   0.70780    0.000
 3848.00    0.47638   0.70574    0.000
 3849.00    0.56969   0.68868    0.000
 3850.00    0.58066   0.66974    0.000
 3851.00    0.42086   0.65946    0.000
 3852.00    0.22213   0.65248    0.000
 3853.00   -0.04682   0.63080    0.000
 3854.00   -0.11515   0.61202    0.000
 3855.00    0.13290   0.63190    0.000
 3856.00    0.35796   0.68451    0.000
 3857.00    0.55120   0.73145    0.000
 3858.00    0.67168   0.74844    0.000
 3859.00    0.70352   0.74013    0.000
 3860.00    0.72220   0.72573    0.000
 3861.00    0.72675   0.72059    0.000
 3862.00    0.85247   0.72438    0.000
 3863.00    1.09300   0.72450    0.000
 3864.00    1.07801   0.70875    0.000
 3865.00    0.84956   0.67453    0.000
 3866.00    0.69236   0.63344    0.000
 3867.00    0.58758   0.61422    0.000
 3868.00    0.79619   0.64109    0.000
 3869.00    1.20723   0.69408    0.000
 3870.00    1.17954   0.72244    0.000
 3871.00    0.90389   0.69712    0.000
 3872.00    0.80858   0.63636    0.000
 3873.00    0.80198   0.59494    0.000
 3874.00    0.68911   0.60185    0.000
 3875.00    0.53104   0.61654    0.000
 3876.00    0.35881   0.60311    0.000
 3877.00    0.18141   0.58870    0.000
 3878.00    0.19526   0.59379    0.000
 3879.00    0.26807   0.58119    0.000
 3880.00    0.20288   0.52606    0.000
 3881.00    0.10226   0.46590    0.022
 3882.00    0.21331   0.43502    0.022
 3883.00    0.36861   0.42963    0.022
 3884.00    0.31167   0.45276    0.023
 3885.00    0.21974   0.51034    0.023
 3886.00    0.36746   0.57923    0.023
 3887.00    0.54486   0.62716    0.024
 3888.00    0.63022   0.64362    0.024
 3889.00    0.70771   0.64189    0.024
 3890.00    0.46364   0.64697    0.023
 3891.00    0.20356   0.66997    0.023
 3892.00    0.31038   0.68831    0.024
 3893.00    0.42095   0.68487    0.024
 3894.00    0.38528   0.68374    0.024
 3895.00    0.35204   0.71000    0.023
 3896.00    0.36843   0.74046    0.023
 3897.00    0.41744   0.74082    0.023
 3898.00    0.85223   0.72358    0.023
 3899.00    1.19664   0.70553    0.023
 3900.00    0.80466   0.68860    0.023
 3901.00    0.48179   0.69974    0.022
 3902.00    0.58104   0.75109    0.022
 3903.00    0.66803   0.80871    0.022
 3904.00    0.69607   0.84407    0.021
 3905.00    0.76989   0.86171    0.021
 3906.00    1.02297   0.87095    0.021
 3907.00    1.14422   0.86565    0.022
 3908.00    0.83578   0.84829    0.022
 3909.00    0.60406   0.83501    0.022
 3910.00    0.58386   0.82367    0.022
 3911.00    0.64998   0.80617    0.023
 3912.00    0.91994   0.78819    0.023
 3913.00    1.04535   0.76760    0.024
 3914.00    0.87575   0.74022    0.024
 3915.00    0.66135   0.71909    0.024
 3916.00    0.36737   0.71889    0.024
 3917.00    0.33075   0.73649    0.024
 3918.00    0.69400   0.75684    0.025
 3919.00    0.96975   0.76033    0.025
 3920.00    1.12610   0.73610    0.025
 3921.00    1.21342   0.69238    0.025
 3922.00    1.21781   0.63818    0.026
 3923.00    1.09713   0.57815    0.026
 3924.00    0.84399   0.51579    0.025
 3925.00    0.73500   0.45014    0.025
 3926.00    0.76067   0.38092    0.025
 3927.00    0.82170   0.31576    0.025
 3928.00    0.91186   0.27737    0.025
 3929.00    0.93107   0.29124    0.025
 3930.00    0.89885   0.35769    0.025
 3931.00    0.68051   0.44785    0.025
 3932.00    0.34373   0.53232    0.024
 3933.00    0.44665   0.60397    0.024
 3934.00    0.79428   0.66040    0.025
 3935.00    0.94194   0.69000    0.025
 3936.00    0.99279   0.69210    0.025
 3937.00    1.00556   0.67873    0.025
 3938.00    1.00242   0.66730    0.024
 3939.00    0.94888   0.68697    0.024
 3940.00    0.87730   0.74095    0.025
 3941.00    0.70974   0.78067    0.024
 3942.00    0.51317   0.77727    0.024
 3943.00    0.49608   0.76634    0.024
 3944.00    0.52406   0.78143    0.024
 3945.00    0.54875   0.80317    0.024
 3946.00    0.57276   0.80153    0.024
 3947.00    0.60833   0.79309    0.024
 3948.00    0.64573   0.80820    0.024
 3949.00    0.60473   0.82117    0.025
 3950.00    0.55437   0.79391    0.025
 3951.00    0.48949   0.75353    0.025
 3952.00    0.42342   0.74595    0.025
 3953.00    0.59211   0.76042    0.025
 3954.00    0.77158   0.74640    0.025
 3955.00    0.97074   0.68148    0.025
 3956.00    1.16133   0.60213    0.025
 3957.00    0.89087   0.55305    0.025
 3958.00    0.63584   0.52830    0.026
 3959.00    0.67319   0.49274    0.026
 3960.00    0.69263   0.43063    0.000
 3961.00    0.51044   0.35377    0.000
 3962.00    0.38217   0.28548    0.000
 3963.00    0.67777   0.24741    0.000
 3964.00    0.89274   0.25187    0.000
 3965.00    0.62924   0.29532    0.000
 3966.00    0.36731   0.35991    0.000
 3967.00    0.11274   0.42686    0.000
 3968.00   -0.07876   0.49066    0.000
 3969.00   -0.02858   0.55403    0.000
 3970.00    0.10334   0.61157    0.000
 3971.00    0.49651   0.65967    0.000
 3972.00    0.81461   0.70837    0.000
 3973.00    0.92939   0.76218    0.000
 3974.00    0.99753   0.80779    0.000
 3975.00    0.95739   0.82547    0.000
 3976.00    0.90199   0.81477    0.000
 3977.00    0.81594   0.80268    0.000
 3978.00    0.77242   0.81095    0.000
 3979.00    0.80330   0.83585    0.000
 3980.00    0.72965   0.86080    0.000
 3981.00    0.49598   0.88128    0.026
 3982.00    0.58474   0.90460    0.026
 3983.00    1.10712   0.91814    0.026
 3984.00    1.36734   0.91259    0.026
 3985.00    1.31709   0.91270    0.026
 3986.00    1.11613   0.93322    0.026
 3987.00    0.75779   0.95617    0.025
 3988.00    0.72869   0.95961    0.025
 3989.00    1.00282   0.94067    0.025
 3990.00    1.14259   0.91035    0.025
 3991.00    1.17329   0.88055    0.024
 3992.00    1.13293   0.87314    0.024
 3993.00    1.04179   0.90812    0.024
 3994.00    0.97524   0.96377    0.024
 3995.00    0.92409   0.99845    0.024
 3996.00    0.82292   1.00998    0.024
 3997.00    0.69434   1.01132    0.024
 3998.00    0.75112   0.98118    0.024
 3999.00    0.89619   0.91158    0.024
 4000.00    1.11546   0.86120    0.024
 4001.00    1.36523   0.88296    0.024
 4002.00    1.15436   0.94599    0.024
 4003.00    0.78169   0.99211    0.024
 4004.00    0.76923   1.00832    0.024
 4005.00    0.86350   1.01057    0.024
 4006.00    1.10111   1.00898    0.024
 4007.00    1.37394   1.00827    0.025
 4008.00    1.03108   1.01260    0.025
 4009.00    0.56580   1.02253    0.024
 4010.00    0.53293   1.02893    0.024
 4011.00    0.56725   1.02085    0.025
 4012.00    0.85653   1.01579    0.025
 4013.00    1.17511   1.03560    0.025
 4014.00    0.97752   1.05797    0.025
 4015.00    0.74002   1.05448    0.025
 4016.00    0.63299   1.03537    0.025
 4017.00    0.53147   1.01655    0.025
 4018.00    0.85401   0.99659    0.025
 4019.00    1.17333   0.98776    0.026
 4020.00    1.18154   1.01188    0.026
 4021.00    1.19412   1.05468    0.026
 4022.00    1.28360   1.07735    0.026
 4023.00    1.36421   1.05266    0.026
 4024.00    1.34935   0.97757    0.026
 4025.00    1.29629   0.89183    0.026
 4026.00    0.95315   0.84425    0.025
 4027.00    0.65666   0.83743    0.025
 4028.00    0.62925   0.85664    0.025
 4029.00    0.59494   0.90143    0.025
 4030.00    0.52901   0.96889    0.025
 4031.00    0.60206   1.04021    0.025
 4032.00    1.19648   1.08559    0.025
 4033.00    1.55825   1.08781    0.025
 4034.00    1.19068   1.05804    0.024
 4035.00    0.93981   1.03001    0.024
 4036.00    0.99940   1.02644    0.024
 4037.00    1.02827   1.01701    0.024
 4038.00    0.98698   0.95133    0.024
 4039.00    0.92088   0.84547    0.024
 4040.00    0.80571   0.78878    0.025
 4041.00    0.83322   0.83710    0.025
 4042.00    1.10652   0.93564    0.024
 4043.00    1.20534   1.00438    0.024
 4044.00    1.04096   1.03522    0.024
 4045.00    0.83198   1.04577    0.024
 4046.00    0.56388   1.03380    0.024
 4047.00    0.55616   1.00372    0.024
 4048.00    0.85243   0.97100    0.024
 4049.00    1.00000   0.94829    0.024
 4050.00    0.99447   0.93912    0.024
 4051.00    1.00292   0.92893    0.024
 4052.00    1.02406   0.91672    0.024
 4053.00    1.03735   0.93061    0.024
 4054.00    1.04435   0.97057    0.024
 4055.00    1.04508   0.98882    0.024
 4056.00    1.04138   0.94469    0.024
 4057.00    1.11402   0.86177    0.024
 4058.00    1.23381   0.81916    0.024
 4059.00    1.28162   0.85324    0.024
 4060.00    1.29060   0.90375    0.024
 4061.00    1.28728   0.92177    0.024
 4062.00    1.27819   0.94120    0.024
 4063.00    1.08977   0.98079    0.024
 4064.00    0.82888   0.98727    0.024
 4065.00    0.85152   0.93317    0.024
 4066.00    0.97191   0.88475    0.024
 4067.00    0.92692   0.90410    0.024
 4068.00    0.83391   0.95060    0.024
 4069.00    0.83435   0.94951    0.024
 4070.00    0.85724   0.88761    0.024
 4071.00    1.00321   0.81257    0.025
 4072.00    1.17302   0.78852    0.025
 4073.00    1.32862   0.83708    0.025
 4074.00    1.48207   0.92170    0.025
 4075.00    1.51231   0.99134    0.025
 4076.00    1.52893   1.01218    0.025
 4077.00    1.15241   0.98533    0.025
 4078.00    0.74710   0.94520    0.024
 4079.00    0.70066   0.92356    0.024
 4080.00    0.66797   0.93263    0.025
 4081.00    0.78307   0.97013    0.025
 4082.00    0.90126   1.01399    0.025
 4083.00    1.10495   1.03367    0.025
 4084.00    1.30303   1.02045    0.025
 4085.00    1.40854   0.99052    0.025
 4086.00    1.46214   0.96250    0.025
 4087.00    0.98166   0.94784    0.025
 4088.00    0.57479   0.93625    0.025
 4089.00    0.70802   0.89925    0.025
 4090.00    0.82277   0.84174    0.025
 4091.00    0.83378   0.79786    0.025
 4092.00    0.87183   0.77439    0.000
 4093.00    1.03089   0.74659    0.000
 4094.00    1.12325   0.69178    0.000
 4095.00    0.97065   0.62240    0.000
 4096.00    0.83506   0.58949    0.000
 4097.00    0.75175   0.62153    0.000
 4098.00    0.72327   0.69035    0.000
 4099.00    0.83813   0.76111    0.000
 4100.00    0.87025   0.81992    0.000
 4101.00    0.71654   0.85557    0.000
 4102.00    0.60346   0.86518    0.000
 4103.00    0.56944   0.85883    0.000
 4104.00    0.56492   0.84974    0.000
 4105.00    0.61046   0.85109    0.000
 4106.00    0.73644   0.86957    0.000
 4107.00    0.98201   0.90215    0.000
 4108.00    1.09714   0.93641    0.000
 4109.00    1.04184   0.96190    0.000
 4110.00    0.96013   0.97771    0.000
 4111.00    0.84802   0.97433    0.000
 4112.00    0.88443   0.94278    0.000
 4113.00    1.07160   0.91040    0.023
 4114.00    1.16640   0.91115    0.023
 4115.00    1.17850   0.92836    0.023
 4116.00    1.12933   0.93125    0.023
 4117.00    1.03182   0.92972    0.022
 4118.00    1.01195   0.94682    0.022
 4119.00    1.04597   0.97180    0.022
 4120.00    0.96543   0.97437    0.033
 4121.00    0.81520   0.95017    0.128
 4122.00    0.84305   0.92283   -1.000
 4123.00    0.96551   0.91105   -1.000
 4124.00    1.12166   0.90597   -1.000
 4125.00    1.29336   0.88556   -1.000
 4126.00    1.14245   0.85151   -1.000
 4127.00    0.86344   0.83649   -1.000
 4128.00    0.78585   0.85968    0.060
 4129.00    0.77642   0.91185    0.026
 4130.00    0.95384   0.96528    0.023
 4131.00    1.18441   0.99310    0.023
 4132.00    1.20446   1.00612    0.023
 4133.00    1.17510   1.02307    0.023
 4134.00    1.03163   1.03207    0.023
 4135.00    0.86662   1.00860    0.023
 4136.00    0.79583   0.93966    0.023
 4137.00    0.73881   0.85428    0.023
 4138.00    0.78490   0.82065    0.023
 4139.00    0.84194   0.86337    0.023
 4140.00    0.91767   0.92954    0.023
 4141.00    0.99470   0.96693    0.023
 4142.00    1.05302   0.96840    0.024
 4143.00    1.11070   0.94707    0.024
 4144.00    1.06008   0.92585    0.024
 4145.00    1.01274   0.92182    0.024
 4146.00    1.08105   0.92484    0.024
 4147.00    1.15265   0.91827    0.024
 4148.00    1.27525   0.90127    0.024
 4149.00    1.36841   0.88778    0.024
 4150.00    1.17149   0.88575    0.024
 4151.00    1.00249   0.89665    0.024
 4152.00    1.03172   0.92497    0.024
 4153.00    1.03762   0.95878    0.025
 4154.00    0.91621   0.97740    0.024
 4155.00    0.86153   0.98355    0.024
 4156.00    1.09847   0.99810    0.024
 4157.00    1.21253   1.01631    0.024
 4158.00    0.88464   1.01646    0.023
 4159.00    0.67457   1.00088    0.023
 4160.00    0.82005   0.97818    0.023
 4161.00    1.01428   0.95382    0.023
 4162.00    1.33373   0.94961    0.024
 4163.00    1.49113   0.97002    0.024
 4164.00    1.29057   0.97652    0.024
 4165.00    1.18327   0.93677    0.023
 4166.00    1.25463   0.86838    0.024
 4167.00    1.20626   0.82376    0.024
 4168.00    0.95780   0.83140    0.023
 4169.00    0.86729   0.86566    0.023
 4170.00    1.00818   0.88502    0.023
 4171.00    1.08025   0.87818    0.023
 4172.00    1.06368   0.86940    0.023
 4173.00    1.02656   0.88454    0.024
 4174.00    0.96612   0.91231    0.024
 4175.00    0.90790   0.92081    0.024
 4176.00    0.85189   0.91060    0.023
 4177.00    0.90553   0.91177    0.023
 4178.00    1.05594   0.93583    0.023
 4179.00    1.05961   0.96078    0.023
 4180.00    0.94916   0.95031    0.023
 4181.00    0.76169   0.90684    0.023
 4182.00    0.52156   0.88797    0.022
 4183.00    0.66654   0.91802    0.022
 4184.00    1.04235   0.95093    0.023
 4185.00    1.17210   0.95790    0.023
 4186.00    1.17315   0.96944    0.022
 4187.00    1.14541   0.99929    0.022
 4188.00    1.10461   1.00582    0.022
 4189.00    1.05213   0.96508    0.022
 4190.00    0.99509   0.90931    0.022
 4191.00    0.84869   0.86843    0.022
 4192.00    0.67262   0.84302    0.022
 4193.00    0.70529   0.83996    0.022
 4194.00    0.79614   0.85851    0.022
 4195.00    0.85861   0.86813    0.022
 4196.00    0.91457   0.86406    0.022
 4197.00    0.79901   0.87556    0.022
 4198.00    0.65194   0.90334    0.022
 4199.00    0.65178   0.93088    0.022
 4200.00    0.67240   0.95968    0.022
 4201.00    0.91096   0.98803    0.021
 4202.00    1.17174   1.00173    0.021
 4203.00    1.14726   0.99278    0.021
 4204.00    1.10419   0.97723    0.021
 4205.00    0.97916   0.98143    0.021
 4206.00    0.85191   1.00057    0.021
 4207.00    0.91653   0.99995    0.021
 4208.00    0.97915   0.95903    0.021
 4209.00    0.98294   0.90072    0.022
 4210.00    0.99015   0.88347    0.022
 4211.00    1.04733   0.93213    0.022
 4212.00    1.07922   0.99828    0.022
 4213.00    0.87200   1.03449    0.022
 4214.00    0.70735   1.04543    0.022
 4215.00    0.83532   1.04169    0.022
 4216.00    0.98219   1.01214    0.021
 4217.00    1.22945   0.95440    0.022
 4218.00    1.33563   0.87762    0.022
 4219.00    0.83921   0.78527    0.022
 4220.00    0.46022   0.69967    0.021
 4221.00    0.49495   0.68094    0.021
 4222.00    0.60610   0.76169    0.021
 4223.00    0.94358   0.88574    0.022
 4224.00    1.13661   0.97745    0.022
 4225.00    0.96514   1.01157    0.022
 4226.00    0.83394   0.98998    0.022
 4227.00    0.79026   0.94196    0.021
 4228.00    0.89035   0.91319    0.021
 4229.00    1.26155   0.90434    0.021
 4230.00    1.32181   0.89730    0.021
 4231.00    0.87015   0.90188    0.021
 4232.00    0.65897   0.91549    0.020
 4233.00    0.79492   0.92581    0.020
 4234.00    0.89438   0.94551    0.021
 4235.00    0.94751   0.97919    0.021
 4236.00    1.01494   1.00540    0.021
 4237.00    1.09836   1.02376    0.021
 4238.00    1.08075   1.04839    0.021
 4239.00    0.96344   1.05682    0.021
 4240.00    0.79566   1.02419    0.021
 4241.00    0.58393   0.97213    0.020
 4242.00    0.61971   0.93468    0.021
 4243.00    0.84523   0.90914    0.021
 4244.00    0.99543   0.88449    0.021
 4245.00    1.09487   0.88539    0.022
 4246.00    1.10391   0.91687    0.022
 4247.00    1.05957   0.93010    0.022
 4248.00    1.13982   0.90842    0.023
 4249.00    1.28422   0.90291    0.023
 4250.00    1.18924   0.94352    0.023
 4251.00    0.98745   0.98486    0.022
 4252.00    0.88107   0.97207    0.022
 4253.00    0.81125   0.91316    0.022
 4254.00    0.62972   0.85951    0.022
 4255.00    0.41178   0.85957    0.022
 4256.00    0.59002   0.92187    0.022
 4257.00    0.87641   1.00108    0.022
 4258.00    1.11084   1.05223    0.022
 4259.00    1.33361   1.07359    0.022
 4260.00    1.32268   1.07275    0.022
 4261.00    1.26995   1.04502    0.023
 4262.00    1.33620   0.99968    0.023
 4263.00    1.41872   0.94848    0.023
 4264.00    1.32417   0.88156    0.023
 4265.00    1.21231   0.80632    0.022
 4266.00    0.99893   0.76957    0.022
 4267.00    0.77934   0.78584    0.022
 4268.00    0.80647   0.81388    0.022
 4269.00    0.84041   0.84509    0.021
 4270.00    0.90281   0.90423    0.021
 4271.00    0.95916   0.97484    0.021
 4272.00    0.85556   1.01523    0.021
 4273.00    0.75180   1.00774    0.021
 4274.00    0.64594   0.97193    0.021
 4275.00    0.56344   0.94560    0.021
 4276.00    0.69313   0.94120    0.021
 4277.00    0.83085   0.94749    0.021
 4278.00    1.02207   0.95063    0.022
 4279.00    1.20314   0.93998    0.022
 4280.00    1.33166   0.92544    0.022
 4281.00    1.38681   0.91343    0.021
 4282.00    1.13559   0.88059   -2.000
 4283.00    0.88005   0.82003   -2.000
 4284.00    0.60962   0.78139   -2.000
 4285.00    0.42152   0.81068   -2.000
 4286.00    0.47274   0.88046   -2.000
 4287.00    0.56986   0.92491   -2.000
 4288.00    0.78086   0.92165   -2.000
 4289.00    0.95419   0.90481   -2.000
 4290.00    1.04697   0.89275   -2.000
 4291.00    1.10482   0.86668   -2.000
 4292.00    1.09783   0.81163   -2.000
 4293.00    1.03469   0.74188   -2.000
 4294.00    0.88046   0.70050   -2.000
 4295.00    0.69139   0.70460   -2.000
 4296.00    0.45275   0.72326   -2.000
 4297.00    0.41454   0.74076   -2.000
 4298.00    0.62718   0.76081    0.021
 4299.00    0.75594   0.76756    0.021
 4300.00    0.79217   0.74819    0.021
 4301.00    0.80178   0.70991    0.021
 4302.00    0.78546   0.67705    0.021
 4303.00    0.68588   0.68224    0.021
 4304.00    0.51484   0.72925    0.021
 4305.00    0.51417   0.78866    0.021
 4306.00    0.64222   0.83240    0.021
 4307.00    0.68174   0.85476    0.021
 4308.00    0.66245   0.87532    0.020
 4309.00    0.77889   0.92961    0.020
 4310.00    0.97426   1.01722    0.020
 4311.00    1.07042   1.08257    0.020
 4312.00    1.11630   1.09340    0.020
 4313.00    0.99460   1.07084    0.020
 4314.00    0.79937   1.03910    0.020
 4315.00    0.80560   1.00903    0.020
 4316.00    0.88772   0.97746    0.020
 4317.00    1.00923   0.91868    0.020
 4318.00    1.14332   0.82651    0.020
 4319.00    1.19646   0.74529    0.020
 4320.00    1.22796   0.73966    0.020
 4321.00    1.07669   0.82619    0.021
 4322.00    0.88541   0.93773    0.021
 4323.00    0.73204   0.99476    0.020
 4324.00    0.58527   0.98886    0.020
 4325.00    0.81117   0.96998    0.020
 4326.00    1.08637   0.96946    0.021
 4327.00    1.06647   0.97748    0.021
 4328.00    1.01899   0.98406    0.021
 4329.00    0.94748   0.97595    0.020
 4330.00    0.87461   0.92100    0.000
 4331.00    0.96570   0.81696    0.000
 4332.00    1.05884   0.71286    0.000
 4333.00    0.94948   0.64099    0.000
 4334.00    0.84365   0.60790    0.000
 4335.00    0.82274   0.63513    0.000
 4336.00    0.81331   0.71220    0.000
 4337.00    0.95319   0.78268    0.000
 4338.00    1.09715   0.82797    0.000
 4339.00    1.27676   0.86980    0.000
 4340.00    1.42332   0.90569    0.000
 4341.00    1.35637   0.93256    0.000
 4342.00    1.27680   0.96712    0.000
 4343.00    1.13359   0.99188    0.000
 4344.00    1.02480   0.95692    0.000
 4345.00    1.05648   0.87035    0.000
 4346.00    1.10453   0.81669    0.000
 4347.00    1.20799   0.84322    0.000
 4348.00    1.24967   0.90496    0.000
 4349.00    1.11502   0.95482    0.000
 4350.00    1.04493   0.99240    0.000
 4351.00    1.13219   1.01026    0.020
 4352.00    1.11133   0.99276    0.020
 4353.00    0.86303   0.96736    0.020
 4354.00    0.80156   0.97882    0.020
 4355.00    1.08163   1.02045    0.020
 4356.00    1.23210   1.05249    0.025
 4357.00    1.17550   1.06900    0.067
 4358.00    1.18717   1.09014   -1.000
 4359.00    1.29456   1.10450   -1.000
 4360.00    1.26814   1.08071   -1.000
 4361.00    1.07664   1.02783   -1.000
 4362.00    1.05877   0.99035   -1.000
 4363.00    1.22974   0.98698   -1.000
 4364.00    1.28527   0.99987    0.079
 4365.00    1.23007   1.01255    0.027
 4366.00    1.20718   1.00995    0.021
 4367.00    1.21161   0.97343    0.021
 4368.00    1.04809   0.91549    0.021
 4369.00    0.75946   0.88813    0.021
 4370.00    0.78791   0.92496    0.021
 4371.00    1.02383   0.99618    0.021
 4372.00    1.07713   1.04369    0.021
 4373.00    1.02583   1.04479    0.021
 4374.00    0.94203   1.01672    0.021
 4375.00    0.84201   0.96565    0.021
 4376.00    0.94178   0.87224    0.021
 4377.00    1.12777   0.75790    0.021
 4378.00    1.09358   0.70534    0.021
 4379.00    0.97793   0.75756    0.021
 4380.00    1.01857   0.85757    0.021
 4381.00    1.10821   0.92501    0.021
 4382.00    0.95774   0.94229    0.021
 4383.00    0.74447   0.93602    0.021
 4384.00    0.80830   0.93031    0.021
 4385.00    0.93132   0.94129    0.020
 4386.00    0.99003   0.96477    0.020
 4387.00    1.03786   0.97275    0.020
 4388.00    1.00043   0.95737    0.020
 4389.00    0.95210   0.95630    0.020
 4390.00    0.73449   0.99836    0.020
 4391.00    0.50178   1.04804    0.020
 4392.00    0.65413   1.05193    0.021
 4393.00    0.82699   1.00742    0.021
 4394.00    0.81907   0.95949    0.020
 4395.00    0.80975   0.95422    0.020
 4396.00    0.97449   0.97396    0.020
 4397.00    1.12933   0.94976    0.020
 4398.00    1.06659   0.88041    0.020
 4399.00    0.99702   0.84633    0.021
 4400.00    0.84307   0.87347    0.021
 4401.00    0.72298   0.90560    0.021
 4402.00    0.88775   0.92267    0.021
 4403.00    1.04384   0.95962    0.021
 4404.00    1.14549   1.01911    0.022
 4405.00    1.16677   1.06813    0.022
 4406.00    0.79274   1.08597    0.023
 4407.00    0.47009   1.05697    0.025
 4408.00    0.35250   0.98140    0.028
 4409.00    0.36767   0.91347    0.030
 4410.00    0.82311   0.90749    0.030
 4411.00    1.04722   0.95195    0.030
 4412.00    0.62322   1.01169    0.030
 4413.00    0.43136   1.06299    0.029
 4414.00    0.79587   1.07839    0.023
 4415.00    0.98029   1.04641    0.021
 4416.00    0.79196   0.99926    0.021
 4417.00    0.75052   0.98228    0.021
 4418.00    0.97353   0.99710    0.021
 4419.00    1.03392   1.01085    0.021
 4420.00    0.83833   1.01173    0.020
 4421.00    0.82069   1.01432    0.020
 4422.00    1.04896   1.02118    0.021
 4423.00    1.17220   1.01345    0.021
 4424.00    1.16769   0.99511    0.020
 4425.00    1.19989   0.99576    0.021
 4426.00    1.27145   1.00484    0.021
 4427.00    1.25806   0.98249    0.021
 4428.00    1.16435   0.93272    0.021
 4429.00    0.92135   0.90560    0.020
 4430.00    0.55385   0.93809    0.020
 4431.00    0.52266   1.01219    0.020
 4432.00    0.73838   1.07854    0.020
 4433.00    0.85390   1.10133    0.020
 4434.00    0.90480   1.07052    0.021
 4435.00    1.03829   1.00450    0.021
 4436.00    1.21835   0.94337    0.021
 4437.00    1.08115   0.92718    0.021
 4438.00    0.78820   0.96939    0.021
 4439.00    0.85987   1.03598    0.021
 4440.00    1.08625   1.07396    0.021
 4441.00    0.92053   1.07661    0.021
 4442.00    0.61230   1.07327    0.021
 4443.00    0.54952   1.06655    0.021
 4444.00    0.56223   1.05152    0.020
 4445.00    0.85780   1.04396    0.020
 4446.00    1.22580   1.03762    0.020
 4447.00    1.18752   1.00290    0.020
 4448.00    1.06456   0.94146    0.020
 4449.00    0.96555   0.89729    0.020
 4450.00    0.87047   0.89825    0.020
 4451.00    1.00416   0.91723    0.020
 4452.00    1.16604   0.92086    0.020
 4453.00    1.09019   0.91223    0.020
 4454.00    0.99412   0.90097    0.020
 4455.00    0.90526   0.89286    0.019
 4456.00    0.81675   0.91221    0.019
 4457.00    0.92919   0.96253    0.019
 4458.00    1.04223   1.00127    0.020
 4459.00    0.99244   1.00649    0.020
 4460.00    0.94096   0.99859    0.020
 4461.00    0.85546   0.98999    0.000
 4462.00    0.77932   0.97532    0.000
 4463.00    0.81329   0.96316    0.000
 4464.00    0.87184   0.97426    0.000
 4465.00    1.12976   1.00884    0.000
 4466.00    1.31642   1.05040    0.000
 4467.00    1.06934   1.08391    0.000
 4468.00    0.86869   1.09754    0.000
 4469.00    0.89075   1.09735    0.000
 4470.00    0.96302   1.10740    0.000
 4471.00    1.23142   1.12606    0.000
 4472.00    1.40765   1.11592    0.000
 4473.00    1.28417   1.05705    0.000
 4474.00    1.16465   0.97795    0.000
 4475.00    1.05607   0.92953    0.000
 4476.00    0.98846   0.94348    0.000
 4477.00    1.01742   1.00672    0.000
 4478.00    1.02247   1.07514    0.000
 4479.00    0.97881   1.11731    0.000
 4480.00    0.93481   1.12477    0.000
 4481.00    0.89019   1.09467    0.000
 4482.00    0.84597   1.03899    0.018
 4483.00    0.80236   0.99312    0.019
 4484.00    0.86618   0.98912    0.019
 4485.00    1.07632   1.02206    0.019
 4486.00    1.14108   1.05118    0.019
 4487.00    1.03151   1.04014    0.019
 4488.00    0.95922   1.00051    0.019
 4489.00    0.92633   0.97734    0.019
 4490.00    1.05480   0.99211    0.019
 4491.00    1.33376   1.03239    0.019
 4492.00    1.30200   1.07363    0.019
 4493.00    1.01479   1.09094    0.019
 4494.00    0.95946   1.07720    0.019
 4495.00    1.07190   1.06238    0.019
 4496.00    1.14275   1.08799    0.019
 4497.00    1.18719   1.14394    0.019
 4498.00    1.16771   1.18070    0.019
 4499.00    1.11272   1.17818    0.019
 4500.00    1.05411   1.15199    0.019
 4501.00    0.99374   1.12447    0.019
 4502.00    0.91846   1.11369    0.019
 4503.00    0.83697   1.12412    0.019
 4504.00    0.98724   1.13872    0.019
 4505.00    1.22023   1.13374    0.019
 4506.00    1.32975   1.10622    0.018
 4507.00    1.40203   1.07405    0.018
 4508.00    1.33490   1.05459    0.018
 4509.00    1.23285   1.05431    0.018
 4510.00    1.21550   1.06186    0.018
 4511.00    1.21538   1.06146    0.018
 4512.00    1.15966   1.06170    0.018
 4513.00    1.09508   1.07745    0.018
 4514.00    1.09192   1.09828    0.019
 4515.00    1.09606   1.09887    0.019
 4516.00    1.10636   1.07221    0.019
 4517.00    1.11716   1.04351    0.019
 4518.00    1.18754   1.02526    0.018
 4519.00    1.26062   0.99916    0.018
 4520.00    1.21613   0.96014    0.018
 4521.00    1.16887   0.92276    0.019
 4522.00    1.05386   0.90163    0.018
 4523.00    0.95199   0.90515    0.018
 4524.00    1.09692   0.92912    0.018
 4525.00    1.22407   0.95856    0.018
 4526.00    1.15198   0.97201    0.018
 4527.00    1.08307   0.95349    0.018
 4528.00    1.03910   0.92500    0.018
 4529.00    0.98834   0.93403    0.018
 4530.00    0.89751   0.99728    0.018
 4531.00    0.84118   1.07105    0.018
 4532.00    0.94635   1.09732    0.018
 4533.00    1.07688   1.07240    0.018
 4534.00    1.30436   1.03685    0.018
 4535.00    1.40806   1.02708    0.019
 4536.00    1.11711   1.04530    0.018
 4537.00    0.90981   1.05851    0.018
 4538.00    0.92856   1.04537    0.018
 4539.00    0.98364   1.02744    0.018
 4540.00    1.12287   1.02492    0.018
 4541.00    1.20244   1.02082    0.018
 4542.00    1.16241   0.99605    0.018
 4543.00    1.12807   0.97198    0.018
 4544.00    1.10366   0.98188    0.018
 4545.00    1.06733   1.00840    0.018
 4546.00    1.01278   1.01081    0.018
 4547.00    0.94941   0.98718    0.018
 4548.00    0.87423   0.96405    0.018
 4549.00    0.89162   0.96912    0.018
 4550.00    1.01847   1.00992    0.000
 4551.00    1.06170   1.06022    0.000
 4552.00    1.01778   1.09013    0.000
 4553.00    1.05618   1.09891    0.000
 4554.00    1.17025   1.10167    0.000
 4555.00    1.24202   1.10169    0.000
 4556.00    1.27950   1.08324    0.000
 4557.00    1.20919   1.04090    0.000
 4558.00    1.06202   1.00328    0.000
 4559.00    1.03089   1.00336    0.000
 4560.00    1.07238   1.04321    0.000
 4561.00    1.12692   1.09206    0.000
 4562.00    1.18860   1.11567    0.000
 4563.00    1.13073   1.10505    0.000
 4564.00    1.01604   1.06778    0.000
 4565.00    0.96024   1.03210    0.000
 4566.00    0.92858   1.03860    0.000
 4567.00    0.94387   1.07650    0.000
 4568.00    0.97560   1.09732    0.000
 4569.00    0.96264   1.09410    0.000
 4570.00    0.93648   1.08807    0.000
 4571.00    1.05769   1.07825    0.000
 4572.00    1.21499   1.05040    0.000
 4573.00    1.10203   1.00883    0.000
 4574.00    0.93552   0.97982    0.000
 4575.00    0.89804   0.97981    0.000
 4576.00    0.88054   0.99317    0.000
 4577.00    0.84902   0.99785    0.000
 4578.00    0.81590   0.99476    0.000
 4579.00    0.97315   0.99536    0.000
 4580.00    1.14502   1.00948    0.000
 4581.00    1.13093   1.03985    0.000
 4582.00    1.10910   1.07097    0.000
 4583.00    1.05190   1.08117    0.000
 4584.00    0.99774   1.06323    0.000
 4585.00    1.08695   1.03143    0.000
 4586.00    1.16955   1.00971    0.000
 4587.00    1.13678   1.00496    0.000
 4588.00    1.10283   1.00410    0.000
 4589.00    1.05618   1.00215    0.000
 4590.00    1.00273   1.00543    0.000
 4591.00    0.89794   1.01463    0.000
 4592.00    0.79828   1.02419    0.000
 4593.00    0.72804   1.02334    0.000
 4594.00    0.66102   1.01305    0.000
 4595.00    0.60870   1.01204    0.000
 4596.00    0.59817   1.02141    0.000
 4597.00    0.74397   1.02500    0.000
 4598.00    0.87325   1.01916    0.000
 4599.00    0.95083   1.01749    0.000
 4600.00    1.00947   1.03653    0.000
 4601.00    1.01785   1.07724    0.000
 4602.00    1.01697   1.11909    0.000
 4603.00    0.99497   1.13430    0.000
 4604.00    1.03209   1.11707    0.000
 4605.00    1.18587   1.08881    0.000
 4606.00    1.27235   1.06902    0.000
 4607.00    1.24313   1.06576    0.000
 4608.00    1.21679   1.07762    0.000
 4609.00    1.19481   1.08864    0.000
 4610.00    1.17894   1.09106    0.000
 4611.00    1.17118   1.08812    0.000
 4612.00    1.11899   1.07606    0.000
 4613.00    1.01502   1.06662    0.000
 4614.00    0.99666   1.07780    0.000
 4615.00    1.06630   1.09517    0.000
 4616.00    1.01942   1.10027    0.000
 4617.00    0.86690   1.09773    0.000
 4618.00    0.77472   1.08977    0.000
 4619.00    0.73075   1.07757    0.000
 4620.00    0.75958   1.07268    0.000
 4621.00    0.83956   1.07312    0.000
 4622.00    0.92257   1.06540    0.000
 4623.00    1.00745   1.05954    0.000
 4624.00    1.00392   1.07347    0.000
 4625.00    0.95277   1.08858    0.000
 4626.00    1.02898   1.07676    0.000
 4627.00    1.16475   1.05035    0.000
 4628.00    1.22997   1.03666    0.000
 4629.00    1.26674   1.03464    0.000
 4630.00    1.23718   1.02689    0.000
 4631.00    1.18479   1.01031    0.000
 4632.00    1.18185   0.99609    0.000
 4633.00    1.19322   0.99296    0.000
 4634.00    1.04147   1.00715    0.000
 4635.00    0.85065   1.03241    0.000
 4636.00    0.88302   1.04430    0.000
 4637.00    0.95849   1.03191    0.000
 4638.00    0.88610   1.00309    0.000
 4639.00    0.79151   0.96327    0.000
 4640.00    0.99752   0.92653    0.000
 4641.00    1.23661   0.91691    0.000
 4642.00    1.21050   0.93991    0.000
 4643.00    1.16510   0.97933    0.000
 4644.00    1.01304   1.01540    0.000
 4645.00    0.85696   1.03814    0.000
 4646.00    0.85924   1.04513    0.000
 4647.00    0.86586   1.03086    0.000
 4648.00    1.00340   1.00109    0.000
 4649.00    1.13717   0.98035    0.000
 4650.00    1.20936   0.98814    0.000
 4651.00    1.26847   1.02710    0.000
 4652.00    1.19365   1.07943    0.000
 4653.00    1.10947   1.11342    0.000
 4654.00    0.95686   1.10990    0.000
 4655.00    0.85103   1.07608    0.000
 4656.00    1.00673   1.03547    0.000
 4657.00    1.14210   1.00861    0.000
 4658.00    1.18671   0.99139    0.000
 4659.00    1.22423   0.95626    0.000
 4660.00    1.23575   0.89867    0.000
 4661.00    1.18852   0.86041    0.000
 4662.00    0.96105   0.87663    0.000
 4663.00    0.80476   0.93138    0.000
 4664.00    0.83413   0.98511    0.000
 4665.00    0.91348   1.01249    0.000
 4666.00    1.10485   1.01309    0.000
 4667.00    1.18558   1.00628    0.000
 4668.00    1.05144   1.01221    0.000
 4669.00    0.94020   1.03279    0.000
 4670.00    0.86775   1.04708    0.000
 4671.00    0.90106   1.03449    0.000
 4672.00    1.09129   1.00334    0.000
 4673.00    1.20704   0.97659    0.000
 4674.00    1.22563   0.96375    0.000
 4675.00    1.18736   0.96631    0.000
 4676.00    1.08374   0.98538    0.000
 4677.00    1.02018   1.00962    0.000
 4678.00    0.99721   1.02258    0.000
 4679.00    1.00929   1.02303    0.000
 4680.00    1.05269   1.01664    0.000
 4681.00    1.10368   1.00779    0.000
 4682.00    1.16065   1.00342    0.000
 4683.00    1.16960   1.00226    0.000
 4684.00    1.14531   0.99665    0.000
 4685.00    1.06395   0.99180    0.000
 4686.00    0.94792   0.99745    0.000
 4687.00    0.96281   1.01229    0.000
 4688.00    1.04713   1.03148    0.000
 4689.00    1.09993   1.04659    0.000
 4690.00    1.13823   1.04084    0.000
 4691.00    1.06762   1.00851    0.000
 4692.00    0.95386   0.97230    0.000
 4693.00    0.95928   0.95752    0.000
 4694.00    1.00492   0.95685    0.000
 4695.00    1.04318   0.94887    0.000
 4696.00    1.07934   0.93667    0.000
 4697.00    1.03336   0.94192    0.000
 4698.00    0.96814   0.96561    0.000
 4699.00    1.09051   0.98042    0.000
 4700.00    1.24816   0.97016    0.000
 4701.00    1.13503   0.94990    0.000
 4702.00    0.98252   0.94197    0.000
 4703.00    0.99522   0.95647    0.000
 4704.00    1.02540   0.98783    0.000
 4705.00    1.06495   1.01198    0.000
 4706.00    1.10514   1.00723    0.000
 4707.00    1.10078   0.98120    0.000
 4708.00    1.09490   0.96576    0.000
 4709.00    1.03078   0.98352    0.000
 4710.00    0.96829   1.01994    0.000
 4711.00    0.96203   1.04860    0.000
 4712.00    0.96399   1.06674    0.000
 4713.00    1.09193   1.07928    0.000
 4714.00    1.19910   1.08031    0.000
 4715.00    1.10266   1.06844    0.000
 4716.00    1.02384   1.05830    0.000
 4717.00    1.06959   1.06436    0.000
 4718.00    1.09097   1.07718    0.000
 4719.00    0.97970   1.06860    0.000
 4720.00    0.86036   1.02501    0.000
 4721.00    0.70588   0.96902    0.000
 4722.00    0.61515   0.93547    0.000
 4723.00    0.75318   0.93169    0.000
 4724.00    0.90349   0.94358    0.000
 4725.00    1.09074   0.96334    0.000
 4726.00    1.18718   0.98639    0.000
 4727.00    1.05088   1.00458    0.000
 4728.00    0.97926   1.01214    0.000
 4729.00    1.05020   1.00403    0.000
 4730.00    1.06771   0.99186    0.000
 4731.00    0.98308   1.00183    0.000
 4732.00    0.92530   1.02636    0.000
 4733.00    0.91231   1.03320    0.000
 4734.00    0.92729   1.02242    0.000
 4735.00    0.98315   1.01883    0.000
 4736.00    1.03760   1.02840    0.000
 4737.00    1.09024   1.03566    0.000
 4738.00    1.15036   1.03444    0.000
 4739.00    1.21894   1.03757    0.000
 4740.00    1.28013   1.04844    0.000
 4741.00    1.33394   1.05400    0.000
 4742.00    1.31203   1.05272    0.000
 4743.00    1.22340   1.05261    0.000
 4744.00    1.20526   1.04930    0.000
 4745.00    1.24183   1.03492    0.000
 4746.00    1.19012   1.01498    0.000
 4747.00    1.07815   0.99885    0.000
 4748.00    1.01310   0.98990    0.000
 4749.00    0.97611   0.98820    0.000
 4750.00    0.99351   0.99310    0.000
 4751.00    1.03930   1.00383    0.000
 4752.00    1.11446   1.01733    0.000
 4753.00    1.20292   1.02491    0.000
 4754.00    1.15029   1.01358    0.000
 4755.00    1.04272   0.98377    0.000
 4756.00    1.04308   0.95533    0.000
 4757.00    1.07920   0.93828    0.000
 4758.00    1.06389   0.92444    0.000
 4759.00    1.03427   0.91546    0.000
 4760.00    1.02712   0.92512    0.000
 4761.00    1.02511   0.95440    0.016
 4762.00    0.95749   0.98869    0.016
 4763.00    0.87786   1.00966    0.016
 4764.00    0.88062   1.00576    0.016
 4765.00    0.89499   0.99028    0.016
 4766.00    1.02046   0.99141    0.016
 4767.00    1.15719   1.01459    0.016
 4768.00    1.08243   1.03700    0.016
 4769.00    0.99400   1.04352    0.016
 4770.00    0.92188   1.04483    0.016
 4771.00    0.85059   1.04743    0.016
 4772.00    0.94652   1.04226    0.016
 4773.00    1.04075   1.03064    0.016
 4774.00    1.08605   1.02061    0.016
 4775.00    1.12791   1.00682    0.016
 4776.00    1.12005   0.98692    0.016
 4777.00    1.11829   0.97624    0.016
 4778.00    1.17391   0.97764    0.016
 4779.00    1.20188   0.97322    0.016
 4780.00    1.04053   0.96494    0.016
 4781.00    0.91765   0.96669    0.016
 4782.00    0.99852   0.97098    0.015
 4783.00    1.05535   0.97282    0.015
 4784.00    1.00981   0.98130    0.015
 4785.00    0.98814   0.99926    0.015
 4786.00    1.05031   1.02594    0.015
 4787.00    1.10897   1.05752    0.015
 4788.00    1.15730   1.07858    0.015
 4789.00    1.17677   1.07594    0.015
 4790.00    1.12357   1.05320    0.015
 4791.00    1.10957   1.02165    0.015
 4792.00    1.18054   0.99307    0.015
 4793.00    1.17777   0.98237    0.015
 4794.00    1.03623   0.99820    0.015
 4795.00    0.95584   1.02855    0.015
 4796.00    0.97595   1.04719    0.015
 4797.00    1.02244   1.03848    0.016
 4798.00    1.10695   1.01297    0.016
 4799.00    1.07512   0.99241    0.016
 4800.00    0.89585   0.98149    0.016
 4801.00    0.81476   0.97540    0.016
 4802.00    0.84332   0.97875    0.016
 4803.00    0.86495   0.99147    0.016
 4804.00    0.87975   1.00227    0.016
 4805.00    0.98690   1.00562    0.016
 4806.00    1.17426   1.00613    0.016
 4807.00    1.19981   1.00919    0.016
 4808.00    1.10152   1.01614    0.016
 4809.00    1.03774   1.02627    0.016
 4810.00    0.99716   1.03764    0.016
 4811.00    1.10760   1.04790    0.023
 4812.00    1.30704   1.05546    0.090
 4813.00    1.26811   1.05615   -1.000
 4814.00    1.10671   1.04478   -1.000
 4815.00    1.04278   1.01674   -1.000
 4816.00    1.02226   0.97518   -1.000
 4817.00    0.97945   0.94768   -1.000
 4818.00    0.92812   0.95843   -1.000
 4819.00    0.98397   0.98843   -1.000
 4820.00    1.07468   1.00321   -1.000
 4821.00    1.10634   0.99639   -1.000
 4822.00    1.12191   0.98533   -1.000
 4823.00    1.09631   0.98029    0.038
 4824.00    1.06151   0.97187    0.017
 4825.00    1.09142   0.95860    0.016
 4826.00    1.13286   0.95923    0.016
 4827.00    0.99476   0.97730    0.016
 4828.00    0.83220   0.99239    0.015
 4829.00    0.95632   0.99417    0.016
 4830.00    1.10829   0.98965    0.016
 4831.00    1.03907   0.97923    0.016
 4832.00    0.95643   0.95921    0.016
 4833.00    0.99327   0.94130    0.016
 4834.00    1.03318   0.93873    0.016
 4835.00    1.05348   0.94298    0.016
 4836.00    1.07085   0.94212    0.016
 4837.00    1.01177   0.94652    0.016
 4838.00    0.96838   0.96476    0.016
 4839.00    1.13924   0.97911    0.016
 4840.00    1.28583   0.96921    0.016
 4841.00    1.21312   0.94093    0.016
 4842.00    1.12753   0.92198    0.016
 4843.00    0.95645   0.92727    0.016
 4844.00    0.82217   0.93941    0.016
 4845.00    0.87773   0.93925    0.016
 4846.00    0.93090   0.92404    0.016
 4847.00    0.97411   0.89054    0.016
 4848.00    1.01038   0.84666    0.000
 4849.00    1.02271   0.82240    0.000
 4850.00    1.03046   0.82628    0.000
 4851.00    1.02492   0.82334    0.000
 4852.00    1.00549   0.78078    0.000
 4853.00    0.95168   0.70580    0.000
 4854.00    0.95472   0.64233    0.000
 4855.00    1.07902   0.63780    0.000
 4856.00    1.09280   0.68958    0.000
 4857.00    0.90177   0.75082    0.000
 4858.00    0.80679   0.79652    0.000
 4859.00    0.86732   0.83126    0.000
 4860.00    0.94540   0.85615    0.000
 4861.00    1.04837   0.86990    0.000
 4862.00    1.06105   0.87181    0.000
 4863.00    0.96092   0.85097    0.000
 4864.00    0.94240   0.81101    0.000
 4865.00    1.01373   0.79147    0.000
 4866.00    1.05772   0.81638    0.000
 4867.00    1.07515   0.85711    0.000
 4868.00    1.07415   0.88195    0.000
 4869.00    1.05737   0.89474    0.000
 4870.00    1.00761   0.90889    0.000
 4871.00    0.93296   0.92884    0.000
 4872.00    0.86149   0.95399    0.000
 4873.00    0.79213   0.96680    0.000
 4874.00    0.81560   0.95279    0.000
 4875.00    0.89296   0.93302    0.016
 4876.00    0.90356   0.92757    0.016
 4877.00    0.88040   0.92112    0.016
 4878.00    0.96068   0.89984    0.016
 4879.00    1.08626   0.87955    0.016
 4880.00    1.08442   0.87862    0.016
 4881.00    1.03468   0.88942    0.016
 4882.00    1.01039   0.88768    0.016
 4883.00    0.99421   0.86166    0.016
 4884.00    0.89464   0.83643    0.016
 4885.00    0.77285   0.85574    0.016
 4886.00    0.83531   0.92028    0.016
 4887.00    0.93797   0.98775    0.016
 4888.00    0.89735   1.03012    0.016
 4889.00    0.83190   1.04630    0.016
 4890.00    0.81427   1.04507    0.016
 4891.00    0.80295   1.03189    0.016
 4892.00    0.86815   1.00687    0.016
 4893.00    0.94047   0.98202    0.016
 4894.00    1.04234   0.97381    0.016
 4895.00    1.14588   0.97292    0.016
 4896.00    1.07914   0.96492    0.016
 4897.00    1.00906   0.96405    0.016
 4898.00    0.99938   0.98605    0.016
 4899.00    0.99238   1.01375    0.016
 4900.00    1.04900   1.01782    0.016
 4901.00    1.09873   0.99213    0.016
 4902.00    1.05952   0.95212    0.016
 4903.00    1.01615   0.91896    0.016
 4904.00    0.93658   0.91158    0.016
 4905.00    0.89072   0.93108    0.015
 4906.00    1.06167   0.95963    0.016
 4907.00    1.19334   0.98478    0.016
 4908.00    1.12747   1.00427    0.016
 4909.00    1.06610   1.00672    0.016
 4910.00    1.02309   0.97437    0.015
 4911.00    0.97524   0.90725    0.015
 4912.00    0.91107   0.83315    0.015
 4913.00    0.86349   0.79120    0.015
 4914.00    0.86313   0.80250    0.015
 4915.00    0.88349   0.84864    0.015
 4916.00    0.95427   0.88609    0.015
 4917.00    1.00470   0.89794    0.015
 4918.00    1.01239   0.91023    0.015
 4919.00    0.99332   0.94199    0.015
 4920.00    0.92539   0.97817    0.015
 4921.00    0.85904   1.00474    0.015
 4922.00    0.79521   1.02338    0.015
 4923.00    0.79167   1.03183    0.015
 4924.00    0.87251   1.02537    0.015
 4925.00    0.87971   0.99939    0.015
 4926.00    0.79622   0.95732    0.014
 4927.00    0.79819   0.92909    0.014
 4928.00    0.89293   0.93488    0.014
 4929.00    0.98818   0.94454    0.015
 4930.00    1.08391   0.92284    0.015
 4931.00    1.06969   0.88245    0.015
 4932.00    0.96262   0.86675    0.015
 4933.00    0.92214   0.89794    0.014
 4934.00    0.93115   0.95145    0.014
 4935.00    0.96684   0.99127    0.014
 4936.00    1.01995   1.01100    0.014
 4937.00    1.01632   1.01601    0.015
 4938.00    0.98024   1.00595    0.015
 4939.00    0.95034   0.99376    0.014
 4940.00    0.92352   0.99719    0.000
 4941.00    0.90101   1.01129    0.000
 4942.00    0.88034   1.02180    0.000
 4943.00    0.90100   1.02737    0.000
 4944.00    0.93691   1.02950    0.000
 4945.00    1.01588   1.02222    0.000
 4946.00    1.10831   1.00616    0.000
 4947.00    1.17648   0.98974    0.000
 4948.00    1.23832   0.96630    0.000
 4949.00    1.14841   0.91549    0.000
 4950.00    1.02620   0.84972    0.000
 4951.00    1.06580   0.82934    0.000
 4952.00    1.13267   0.88049    0.000
 4953.00    1.05142   0.94992    0.000
 4954.00    0.95132   0.98530    0.000
 4955.00    1.05109   0.99061    0.000
 4956.00    1.16858   0.98695    0.000
 4957.00    1.12515   0.97298    0.000
 4958.00    1.07323   0.94472    0.000
 4959.00    0.96968   0.91929    0.000
 4960.00    0.86599   0.91136    0.000
 4961.00    0.82875   0.91561    0.000
 4962.00    0.80158   0.92375    0.000
 4963.00    0.99324   0.93403    0.000
 4964.00    1.16431   0.94852    0.000
 4965.00    1.08259   0.96680    0.000
 4966.00    1.00966   0.98305    0.000
 4967.00    1.01023   0.99284    0.000
 4968.00    1.00444   0.99325    0.000
 4969.00    0.95893   0.98306    0.000
 4970.00    0.93218   0.96357    0.000
 4971.00    0.99743   0.93870    0.000
 4972.00    1.04375   0.91785    0.000
 4973.00    1.01472   0.90104    0.000
 4974.00    0.99159   0.87146    0.000
 4975.00    0.98796   0.82683    0.000
 4976.00    0.98558   0.79581    0.000
 4977.00    0.98670   0.80094    0.000
 4978.00    0.93857   0.83322    0.000
 4979.00    0.77268   0.87586    0.000
 4980.00    0.69801   0.91691    0.000
 4981.00    0.81177   0.94028    0.000
 4982.00    0.87901   0.93897    0.000
 4983.00    0.86263   0.92495    0.000
 4984.00    0.88832   0.91623    0.000
 4985.00    0.98012   0.91960    0.000
 4986.00    0.99289   0.92405    0.000
 4987.00    0.89665   0.92516    0.000
 4988.00    0.85721   0.93237    0.000
 4989.00    0.88672   0.94199    0.000
 4990.00    0.92833   0.94159    0.000
 4991.00    0.98288   0.92611    0.000
 4992.00    0.97703   0.89742    0.000
 4993.00    0.91415   0.86843    0.000
 4994.00    0.88384   0.85371    0.000
 4995.00    0.88063   0.85435    0.000
 4996.00    0.88249   0.85930    0.000
 4997.00    0.88808   0.85204    0.000
 4998.00    0.86575   0.82679    0.000
 4999.00    0.82546   0.80649    0.000
 5000.00    0.83690   0.82165    0.000
 5001.00    0.87745   0.86557    0.000
 5002.00    0.92703   0.89995    0.000
 5003.00    0.98104   0.90258    0.000
 5004.00    1.05173   0.87798    0.000
 5005.00    1.12948   0.83932    0.000
 5006.00    1.05919   0.80529    0.000
 5007.00    0.93521   0.79349    0.000
 5008.00    0.93255   0.80677    0.000
 5009.00    0.96710   0.82583    0.000
 5010.00    0.94147   0.82866    0.000
 5011.00    0.90046   0.82301    0.000
 5012.00    0.87273   0.83011    0.000
 5013.00    0.84776   0.84566    0.000
 5014.00    0.83446   0.85063    0.000
 5015.00    0.82306   0.84752    0.000
 5016.00    0.84164   0.85626    0.000
 5017.00    0.86391   0.87793    0.000
 5018.00    0.97982   0.89243    0.000
 5019.00    1.10364   0.88725    0.000
 5020.00    1.03892   0.87085    0.000
 5021.00    0.96499   0.86743    0.000
 5022.00    0.89077   0.88626    0.000
 5023.00    0.81789   0.90999    0.000
 5024.00    0.82695   0.92895    0.000
 5025.00    0.83621   0.94811    0.000
 5026.00    0.84927   0.96044    0.000
 5027.00    0.86083   0.94647    0.000
 5028.00    0.85485   0.90592    0.000
 5029.00    0.84894   0.87080    0.014
 5030.00    0.84353   0.86268    0.014
 5031.00    0.85464   0.85764    0.014
 5032.00    0.96590   0.82645    0.014
 5033.00    1.05710   0.77840    0.014
 5034.00    1.05231   0.75357    0.015
 5035.00    1.03567   0.78306    0.015
 5036.00    0.97286   0.84939    0.014
 5037.00    0.91147   0.91094    0.014
 5038.00    0.85472   0.95072    0.014
 5039.00    0.81541   0.96505    0.014
 5040.00    0.82397   0.94592    0.014
 5041.00    0.84843   0.90193    0.014
 5042.00    0.91030   0.86290    0.014
 5043.00    0.96703   0.84734    0.014
 5044.00    1.01336   0.84928    0.014
 5045.00    1.00421   0.86179    0.014
 5046.00    0.89691   0.88559    0.014
 5047.00    0.81047   0.91331    0.014
 5048.00    0.75630   0.93129    0.014
 5049.00    0.76501   0.93695    0.014
 5050.00    0.85920   0.94001    0.014
 5051.00    0.88807   0.94607    0.014
 5052.00    0.83876   0.95287    0.014
 5053.00    0.83498   0.96117    0.014
 5054.00    0.87924   0.97026    0.014
 5055.00    0.86160   0.96769    0.014
 5056.00    0.78635   0.93988    0.015
 5057.00    0.82475   0.89410    0.015
 5058.00    0.95642   0.86164    0.015
 5059.00    1.00935   0.85960    0.015
 5060.00    1.00541   0.86821    0.015
 5061.00    0.95593   0.87164    0.015
 5062.00    0.87758   0.87961    0.015
 5063.00    0.85588   0.89164    0.015
 5064.00    0.86557   0.88950    0.015
 5065.00    0.82820   0.87627    0.015
 5066.00    0.76813   0.87420    0.015
 5067.00    0.76628   0.88218    0.015
 5068.00    0.78867   0.88477    0.015
 5069.00    0.87383   0.88454    0.015
 5070.00    0.98133   0.88236    0.015
 5071.00    0.94752   0.85863    0.015
 5072.00    0.87120   0.81218    0.015
 5073.00    0.89294   0.78078    0.015
 5074.00    0.93918   0.78811    0.015
 5075.00    0.90142   0.81262    0.015
 5076.00    0.84665   0.83122    0.015
 5077.00    0.77485   0.84873    0.015
 5078.00    0.70034   0.87045    0.015
 5079.00    0.68663   0.88568    0.015
 5080.00    0.68012   0.88953    0.015
 5081.00    0.81257   0.89155    0.014
 5082.00    0.95619   0.89755    0.014
 5083.00    0.87866   0.90372    0.014
 5084.00    0.79119   0.91073    0.014
 5085.00    0.84703   0.92307    0.014
 5086.00    0.90344   0.93450    0.014
 5087.00    0.90320   0.93241    0.014
 5088.00    0.90707   0.91386    0.014
 5089.00    0.98717   0.88484    0.014
 5090.00    1.05164   0.85028    0.014
 5091.00    0.94207   0.81739    0.014
 5092.00    0.84673   0.80432    0.014
 5093.00    0.86223   0.82450    0.014
 5094.00    0.88707   0.86183    0.014
 5095.00    0.96685   0.88626    0.014
 5096.00    1.01706   0.88789    0.014
 5097.00    0.92923   0.87847    0.014
 5098.00    0.86252   0.86857    0.014
 5099.00    0.87631   0.85659    0.014
 5100.00    0.90563   0.84175    0.014
 5101.00    0.98440   0.83174    0.014
 5102.00    0.99606   0.82914    0.014
 5103.00    0.82683   0.83352    0.014
 5104.00    0.71985   0.84933    0.014
 5105.00    0.75683   0.87088    0.014
 5106.00    0.80215   0.88635    0.014
 5107.00    0.86415   0.89536    0.014
 5108.00    0.88018   0.90307    0.014
 5109.00    0.81611   0.91356    0.014
 5110.00    0.77598   0.92576    0.014
 5111.00    0.77238   0.93026    0.014
 5112.00    0.80553   0.92042    0.014
 5113.00    0.88791   0.89976    0.014
 5114.00    0.93382   0.87442    0.014
 5115.00    0.93669   0.84561    0.014
 5116.00    0.99305   0.81615    0.014
 5117.00    1.10506   0.79870    0.014
 5118.00    1.11613   0.80010    0.014
 5119.00    1.03456   0.80905    0.014
 5120.00    0.94305   0.81261    0.014
 5121.00    0.84349   0.81092    0.014
 5122.00    0.77736   0.81250    0.014
 5123.00    0.73501   0.82380    0.014
 5124.00    0.74314   0.84123    0.014
 5125.00    0.78280   0.85433    0.014
 5126.00    0.80066   0.86170    0.014
 5127.00    0.80662   0.87173    0.014
 5128.00    0.83304   0.88057    0.014
 5129.00    0.86918   0.87205    0.014
 5130.00    0.89261   0.84621    0.014
 5131.00    0.91084   0.82033    0.014
 5132.00    0.97366   0.81116    0.014
 5133.00    1.05207   0.82105    0.014
 5134.00    1.00838   0.82774    0.014
 5135.00    0.92869   0.81861    0.014
 5136.00    0.87792   0.81490    0.014
 5137.00    0.83422   0.82443    0.014
 5138.00    0.83309   0.82631    0.014
 5139.00    0.84037   0.81479    0.014
 5140.00    0.82255   0.80669    0.014
 5141.00    0.80086   0.81267    0.014
 5142.00    0.78608   0.82416    0.014
 5143.00    0.77209   0.82551    0.014
 5144.00    0.77249   0.81546    0.014
 5145.00    0.77398   0.80496    0.014
 5146.00    0.78175   0.80124    0.014
 5147.00    0.78978   0.80851    0.014
 5148.00    0.83650   0.82916    0.014
 5149.00    0.88158   0.85743    0.014
 5150.00    0.84409   0.88164    0.014
 5151.00    0.80734   0.89335    0.014
 5152.00    0.78330   0.89462    0.014
 5153.00    0.76938   0.89064    0.014
 5154.00    0.86317   0.87847    0.014
 5155.00    0.94211   0.85873    0.014
 5156.00    0.90932   0.83790    0.014
 5157.00    0.87897   0.80686    0.014
 5158.00    0.86265   0.74983    0.014
 5159.00    0.84129   0.67526    0.014
 5160.00    0.79696   0.61888    0.014
 5161.00    0.77693   0.61391    0.014
 5162.00    0.84757   0.65205    0.014
 5163.00    0.89195   0.67995    0.014
 5164.00    0.85438   0.65771    0.014
 5165.00    0.82244   0.61783    0.014
 5166.00    0.80540   0.62778    0.014
 5167.00    0.76973   0.69740    0.014
 5168.00    0.69168   0.77275    0.014
 5169.00    0.61874   0.81497    0.014
 5170.00    0.55584   0.83150    0.014
 5171.00    0.58082   0.83676    0.014
 5172.00    0.75660   0.83002    0.014
 5173.00    0.85202   0.80544    0.014
 5174.00    0.82666   0.75559    0.014
 5175.00    0.85507   0.68183    0.014
 5176.00    0.95448   0.62059    0.014
 5177.00    0.94156   0.62471    0.014
 5178.00    0.79795   0.69515    0.014
 5179.00    0.73147   0.77483    0.014
 5180.00    0.74410   0.81941    0.014
 5181.00    0.70746   0.83485    0.014
 5182.00    0.62624   0.84206    0.013
 5183.00    0.60356   0.83290    0.013
 5184.00    0.62758   0.79596    0.013
 5185.00    0.65117   0.76151    0.013
 5186.00    0.67448   0.76150    0.014
 5187.00    0.71787   0.78015    0.014
 5188.00    0.77361   0.79320    0.013
 5189.00    0.81746   0.80542    0.014
 5190.00    0.85492   0.82451    0.000
 5191.00    0.85353   0.84540    0.000
 5192.00    0.83401   0.86137    0.000
 5193.00    0.81984   0.86721    0.000
 5194.00    0.80783   0.86138    0.000
 5195.00    0.85081   0.84622    0.000
 5196.00    0.91267   0.81895    0.000
 5197.00    0.86973   0.77705    0.000
 5198.00    0.79651   0.73727    0.000
 5199.00    0.72957   0.71950    0.000
 5200.00    0.66412   0.71703    0.000
 5201.00    0.65926   0.71928    0.000
 5202.00    0.66607   0.73678    0.000
 5203.00    0.69715   0.77536    0.000
 5204.00    0.73185   0.82238    0.000
 5205.00    0.68520   0.86085    0.000
 5206.00    0.62965   0.87608    0.000
 5207.00    0.70171   0.86248    0.000
 5208.00    0.78298   0.83433    0.000
 5209.00    0.76008   0.81871    0.000
 5210.00    0.73330   0.83005    0.000
 5211.00    0.80580   0.85854    0.014
 5212.00    0.87493   0.88481    0.014
 5213.00    0.80445   0.89896    0.014
 5214.00    0.74056   0.90065    0.014
 5215.00    0.78330   0.88768    0.014
 5216.00    0.82233   0.85659    0.014
 5217.00    0.82346   0.80930    0.014
 5218.00    0.84895   0.75520    0.014
 5219.00    1.05165   0.71657    0.014
 5220.00    1.19197   0.72321    0.014
 5221.00    0.98472   0.77551    0.014
 5222.00    0.81795   0.83398    0.014
 5223.00    0.83124   0.86570    0.014
 5224.00    0.83440   0.86470    0.014
 5225.00    0.80050   0.83945    0.014
 5226.00    0.77161   0.81425    0.014
 5227.00    0.75810   0.81277    0.014
 5228.00    0.78234   0.83622    0.014
 5229.00    0.90479   0.86968    0.014
 5230.00    0.94859   0.89548    0.014
 5231.00    0.81649   0.90510    0.014
 5232.00    0.73785   0.90403    0.014
 5233.00    0.76282   0.90161    0.014
 5234.00    0.79339   0.89960    0.014
 5235.00    0.83340   0.89756    0.014
 5236.00    0.89892   0.90145    0.014
 5237.00    1.00219   0.90895    0.014
 5238.00    1.00192   0.89979    0.014
 5239.00    0.86684   0.86709    0.014
 5240.00    0.78178   0.83704    0.014
 5241.00    0.75410   0.82804    0.013
 5242.00    0.75947   0.82508    0.013
 5243.00    0.79825   0.81979    0.014
 5244.00    0.78589   0.82559    0.014
 5245.00    0.72789   0.84160    0.014
 5246.00    0.75061   0.84846    0.014
 5247.00    0.83676   0.84198    0.014
 5248.00    0.87743   0.84420    0.014
 5249.00    0.88665   0.87102    0.014
 5250.00    0.87903   0.90651    0.014
 5251.00    0.86120   0.92531    0.014
 5252.00    0.85444   0.91781    0.014
 5253.00    0.85355   0.88701    0.014
 5254.00    0.91074   0.84023    0.014
 5255.00    0.99461   0.78798    0.014
 5256.00    1.01131   0.74155    0.014
 5257.00    1.00146   0.70797    0.014
 5258.00    0.95017   0.69396    0.014
 5259.00    0.88491   0.70614    0.014
 5260.00    0.86753   0.72529    0.014
 5261.00    0.86371   0.71266    0.014
 5262.00    0.78232   0.67787    0.014
 5263.00    0.68282   0.67979    0.014
 5264.00    0.70133   0.73244    0.014
 5265.00    0.74196   0.78677    0.014
 5266.00    0.72141   0.80810    0.014
 5267.00    0.69199   0.80525    0.014
 5268.00    0.71164   0.80581    0.014
 5269.00    0.73646   0.83210    0.014
 5270.00    0.85871   0.87499    0.014
 5271.00    0.98760   0.90159    0.015
 5272.00    0.92722   0.89600    0.015
 5273.00    0.86049   0.87002    0.014
 5274.00    0.85534   0.84141    0.014
 5275.00    0.85123   0.81925    0.014
 5276.00    0.87821   0.81192    0.014
 5277.00    0.89369   0.83310    0.014
 5278.00    0.73419   0.87957    0.014
 5279.00    0.59748   0.92097    0.014
 5280.00    0.68308   0.93529    0.014
 5281.00    0.76437   0.93283    0.014
 5282.00    0.81531   0.93355    0.014
 5283.00    0.85260   0.93933    0.014
 5284.00    0.81587   0.93870    0.014
 5285.00    0.82389   0.92813    0.014
 5286.00    1.02636   0.91569    0.014
 5287.00    1.16651   0.90345    0.014
 5288.00    1.08364   0.87874    0.014
 5289.00    1.03053   0.83565    0.014
 5290.00    1.06679   0.79653    0.014
 5291.00    1.06709   0.79210    0.014
 5292.00    0.97548   0.81875    0.014
 5293.00    0.91777   0.84271    0.014
 5294.00    0.93463   0.85142    0.014
 5295.00    0.92485   0.86404    0.014
 5296.00    0.86424   0.89169    0.014
 5297.00    0.84962   0.92041    0.014
 5298.00    0.91157   0.93186    0.014
 5299.00    0.92519   0.92497    0.014
 5300.00    0.86830   0.91638    0.014
 5301.00    0.85814   0.92055    0.014
 5302.00    0.90797   0.93269    0.014
 5303.00    0.89540   0.93888    0.014
 5304.00    0.81227   0.93453    0.014
 5305.00    0.85654   0.92434    0.014
 5306.00    1.02786   0.91404    0.014
 5307.00    1.07139   0.90442    0.014
 5308.00    1.00249   0.89186    0.014
 5309.00    0.97373   0.87999    0.014
 5310.00    0.97606   0.87886    0.014
 5311.00    0.88520   0.88684    0.014
 5312.00    0.73085   0.89305    0.014
 5313.00    0.75620   0.89345    0.014
 5314.00    0.88887   0.88722    0.014
 5315.00    0.92025   0.87009    0.014
 5316.00    0.89888   0.84448    0.014
 5317.00    0.93667   0.82591    0.013
 5318.00    1.00119   0.81672    0.013
 5319.00    0.95068   0.78990    0.013
 5320.00    0.85548   0.73699    0.013
 5321.00    0.89312   0.70452    0.013
 5322.00    0.97466   0.73417    0.013
 5323.00    0.91466   0.79895    0.013
 5324.00    0.81541   0.84609    0.013
 5325.00    0.80158   0.86378    0.013
 5326.00    0.80723   0.87460    0.013
 5327.00    0.91639   0.89028    0.013
 5328.00    1.04444   0.90018    0.013
 5329.00    0.90106   0.89691    0.013
 5330.00    0.71961   0.88507    0.013
 5331.00    0.70710   0.86433    0.013
 5332.00    0.71164   0.83301    0.014
 5333.00    0.81317   0.81038    0.013
 5334.00    0.92092   0.81997    0.013
 5335.00    0.88782   0.85186    0.013
 5336.00    0.85067   0.87552    0.013
 5337.00    0.87307   0.87752    0.013
 5338.00    0.89514   0.86732    0.013
 5339.00    0.90792   0.85903    0.013
 5340.00    0.91929   0.85269    0.013
 5341.00    0.91047   0.84385    0.013
 5342.00    0.90159   0.84400    0.013
 5343.00    0.89227   0.86369    0.013
 5344.00    0.87422   0.89059    0.013
 5345.00    0.79674   0.90823    0.013
 5346.00    0.73406   0.91943    0.013
 5347.00    0.74953   0.93358    0.013
 5348.00    0.76933   0.94739    0.013
 5349.00    0.80757   0.95391    0.013
 5350.00    0.84956   0.95430    0.013
 5351.00    0.90470   0.95162    0.013
 5352.00    0.96227   0.94449    0.013
 5353.00    1.02696   0.92939    0.013
 5354.00    1.04154   0.90828    0.013
 5355.00    0.93018   0.88980    0.013
 5356.00    0.86429   0.87732    0.013
 5357.00    0.89683   0.86718    0.013
 5358.00    0.90065   0.86031    0.013
 5359.00    0.85050   0.85833    0.013
 5360.00    0.82381   0.85445    0.013
 5361.00    0.83560   0.83770    0.013
 5362.00    0.85619   0.80419    0.013
 5363.00    0.88943   0.77143    0.013
 5364.00    0.93355   0.77077    0.014
 5365.00    0.99146   0.81109    0.013
 5366.00    0.98217   0.86526    0.013
 5367.00    0.89797   0.90229    0.013
 5368.00    0.83235   0.91384   -2.000
 5369.00    0.78500   0.90964   -2.000
 5370.00    0.76947   0.90499   -2.000
 5371.00    0.78152   0.90521   -2.000
 5372.00    0.85649   0.90265   -2.000
 5373.00    0.97952   0.89302   -2.000
 5374.00    1.04787   0.88068   -2.000
 5375.00    1.07952   0.87111   -2.000
 5376.00    1.03968   0.87098   -2.000
 5377.00    0.95779   0.88226   -2.000
 5378.00    0.90911   0.89433   -2.000
 5379.00    0.87747   0.89677   -2.000
 5380.00    0.86591   0.88934   -2.000
 5381.00    0.86327   0.87455   -2.000
 5382.00    0.82318   0.85628   -2.000
 5383.00    0.76880   0.84177    0.013
 5384.00    0.83928   0.83464    0.013
 5385.00    0.95026   0.83244    0.013
 5386.00    0.90262   0.83186    0.013
 5387.00    0.81192   0.82774    0.013
 5388.00    0.83360   0.81183    0.013
 5389.00    0.88032   0.78917    0.012
 5390.00    0.83804   0.78471    0.013
 5391.00    0.77995   0.80756    0.013
 5392.00    0.83006   0.83437    0.013
 5393.00    0.89485   0.84806    0.013
 5394.00    0.92182   0.85155    0.013
 5395.00    0.94514   0.84047    0.013
 5396.00    0.92899   0.80639    0.013
 5397.00    0.91047   0.76365    0.013
 5398.00    0.88914   0.74265    0.013
 5399.00    0.86792   0.75638    0.013
 5400.00    0.87525   0.78398    0.013
 5401.00    0.88188   0.79545    0.013
 5402.00    0.87025   0.79109    0.013
 5403.00    0.85911   0.79800    0.013
 5404.00    0.85452   0.82598    0.013
 5405.00    0.84985   0.85415    0.013
 5406.00    0.84449   0.86444    0.013
 5407.00    0.83389   0.86464    0.013
 5408.00    0.78871   0.87227    0.013
 5409.00    0.75254   0.88816    0.013
 5410.00    0.76278   0.89726    0.013
 5411.00    0.77514   0.89086    0.013
 5412.00    0.79629   0.87615    0.013
 5413.00    0.83119   0.86662    0.015
 5414.00    0.91328   0.86587    0.034
 5415.00    0.99510   0.86145   -1.000
 5416.00    1.07615   0.84779   -1.000
 5417.00    1.10180   0.84368   -1.000
 5418.00    0.99062   0.86267   -1.000
 5419.00    0.90095   0.88533   -1.000
 5420.00    0.85705   0.87989   -1.000
 5421.00    0.85403   0.84240   -1.000
 5422.00    0.92659   0.80865   -1.000
 5423.00    0.95014   0.80829   -1.000
 5424.00    0.89450   0.82228   -1.000
 5425.00    0.84876   0.81927    0.062
 5426.00    0.81703   0.80174    0.018
 5427.00    0.83157   0.79110    0.013
 5428.00    0.90381   0.79957    0.013
 5429.00    0.91908   0.82566    0.013
 5430.00    0.87171   0.86048    0.013
 5431.00    0.83970   0.89244    0.012
 5432.00    0.82257   0.91277    0.012
 5433.00    0.80156   0.92081    0.012
 5434.00    0.77724   0.92130    0.012
 5435.00    0.77953   0.91580    0.012
 5436.00    0.80186   0.89791    0.012
 5437.00    0.83381   0.86126    0.012
 5438.00    0.87213   0.81418    0.012
 5439.00    0.87439   0.78378    0.012
 5440.00    0.85577   0.79281    0.012
 5441.00    0.85131   0.83004    0.012
 5442.00    0.85400   0.86349    0.012
 5443.00    0.88746   0.87666    0.012
 5444.00    0.93436   0.87309    0.012
 5445.00    0.86586   0.85757    0.012
 5446.00    0.75408   0.82922    0.012
 5447.00    0.73421   0.79533    0.012
 5448.00    0.74358   0.78090    0.012
 5449.00    0.77918   0.80295    0.012
 5450.00    0.82174   0.84370    0.012
 5451.00    0.81983   0.87127    0.012
 5452.00    0.80824   0.87317    0.012
 5453.00    0.81985   0.85690    0.012
 5454.00    0.83548   0.83341    0.012
 5455.00    0.87035   0.81437    0.012
 5456.00    0.90773   0.81355    0.012
 5457.00    0.89439   0.82959    0.012
 5458.00    0.87637   0.84494    0.012
 5459.00    0.82938   0.85242    0.012
 5460.00    0.78077   0.85706    0.012
 5461.00    0.86104   0.85739    0.012
 5462.00    0.94443   0.85044    0.012
 5463.00    1.05265   0.84248    0.013
 5464.00    1.15232   0.83674    0.013
 5465.00    1.05135   0.82804    0.013
 5466.00    0.95133   0.81635    0.013
 5467.00    0.86358   0.80152    0.013
 5468.00    0.79001   0.77835    0.013
 5469.00    0.83916   0.76080    0.013
 5470.00    0.87289   0.77307    0.013
 5471.00    0.80777   0.80479    0.012
 5472.00    0.75060   0.82017    0.012
 5473.00    0.73336   0.80997    0.012
 5474.00    0.71820   0.79983    0.012
 5475.00    0.71146   0.81016    0.012
 5476.00    0.71622   0.83550    0.012
 5477.00    0.75967   0.85765    0.012
 5478.00    0.79991   0.86042   -2.000
 5479.00    0.83102   0.84367   -2.000
 5480.00    0.84613   0.82701   -2.000
 5481.00    0.82240   0.82583   -2.000
 5482.00    0.79130   0.83481   -2.000
 5483.00    0.74473   0.84423   -2.000
 5484.00    0.71599   0.84904   -2.000
 5485.00    0.71972   0.84608   -2.000
 5486.00    0.87210   0.84113   -2.000
 5487.00    1.26110   0.84145   -2.000
 5488.00    1.43433   0.84043   -2.000
 5489.00    1.30613   0.83283   -2.000
 5490.00    1.23394   0.83176   -2.000
 5491.00    1.23062   0.84399   -2.000
 5492.00    1.15632   0.85103   -2.000
 5493.00    1.00510   0.83898   -2.000
 5494.00    0.90489   0.82132   -2.000
 5495.00    0.85345   0.81553   -2.000
 5496.00    0.84462   0.81914   -2.000
 5497.00    0.87171   0.81792   -2.000
 5498.00    0.92670   0.80800   -2.000
 5499.00    1.00238   0.80404   -2.000
 5500.00    1.00331   0.81543   -2.000
 5501.00    0.95550   0.82907   -2.000
 5502.00    0.91301   0.83011    0.012
 5503.00    0.87356   0.81751    0.012
 5504.00    0.85589   0.79862    0.012
 5505.00    0.84905   0.78575    0.012
 5506.00    0.86084   0.78687    0.012
 5507.00    0.88063   0.79844    0.012
 5508.00    0.86466   0.81361    0.012
 5509.00    0.83552   0.83058    0.012
 5510.00    0.78646   0.84951    0.012
 5511.00    0.73118   0.86444    0.012
 5512.00    0.77964   0.86866    0.012
 5513.00    0.85510   0.86510    0.012
 5514.00    0.88021   0.86139    0.012
 5515.00    0.89464   0.85991    0.012
 5516.00    0.94319   0.85704    0.012
 5517.00    0.99747   0.84808    0.012
 5518.00    0.92883   0.83087    0.012
 5519.00    0.84462   0.80723    0.012
 5520.00    0.83716   0.78783    0.012
 5521.00    0.83647   0.78934    0.012
 5522.00    0.86132   0.81226    0.012
 5523.00    0.88751   0.83580    0.012
 5524.00    0.89196   0.84422    0.012
 5525.00    0.89546   0.83985    0.012
 5526.00    0.85725   0.83039    0.012
 5527.00    0.82099   0.82250    0.012
 5528.00    0.82690   0.82262    0.012
 5529.00    0.83399   0.82945    0.012
 5530.00    0.85548   0.83664    0.012
 5531.00    0.87338   0.84486    0.012
 5532.00    0.86137   0.85603    0.012
 5533.00    0.85100   0.86359    0.012
 5534.00    0.85079   0.85978    0.012
 5535.00    0.85396   0.84757    0.012
 5536.00    0.87368   0.83819    0.011
 5537.00    0.88737   0.83621    0.011
 5538.00    0.87715   0.83816    0.011
 5539.00    0.86287   0.84501    0.013
 5540.00    0.83520   0.85845    0.031
 5541.00    0.82859   0.87158   -1.000
 5542.00    0.88077   0.87748   -1.000
 5543.00    0.91462   0.87625   -1.000
 5544.00    0.90475   0.86900   -1.000
 5545.00    0.90062   0.85675   -1.000
 5546.00    0.90831   0.84488   -1.000
 5547.00    0.90788   0.84037    0.063
 5548.00    0.89291   0.84298    0.017
 5549.00    0.90511   0.84568    0.011
 5550.00    0.95991   0.84561    0.012
 5551.00    0.97641   0.84551    0.012
 5552.00    0.94018   0.84481    0.012
 5553.00    0.91253   0.83990    0.012
 5554.00    0.89527   0.83083    0.012
 5555.00    0.87907   0.82255    0.012
 5556.00    0.86400   0.81881    0.012
 5557.00    0.85427   0.81621    0.012
 5558.00    0.84956   0.81174    0.012
 5559.00    0.86803   0.80912    0.012
 5560.00    0.90575   0.80940    0.012
 5561.00    0.91648   0.80952    0.012
 5562.00    0.90748   0.81180    0.012
 5563.00    0.88855   0.81627    0.012
 5564.00    0.86326   0.81423    0.012
 5565.00    0.86027   0.80854    0.012
 5566.00    0.86982   0.81324    0.012
 5567.00    0.91461   0.82510    0.012
 5568.00    0.97662   0.83176    0.012
 5569.00    0.99385   0.83453    0.012
 5570.00    0.99216   0.83772    0.012
 5571.00    0.93914   0.84028    0.012
 5572.00    0.86755   0.84177    0.012
 5573.00    0.80298   0.84022    0.012
 5574.00    0.74054   0.83512    0.011
 5575.00    0.72003   0.83044    0.011
 5576.00    0.71019   0.82423    0.011
 5577.00    0.73404   0.80792    0.011
 5578.00    0.76487   0.77960    0.011
 5579.00    0.75386   0.74943    0.011
 5580.00    0.73601   0.73187    0.011
 5581.00    0.80660   0.73402    0.011
 5582.00    0.88799   0.75169    0.011
 5583.00    0.89838   0.77327    0.011
 5584.00    0.90281   0.78667    0.011
 5585.00    0.80953   0.78886    0.011
 5586.00    0.71153   0.78915    0.011
 5587.00    0.70718   0.79974    0.011
 5588.00    0.70623   0.81758    0.011
 5589.00    0.82298   0.82279    0.011
 5590.00    0.93474   0.80788    0.011
 5591.00    0.94716   0.78890    0.012
 5592.00    0.95887   0.77729    0.012
 5593.00    0.96234   0.76844    0.012
 5594.00    0.95967   0.76207    0.012
 5595.00    0.90757   0.76866    0.012
 5596.00    0.86003   0.79357    0.012
 5597.00    0.84005   0.82656    0.012
 5598.00    0.82599   0.85162    0.012
 5599.00    0.84018   0.86223    0.012
 5600.00    0.84366   0.86222    0.012
 5601.00    0.80555   0.85860    0.012
 5602.00    0.78096   0.85716    0.012
 5603.00    0.80009   0.85992    0.012
 5604.00    0.81382   0.86204    0.012
 5605.00    0.81272   0.85097    0.012
 5606.00    0.81864   0.81733    0.012
 5607.00    0.84103   0.77467    0.012
 5608.00    0.86377   0.75481    0.012
 5609.00    0.88722   0.76834    0.012
 5610.00    0.89682   0.79136    0.012
 5611.00    0.88197   0.80309    0.011
 5612.00    0.85833   0.80808    0.011
 5613.00    0.82111   0.81575    0.011
 5614.00    0.79507   0.82051    0.011
 5615.00    0.78419   0.80964    0.011
 5616.00    0.78637   0.78552    0.011
 5617.00    0.80416   0.76934    0.011
 5618.00    0.80698   0.77525    0.011
 5619.00    0.79402   0.79404    0.011
 5620.00    0.78503   0.81216    0.011
 5621.00    0.77972   0.82747    0.011
 5622.00    0.77918   0.83986    0.011
 5623.00    0.78253   0.84584    0.011
 5624.00    0.80494   0.84420    0.011
 5625.00    0.84110   0.83709    0.011
 5626.00    0.87169   0.82726    0.011
 5627.00    0.89876   0.81633    0.011
 5628.00    0.91089   0.80492    0.011
 5629.00    0.91475   0.79592    0.011
 5630.00    0.88198   0.79431    0.011
 5631.00    0.83160   0.79880    0.011
 5632.00    0.80718   0.80039    0.011
 5633.00    0.79355   0.79583    0.011
 5634.00    0.82826   0.79288    0.011
 5635.00    0.88015   0.79667    0.011
 5636.00    0.91418   0.80366    0.011
 5637.00    0.94286   0.81048    0.011
 5638.00    0.92865   0.81679    0.011
 5639.00    0.90375   0.82122    0.011
 5640.00    0.87109   0.82100    0.011
 5641.00    0.83685   0.81683    0.011
 5642.00    0.79973   0.81520    0.011
 5643.00    0.76216   0.82080    0.011
 5644.00    0.74259   0.82846    0.011
 5645.00    0.72514   0.82778    0.011
 5646.00    0.81843   0.81672    0.011
 5647.00    0.92057   0.80534    0.011
 5648.00    0.93353   0.79829    0.011
 5649.00    0.94251   0.78410    0.011
 5650.00    0.92296   0.76092    0.011
 5651.00    0.90207   0.75071    0.011
 5652.00    0.83221   0.76280    0.011
 5653.00    0.76775   0.77621    0.011
 5654.00    0.80264   0.77736    0.011
 5655.00    0.83555   0.77935    0.011
 5656.00    0.84641   0.79329    0.011
 5657.00    0.84505   0.80961    0.011
 5658.00    0.74890   0.81424    0.011
 5659.00    0.66321   0.80708    0.011
 5660.00    0.63896   0.79925    0.011
 5661.00    0.62909   0.79827    0.011
 5662.00    0.68607   0.80311    0.011
 5663.00    0.73062   0.81211    0.010
 5664.00    0.72792   0.82549    0.011
 5665.00    0.72076   0.83861    0.011
 5666.00    0.69945   0.84357    0.011
 5667.00    0.68881   0.84117    0.010
 5668.00    0.70686   0.83981    0.011
 5669.00    0.72875   0.84087    0.011
 5670.00    0.75947   0.83848    0.011
 5671.00    0.78825   0.83211    0.011
 5672.00    0.81319   0.82504    0.011
 5673.00    0.85050   0.81495    0.011
 5674.00    0.90933   0.80089    0.011
 5675.00    0.93403   0.79219    0.011
 5676.00    0.90675   0.79549    0.011
 5677.00    0.86783   0.80185    0.012
 5678.00    0.81333   0.79901    0.012
 5679.00    0.78144   0.78876    0.012
 5680.00    0.77619   0.78366    0.012
 5681.00    0.77803   0.79105    0.011
 5682.00    0.78725   0.80651    0.011
 5683.00    0.80972   0.82196    0.011
 5684.00    0.84434   0.83305    0.011
 5685.00    0.85618   0.83737    0.011
 5686.00    0.84963   0.83520    0.011
 5687.00    0.82521   0.83138    0.011
 5688.00    0.78809   0.82851    0.011
 5689.00    0.78165   0.82255    0.011
 5690.00    0.79435   0.81174    0.011
 5691.00    0.80738   0.80084    0.011
 5692.00    0.82059   0.79146    0.011
 5693.00    0.82255   0.78238    0.011
 5694.00    0.81917   0.77868    0.011
 5695.00    0.79313   0.78458    0.011
 5696.00    0.75783   0.79275    0.011
 5697.00    0.76134   0.79144    0.011
 5698.00    0.77839   0.77866    0.011
 5699.00    0.78169   0.76179    0.011
 5700.00    0.78096   0.74703    0.011
 5701.00    0.79066   0.73860    0.011
 5702.00    0.80291   0.73905    0.011
 5703.00    0.85288   0.74571    0.011
 5704.00    0.91029   0.75815    0.011
 5705.00    0.89529   0.77817    0.011
 5706.00    0.86918   0.79917    0.011
 5707.00    0.83179   0.81329    0.011
 5708.00    0.79313   0.82045    0.011
 5709.00    0.82267   0.82319    0.011
 5710.00    0.85738   0.82479    0.011
 5711.00    0.82444   0.82876    0.011
 5712.00    0.78874   0.83483    0.011
 5713.00    0.76078   0.84151    0.011
 5714.00    0.73429   0.84793    0.011
 5715.00    0.76640   0.85155    0.011
 5716.00    0.79934   0.84998    0.011
 5717.00    0.84647   0.84270    0.011
 5718.00    0.88872   0.83053    0.011
 5719.00    0.87930   0.81976    0.011
 5720.00    0.87349   0.81939    0.011
 5721.00    0.89473   0.82623    0.011
 5722.00    0.90579   0.82681    0.011
 5723.00    0.85873   0.81878    0.011
 5724.00    0.80677   0.81519    0.011
 5725.00    0.73253   0.82340    0.011
 5726.00    0.68710   0.83519    0.011
 5727.00    0.74882   0.84049    0.011
 5728.00    0.79963   0.83794    0.011
 5729.00    0.81644   0.83242    0.011
 5730.00    0.82128   0.82911    0.011
 5731.00    0.79449   0.82894    0.011
 5732.00    0.79110   0.82938    0.011
 5733.00    0.84077   0.82785    0.011
 5734.00    0.87464   0.82450    0.011
 5735.00    0.87747   0.82359    0.011
 5736.00    0.88176   0.82928    0.011
 5737.00    0.88854   0.83757    0.011
 5738.00    0.87839   0.83794    0.011
 5739.00    0.84283   0.82652    0.011
 5740.00    0.81153   0.81444    0.000
 5741.00    0.78585   0.81502    0.000
 5742.00    0.78295   0.82417    0.000
 5743.00    0.80651   0.82503    0.000
 5744.00    0.81862   0.80975    0.000
 5745.00    0.81901   0.78893    0.000
 5746.00    0.84569   0.78095    0.000
 5747.00    0.89611   0.79393    0.000
 5748.00    0.90405   0.81767    0.000
 5749.00    0.87817   0.83561    0.000
 5750.00    0.85146   0.83947    0.000
 5751.00    0.82417   0.82963    0.000
 5752.00    0.81432   0.81095    0.000
 5753.00    0.81517   0.79083    0.000
 5754.00    0.82055   0.77845    0.000
 5755.00    0.82834   0.78278    0.000
 5756.00    0.82537   0.80347    0.000
 5757.00    0.81738   0.82636    0.000
 5758.00    0.84070   0.83939    0.000
 5759.00    0.87659   0.84295    0.000
 5760.00    0.88779   0.84154    0.000
 5761.00    0.89055   0.83751    0.000
 5762.00    0.89601   0.83219    0.000
 5763.00    0.90224   0.82617    0.000
 5764.00    0.91433   0.82050    0.000
 5765.00    0.92780   0.81682    0.000
 5766.00    0.91158   0.81492    0.000
 5767.00    0.88967   0.81589    0.000
 5768.00    0.87584   0.82077    0.000
 5769.00    0.86321   0.82511    0.000
 5770.00    0.84694   0.82183    0.000
 5771.00    0.83028   0.80671    0.000
 5772.00    0.82709   0.78150    0.000
 5773.00    0.82487   0.75729    0.000
 5774.00    0.84743   0.74631    0.000
 5775.00    0.87089   0.74655    0.000
 5776.00    0.90565   0.74702    0.000
 5777.00    0.93887   0.74775    0.000
 5778.00    0.91560   0.75856    0.000
 5779.00    0.88983   0.77894    0.000
 5780.00    0.82369   0.79691    0.000
 5781.00    0.76707   0.80409    0.000
 5782.00    0.80672   0.80090    0.000
 5783.00    0.84579   0.79623    0.000
 5784.00    0.88071   0.79960    0.000
 5785.00    0.90224   0.81037    0.000
 5786.00    0.84941   0.82202    0.000
 5787.00    0.81077   0.82804    0.000
 5788.00    0.83501   0.82313    0.000
 5789.00    0.85758   0.81091    0.000
 5790.00    0.87402   0.80581    0.000
 5791.00    0.88923   0.81650   -2.000
 5792.00    0.90069   0.83438   -2.000
 5793.00    0.92222   0.84627   -2.000
 5794.00    0.96991   0.84673   -2.000
 5795.00    0.99859   0.83596   -2.000
 5796.00    0.98486   0.81982   -2.000
 5797.00    0.95802   0.80856   -2.000
 5798.00    0.90583   0.80699   -2.000
 5799.00    0.87092   0.81147   -2.000
 5800.00    0.86517   0.81674   -2.000
 5801.00    0.86986   0.82135   -2.000
 5802.00    0.88997   0.82606   -2.000
 5803.00    0.89290   0.82949   -2.000
 5804.00    0.87350   0.82939   -2.000
 5805.00    0.85295   0.82501   -2.000
 5806.00    0.83108   0.81583   -2.000
 5807.00    0.82897   0.80407   -2.000
 5808.00    0.84682   0.79788   -2.000
 5809.00    0.86160   0.80439   -2.000
 5810.00    0.87365   0.81969   -2.000
 5811.00    0.88616   0.83303    0.000
 5812.00    0.89903   0.83887    0.000
 5813.00    0.88570   0.83845    0.000
 5814.00    0.85429   0.83475    0.000
 5815.00    0.85299   0.83124    0.000
 5816.00    0.86991   0.83080    0.000
 5817.00    0.87852   0.83273    0.000
 5818.00    0.88274   0.83396    0.000
 5819.00    0.88243   0.83395    0.000
 5820.00    0.88004   0.83478    0.000
 5821.00    0.90574   0.83683    0.000
 5822.00    0.94252   0.83768    0.000
 5823.00    0.94779   0.83616    0.000
 5824.00    0.94247   0.83319    0.000
 5825.00    0.90654   0.82845    0.000
 5826.00    0.86196   0.82249    0.000
 5827.00    0.85694   0.81955    0.000
 5828.00    0.86113   0.82108    0.000
 5829.00    0.87239   0.82197    0.000
 5830.00    0.88497   0.82051    0.000
 5831.00    0.89196   0.82237    0.000
 5832.00    0.89814   0.82983    0.000
 5833.00    0.90533   0.83775    0.000
 5834.00    0.91262   0.84138    0.000
 5835.00    0.88409   0.84002    0.000
 5836.00    0.85312   0.83459    0.000
 5837.00    0.84784   0.82613    0.000
 5838.00    0.84340   0.81629    0.000
 5839.00    0.85685   0.80831    0.000
 5840.00    0.87106   0.80546    0.000
 5841.00    0.90868   0.80701    0.000
 5842.00    0.94286   0.80742    0.000
 5843.00    0.92502   0.80094    0.000
 5844.00    0.90317   0.78794    0.000
 5845.00    0.84247   0.77671    0.000
 5846.00    0.78893   0.77411    0.000
 5847.00    0.78566   0.77412    0.000
 5848.00    0.78724   0.76557    0.000
 5849.00    0.81503   0.75149    0.000
 5850.00    0.83894   0.74715    0.000
 5851.00    0.84599   0.75823    0.000
 5852.00    0.84501   0.77459    0.000
 5853.00    0.81541   0.78452    0.000
 5854.00    0.79836   0.78660    0.000
 5855.00    0.81891   0.78761    0.000
 5856.00    0.84247   0.79061    0.000
 5857.00    0.87367   0.79085    0.000
 5858.00    0.88002   0.78687    0.000
 5859.00    0.83180   0.78611    0.000
 5860.00    0.79629   0.79369    0.000
 5861.00    0.78499   0.80458    0.000
 5862.00    0.79184   0.81093    0.000
 5863.00    0.82885   0.81013    0.000
 5864.00    0.86242   0.80521    0.000
 5865.00    0.89098   0.80184    0.000
 5866.00    0.89100   0.80266    0.000
 5867.00    0.85447   0.80398    0.000
 5868.00    0.83179   0.80137    0.000
 5869.00    0.82474   0.79494    0.000
 5870.00    0.83503   0.78636    0.000
 5871.00    0.86259   0.77687    0.000
 5872.00    0.87995   0.77030    0.000
 5873.00    0.88834   0.77013    0.000
 5874.00    0.87754   0.77244    0.000
 5875.00    0.85189   0.77103    0.000
 5876.00    0.83754   0.76716    0.000
 5877.00    0.83089   0.76383    0.000
 5878.00    0.80985   0.75360    0.000
 5879.00    0.78025   0.72014    0.000
 5880.00    0.75835   0.65557    0.000
 5881.00    0.74046   0.58261    0.000
 5882.00    0.74269   0.54750    0.000
 5883.00    0.75398   0.57026    0.000
 5884.00    0.75472   0.61951    0.000
 5885.00    0.75138   0.64900    0.000
 5886.00    0.74341   0.63786    0.000
 5887.00    0.73390   0.60348    0.000
 5888.00    0.72064   0.58949    0.000
 5889.00    0.70633   0.61939    0.000
 5890.00    0.71785   0.67075    0.000
 5891.00    0.73524   0.71252    0.000
 5892.00    0.73965   0.73871    0.000
 5893.00    0.74169   0.75526    0.000
 5894.00    0.72272   0.76496    0.000
 5895.00    0.70081   0.76923    0.000
 5896.00    0.69448   0.76920    0.000
 5897.00    0.68972   0.76684    0.000
 5898.00    0.68520   0.76664    0.000
 5899.00    0.68071   0.77096    0.000
 5900.00    0.71837   0.77662    0.000
 5901.00    0.75713   0.78036    0.011
 5902.00    0.75047   0.78296    0.011
 5903.00    0.74569   0.78401    0.011
 5904.00    0.79435   0.77866    0.011
 5905.00    0.83981   0.76531    0.011
 5906.00    0.83974   0.75181    0.011
 5907.00    0.83568   0.74697    0.011
 5908.00    0.79451   0.75199    0.011
 5909.00    0.75741   0.76191    0.010
 5910.00    0.74788   0.77134    0.010
 5911.00    0.74036   0.77781    0.010
 5912.00    0.74342   0.78034    0.010
 5913.00    0.74929   0.77874    0.010
 5914.00    0.76703   0.77601    0.010
 5915.00    0.78428   0.77631    0.010
 5916.00    0.79979   0.77994    0.010
 5917.00    0.80441   0.78394    0.010
 5918.00    0.77699   0.78472    0.010
 5919.00    0.75210   0.77975    0.010
 5920.00    0.73353   0.76986    0.010
 5921.00    0.72698   0.76065    0.010
 5922.00    0.74639   0.76000    0.010
 5923.00    0.76876   0.76887    0.010
 5924.00    0.79669   0.77722    0.010
 5925.00    0.81090   0.77548    0.010
 5926.00    0.80267   0.76767    0.010
 5927.00    0.77905   0.76544    0.010
 5928.00    0.73334   0.77206    0.010
 5929.00    0.71565   0.78121    0.010
 5930.00    0.73334   0.78697    0.010
 5931.00    0.74672   0.78608    0.010
 5932.00    0.75529   0.77805    0.010
 5933.00    0.74787   0.76886    0.010
 5934.00    0.72474   0.76654    0.011
 5935.00    0.71248   0.77229    0.011
 5936.00    0.70961   0.78126    0.011
 5937.00    0.73908   0.78796    0.010
 5938.00    0.79320   0.78766    0.010
 5939.00    0.77892   0.77872    0.010
 5940.00    0.71880   0.76691    0.010
 5941.00    0.69794   0.76207    0.010
 5942.00    0.70014   0.76567    0.010
 5943.00    0.73265   0.76796    0.010
 5944.00    0.78069   0.76382    0.010
 5945.00    0.79280   0.76086    0.010
 5946.00    0.78898   0.76390    0.010
 5947.00    0.77334   0.76592    0.010
 5948.00    0.75320   0.76193    0.010
 5949.00    0.74028   0.75803    0.010
 5950.00    0.72970   0.76125    0.010
 5951.00    0.74057   0.77088    0.010
 5952.00    0.75724   0.78166    0.010
 5953.00    0.78683   0.78931    0.010
 5954.00    0.81929   0.79231    0.010
 5955.00    0.80186   0.79111    0.010
 5956.00    0.77561   0.78650    0.010
 5957.00    0.73005   0.78094    0.010
 5958.00    0.68187   0.77941    0.010
 5959.00    0.68088   0.78366    0.010
 5960.00    0.68443   0.78989    0.010
 5961.00    0.71542   0.79488    0.010
 5962.00    0.74806   0.79831    0.010
 5963.00    0.77606   0.79982    0.010
 5964.00    0.80368   0.79874    0.010
 5965.00    0.78944   0.79438    0.010
 5966.00    0.77640   0.78537    0.010
 5967.00    0.79413   0.77244    0.010
 5968.00    0.80955   0.76083    0.010
 5969.00    0.79375   0.75630    0.010
 5970.00    0.77651   0.76026    0.010
 5971.00    0.74632   0.76978    0.010
 5972.00    0.71563   0.77854    0.010
 5973.00    0.68161   0.77922    0.010
 5974.00    0.65556   0.76877    0.010
 5975.00    0.67041   0.75235    0.010
 5976.00    0.69080   0.74166    0.010
 5977.00    0.73416   0.74419    0.010
 5978.00    0.77464   0.75472    0.010
 5979.00    0.80527   0.76447    0.010
 5980.00    0.81841   0.77133    0.010
 5981.00    0.78104   0.77533    0.010
 5982.00    0.75206   0.77504    0.010
 5983.00    0.74377   0.77310    0.010
 5984.00    0.75291   0.77574    0.010
 5985.00    0.79909   0.78323    0.010
 5986.00    0.81976   0.78807    0.010
 5987.00    0.79337   0.78433    0.010
 5988.00    0.76169   0.77351    0.010
 5989.00    0.72148   0.76277    0.010
 5990.00    0.70284   0.75906    0.010
 5991.00    0.71470   0.76273    0.010
 5992.00    0.73208   0.76743    0.010
 5993.00    0.75635   0.76698    0.010
 5994.00    0.77488   0.76246    0.010
 5995.00    0.78713   0.76061    0.010
 5996.00    0.80054   0.76272    0.010
 5997.00    0.81507   0.76127    0.010
 5998.00    0.79685   0.75143    0.010
 5999.00    0.75068   0.73903    0.010
 6000.00    0.72413   0.73634    0.010
 6001.00    0.71235   0.74840    0.010
 6002.00    0.72981   0.76368    0.010
 6003.00    0.76659   0.76714    0.010
 6004.00    0.77932   0.75875    0.010
 6005.00    0.77815   0.75069    0.010
 6006.00    0.76592   0.74994    0.010
 6007.00    0.74811   0.75162    0.010
 6008.00    0.76031   0.75084    0.010
 6009.00    0.78558   0.74987    0.010
 6010.00    0.79643   0.74908    0.010
 6011.00    0.80189   0.74536    0.010
 6012.00    0.80057   0.74091    0.010
 6013.00    0.79710   0.74090    0.010
 6014.00    0.79893   0.74504    0.010
 6015.00    0.80215   0.75033    0.010
 6016.00    0.82647   0.75643    0.010
 6017.00    0.85536   0.76307    0.010
 6018.00    0.83021   0.76776    0.010
 6019.00    0.79577   0.77136    0.010
 6020.00    0.76517   0.77666    0.010
 6021.00    0.73508   0.78161    0.010
 6022.00    0.76638   0.78351    0.010
 6023.00    0.80332   0.78450    0.010
 6024.00    0.81785   0.78693    0.010
 6025.00    0.83114   0.78940    0.010
 6026.00    0.80583   0.79016    0.010
 6027.00    0.77940   0.78997    0.010
 6028.00    0.72483   0.78997    0.010
 6029.00    0.67453   0.78953    0.010
 6030.00    0.72342   0.78725    0.010
 6031.00    0.77319   0.78318    0.010
 6032.00    0.83426   0.77937    0.010
 6033.00    0.88757   0.77816    0.010
 6034.00    0.87400   0.78079    0.010
 6035.00    0.86044   0.78660    0.010
 6036.00    0.84698   0.79223    0.010
 6037.00    0.82949   0.79516    0.010
 6038.00    0.79189   0.79600    0.010
 6039.00    0.75638   0.79563    0.010
 6040.00    0.72937   0.79466    0.010
 6041.00    0.70435   0.79448    0.010
 6042.00    0.68602   0.79483    0.010
 6043.00    0.66949   0.79243    0.010
 6044.00    0.65807   0.78602    0.010
 6045.00    0.66779   0.77844    0.010
 6046.00    0.72873   0.77230    0.010
 6047.00    0.77528   0.76761    0.010
 6048.00    0.79177   0.76524    0.010
 6049.00    0.79332   0.76753    0.010
 6050.00    0.76773   0.77408    0.010
 6051.00    0.74863   0.78096    0.010
 6052.00    0.73984   0.78392    0.010
 6053.00    0.72972   0.78088    0.010
 6054.00    0.71775   0.77242    0.010
 6055.00    0.70329   0.76026    0.010
 6056.00    0.68578   0.74835    0.010
 6057.00    0.67913   0.74506    0.010
 6058.00    0.68423   0.75676    0.010
 6059.00    0.67231   0.77664    0.010
 6060.00    0.64418   0.79148    0.010
 6061.00    0.65399   0.79724    0.010
 6062.00    0.69574   0.79835    0.010
 6063.00    0.72519   0.79917    0.010
 6064.00    0.74553   0.80034    0.010
 6065.00    0.75235   0.80059    0.010
 6066.00    0.75038   0.79872    0.010
 6067.00    0.74153   0.79361    0.010
 6068.00    0.72876   0.78453    0.010
 6069.00    0.73701   0.77269    0.010
 6070.00    0.75566   0.76284    0.010
 6071.00    0.78914   0.75921    0.010
 6072.00    0.82896   0.75849    0.010
 6073.00    0.83283   0.75526    0.010
 6074.00    0.82349   0.75219    0.010
 6075.00    0.78676   0.75336    0.010
 6076.00    0.74152   0.75606    0.009
 6077.00    0.71817   0.75764    0.009
 6078.00    0.70051   0.76033    0.009
 6079.00    0.72611   0.76391    0.009
 6080.00    0.76088   0.76326    0.010
 6081.00    0.78152   0.75639    0.010
 6082.00    0.79981   0.74899    0.009
 6083.00    0.81986   0.74694    0.010
 6084.00    0.84015   0.75001    0.010
 6085.00    0.84125   0.75651    0.010
 6086.00    0.84067   0.76512    0.010
 6087.00    0.81725   0.77128    0.010
 6088.00    0.79265   0.77163    0.010
 6089.00    0.76337   0.77025    0.010
 6090.00    0.73446   0.77176    0.010
 6091.00    0.73914   0.77218    0.010
 6092.00    0.74495   0.76120    0.010
 6093.00    0.77458   0.73557    0.010
 6094.00    0.80321   0.71120    0.010
 6095.00    0.81979   0.71041    0.010
 6096.00    0.83078   0.73234    0.010
 6097.00    0.79553   0.75469    0.010
 6098.00    0.76550   0.76372    0.010
 6099.00    0.76784   0.76411    0.010
 6100.00    0.77910   0.76531    0.010
 6101.00    0.83378   0.76853    0.010
 6102.00    0.87949   0.76863    0.010
 6103.00    0.88970   0.76646    0.010
 6104.00    0.89052   0.76845    0.010
 6105.00    0.86039   0.77449    0.010
 6106.00    0.82999   0.77721    0.010
 6107.00    0.79886   0.77308    0.010
 6108.00    0.77692   0.76732    0.010
 6109.00    0.77688   0.76473    0.010
 6110.00    0.77894   0.76066    0.010
 6111.00    0.78532   0.74816    0.010
 6112.00    0.77559   0.72856    0.010
 6113.00    0.73700   0.71183    0.010
 6114.00    0.71836   0.71082    0.010
 6115.00    0.73092   0.72746    0.010
 6116.00    0.74351   0.74646    0.010
 6117.00    0.75612   0.75393    0.010
 6118.00    0.75734   0.75107    0.010
 6119.00    0.74477   0.74599    0.010
 6120.00    0.74317   0.74514    0.010
 6121.00    0.75328   0.75098    0.010
 6122.00    0.74449   0.76055    0.010
 6123.00    0.71794   0.76827    0.010
 6124.00    0.69114   0.77010    0.010
 6125.00    0.66414   0.76213    0.010
 6126.00    0.64919   0.73985    0.010
 6127.00    0.64304   0.70531    0.010
 6128.00    0.65964   0.67470    0.010
 6129.00    0.69084   0.67060    0.010
 6130.00    0.70039   0.69666    0.010
 6131.00    0.69780   0.72819    0.010
 6132.00    0.71272   0.74061    0.010
 6133.00    0.73618   0.73782    0.010
 6134.00    0.79302   0.74010    0.010
 6135.00    0.86394   0.75342    0.010
 6136.00    0.87131   0.76645    0.010
 6137.00    0.85576   0.77020    0.010
 6138.00    0.79591   0.76515    0.010
 6139.00    0.72255   0.75505    0.010
 6140.00    0.69890   0.74422    0.010
 6141.00    0.68787   0.73752    0.010
 6142.00    0.71809   0.73808    0.010
 6143.00    0.75684   0.74423    0.010
 6144.00    0.75772   0.74951    0.010
 6145.00    0.75245   0.74795    0.010
 6146.00    0.75285   0.74139    0.010
 6147.00    0.75394   0.73713    0.010
 6148.00    0.79137   0.73696    0.010
 6149.00    0.83184   0.73599    0.010
 6150.00    0.83221   0.72850    0.010
 6151.00    0.83066   0.70854    0.010
 6152.00    0.81293   0.67504    0.010
 6153.00    0.79468   0.64188    0.010
 6154.00    0.76001   0.62972    0.010
 6155.00    0.72507   0.64374    0.010
 6156.00    0.68478   0.66974    0.010
 6157.00    0.64678   0.69156    0.010
 6158.00    0.63529   0.70289    0.010
 6159.00    0.62739   0.70108    0.010
 6160.00    0.64819   0.68664    0.010
 6161.00    0.66888   0.67336    0.010
 6162.00    0.68895   0.67775    0.010
 6163.00    0.70047   0.69614    0.010
 6164.00    0.67130   0.71135    0.010
 6165.00    0.65444   0.71691    0.010
 6166.00    0.68528   0.71761    0.010
 6167.00    0.71444   0.71702    0.010
 6168.00    0.73820   0.71722    0.010
 6169.00    0.74998   0.72089    0.010
 6170.00    0.72906   0.72631    0.010
 6171.00    0.71469   0.72947    0.010
 6172.00    0.71564   0.73170    0.010
 6173.00    0.72211   0.73538    0.010
 6174.00    0.73971   0.73829    0.010
 6175.00    0.74821   0.73790    0.010
 6176.00    0.74064   0.73355    0.010
 6177.00    0.73169   0.72484    0.010
 6178.00    0.72059   0.71422    0.010
 6179.00    0.71102   0.70608    0.010
 6180.00    0.70351   0.70034    0.010
 6181.00    0.70361   0.69103    0.010
 6182.00    0.71281   0.67674    0.010
 6183.00    0.71651   0.66988    0.010
 6184.00    0.71442   0.68118    0.010
 6185.00    0.71654   0.70236    0.010
 6186.00    0.72257   0.71939    0.010
 6187.00    0.73071   0.72879    0.010
 6188.00    0.74058   0.73239    0.010
 6189.00    0.73200   0.72862    0.010
 6190.00    0.71015   0.71698    0.010
 6191.00    0.69128   0.70569    0.010
 6192.00    0.67429   0.70551    0.010
 6193.00    0.67180   0.71643    0.010
 6194.00    0.67732   0.72840    0.010
 6195.00    0.76843   0.73415    0.010
 6196.00    0.90065   0.73489   -2.000
 6197.00    1.11767   0.73484   -2.000
 6198.00    1.36985   0.73541   -2.000
 6199.00    1.47787   0.73550   -2.000
 6200.00    1.53480   0.73394   -2.000
 6201.00    1.29783   0.72991   -2.000
 6202.00    0.97291   0.72293   -2.000
 6203.00    0.72321   0.71197   -2.000
 6204.00    0.49220   0.69580   -2.000
 6205.00    0.49003   0.67815   -2.000
 6206.00    0.53395   0.66717   -2.000
 6207.00    0.58612   0.66768   -2.000
 6208.00    0.63960   0.67640    0.010
 6209.00    0.63514   0.68386    0.010
 6210.00    0.62388   0.68308    0.010
 6211.00    0.59056   0.67794    0.010
 6212.00    0.55549   0.67753    0.010
 6213.00    0.57891   0.68407    0.010
 6214.00    0.60490   0.69156    0.010
 6215.00    0.63324   0.69507    0.009
 6216.00    0.66141   0.69639    0.009
 6217.00    0.68028   0.69848    0.009
 6218.00    0.69930   0.70008    0.009
 6219.00    0.72132   0.69678    0.009
 6220.00    0.74274   0.68421    0.009
 6221.00    0.75762   0.66429    0.009
 6222.00    0.76862   0.64885    0.010
 6223.00    0.74969   0.64903    0.010
 6224.00    0.73411   0.66410    0.010
 6225.00    0.73815   0.68592    0.010
 6226.00    0.73908   0.70513    0.009
 6227.00    0.72562   0.71382    0.010
 6228.00    0.71016   0.70988    0.010
 6229.00    0.68712   0.69790    0.010
 6230.00    0.67466   0.68431    0.010
 6231.00    0.69566   0.67434    0.010
 6232.00    0.71629   0.67052    0.010
 6233.00    0.73592   0.66885    0.010
 6234.00    0.74625   0.66411    0.010
 6235.00    0.73515   0.65891    0.010
 6236.00    0.72720   0.65799    0.010
 6237.00    0.72552   0.66202    0.010
 6238.00    0.71998   0.67152    0.010
 6239.00    0.70774   0.68542    0.010
 6240.00    0.69570   0.69721    0.010
 6241.00    0.68396   0.69992    0.010
 6242.00    0.68559   0.69130    0.009
 6243.00    0.70506   0.67513    0.009
 6244.00    0.71364   0.66040    0.009
 6245.00    0.70944   0.65389    0.009
 6246.00    0.68824   0.65328    0.009
 6247.00    0.64943   0.65109    0.009
 6248.00    0.63185   0.64429    0.009
 6249.00    0.63369   0.63815    0.009
 6250.00    0.63827   0.64100    0.009
 6251.00    0.64506   0.65460    0.009
 6252.00    0.64375   0.67242    0.009
 6253.00    0.63670   0.68845    0.009
 6254.00    0.62557   0.69947    0.009
 6255.00    0.61191   0.70163    0.009
 6256.00    0.60659   0.69583    0.010
 6257.00    0.60581   0.69104    0.010
 6258.00    0.63527   0.69276    0.010
 6259.00    0.67903   0.69600    0.010
 6260.00    0.76628   0.69547    0.011
 6261.00    0.87126   0.69350    0.012
 6262.00    0.89003   0.69477    0.012
 6263.00    0.87879   0.69957    0.013
 6264.00    0.82635   0.70433    0.013
 6265.00    0.76183   0.70629    0.013
 6266.00    0.67695   0.70625    0.012
 6267.00    0.58712   0.70608    0.011
 6268.00    0.56073   0.70554    0.010
 6269.00    0.54678   0.70290    0.010
 6270.00    0.60797   0.69665    0.010
 6271.00    0.68065   0.68837    0.009
 6272.00    0.73207   0.68368    0.009
 6273.00    0.78109   0.68673    0.009
 6274.00    0.76801   0.69525    0.009
 6275.00    0.75025   0.70332    0.009
 6276.00    0.72735   0.70769    0.009
 6277.00    0.70424   0.71055    0.009
 6278.00    0.67162   0.71545    0.009
 6279.00    0.63998   0.72156    0.009
 6280.00    0.65134   0.72421    0.000
 6281.00    0.66365   0.72031    0.000
 6282.00    0.69229   0.71198    0.000
 6283.00    0.71988   0.70438    0.000
 6284.00    0.73636   0.70111    0.000
 6285.00    0.74886   0.70151    0.000
 6286.00    0.73162   0.70055    0.000
 6287.00    0.71452   0.69397    0.000
 6288.00    0.69811   0.68499    0.000
 6289.00    0.68544   0.68104    0.000
 6290.00    0.68965   0.68293    0.000
 6291.00    0.69542   0.68341    0.000
 6292.00    0.70699   0.67830    0.000
 6293.00    0.71385   0.67348    0.000
 6294.00    0.70611   0.67646    0.000
 6295.00    0.69384   0.68559    0.000
 6296.00    0.66965   0.69426    0.000
 6297.00    0.65827   0.70153    0.000
 6298.00    0.67590   0.71015    0.000
 6299.00    0.69838   0.71798    0.000
 6300.00    0.73040   0.71931    0.000
 6301.00    0.75353   0.71289    0.000
 6302.00    0.76146   0.70387    0.000
 6303.00    0.75375   0.69790    0.000
 6304.00    0.72260   0.69476    0.000
 6305.00    0.68765   0.68985    0.000
 6306.00    0.64769   0.68262    0.000
 6307.00    0.61924   0.67689    0.000
 6308.00    0.60414   0.67262    0.000
 6309.00    0.59261   0.66828    0.000
 6310.00    0.58472   0.66846    0.000
 6311.00    0.58194   0.67653    0.000
 6312.00    0.58377   0.68678    0.000
 6313.00    0.60517   0.69345    0.000
 6314.00    0.64212   0.69864    0.000
 6315.00    0.66537   0.70537    0.000
 6316.00    0.67902   0.71150    0.000
 6317.00    0.67922   0.71380    0.000
 6318.00    0.67117   0.71313    0.000
 6319.00    0.66399   0.71250    0.000
 6320.00    0.65729   0.71228    0.000
 6321.00    0.65915   0.71117    0.009
 6322.00    0.66501   0.71076    0.009
 6323.00    0.68064   0.71326    0.009
 6324.00    0.70019   0.71452    0.009
 6325.00    0.71106   0.70674    0.009
 6326.00    0.71896   0.68984    0.009
 6327.00    0.71178   0.67498    0.009
 6328.00    0.70026   0.67269    0.009
 6329.00    0.70338   0.68110    0.009
 6330.00    0.70998   0.69201    0.009
 6331.00    0.70521   0.70130    0.009
 6332.00    0.69828   0.70676    0.009
 6333.00    0.68231   0.70442    0.009
 6334.00    0.66501   0.69459    0.009
 6335.00    0.66831   0.68515    0.009
 6336.00    0.67384   0.68356    0.009
 6337.00    0.68387   0.68916    0.009
 6338.00    0.69423   0.69680    0.009
 6339.00    0.68692   0.70401    0.009
 6340.00    0.67896   0.71019    0.010
 6341.00    0.68339   0.71425    0.010
 6342.00    0.68690   0.71580    0.010
 6343.00    0.65682   0.71448    0.010
 6344.00    0.62816   0.70850    0.009
 6345.00    0.62200   0.69838    0.010
 6346.00    0.61712   0.68948    0.010
 6347.00    0.62511   0.68573    0.010
 6348.00    0.63248   0.68286    0.010
 6349.00    0.63540   0.67507    0.009
 6350.00    0.63591   0.66473    0.009
 6351.00    0.62310   0.65743    0.009
 6352.00    0.60924   0.65315    0.009
 6353.00    0.59072   0.65040    0.009
 6354.00    0.58137   0.65180    0.009
 6355.00    0.60534   0.65947    0.009
 6356.00    0.63328   0.67083    0.009
 6357.00    0.67331   0.68234    0.009
 6358.00    0.70729   0.69279    0.009
 6359.00    0.72562   0.70093    0.009
 6360.00    0.74339   0.70422    0.009
 6361.00    0.75992   0.70334    0.010
 6362.00    0.75921   0.70385    0.010
 6363.00    0.72524   0.70938    0.010
 6364.00    0.68358   0.71647    0.010
 6365.00    0.62897   0.71982    0.010
 6366.00    0.60231   0.71919    0.010
 6367.00    0.61687   0.71730    0.010
 6368.00    0.63453   0.71420    0.010
 6369.00    0.65620   0.70858    0.010
 6370.00    0.67730   0.70219    0.010
 6371.00    0.69773   0.69851    0.010
 6372.00    0.71109   0.69883    0.010
 6373.00    0.71733   0.70158    0.010
 6374.00    0.71220   0.70371    0.010
 6375.00    0.69694   0.70363    0.010
 6376.00    0.69092   0.70385    0.009
 6377.00    0.69213   0.70697    0.009
 6378.00    0.68614   0.71117    0.009
 6379.00    0.67520   0.71351    0.009
 6380.00    0.66359   0.71402    0.009
 6381.00    0.65157   0.71272    0.009
 6382.00    0.64065   0.70612    0.009
 6383.00    0.63032   0.69189    0.009
 6384.00    0.63082   0.67661    0.009
 6385.00    0.63627   0.67293    0.009
 6386.00    0.62788   0.68497    0.009
 6387.00    0.61404   0.70216    0.009
 6388.00    0.59298   0.71065    0.009
 6389.00    0.56950   0.70399    0.009
 6390.00    0.58733   0.68569    0.009
 6391.00    0.61678   0.67025    0.009
 6392.00    0.62887   0.67308    0.010
 6393.00    0.63693   0.69223    0.010
 6394.00    0.63245   0.71106    0.010
 6395.00    0.62564   0.71917    0.010
 6396.00    0.62802   0.71735    0.010
 6397.00    0.63172   0.70885    0.010
 6398.00    0.61718   0.69782    0.010
 6399.00    0.60074   0.69097    0.010
 6400.00    0.59740   0.69164    0.010
 6401.00    0.59494   0.69389    0.009
 6402.00    0.64317   0.69137    0.009
 6403.00    0.69304   0.68798    0.009
 6404.00    0.69250   0.68954    0.009
 6405.00    0.69151   0.69446    0.009
 6406.00    0.67674   0.69934    0.009
 6407.00    0.66145   0.70316    0.009
 6408.00    0.63824   0.70393    0.009
 6409.00    0.61710   0.69886    0.009
 6410.00    0.61593   0.68777    0.009
 6411.00    0.61731   0.67580    0.009
 6412.00    0.63653   0.67237    0.009
 6413.00    0.65273   0.68253    0.009
 6414.00    0.65262   0.69953    0.009
 6415.00    0.64784   0.71177    0.009
 6416.00    0.62287   0.71621    0.009
 6417.00    0.60252   0.71818    0.009
 6418.00    0.59857   0.72021    0.009
 6419.00    0.59671   0.71794    0.009
 6420.00    0.60109   0.70651    0.010
 6421.00    0.60774   0.68875    0.010
 6422.00    0.62015   0.67594    0.010
 6423.00    0.63423   0.67725    0.010
 6424.00    0.65197   0.68974    0.009
 6425.00    0.67243   0.70341    0.009
 6426.00    0.69807   0.71141    0.010
 6427.00    0.71059   0.71109    0.010
 6428.00    0.70136   0.70140    0.010
 6429.00    0.69391   0.68604    0.010
 6430.00    0.68904   0.67687    0.010
 6431.00    0.68174   0.68390    0.010
 6432.00    0.67132   0.70188    0.009
 6433.00    0.65005   0.71716    0.009
 6434.00    0.61653   0.72399    0.009
 6435.00    0.60207   0.72592    0.009
 6436.00    0.60655   0.72718    0.009
 6437.00    0.62275   0.72701    0.009
 6438.00    0.64922   0.71945    0.009
 6439.00    0.65439   0.69913    0.009
 6440.00    0.64311   0.67125    0.010
 6441.00    0.62530   0.65335    0.009
 6442.00    0.60305   0.65821    0.009
 6443.00    0.58857   0.67838    0.009
 6444.00    0.57873   0.69599    0.009
 6445.00    0.58484   0.70029    0.010
 6446.00    0.59923   0.69375    0.010
 6447.00    0.60602   0.68841    0.010
 6448.00    0.60939   0.69383    0.010
 6449.00    0.59556   0.70726    0.010
 6450.00    0.57507   0.71784    0.010
 6451.00    0.55153   0.71648    0.010
 6452.00    0.52700   0.70095    0.009
 6453.00    0.56048   0.67962    0.009
 6454.00    0.60997   0.66886    0.009
 6455.00    0.64551   0.67641    0.009
 6456.00    0.67790   0.69310    0.009
 6457.00    0.66923   0.70687    0.009
 6458.00    0.65311   0.71364    0.009
 6459.00    0.65240   0.71386    0.009
 6460.00    0.65384   0.70879    0.009
 6461.00    0.66105   0.70147    0.009
 6462.00    0.66882   0.69629    0.009
 6463.00    0.65383   0.69675    0.009
 6464.00    0.63740   0.70125    0.009
 6465.00    0.63928   0.70366    0.009
 6466.00    0.64170   0.70261    0.009
 6467.00    0.65075   0.70299    0.010
 6468.00    0.65900   0.70633    0.010
 6469.00    0.64508   0.70853    0.010
 6470.00    0.63355   0.70649    0.009
 6471.00    0.65573   0.69906    0.010
 6472.00    0.67597   0.68646    0.010
 6473.00    0.67818   0.67432    0.010
 6474.00    0.67767   0.67114    0.010
 6475.00    0.65876   0.67822    0.010
 6476.00    0.64049   0.68886    0.010
 6477.00    0.62562   0.69694    0.010
 6478.00    0.61267   0.70106    0.009
 6479.00    0.60784   0.70147    0.009
 6480.00    0.60362   0.69759    0.009
 6481.00    0.60154   0.68963    0.009
 6482.00    0.60256   0.67852    0.009
 6483.00    0.61265   0.66206    0.009
 6484.00    0.62232   0.63675    0.009
 6485.00    0.63090   0.60751    0.009
 6486.00    0.64117   0.58826    0.009
 6487.00    0.65508   0.58739    0.009
 6488.00    0.65899   0.60016    0.009
 6489.00    0.64421   0.61681    0.009
 6490.00    0.62711   0.63214    0.009
 6491.00    0.60621   0.64732    0.009
 6492.00    0.59442   0.66258    0.010
 6493.00    0.59571   0.67500    0.010
 6494.00    0.59727   0.68346    0.010
 6495.00    0.59916   0.68931    0.009
 6496.00    0.59446   0.69372    0.009
 6497.00    0.58244   0.69593    0.009
 6498.00    0.57286   0.69454    0.010
 6499.00    0.56567   0.69095    0.010
 6500.00    0.55977   0.68941    0.010
 6501.00    0.55499   0.69175    0.009
 6502.00    0.54118   0.69519    0.009
 6503.00    0.52050   0.69660    0.009
 6504.00    0.51805   0.69529    0.009
 6505.00    0.52781   0.69099    0.009
 6506.00    0.56101   0.68401    0.009
 6507.00    0.60794   0.67682    0.009
 6508.00    0.64513   0.67178    0.009
 6509.00    0.67732   0.67007    0.009
 6510.00    0.68077   0.67353    0.009
 6511.00    0.67149   0.68191    0.009
 6512.00    0.64875   0.69051    0.009
 6513.00    0.62089   0.69529    0.009
 6514.00    0.59794   0.69677    0.009
 6515.00    0.57658   0.69661    0.009
 6516.00    0.56365   0.69388    0.009
 6517.00    0.55300   0.68792    0.009
 6518.00    0.56381   0.68262    0.009
 6519.00    0.57938   0.68266    0.009
 6520.00    0.58924   0.68678    0.009
 6521.00    0.59808   0.68920    0.010
 6522.00    0.61172   0.68641    0.009
 6523.00    0.62601   0.68072    0.009
 6524.00    0.65210   0.67798    0.009
 6525.00    0.67931   0.68141    0.009
 6526.00    0.71316   0.68791    0.009
 6527.00    0.74740   0.69171    0.009
 6528.00    0.74951   0.69177    0.000
 6529.00    0.75052   0.69233    0.000
 6530.00    0.70972   0.69549    0.000
 6531.00    0.67091   0.69762    0.000
 6532.00    0.68208   0.69492    0.000
 6533.00    0.69247   0.68809    0.000
 6534.00    0.69238   0.67977    0.000
 6535.00    0.69251   0.67053    0.000
 6536.00    0.69468   0.66011    0.000
 6537.00    0.69510   0.65212    0.000
 6538.00    0.68400   0.65185    0.000
 6539.00    0.67227   0.65825    0.000
 6540.00    0.65729   0.66413    0.000
 6541.00    0.64427   0.66438    0.000
 6542.00    0.63929   0.65966    0.000
 6543.00    0.64492   0.65283    0.000
 6544.00    0.68677   0.64459    0.000
 6545.00    0.72526   0.63497    0.000
 6546.00    0.75407   0.62681    0.000
 6547.00    0.77352   0.62373    0.000
 6548.00    0.76992   0.62487    0.000
 6549.00    0.75984   0.62443    0.000
 6550.00    0.73600   0.61526    0.000
 6551.00    0.70255   0.58961    0.000
 6552.00    0.65139   0.54418    0.000
 6553.00    0.61623   0.49531    0.000
 6554.00    0.60682   0.47725    0.000
 6555.00    0.60992   0.50572    0.000
 6556.00    0.63069   0.55832    0.000
 6557.00    0.68697   0.60325    0.000
 6558.00    0.78739   0.62754    0.000
 6559.00    0.90598   0.63473    0.000
 6560.00    1.04446   0.63410    0.000
 6561.00    1.14138   0.63334    0.000
 6562.00    1.19816   0.63328    0.000
 6563.00    1.16834   0.63060    0.000
 6564.00    1.06475   0.62555    0.000
 6565.00    0.94649   0.62337    0.000
 6566.00    0.81724   0.62929    0.000
 6567.00    0.73904   0.64290    0.000
 6568.00    0.69450   0.65754    0.000
 6569.00    0.66884   0.66593    0.000
 6570.00    0.65408   0.66564    0.000
 6571.00    0.64659   0.66026    0.000
 6572.00    0.64276   0.65655    0.000
 6573.00    0.62856   0.65836    0.000
 6574.00    0.60984   0.66326    0.000
 6575.00    0.59834   0.66642    0.000
 6576.00    0.58955   0.66631    0.000
 6577.00    0.61232   0.66598    0.000
 6578.00    0.64509   0.66882    0.000
 6579.00    0.68787   0.67386    0.000
 6580.00    0.73329   0.67668    0.000
 6581.00    0.77493   0.67251    0.000
 6582.00    0.81575   0.65854    0.000
 6583.00    0.82486   0.63869    0.000
 6584.00    0.82854   0.62525    0.000
 6585.00    0.78048   0.62761    0.000
 6586.00    0.72570   0.64087    0.000
 6587.00    0.66467   0.65246    0.000
 6588.00    0.60307   0.65646    0.000
 6589.00    0.61424   0.65695    0.000
 6590.00    0.62943   0.66041    0.000
 6591.00    0.65127   0.66802    0.000
 6592.00    0.67285   0.67529    0.000
 6593.00    0.65520   0.67765    0.000
 6594.00    0.63761   0.67437    0.000
 6595.00    0.62148   0.66782    0.000
 6596.00    0.60381   0.66094    0.000
 6597.00    0.56654   0.65482    0.000
 6598.00    0.53388   0.64863    0.000
 6599.00    0.54075   0.64311    0.000
 6600.00    0.54996   0.64287    0.000
 6601.00    0.57414   0.65090    0.000
 6602.00    0.59478   0.66233    0.000
 6603.00    0.59782   0.66914    0.000
 6604.00    0.59590   0.67013    0.000
 6605.00    0.57398   0.67072    0.000
 6606.00    0.55927   0.67363    0.000
 6607.00    0.56868   0.67598    0.000
 6608.00    0.58638   0.67582    0.000
 6609.00    0.62750   0.67531    0.009
 6610.00    0.65101   0.67648    0.009
 6611.00    0.63193   0.67821    0.009
 6612.00    0.61807   0.67776    0.009
 6613.00    0.61508   0.67297    0.009
 6614.00    0.61333   0.66399    0.010
 6615.00    0.61383   0.65489    0.010
 6616.00    0.61104   0.65122    0.010
 6617.00    0.60302   0.65394    0.009
 6618.00    0.59711   0.65848    0.009
 6619.00    0.59413   0.66060    0.009
 6620.00    0.58975   0.65961    0.009
 6621.00    0.58366   0.65620    0.009
 6622.00    0.57802   0.65025    0.009
 6623.00    0.57285   0.64189    0.009
 6624.00    0.56598   0.63444    0.009
 6625.00    0.55747   0.63346    0.009
 6626.00    0.56475   0.64059    0.009
 6627.00    0.58529   0.65093    0.009
 6628.00    0.58361   0.65801    0.009
 6629.00    0.56550   0.65949    0.009
 6630.00    0.54188   0.65805    0.009
 6631.00    0.51469   0.65741    0.009
 6632.00    0.52502   0.65686    0.009
 6633.00    0.55669   0.65280    0.010
 6634.00    0.59293   0.64666    0.010
 6635.00    0.63143   0.64482    0.009
 6636.00    0.63385   0.64887    0.010
 6637.00    0.62083   0.65374    0.010
 6638.00    0.58775   0.65595    0.010
 6639.00    0.54732   0.65683    0.009
 6640.00    0.55591   0.65762    0.009
 6641.00    0.57973   0.65723    0.010
 6642.00    0.59523   0.65516    0.009
 6643.00    0.60858   0.65299    0.009
 6644.00    0.59322   0.65229    0.009
 6645.00    0.57180   0.65293    0.009
 6646.00    0.55284   0.65364    0.009
 6647.00    0.53428   0.65361    0.009
 6648.00    0.53924   0.65316    0.009
 6649.00    0.54716   0.65243    0.009
 6650.00    0.56730   0.65048    0.009
 6651.00    0.58851   0.64643    0.009
 6652.00    0.58936   0.63998    0.009
 6653.00    0.58916   0.63199    0.009
 6654.00    0.57916   0.62604    0.009
 6655.00    0.56923   0.62578    0.009
 6656.00    0.57754   0.62985    0.009
 6657.00    0.58550   0.63381    0.009
 6658.00    0.58625   0.63657    0.009
 6659.00    0.58631   0.64049    0.009
 6660.00    0.57803   0.64653    0.009
 6661.00    0.57152   0.65257    0.009
 6662.00    0.57967   0.65618    0.009
 6663.00    0.58272   0.65712    0.009
 6664.00    0.55427   0.65684    0.009
 6665.00    0.52560   0.65560    0.009
 6666.00    0.49589   0.65062    0.009
 6667.00    0.47563   0.63894    0.009
 6668.00    0.49268   0.62389    0.009
 6669.00    0.52456   0.61548    0.009
 6670.00    0.60511   0.61920    0.009
 6671.00    0.66693   0.62914    0.009
 6672.00    0.67670   0.63700    0.009
 6673.00    0.68397   0.64137    0.009
 6674.00    0.68532   0.64452    0.009
 6675.00    0.67700   0.64704    0.009
 6676.00    0.64881   0.64815    0.009
 6677.00    0.61824   0.64766    0.009
 6678.00    0.58342   0.64642    0.009
 6679.00    0.56962   0.64587    0.010
 6680.00    0.58869   0.64669    0.009
 6681.00    0.58856   0.64798    0.009
 6682.00    0.56208   0.64855    0.009
 6683.00    0.54225   0.64805    0.010
 6684.00    0.53047   0.64597    0.010
 6685.00    0.52758   0.64106    0.009
 6686.00    0.53416   0.63352    0.009
 6687.00    0.53162   0.62688    0.009
 6688.00    0.52051   0.62528    0.009
 6689.00    0.52748   0.62947    0.009
 6690.00    0.54941   0.63672    0.009
 6691.00    0.56399   0.64292    0.009
 6692.00    0.57321   0.64464    0.009
 6693.00    0.56453   0.64118    0.009
 6694.00    0.54440   0.63532    0.009
 6695.00    0.53442   0.63135    0.009
 6696.00    0.53011   0.63144    0.000
 6697.00    0.55431   0.63407    0.000
 6698.00    0.59239   0.63656    0.000
 6699.00    0.59308   0.63758    0.000
 6700.00    0.57802   0.63684    0.000
 6701.00    0.58308   0.63479    0.000
 6702.00    0.59537   0.63232    0.000
 6703.00    0.61709   0.62925    0.000
 6704.00    0.64168   0.62456    0.000
 6705.00    0.64467   0.61787    0.000
 6706.00    0.64220   0.60959    0.000
 6707.00    0.62109   0.60183    0.000
 6708.00    0.59615   0.59911    0.000
 6709.00    0.57092   0.60462    0.000
 6710.00    0.54564   0.61507    0.000
 6711.00    0.57362   0.62345    0.000
 6712.00    0.60806   0.62722    0.000
 6713.00    0.67246   0.62930    0.000
 6714.00    0.73935   0.63147    0.000
 6715.00    0.76121   0.63173    0.000
 6716.00    0.78094   0.62911    0.000
 6717.00    0.69459   0.62652    0.000
 6718.00    0.60740   0.62704    0.000
 6719.00    0.55740   0.63021    0.000
 6720.00    0.51300   0.63371    0.000
 6721.00    0.57789   0.63589    0.000
 6722.00    0.63842   0.63590    0.000
 6723.00    0.64896   0.63393    0.000
 6724.00    0.65745   0.63182    0.000
 6725.00    0.64963   0.63147    0.000
 6726.00    0.64175   0.63233    0.000
 6727.00    0.63353   0.63159    0.000
 6728.00    0.62550   0.62768    0.000
 6729.00    0.61832   0.62284    0.000
 6730.00    0.61299   0.62072    0.000
 6731.00    0.61481   0.62167    0.000
 6732.00    0.60931   0.62247    0.000
 6733.00    0.58023   0.62129    0.000
 6734.00    0.55854   0.62016    0.000
 6735.00    0.55696   0.62095    0.000
 6736.00    0.56267   0.62195    0.000
 6737.00    0.58540   0.62077    0.000
 6738.00    0.59723   0.61754    0.000
 6739.00    0.58702   0.61394    0.000
 6740.00    0.58219   0.61152    0.000
 6741.00    0.58685   0.61120    0.000
 6742.00    0.58086   0.61231    0.000
 6743.00    0.55851   0.61339    0.000
 6744.00    0.54838   0.61481    0.000
 6745.00    0.55479   0.61783    0.000
 6746.00    0.55155   0.62225    0.000
 6747.00    0.53681   0.62721    0.000
 6748.00    0.53313   0.63223    0.000
 6749.00    0.54107   0.63630    0.000
 6750.00    0.53993   0.63838    0.000
 6751.00    0.53039   0.63835    0.000
 6752.00    0.52618   0.63700    0.000
 6753.00    0.52633   0.63568    0.010
 6754.00    0.55621   0.63492    0.010
 6755.00    0.60746   0.63322    0.011
 6756.00    0.61610   0.62860    0.011
 6757.00    0.59789   0.62173    0.011
 6758.00    0.59011   0.61637    0.011
 6759.00    0.58807   0.61537    0.011
 6760.00    0.63816   0.61701    0.011
 6761.00    0.71321   0.61796    0.011
 6762.00    0.71569   0.61873    0.011
 6763.00    0.68815   0.62228    0.011
 6764.00    0.65666   0.62876    0.011
 6765.00    0.62376   0.63528    0.011
 6766.00    0.61805   0.63941    0.011
 6767.00    0.62045   0.64087    0.011
 6768.00    0.60368   0.64102    0.011
 6769.00    0.58216   0.64132    0.011
 6770.00    0.58886   0.64120    0.011
 6771.00    0.60123   0.63820    0.011
 6772.00    0.62434   0.63077    0.010
 6773.00    0.64913   0.62015    0.010
 6774.00    0.62250   0.61010    0.010
 6775.00    0.58987   0.60449    0.010
 6776.00    0.57805   0.60481    0.010
 6777.00    0.56786   0.60979    0.010
 6778.00    0.60549   0.61662    0.010
 6779.00    0.64521   0.62199    0.010
 6780.00    0.62502   0.62438    0.011
 6781.00    0.60469   0.62492    0.011
 6782.00    0.60749   0.62439    0.010
 6783.00    0.61075   0.62191    0.010
 6784.00    0.62241   0.61799    0.010
 6785.00    0.62846   0.61525    0.010
 6786.00    0.57318   0.61522    0.010
 6787.00    0.51620   0.61724    0.010
 6788.00    0.44618   0.62009    0.010
 6789.00    0.39622   0.62276    0.010
 6790.00    0.46323   0.62501    0.010
 6791.00    0.52185   0.62695    0.011
 6792.00    0.54173   0.62790    0.010
 6793.00    0.55591   0.62703    0.010
 6794.00    0.54854   0.62486    0.010
 6795.00    0.54376   0.62306    0.010
 6796.00    0.54721   0.62218    0.011
 6797.00    0.56049   0.62149    0.011
 6798.00    0.60010   0.62093    0.010
 6799.00    0.63269   0.62061    0.010
 6800.00    0.64914   0.62004    0.010
 6801.00    0.65174   0.62000    0.010
 6802.00    0.62683   0.62118    0.010
 6803.00    0.61067   0.62174    0.010
 6804.00    0.60970   0.61988    0.010
 6805.00    0.60903   0.61719    0.010
 6806.00    0.60881   0.61726    0.010
 6807.00    0.59548   0.62093    0.010
 6808.00    0.56468   0.62445    0.009
 6809.00    0.56391   0.62431    0.009
 6810.00    0.59839   0.62167    0.010
 6811.00    0.61644   0.62050    0.010
 6812.00    0.61748   0.62305    0.010
 6813.00    0.61222   0.62776    0.011
 6814.00    0.60120   0.63157    0.011
 6815.00    0.59142   0.63281    0.011
 6816.00    0.58264   0.63109    0.011
 6817.00    0.56889   0.62639    0.010
 6818.00    0.55163   0.62017    0.010
 6819.00    0.54569   0.61625    0.010
 6820.00    0.54677   0.61750    0.010
 6821.00    0.55280   0.62195    0.010
 6822.00    0.56150   0.62526    0.010
 6823.00    0.56402   0.62610    0.010
 6824.00    0.56361   0.62654    0.010
 6825.00    0.56473   0.62778    0.010
 6826.00    0.56646   0.62801    0.010
 6827.00    0.53718   0.62511    0.010
 6828.00    0.49713   0.61910    0.010
 6829.00    0.49941   0.61107    0.010
 6830.00    0.51409   0.60221    0.010
 6831.00    0.56471   0.59429    0.010
 6832.00    0.62405   0.59006    0.010
 6833.00    0.62550   0.59207    0.010
 6834.00    0.61563   0.59999    0.010
 6835.00    0.58014   0.60999    0.010
 6836.00    0.54074   0.61766    0.010
 6837.00    0.56110   0.62145    0.010
 6838.00    0.58817   0.62262    0.011
 6839.00    0.61925   0.62250    0.011
 6840.00    0.65063   0.62162    0.011
 6841.00    0.64450   0.62070    0.011
 6842.00    0.63688   0.62007    0.011
 6843.00    0.60583   0.61826    0.010
 6844.00    0.57549   0.61300    0.010
 6845.00    0.57970   0.60506    0.010
 6846.00    0.57925   0.59922    0.010
 6847.00    0.50022   0.59870    0.010
 6848.00    0.42940   0.60160    0.010
 6849.00    0.44445   0.60407    0.010
 6850.00    0.46233   0.60338    0.010
 6851.00    0.50119   0.59981    0.010
 6852.00    0.54023   0.59807    0.009
 6853.00    0.58027   0.60276    0.009
 6854.00    0.61507   0.61154    0.009
 6855.00    0.62619   0.61728    0.010
 6856.00    0.62634   0.61598    0.010
 6857.00    0.58582   0.60948    0.010
 6858.00    0.55538   0.60277    0.010
 6859.00    0.55617   0.60043    0.010
 6860.00    0.55990   0.60282    0.010
 6861.00    0.57137   0.60559    0.010
 6862.00    0.58741   0.60540    0.010
 6863.00    0.61377   0.60395    0.010
 6864.00    0.62567   0.60406    0.010
 6865.00    0.60926   0.60564    0.010
 6866.00    0.58695   0.60789    0.010
 6867.00    0.55459   0.61126    0.010
 6868.00    0.53296   0.61516    0.010
 6869.00    0.52738   0.61712    0.010
 6870.00    0.50116   0.61511    0.010
 6871.00    0.44782   0.60942    0.010
 6872.00    0.44455   0.60288    0.010
 6873.00    0.49921   0.59961    0.010
 6874.00    0.53871   0.60162    0.009
 6875.00    0.56273   0.60633    0.009
 6876.00    0.57443   0.61030    0.009
 6877.00    0.57505   0.61357    0.009
 6878.00    0.56322   0.61761    0.010
 6879.00    0.54154   0.62189    0.010
 6880.00    0.55714   0.62513    0.010
 6881.00    0.59877   0.62693    0.010
 6882.00    0.60628   0.62700    0.010
 6883.00    0.59291   0.62532    0.010
 6884.00    0.58834   0.62283    0.010
 6885.00    0.58847   0.62047    0.010
 6886.00    0.58646   0.61885    0.010
 6887.00    0.58345   0.61866    0.010
 6888.00    0.57343   0.61973    0.010
 6889.00    0.56062   0.62029    0.010
 6890.00    0.58270   0.61946    0.010
 6891.00    0.61669   0.61898    0.010
 6892.00    0.59627   0.62056    0.010
 6893.00    0.56026   0.62296    0.010
 6894.00    0.56347   0.62384    0.010
 6895.00    0.57597   0.62331    0.010
 6896.00    0.57214   0.62363    0.010
 6897.00    0.56521   0.62584    0.010
 6898.00    0.56986   0.62844    0.010
 6899.00    0.57622   0.62959    0.010
 6900.00    0.61792   0.62875    0.010
 6901.00    0.66342   0.62604    0.010
 6902.00    0.66277   0.62167    0.010
 6903.00    0.65885   0.61608    0.010
 6904.00    0.58682   0.61069    0.010
 6905.00    0.51235   0.60774    0.010
 6906.00    0.54092   0.60788    0.010
 6907.00    0.56959   0.60973    0.010
 6908.00    0.58974   0.61254    0.010
 6909.00    0.60997   0.61659    0.010
 6910.00    0.63164   0.62143    0.010
 6911.00    0.64502   0.62545    0.010
 6912.00    0.57547   0.62634    0.010
 6913.00    0.51388   0.62224    0.010
 6914.00    0.50950   0.61385    0.010
 6915.00    0.50795   0.60556    0.010
 6916.00    0.52198   0.60256    0.010
 6917.00    0.53890   0.60612    0.010
 6918.00    0.56852   0.61279    0.010
 6919.00    0.58439   0.61826    0.010
 6920.00    0.55038   0.62059    0.010
 6921.00    0.52792   0.61981    0.010
 6922.00    0.54054   0.61659    0.010
 6923.00    0.54969   0.61295    0.010
 6924.00    0.54983   0.61202    0.010
 6925.00    0.54031   0.61464    0.010
 6926.00    0.50933   0.61808    0.010
 6927.00    0.50619   0.61982    0.010
 6928.00    0.55667   0.62055    0.010
 6929.00    0.58436   0.62221    0.010
 6930.00    0.57374   0.62492    0.010
 6931.00    0.56202   0.62652    0.010
 6932.00    0.54868   0.62455    0.010
 6933.00    0.54201   0.61839    0.010
 6934.00    0.54398   0.61001    0.010
 6935.00    0.54004   0.60370    0.010
 6936.00    0.52936   0.60357    0.010
 6937.00    0.53531   0.60947    0.010
 6938.00    0.55797   0.61681    0.010
 6939.00    0.58729   0.62109    0.010
 6940.00    0.62252   0.62059    0.010
 6941.00    0.62279   0.61628    0.010
 6942.00    0.59573   0.61102    0.010
 6943.00    0.56790   0.60757    0.010
 6944.00    0.53956   0.60696    0.010
 6945.00    0.52521   0.60925    0.010
 6946.00    0.51931   0.61363    0.010
 6947.00    0.51966   0.61801    0.010
 6948.00    0.52330   0.62054    0.011
 6949.00    0.51196   0.62135    0.011
 6950.00    0.49380   0.62183    0.011
 6951.00    0.50153   0.62294    0.011
 6952.00    0.51943   0.62461    0.011
 6953.00    0.52165   0.62598    0.011
 6954.00    0.51864   0.62597    0.011
 6955.00    0.55720   0.62421    0.011
 6956.00    0.60743   0.62237    0.011
 6957.00    0.58417   0.62316    0.010
 6958.00    0.54390   0.62657    0.010
 6959.00    0.54148   0.62903    0.010
 6960.00    0.54609   0.62783    0.010
 6961.00    0.49979   0.62462    0.010
 6962.00    0.44620   0.62316    0.010
 6963.00    0.46438   0.62399    0.010
 6964.00    0.48999   0.62332    0.010
 6965.00    0.50374   0.61795    0.010
 6966.00    0.51671   0.60800    0.011
 6967.00    0.50308   0.59513    0.011
 6968.00    0.48860   0.58258    0.011
 6969.00    0.52511   0.57675    0.011
 6970.00    0.55847   0.58246    0.011
 6971.00    0.49491   0.59673    0.011
 6972.00    0.43876   0.61172    0.011
 6973.00    0.49270   0.62225    0.011
 6974.00    0.54287   0.62761    0.011
 6975.00    0.55686   0.62914    0.011
 6976.00    0.56375   0.62842    0.011
 6977.00    0.52138   0.62626    0.011
 6978.00    0.49022   0.62272    0.010
 6979.00    0.51931   0.61869    0.010
 6980.00    0.53904   0.61667    0.010
 6981.00    0.51848   0.61847    0.010
 6982.00    0.50602   0.62254    0.010
 6983.00    0.52234   0.62536    0.010
 6984.00    0.54079   0.62528    0.010
 6985.00    0.56563   0.62407    0.011
 6986.00    0.57381   0.62379    0.011
 6987.00    0.53964   0.62350    0.011
 6988.00    0.50435   0.62028    0.011
 6989.00    0.46661   0.61372    0.011
 6990.00    0.44918   0.60791    0.011
 6991.00    0.47030   0.60734    0.011
 6992.00    0.48906   0.61102    0.011
 6993.00    0.50391   0.61340    0.011
 6994.00    0.50346   0.61127    0.011
 6995.00    0.48082   0.60711    0.011
 6996.00    0.50916   0.60527    0.011
 6997.00    0.60257   0.60732    0.011
 6998.00    0.61078   0.61176    0.011
 6999.00    0.52317   0.61593    0.011
 7000.00    0.45940   0.61768    0.011
 7001.00    0.41926   0.61704    0.011
 7002.00    0.41278   0.61611    0.011
 7003.00    0.43574   0.61543    0.011
 7004.00    0.45099   0.61168    0.010
 7005.00    0.46028   0.60202    0.010
 7006.00    0.49515   0.59061    0.010
 7007.00    0.54735   0.58697    0.011
 7008.00    0.54305   0.59548    0.011
 7009.00    0.50521   0.60992    0.011
 7010.00    0.52747   0.62081    0.011
 7011.00    0.58086   0.62359    0.011
 7012.00    0.61956   0.61861    0.011
 7013.00    0.65166   0.60912    0.011
 7014.00    0.58719   0.60083    0.011
 7015.00    0.48545   0.59884    0.011
 7016.00    0.48360   0.60319    0.012
 7017.00    0.51455   0.60951    0.012
 7018.00    0.50389   0.61429    0.012
 7019.00    0.48179   0.61732    0.012
 7020.00    0.48141   0.61940    0.011
 7021.00    0.48595   0.62026    0.011
 7022.00    0.49869   0.61949    0.011
 7023.00    0.51290   0.61792    0.011
 7024.00    0.46667   0.61722    0.011
 7025.00    0.41207   0.61795    0.011
 7026.00    0.44523   0.61806    0.011
 7027.00    0.48711   0.61433    0.011
 7028.00    0.47547   0.60813    0.011
 7029.00    0.46047   0.60689    0.011
 7030.00    0.49128   0.61548    0.011
 7031.00    0.52299   0.62946    0.012
 7032.00    0.44979   0.64030    0.012
 7033.00    0.38389   0.64332    0.012
 7034.00    0.51869   0.63958    0.012
 7035.00    0.63924   0.63401    0.012
 7036.00    0.55974   0.63205    0.012
 7037.00    0.48874   0.63540    0.012
 7038.00    0.49601   0.64106    0.012
 7039.00    0.49983   0.64455    0.012
 7040.00    0.48038   0.64285    0.012
 7041.00    0.46332   0.63469    0.011
 7042.00    0.45876   0.62062    0.011
 7043.00    0.46314   0.60426    0.011
 7044.00    0.50515   0.59141    0.011
 7045.00    0.53535   0.58619    0.011
 7046.00    0.52450   0.58818    0.011
 7047.00    0.52026   0.59264    0.011
 7048.00    0.53533   0.59375    0.011
 7049.00    0.55901   0.58918    0.011
 7050.00    0.60414   0.58213   -2.000
 7051.00    0.62890   0.57805   -2.000
 7052.00    0.60984   0.57921   -2.000
 7053.00    0.61174   0.58376   -2.000
 7054.00    0.65277   0.58833   -2.000
 7055.00    0.65344   0.58946   -2.000
 7056.00    0.58826   0.58493   -2.000
 7057.00    0.56936   0.57641   -2.000
 7058.00    0.61666   0.56946   -2.000
 7059.00    0.64456   0.56954   -2.000
 7060.00    0.64805   0.57724   -2.000
 7061.00    0.60092   0.58752   -2.000
 7062.00    0.49765   0.59486   -2.000
 7063.00    0.51665   0.59790   -2.000
 7064.00    0.65523   0.59830   -2.000
 7065.00    0.66128   0.59763   -2.000
 7066.00    0.55303   0.59695   -2.000
 7067.00    0.50173   0.59720   -2.000
 7068.00    0.49370   0.59873   -2.000
 7069.00    0.52717   0.60098   -2.000
 7070.00    0.58837   0.60277   -2.000
 7071.00    0.61441   0.60196   -2.000
 7072.00    0.61988   0.59578   -2.000
 7073.00    0.61814   0.58375   -2.000
 7074.00    0.61272   0.57003   -2.000
 7075.00    0.61689   0.56076   -2.000
 7076.00    0.62529   0.55805   -2.000
 7077.00    0.55960   0.55806   -2.000
 7078.00    0.46582   0.55660   -2.000
 7079.00    0.45725   0.55347   -2.000
 7080.00    0.47612   0.55087   -2.000
 7081.00    0.46939   0.55025   -2.000
 7082.00    0.45576   0.55121   -2.000
 7083.00    0.51549   0.55230   -2.000
 7084.00    0.59140   0.55288   -2.000
 7085.00    0.52038   0.55335   -2.000
 7086.00    0.42352   0.55439   -2.000
 7087.00    0.50582   0.55676   -2.000
 7088.00    0.61212   0.56078   -2.000
 7089.00    0.54578   0.56536   -2.000
 7090.00    0.46304   0.56816   -2.000
 7091.00    0.51083   0.56775   -2.000
 7092.00    0.56628   0.56542   -2.000
 7093.00    0.57325   0.56428   -2.000
 7094.00    0.57924   0.56594   -2.000
 7095.00    0.61437   0.56849   -2.000
 7096.00    0.64489   0.56882   -2.000
 7097.00    0.56060   0.56678   -2.000
 7098.00    0.48454   0.56464   -2.000
 7099.00    0.51784   0.56293   -2.000
 7100.00    0.54059   0.56003   -2.000
 7101.00    0.46980   0.55632   -2.000
 7102.00    0.41024   0.55494   -2.000
 7103.00    0.42398   0.55752   -2.000
 7104.00    0.43814   0.56213   -2.000
 7105.00    0.45442   0.56606   -2.000
 7106.00    0.45961   0.56831   -2.000
 7107.00    0.41917   0.56905   -2.000
 7108.00    0.41961   0.56862   -2.000
 7109.00    0.55940   0.56737   -2.000
 7110.00    0.67379   0.56542   -2.000
 7111.00    0.71518   0.56302   -2.000
 7112.00    0.70797   0.56125   -2.000
 7113.00    0.58152   0.56098   -2.000
 7114.00    0.49226   0.56063   -2.000
 7115.00    0.48169   0.55747   -2.000
 7116.00    0.47532   0.55201   -2.000
 7117.00    0.47668   0.54767   -2.000
 7118.00    0.48621   0.54541   -2.000
 7119.00    0.50885   0.54235   -2.000
 7120.00    0.55103   0.53713   -2.000
 7121.00    0.62075   0.53328   -2.000
 7122.00    0.66841   0.53495   -2.000
 7123.00    0.68870   0.54173   -2.000
 7124.00    0.63898   0.54964   -2.000
 7125.00    0.51273   0.55544   -2.000
 7126.00    0.50760   0.55851   -2.000
 7127.00    0.61927   0.55933   -2.000
 7128.00    0.60535   0.55789   -2.000
 7129.00    0.48463   0.55518   -2.000
 7130.00    0.39067   0.55404   -2.000
 7131.00    0.31676   0.55575   -2.000
 7132.00    0.37516   0.55812   -2.000
 7133.00    0.52062   0.55885   -2.000
 7134.00    0.54828   0.55797   -2.000
 7135.00    0.50809   0.55596   -2.000
 7136.00    0.51390   0.55191   -2.000
 7137.00    0.54280   0.54521   -2.000
 7138.00    0.55818   0.53867   -2.000
 7139.00    0.56770   0.53708   -2.000
 7140.00    0.52918   0.54175   -2.000
 7141.00    0.47277   0.54978   -2.000
 7142.00    0.51011   0.55789   -2.000
 7143.00    0.57708   0.56370   -2.000
 7144.00    0.51136   0.56557   -2.000
 7145.00    0.41065   0.56482   -2.000
 7146.00    0.43113   0.56514   -2.000
 7147.00    0.47774   0.56734   -2.000
 7148.00    0.42756   0.56805   -2.000
 7149.00    0.36084   0.56522   -2.000
 7150.00    0.40044   0.56139   -2.000
 7151.00    0.45379   0.55954   -2.000
 7152.00    0.42923   0.55814   -2.000
 7153.00    0.39760   0.55298   -2.000
 7154.00    0.45455   0.54405   -2.000
 7155.00    0.51635   0.53797   -2.000
 7156.00    0.47353   0.54093   -2.000
 7157.00    0.43023   0.55121   -2.000
 7158.00    0.54347   0.56142   -2.000
 7159.00    0.65608   0.56664   -2.000
 7160.00    0.75441   0.56812   -2.000
 7161.00    0.83050   0.56966   -2.000
 7162.00    0.62655   0.57246   -2.000
 7163.00    0.45393   0.57421   -2.000
 7164.00    0.54852   0.57250   -2.000
 7165.00    0.65375   0.56789   -2.000
 7166.00    0.82650   0.56387   -2.000
 7167.00    0.92098   0.56332   -2.000
 7168.00    0.62687   0.56427   -2.000
 7169.00    0.42824   0.56144   -2.000
 7170.00    0.61391   0.55372   -2.000
 7171.00    0.73256   0.54732   -2.000
 7172.00    0.62725   0.54896   -2.000
 7173.00    0.54660   0.55761   -2.000
 7174.00    0.53554   0.56546   -2.000
 7175.00    0.53022   0.56585   -2.000
 7176.00    0.53875   0.55834   -2.000
 7177.00    0.55123   0.54760   -2.000
 7178.00    0.57193   0.53995   -2.000
 7179.00    0.58034   0.53919   -2.000
 7180.00    0.56648   0.54409   -2.000
 7181.00    0.57619   0.54983   -2.000
 7182.00    0.62322   0.55251   -2.000
 7183.00    0.63385   0.55277   -2.000
 7184.00    0.59392   0.55388   -2.000
 7185.00    0.56852   0.55622   -2.000
 7186.00    0.56086   0.55720   -2.000
 7187.00    0.54072   0.55636   -2.000
 7188.00    0.50712   0.55624   -2.000
 7189.00    0.45076   0.55763   -2.000
 7190.00    0.37275   0.55818   -2.000
 7191.00    0.38669   0.55682   -2.000
 7192.00    0.47770   0.55624   -2.000
 7193.00    0.50172   0.55912   -2.000
 7194.00    0.47629   0.56300   -2.000
 7195.00    0.48658   0.56160   -2.000
 7196.00    0.52002   0.55222   -2.000
 7197.00    0.51236   0.54017   -2.000
 7198.00    0.48138   0.53454   -2.000
 7199.00    0.48295   0.53934   -2.000
 7200.00    0.50059   0.55057   -2.000
 7201.00    0.44119   0.56079   -2.000
 7202.00    0.34888   0.56463   -2.000
 7203.00    0.30899   0.56220   -2.000
 7204.00    0.28829   0.55787   -2.000
 7205.00    0.43748   0.55597   -2.000
 7206.00    0.63929   0.55815   -2.000
 7207.00    0.57374   0.56314   -2.000
 7208.00    0.43918   0.56758   -2.000
 7209.00    0.45641   0.56859   -2.000
 7210.00    0.50556   0.56622   -2.000
 7211.00    0.50676   0.56258   -2.000
 7212.00    0.50000   0.55958   -2.000
 7213.00    0.32395   0.55882   -2.000
 7214.00    0.12674   0.56170   -2.000
 7215.00    0.24970   0.56766   -2.000
 7216.00    0.40039   0.57343   -2.000
 7217.00    0.52468   0.57569   -2.000
 7218.00    0.64764   0.57413   -2.000
