###################################################################
## OUTPUT of StarlightChains_v04.for    [Cid@UFSC - 01/Apr/2007] ##
###################################################################

## Some input info
KUG0210-078._38_45.txt                   [arq_obs]
Base.CB07.vall.4m                        [arq_base]
Masks.EmLines.NEW.gm                     [arq_masks]
StCv04.C11.config                        [arq_config]
   66                                    [N_base]
    0                                    [N_YAV_components = # of components with extra extinction!]
    0                                    [i_FitPowerLaw (1/0 = Yes/No)]
-9.99                                    [alpha_PowerLaw]
CCM                                      [red_law_option]
 1.458241                                [q_norm = A(l_norm)/A(V)]

## (Re)Sampling Parameters
 3741.00                                 [l_ini (A)]
 7218.00                                 [l_fin (A)]
    1.00                                 [dl    (A)]     (OBS: dl_cushion =    50.00 A)

## Normalization info
 4020.00                                 [l_norm (A) - for base]
 4010.00                                 [llow_norm (A) - window for f_obs]
 4060.00                                 [lupp_norm (A) - window for f_obs]
1.474690E-17                             [fobs_norm (in input units)]

## S/N
 3691.00                                 [llow_SN (A) - window for S/N]
 7268.00                                 [lupp_SN (A) - window for S/N]
   4.898                                 [S/N in S/N window]
   5.821                                 [S/N in norm. window]
   0.014                                 [S/N_err in S/N window]
   0.017                                 [S/N_err in norm. window]
  1.0000                                 [fscale_chi2]

## etc...
    -2007670                             [idum_orig]
  2423                                   [NOl_eff]
  2412                                   [Nl_eff]
    11    NSIGMA                         [Ntot_cliped & clip_method]
  1271760                                [Nglobal_steps]
   7                                     [N_chains]
  21                                     [NEX0s_base = N_base in EX0s-fits]
 0   1   1       12   2.0   2.110E+03    [Clip-Bug, RC-Crash & Burn-In warning-flags, n_censored_weights, wei_nsig_threshold & wei_limit]
    37     36.750     36.197      0.553  [idt_all, wdt_TotTime, wdt_UsrTime & wdt_SysTime (sec)]

## Synthesis Results - Best model ##

 1.00528E-03                             [chi2/Nl_eff]
   107.55309                             [adev (%)]

   128.49255                             [sum-of-x (%)]
 3.30775E-17                             [Flux_tot (units of input spectrum!)]
 5.24017E-13                             [Mini_tot (???)]
 2.73999E-13                             [Mcor_tot (???)]

 295.83                                  [v0_min  (km/s)]
  18.72                                  [vd_min  (km/s)]
 0.4148                                  [AV_min  (mag)]
 0.0000                                  [YAV_min (mag)]

# j     x_j(%)      Mini_j(%)     Mcor_j(%)     age_j(yr)     Z_j      (L/M)_j    YAV?  Mstars   component_j        a/Fe...       SSP_chi2r SSP_adev(%)   SSP_AV   SSP_x(%)
  1      0.9911     4.4505E-03    8.5115E-03    1.000000E+06  0.00400  1.094E-02    0   1.0000   age020_m42            0.0000     6.4102E-05   105.9402   2.5108   121.0918
  2      0.0000     0.0000E+00    0.0000E+00    3.160000E+06  0.00400  4.007E-02    0   0.9999   age045_m42            0.0000     6.6842E-05   104.7760   1.7266   133.3217
  3      0.0000     0.0000E+00    0.0000E+00    5.010000E+06  0.00400  2.539E-02    0   0.9488   age055_m42            0.0000     6.0636E-05   103.1355   2.0952   125.8504
  4      0.0000     0.0000E+00    0.0000E+00    6.610000E+06  0.00400  2.620E-02    0   0.9220   age061_m42            0.0000     6.3817E-05   103.5557   1.6735   131.8658
  5      0.0000     0.0000E+00    0.0000E+00    1.000000E+07  0.00400  1.322E-02    0   0.8862   age070_m42            0.0000     6.6023E-05   107.0548   1.4575   132.8915
  6      0.0000     0.0000E+00    0.0000E+00    1.445000E+07  0.00400  7.883E-03    0   0.8571   age078_m42            0.0000     6.4691E-05   106.7415   1.7929   128.5483
  7      0.0000     0.0000E+00    0.0000E+00    2.512000E+07  0.00400  5.251E-03    0   0.8174   age090_m42            0.0000     6.6004E-05   107.1876   1.3401   133.2815
  8      0.0000     0.0000E+00    0.0000E+00    4.000000E+07  0.00400  3.649E-03    0   0.7851   age104_m42            0.0000     6.6534E-05   106.5242   1.0930   135.4499
  9      0.0000     0.0000E+00    0.0000E+00    5.500000E+07  0.00400  3.098E-03    0   0.7629   age110_m42            0.0000     6.8975E-05   105.9857   1.1958   138.2951
 10      0.0000     0.0000E+00    0.0000E+00    1.015200E+08  0.00400  2.228E-03    0   0.7207   age116_m42            0.0000     6.9370E-05   104.8967   1.1885   139.8389
 11      0.0000     0.0000E+00    0.0000E+00    2.861200E+08  0.00400  1.093E-03    0   0.6648   age125_m42            0.0000     6.6059E-05   102.6368   0.6408   142.1531
 12      0.0000     0.0000E+00    0.0000E+00    5.088000E+08  0.00400  6.597E-04    0   0.6365   age130_m42            0.0000     6.5964E-05   100.5572   0.5815   145.3677
 13      0.0000     0.0000E+00    0.0000E+00    1.434000E+09  0.00400  2.132E-04    0   0.5798   age139_m42            0.0000     5.5894E-05    92.3997  -0.3820   144.4901
 14      0.0000     0.0000E+00    0.0000E+00    4.250000E+09  0.00400  5.895E-05    0   0.5377   age158_m42            0.0000     3.9150E-05    81.8201  -0.7725   129.5014
 15      0.0000     0.0000E+00    0.0000E+00    7.500000E+09  0.00400  3.510E-05    0   0.5212   age171_m42            0.0000     3.6697E-05    79.3752  -0.9651   127.3675
 16      0.0000     0.0000E+00    0.0000E+00    1.300000E+10  0.00400  2.005E-05    0   0.5034   age193_m42            0.0000     3.7063E-05    80.4657  -1.0000   124.8855
 17      0.0000     0.0000E+00    0.0000E+00    1.800000E+10  0.00400  1.525E-05    0   0.4967   age213_m42            0.0000     3.6508E-05    80.7028  -1.0000   123.5631
 18      0.0439     1.7404E-04    3.3286E-04    1.000000E+06  0.00800  1.238E-02    0   1.0000   age020_m52            0.0000     6.3319E-05   105.5967   2.5100   120.9741
 19      0.0000     0.0000E+00    0.0000E+00    3.160000E+06  0.00800  3.074E-02    0   0.9966   age045_m52            0.0000     6.1220E-05   103.9559   2.4355   121.3186
 20      0.5539     1.0199E-03    1.8419E-03    5.010000E+06  0.00800  2.668E-02    0   0.9443   age055_m52            0.0000     5.9938E-05   102.9524   2.1907   123.9010
 21      0.0000     0.0000E+00    0.0000E+00    6.610000E+06  0.00800  2.136E-02    0   0.9177   age061_m52            0.0000     6.0222E-05   104.2677   0.9737   131.8808
 22      0.8553     3.4583E-03    5.8382E-03    1.000000E+07  0.00800  1.215E-02    0   0.8827   age070_m52            0.0000     6.4388E-05   107.5744   1.6681   130.6871
 23      0.0000     0.0000E+00    0.0000E+00    1.445000E+07  0.00800  8.717E-03    0   0.8552   age078_m52            0.0000     6.3955E-05   106.4672   1.7604   130.1003
 24      0.0000     0.0000E+00    0.0000E+00    2.512000E+07  0.00800  5.592E-03    0   0.8162   age090_m52            0.0000     6.6802E-05   107.9412   1.4027   135.1888
 25      0.0000     0.0000E+00    0.0000E+00    4.000000E+07  0.00800  3.896E-03    0   0.7841   age104_m52            0.0000     6.5913E-05   106.2134   1.2912   136.9603
 26      0.0000     0.0000E+00    0.0000E+00    1.015200E+08  0.00800  2.148E-03    0   0.7226   age116_m52            0.0000     6.2771E-05   102.5130   1.1989   136.9550
 27      0.0000     0.0000E+00    0.0000E+00    2.861200E+08  0.00800  9.925E-04    0   0.6683   age125_m52            0.0000     6.6789E-05   100.9693   0.6504   146.8452
 28      8.8264     1.3805E+00    1.6205E+00    9.047900E+08  0.00800  3.141E-04    0   0.6138   age135_m52            0.0000     5.6308E-05    90.5047  -0.1935   150.8209
 29      0.0000     0.0000E+00    0.0000E+00    1.434000E+09  0.00800  1.719E-04    0   0.5853   age139_m52            0.0000     4.1643E-05    83.1894  -0.6908   137.9710
 30      0.0000     0.0000E+00    0.0000E+00    2.500000E+09  0.00800  7.872E-05    0   0.5600   age150_m52            0.0000     3.4681E-05    76.2285  -0.9656   130.7265
 31      0.0000     0.0000E+00    0.0000E+00    4.250000E+09  0.00800  4.336E-05    0   0.5426   age158_m52            0.0000     3.3136E-05    75.5647  -0.9656   127.9791
 32      1.0390     1.6158E+00    1.6437E+00    6.250000E+09  0.00800  3.159E-05    0   0.5319   age166_m52            0.0000     3.1544E-05    74.2209  -1.0000   124.5221
 33      2.3480     8.4753E+00    8.2227E+00    1.300000E+10  0.00800  1.361E-05    0   0.5073   age193_m52            0.0000     3.7316E-05    78.7316  -1.0000   115.2684
 34      9.4705     4.7061E+01    4.4912E+01    1.800000E+10  0.00800  9.886E-06    0   0.4990   age213_m52            0.0000     4.0870E-05    78.5119  -1.0000   112.9559
 35      0.0000     0.0000E+00    0.0000E+00    1.000000E+06  0.02000  1.544E-02    0   1.0000   age020_m62            0.0000     6.3127E-05   105.4718   2.5077   121.0906
 36      0.0000     0.0000E+00    0.0000E+00    3.160000E+06  0.02000  3.762E-02    0   0.9858   age045_m62            0.0000     6.1630E-05   104.5117   2.4487   121.5547
 37      0.0000     0.0000E+00    0.0000E+00    5.010000E+06  0.02000  3.296E-02    0   0.9342   age055_m62            0.0000     6.1672E-05   103.1609   2.0363   128.6224
 38      0.0000     0.0000E+00    0.0000E+00    8.710000E+06  0.02000  1.154E-02    0   0.8861   age067_m62            0.0000     7.3362E-05   116.6012   1.2337   132.4113
 39      0.3005     1.9262E-03    3.1209E-03    1.445000E+07  0.02000  7.663E-03    0   0.8472   age078_m62            0.0000     6.7363E-05   110.1848   1.3438   133.5226
 40      0.0000     0.0000E+00    0.0000E+00    2.512000E+07  0.02000  4.532E-03    0   0.8099   age090_m62            0.0000     6.6148E-05   109.3856   1.3466   132.3402
 41      0.0000     0.0000E+00    0.0000E+00    5.500000E+07  0.02000  2.733E-03    0   0.7595   age110_m62            0.0000     6.2888E-05   104.6450   1.2890   134.2225
 42      0.0000     0.0000E+00    0.0000E+00    1.609000E+08  0.02000  1.369E-03    0   0.6985   age120_m62            0.0000     6.6493E-05   102.8317   1.0496   142.5937
 43      0.0000     0.0000E+00    0.0000E+00    2.861200E+08  0.02000  9.013E-04    0   0.6714   age125_m62            0.0000     7.1854E-05   102.1294   0.7390   151.2751
 44      0.0000     0.0000E+00    0.0000E+00    5.088000E+08  0.02000  5.028E-04    0   0.6449   age130_m62            0.0000     7.0169E-05    95.9697   0.2848   158.0365
 45      0.0000     0.0000E+00    0.0000E+00    9.047900E+08  0.02000  2.428E-04    0   0.6179   age135_m62            0.0000     4.6134E-05    83.1436  -0.2353   144.6530
 46      0.0000     0.0000E+00    0.0000E+00    1.434000E+09  0.02000  1.263E-04    0   0.5908   age139_m62            0.0000     3.4300E-05    75.6517  -0.6111   133.7890
 47     14.2518     1.1698E+01    1.2692E+01    2.500000E+09  0.02000  5.985E-05    0   0.5673   age150_m62            0.0000     2.8343E-05    70.3713  -0.9656   127.5955
 48      0.3078     4.6224E-01    4.8339E-01    4.250000E+09  0.02000  3.271E-05    0   0.5468   age158_m62            0.0000     2.8957E-05    70.2338  -1.0000   122.2372
 49      0.0000     0.0000E+00    0.0000E+00    1.000000E+10  0.02000  1.360E-05    0   0.5167   age181_m62            0.0000     3.3364E-05    70.2801  -1.0000   114.6189
 50      0.0000     0.0000E+00    0.0000E+00    1.800000E+10  0.02000  7.124E-06    0   0.5013   age213_m62            0.0000     3.9006E-05    70.0869  -1.0000   109.2674
 51      0.0000     0.0000E+00    0.0000E+00    1.000000E+06  0.05000  2.592E-02    0   0.9998   age020_m72            0.0000     6.1867E-05   104.6628   2.5086   120.2489
 52      7.9579     8.0689E-03    1.4779E-02    3.160000E+06  0.05000  4.845E-02    0   0.9577   age045_m72            0.0000     5.9064E-05   102.3723   2.3236   122.8211
 53     37.7750     6.0408E-02    1.0567E-01    5.010000E+06  0.05000  3.072E-02    0   0.9147   age055_m72            0.0000     6.1123E-05   105.8241   1.9157   126.4759
 54     20.7977     7.0220E-02    1.1921E-01    6.610000E+06  0.05000  1.455E-02    0   0.8877   age061_m72            0.0000     7.8394E-05   120.0691   1.3141   133.0776
 55      0.0000     0.0000E+00    0.0000E+00    1.000000E+07  0.05000  9.074E-03    0   0.8524   age070_m72            0.0000     6.3579E-05   106.9425   2.0851   127.1553
 56      0.0000     0.0000E+00    0.0000E+00    2.512000E+07  0.05000  4.250E-03    0   0.7902   age090_m72            0.0000     6.3241E-05   105.8124   1.7745   130.3663
 57      1.9458     3.0964E-02    4.5113E-02    4.000000E+07  0.05000  3.087E-03    0   0.7618   age104_m72            0.0000     6.5375E-05   106.9493   1.5439   133.5683
 58      0.0000     0.0000E+00    0.0000E+00    1.015200E+08  0.05000  1.700E-03    0   0.7096   age116_m72            0.0000     6.5779E-05   103.5783   1.2218   140.4534
 59      1.8208     1.2114E-01    1.5367E-01    2.861200E+08  0.05000  7.384E-04    0   0.6633   age125_m72            0.0000     6.7036E-05    97.6780   0.5767   152.8514
 60      0.0000     0.0000E+00    0.0000E+00    5.088000E+08  0.05000  3.819E-04    0   0.6372   age130_m72            0.0000     5.0810E-05    87.2686   0.0848   148.8925
 61      1.6079     4.7131E-01    5.5074E-01    9.047900E+08  0.05000  1.676E-04    0   0.6110   age135_m72            0.0000     2.9193E-05    72.5628  -0.5293   131.5761
 62      4.5247     2.5153E+00    2.8257E+00    1.434000E+09  0.05000  8.837E-05    0   0.5874   age139_m72            0.0000     2.7360E-05    69.8409  -0.9699   128.6559
 63      9.7551     1.1321E+01    1.2121E+01    2.500000E+09  0.05000  4.233E-05    0   0.5598   age150_m72            0.0000     2.7198E-05    67.2452  -1.0000   121.9295
 64      2.8708     9.8281E+00    9.8660E+00    6.250000E+09  0.05000  1.435E-05    0   0.5249   age166_m72            0.0000     3.5226E-05    70.5803  -1.0000   111.9924
 65      0.0000     0.0000E+00    0.0000E+00    1.300000E+10  0.05000  6.513E-06    0   0.5036   age193_m72            0.0000     4.8447E-05    74.6967  -1.0000   108.7908
 66      0.4487     4.8695E+00    4.6052E+00    1.800000E+10  0.05000  4.527E-06    0   0.4945   age213_m72            0.0000     5.8155E-05    77.3034  -1.0000   105.8571


## Synthesis Results - Average & Chains ##

# j      x_j: min, <> & last-chain-values for 1 ...  7 chains
  1      0.9911      0.3639      0.4061      0.4892      0.0000      0.3305      0.0000      1.1012      0.0000
  2      0.0000      0.3134      0.1021      0.0000      0.5020      0.5897      0.0000      1.3585      0.0502
  3      0.0000      0.2056      0.0000      0.0000      0.0000      0.0000      0.4387      0.0000      0.0000
  4      0.0000      0.3129      0.0000      0.0089      2.1388      0.8480      1.4793      0.0000      0.0000
  5      0.0000      0.3485      0.0000      0.0000      0.2393      0.0000      0.0000      0.5030      0.1494
  6      0.0000      0.3820      0.0000      0.0846      0.0000      0.0000      0.0000      0.0000      0.0000
  7      0.0000      0.6844      0.0000      0.1638      1.4409      0.0000      0.0000      0.0000      0.0892
  8      0.0000      0.6284      0.0000      0.0558      0.9659      0.4869      1.9249      0.0000      0.1074
  9      0.0000      0.5307      0.0000      0.1367      0.0000      0.0000      0.8562      0.0000      0.0000
 10      0.0000      0.4107      0.0000      0.0425      0.0000      0.0000      0.2710      0.0000      0.2526
 11      0.0000      0.5993      0.0000      0.0639      1.2768      0.3073      0.0000      0.0000      0.1090
 12      0.0000      0.6780      0.2928      0.1603      0.9931      1.0807      0.1848      3.1976      0.5218
 13      0.0000      2.6146      2.1087      0.0000      2.1382      0.4372      0.0000      0.0000      0.6560
 14      0.0000      0.6162      0.0164      0.1807      0.4158      1.3023      0.4031      1.7231      0.5386
 15      0.0000      0.6714      0.0000      0.0412      0.0000      0.0000      0.0000      0.0000      0.0000
 16      0.0000      0.7466      0.8564      0.0000      1.2298      0.1239      0.2259      0.6969      0.0000
 17      0.0000      0.2205      0.0000      0.0000      0.0357      0.3020      0.4232      0.0000      0.0000
 18      0.0439      0.2707      0.0000      0.3109      0.0000      0.0000      0.7597      0.0000      0.0102
 19      0.0000      0.3130      0.0000      0.0000      0.0000      0.4459      0.5010      0.0559      0.0000
 20      0.5539      0.3551      0.0000      0.6248      0.0000      0.0539      0.0000      0.8957      0.4917
 21      0.0000      0.9440      0.0000      0.0100      1.5537      1.2933      0.2147      2.6110      0.6056
 22      0.8553      0.4463      1.0283      0.2837      0.0000      0.0000      0.0000      0.6391      0.0164
 23      0.0000      0.3230      0.0000      0.0000      0.1653      0.0000      1.3819      1.0442      0.0000
 24      0.0000      0.4837      0.7413      0.0000      1.5541      0.6930      0.0000      0.0000      0.0000
 25      0.0000      0.3102      0.0000      0.1468      0.8246      0.0427      0.0000      0.1800      0.0000
 26      0.0000      0.4404      0.0000      0.0000      0.0718      0.0000      0.0000      1.4839      0.3176
 27      0.0000      0.2924      0.0000      0.0000      0.0000      0.1767      0.0000      0.0000      0.0000
 28      8.8264      0.8593      3.1006      0.5147      0.0000      0.9379      0.5576      0.0000      0.1957
 29      0.0000      3.2073      0.5951      0.0000      1.0390      0.1829      1.2278      0.0000      0.0000
 30      0.0000      0.7365      1.2083      0.0000      0.0000      0.0000      0.0000      0.5869      0.0000
 31      0.0000      0.8764      0.4400      0.0000      0.8949      0.4491      0.3182      1.3433      0.0000
 32      1.0390      0.4288      0.1500      0.3454      0.0000      0.7275      0.0000      0.0000      0.0000
 33      2.3480      4.5205      4.1458      3.0091      4.5567      4.6902      4.0410      4.8694      4.5256
 34      9.4705      8.2135      9.8160     10.5743      8.2402     10.2024     10.6166      8.8348      9.4347
 35      0.0000      0.2006      0.0872      0.2320      0.0000      0.6472      1.6916      0.9357      0.0000
 36      0.0000      0.2187      0.0000      0.0000      0.0000      0.0000      0.0000      0.0000      0.0000
 37      0.0000      0.3577      0.1963      0.0000      0.0000      0.0594      0.0000      1.2050      0.0000
 38      0.0000      0.6782      0.0000      0.1740      0.0000      1.5848      0.0000      0.0561      0.0000
 39      0.3005      0.8233      1.4633      0.3715      0.5899      0.0000      2.2932      0.0000      0.0000
 40      0.0000      0.6711      0.7770      0.0000      0.0000      0.1367      0.0000      0.0000      0.0000
 41      0.0000      0.5536      0.0000      0.0000      0.7109      0.0000      0.0879      0.0000      0.0455
 42      0.0000      0.5433      0.0000      0.1259      1.0106      0.0507      0.1952      0.0000      0.0000
 43      0.0000      0.2223      0.0000      0.1743      0.0000      0.5275      0.0000      0.0000      0.5152
 44      0.0000      0.1722      0.0000      0.0000      0.0000      0.0491      0.0000      0.2708      0.0000
 45      0.0000      2.3401      1.2132      0.0443      4.8708      0.0000      1.3905      3.2895      1.7137
 46      0.0000      2.7914      0.0000      0.1363      0.0000      0.5980      0.9291      0.0000      0.0432
 47     14.2518     11.0118     12.0814     14.9133     12.3196     11.0549     13.4860     10.7354     13.5398
 48      0.3078      0.4135      1.1672      0.2911      0.3584      0.0916      0.1373      0.0000      0.0000
 49      0.0000      0.0897      0.0000      0.0161      0.0000      0.4657      0.0000      0.0000      0.2016
 50      0.0000      0.0831      0.0000      0.0141      0.7738      0.0000      0.0000      0.0834      0.0000
 51      0.0000      0.3732      1.4782      0.0000      0.5509      0.2654      0.3984      1.3113      0.0000
 52      7.9579      7.7482      8.2564      7.8322      8.7141      8.8491      8.3292      8.2399     10.2559
 53     37.7750     24.8019     27.0829     39.4657     27.1383     28.7343     29.4006     28.4697     32.3491
 54     20.7977     20.2925     24.0930     24.6024     20.3339     24.9186     21.3989     20.9630     24.6362
 55      0.0000      0.2922      0.1635      0.0000      0.0000      1.1126      0.0000      0.0000      0.2240
 56      0.0000      0.4750      0.8640      0.1692      0.2044      0.7066      1.1482      0.0000      0.5425
 57      1.9458      1.3365      2.7534      2.0626      1.0947      1.6869      0.9986      0.0000      2.8592
 58      0.0000      0.2341      1.0066      0.0000      0.0000      0.2718      0.0000      0.6210      0.3109
 59      1.8208      0.2717      0.1993      0.3541      0.0000      0.0082      0.0000      0.0000      0.2120
 60      0.0000      0.7508      0.0000      0.0266      0.6218      0.2654      0.0000      0.0588      0.0690
 61      1.6079      1.7434      3.6993      1.4142      4.5529      1.6039      3.3817      3.5805      3.9751
 62      4.5247      4.4605      5.0186      4.6509      3.1364      3.9093      5.9004      4.3838      5.3715
 63      9.7551      7.9217      9.0460     10.5621      7.9893     11.6652      8.3726      9.3078      9.4657
 64      2.8708      3.2249      2.9162      3.1060      3.3680      3.4267      3.0770      3.7301      4.2917
 65      0.0000      0.0965      0.0000      0.1695      0.0000      0.0000      0.0000      0.1265      0.0000
 66      0.4487      0.0590      0.0000      0.2426      0.0000      0.0000      0.0000      0.0000      0.0000

# j      m_j: min, <> & last-chain-values for 1 ...  7 chains
  1  8.5115E-03  3.0590E-03  3.3227E-03  3.9332E-03  0.0000E+00  2.5591E-03  0.0000E+00  9.0168E-03  0.0000E+00
  2  0.0000E+00  7.1906E-04  2.2803E-04  0.0000E+00  1.1335E-03  1.2464E-03  0.0000E+00  3.0366E-03  1.1080E-04
  3  0.0000E+00  7.0642E-04  0.0000E+00  0.0000E+00  0.0000E+00  0.0000E+00  1.4428E-03  0.0000E+00  0.0000E+00
  4  0.0000E+00  1.0126E-03  0.0000E+00  2.7479E-05  6.8102E-03  2.5279E-03  4.5816E-03  0.0000E+00  0.0000E+00
  5  0.0000E+00  2.1483E-03  0.0000E+00  0.0000E+00  1.4514E-03  0.0000E+00  0.0000E+00  3.0206E-03  8.8613E-04
  6  0.0000E+00  3.8194E-03  0.0000E+00  8.0876E-04  0.0000E+00  0.0000E+00  0.0000E+00  0.0000E+00  0.0000E+00
  7  0.0000E+00  9.7972E-03  0.0000E+00  2.2426E-03  2.0295E-02  0.0000E+00  0.0000E+00  0.0000E+00  1.2294E-03
  8  0.0000E+00  1.2432E-02  0.0000E+00  1.0567E-03  1.8804E-02  8.8730E-03  3.6450E-02  0.0000E+00  2.0452E-03
  9  0.0000E+00  1.2017E-02  0.0000E+00  2.9615E-03  0.0000E+00  0.0000E+00  1.8558E-02  0.0000E+00  0.0000E+00
 10  0.0000E+00  1.2215E-02  0.0000E+00  1.2081E-03  0.0000E+00  0.0000E+00  7.7141E-03  0.0000E+00  7.2307E-03
 11  0.0000E+00  3.3521E-02  0.0000E+00  3.4201E-03  7.0266E-02  1.5835E-02  0.0000E+00  0.0000E+00  5.8673E-03
 12  0.0000E+00  6.0149E-02  2.5287E-02  1.3604E-02  8.6701E-02  8.8324E-02  1.5690E-02  2.7636E-01  4.4552E-02
 13  0.0000E+00  6.5385E-01  5.1334E-01  0.0000E+00  5.2615E-01  1.0072E-01  0.0000E+00  0.0000E+00  1.5787E-01
 14  0.0000E+00  5.1682E-01  1.3375E-02  1.4495E-01  3.4314E-01  1.0062E+00  3.2363E-01  1.4079E+00  4.3474E-01
 15  0.0000E+00  9.1672E-01  0.0000E+00  5.3794E-02  0.0000E+00  0.0000E+00  0.0000E+00  0.0000E+00  0.0000E+00
 16  0.0000E+00  1.7236E+00  1.9248E+00  0.0000E+00  2.7938E+00  2.6341E-01  4.9907E-01  1.5674E+00  0.0000E+00
 17  0.0000E+00  6.6025E-01  0.0000E+00  0.0000E+00  1.0511E-01  8.3317E-01  1.2131E+00  0.0000E+00  0.0000E+00
 18  3.3286E-04  2.0103E-03  0.0000E+00  2.2084E-03  0.0000E+00  0.0000E+00  5.4010E-03  0.0000E+00  7.2933E-05
 19  0.0000E+00  9.3319E-04  0.0000E+00  0.0000E+00  0.0000E+00  1.2245E-03  1.4294E-03  1.6244E-04  0.0000E+00
 20  1.8419E-03  1.1557E-03  0.0000E+00  1.9451E-03  0.0000E+00  1.6163E-04  0.0000E+00  2.8399E-03  1.5400E-03
 21  0.0000E+00  3.7293E-03  0.0000E+00  3.7718E-05  6.0399E-03  4.7068E-03  8.1168E-04  1.0049E-02  2.3024E-03
 22  5.8382E-03  2.9814E-03  6.6873E-03  1.8126E-03  0.0000E+00  0.0000E+00  0.0000E+00  4.1590E-03  1.0521E-04
 23  0.0000E+00  2.9142E-03  0.0000E+00  0.0000E+00  1.4673E-03  0.0000E+00  1.1932E-02  9.1764E-03  0.0000E+00
 24  0.0000E+00  6.4917E-03  9.6852E-03  0.0000E+00  2.0524E-02  8.5675E-03  0.0000E+00  0.0000E+00  0.0000E+00
 25  0.0000E+00  5.7414E-03  0.0000E+00  2.5982E-03  1.5015E-02  7.2751E-04  0.0000E+00  3.2449E-03  0.0000E+00
 26  0.0000E+00  1.3623E-02  0.0000E+00  0.0000E+00  2.1849E-03  0.0000E+00  0.0000E+00  4.4715E-02  9.4529E-03
 27  0.0000E+00  1.8103E-02  0.0000E+00  0.0000E+00  0.0000E+00  1.0078E-02  0.0000E+00  0.0000E+00  0.0000E+00
 28  1.6205E+00  1.5440E-01  5.4238E-01  8.8461E-02  0.0000E+00  1.5525E-01  9.5903E-02  0.0000E+00  3.3844E-02
 29  0.0000E+00  1.0042E+00  1.8137E-01  0.0000E+00  3.2009E-01  5.2747E-02  3.6794E-01  0.0000E+00  0.0000E+00
 30  0.0000E+00  4.8177E-01  7.6944E-01  0.0000E+00  0.0000E+00  0.0000E+00  0.0000E+00  3.7398E-01  0.0000E+00
 31  0.0000E+00  1.0084E+00  4.9284E-01  0.0000E+00  1.0132E+00  4.7610E-01  3.5041E-01  1.5058E+00  0.0000E+00
 32  1.6437E+00  6.6385E-01  2.2611E-01  5.1148E-01  0.0000E+00  1.0376E+00  0.0000E+00  0.0000E+00  0.0000E+00
 33  8.2227E+00  1.5494E+01  1.3833E+01  9.8650E+00  1.5368E+01  1.4809E+01  1.3257E+01  1.6258E+01  1.4927E+01
 34  4.4912E+01  3.8123E+01  4.4352E+01  4.6945E+01  3.7634E+01  4.3621E+01  4.7164E+01  3.9945E+01  4.2140E+01
 35  0.0000E+00  1.1948E-03  5.0553E-04  1.3218E-03  0.0000E+00  3.5509E-03  9.6428E-03  5.4284E-03  0.0000E+00
 36  0.0000E+00  5.2690E-04  0.0000E+00  0.0000E+00  0.0000E+00  0.0000E+00  0.0000E+00  0.0000E+00  0.0000E+00
 37  0.0000E+00  9.3233E-04  4.9815E-04  0.0000E+00  0.0000E+00  1.4262E-04  0.0000E+00  3.0593E-03  0.0000E+00
 38  0.0000E+00  4.7883E-03  0.0000E+00  1.1753E-03  0.0000E+00  1.0308E-02  0.0000E+00  3.8552E-04  0.0000E+00
 39  3.1209E-03  8.3696E-03  1.4482E-02  3.6120E-03  5.9006E-03  0.0000E+00  2.2313E-02  0.0000E+00  0.0000E+00
 40  0.0000E+00  1.1028E-02  1.2430E-02  0.0000E+00  0.0000E+00  2.0693E-03  0.0000E+00  0.0000E+00  0.0000E+00
 41  0.0000E+00  1.4146E-02  0.0000E+00  0.0000E+00  1.7876E-02  0.0000E+00  2.1493E-03  0.0000E+00  1.1179E-03
 42  0.0000E+00  2.5489E-02  0.0000E+00  5.6507E-03  4.6656E-02  2.1927E-03  8.7670E-03  0.0000E+00  0.0000E+00
 43  0.0000E+00  1.5226E-02  0.0000E+00  1.1417E-02  0.0000E+00  3.3286E-02  0.0000E+00  0.0000E+00  3.3959E-02
 44  0.0000E+00  2.0309E-02  0.0000E+00  0.0000E+00  0.0000E+00  5.3376E-03  0.0000E+00  3.1117E-02  0.0000E+00
 45  0.0000E+00  5.4761E-01  2.7637E-01  9.9160E-03  1.1216E+00  0.0000E+00  3.1144E-01  7.4988E-01  3.8591E-01
 46  0.0000E+00  1.2007E+00  0.0000E+00  5.6062E-02  0.0000E+00  2.3694E-01  3.8250E-01  0.0000E+00  1.7891E-02
 47  1.2692E+01  9.5980E+00  1.0251E+01  1.2433E+01  1.0566E+01  8.8761E+00  1.1251E+01  9.1150E+00  1.1357E+01
 48  4.8339E-01  6.3568E-01  1.7466E+00  4.2805E-01  5.4216E-01  1.2975E-01  2.0202E-01  0.0000E+00  0.0000E+00
 49  0.0000E+00  3.1354E-01  0.0000E+00  5.3848E-02  0.0000E+00  1.4986E+00  0.0000E+00  0.0000E+00  6.7762E-01
 50  0.0000E+00  5.3801E-01  0.0000E+00  8.7379E-02  4.9266E+00  0.0000E+00  0.0000E+00  5.2592E-01  0.0000E+00
 51  0.0000E+00  1.3237E-03  5.1040E-03  0.0000E+00  1.9228E-03  8.6732E-04  1.3524E-03  4.5308E-03  0.0000E+00
 52  1.4779E-02  1.4083E-02  1.4609E-02  1.3617E-02  1.5585E-02  1.4817E-02  1.4490E-02  1.4590E-02  1.7939E-02
 53  1.0567E-01  6.7907E-02  7.2186E-02  1.0335E-01  7.3114E-02  7.2473E-02  7.7047E-02  7.5933E-02  8.5233E-02
 54  1.1921E-01  1.1384E-01  1.3158E-01  1.3202E-01  1.1225E-01  1.2878E-01  1.1490E-01  1.1456E-01  1.3300E-01
 55  0.0000E+00  2.5242E-03  1.3751E-03  0.0000E+00  0.0000E+00  8.8534E-03  0.0000E+00  0.0000E+00  1.8620E-03
 56  0.0000E+00  8.1213E-03  1.4380E-02  2.7667E-03  3.4390E-03  1.1129E-02  1.8789E-02  0.0000E+00  8.9260E-03
 57  4.5113E-02  3.0329E-02  6.0824E-02  4.4769E-02  2.4444E-02  3.5263E-02  2.1689E-02  0.0000E+00  6.2436E-02
 58  0.0000E+00  8.9861E-03  3.7612E-02  0.0000E+00  0.0000E+00  9.6086E-03  0.0000E+00  2.3218E-02  1.1482E-02
 59  1.5367E-01  2.2443E-02  1.6023E-02  2.7978E-02  0.0000E+00  6.2219E-04  0.0000E+00  0.0000E+00  1.6848E-02
 60  0.0000E+00  1.1520E-01  0.0000E+00  3.9064E-03  9.3870E-02  3.7507E-02  0.0000E+00  8.7889E-03  1.0193E-02
 61  5.5074E-01  5.8444E-01  1.2072E+00  4.5344E-01  1.5018E+00  4.9528E-01  1.0851E+00  1.1692E+00  1.2824E+00
 62  2.8257E+00  2.7264E+00  2.9861E+00  2.7190E+00  1.8864E+00  2.2011E+00  3.4519E+00  2.6102E+00  3.1595E+00
 63  1.2121E+01  9.6333E+00  1.0709E+01  1.2285E+01  9.5599E+00  1.3068E+01  9.7451E+00  1.1026E+01  1.1077E+01
 64  9.8660E+00  1.0847E+01  9.5486E+00  9.9927E+00  1.1147E+01  1.0617E+01  9.9058E+00  1.2222E+01  1.3891E+01
 65  0.0000E+00  6.8611E-01  0.0000E+00  1.1526E+00  0.0000E+00  0.0000E+00  0.0000E+00  8.7612E-01  0.0000E+00
 66  4.6052E+00  5.9234E-01  0.0000E+00  2.3310E+00  0.0000E+00  0.0000E+00  0.0000E+00  0.0000E+00  0.0000E+00

# AV, chi2 & Mass for <> & i_chain = 1 ...  7 solutions
AV       0.4148      0.3276      0.3155      0.3580      0.3517      0.3164      0.3240      0.3484      0.3021
chi2 1.0053E-03  6.9593E-05  6.5479E-05  5.5873E-05  6.0244E-05  8.1218E-05  8.0861E-05  5.9409E-05  7.2474E-05
Mass 2.7400E-13  2.4901E-13  2.5166E-13  2.7120E-13  2.6138E-13  2.6627E-13  2.5889E-13  2.6287E-13  2.5004E-13
 295.83                                  [v0_min (km/s) before EX0s...]
  18.72                                  [vd_min (km/s) before EX0s...]


## Synthetic spectrum (Best Model) ##l_obs f_obs f_syn wei
 3478    [Nl_obs]
 3741.00    0.28112   0.85966    0.000
 3742.00    0.35262   0.94241    0.000
 3743.00    0.39697   1.01234    0.000
 3744.00    0.40369   1.05588    0.000
 3745.00    0.38849   1.06629    0.035
 3746.00    0.28909   1.04465    0.035
 3747.00    0.14692   1.01150    0.034
 3748.00   -0.01659   0.97873    0.000
 3749.00   -0.18949   0.93827    0.000
 3750.00   -0.02908   0.89282    0.000
 3751.00    0.25715   0.83688    0.034
 3752.00    0.44243   0.75397    0.034
 3753.00    0.59536   0.68720    0.034
 3754.00    0.50392   0.70109    0.034
 3755.00    0.34698   0.78877    0.033
 3756.00    0.62296   0.88809    0.034
 3757.00    0.99395   0.96881    0.035
 3758.00    0.78643   1.03576    0.034
 3759.00    0.47793   1.07600    0.033
 3760.00    0.28378   1.06772    0.037
 3761.00    0.10481   1.02346    0.042
 3762.00    0.17985   0.99310    0.037
 3763.00    0.27875   1.00401    0.032
 3764.00    0.43646   1.03412    0.032
 3765.00    0.59757   1.05266    0.032
 3766.00    0.48488   1.05080    0.032
 3767.00    0.36733   1.04142    0.032
 3768.00    0.44708   1.03763    0.031
 3769.00    0.52143   1.02185    0.031
 3770.00    0.46491   0.97299    0.030
 3771.00    0.41356   0.91736    0.029
 3772.00    0.42993   0.87232    0.029
 3773.00    0.44280   0.81549    0.029
 3774.00    0.42490   0.76723    0.029
 3775.00    0.38702   0.79029    0.029
 3776.00    0.21957   0.87466    0.029
 3777.00    0.09176   0.95131    0.029
 3778.00    0.16456   0.99847    0.029
 3779.00    0.19512   1.03501    0.029
 3780.00    0.05279   1.06770    0.030
 3781.00   -0.05786   1.09137    0.000
 3782.00   -0.06107   1.11196    0.000
 3783.00   -0.02190   1.14401    0.000
 3784.00    0.13848   1.17614    0.032
 3785.00    0.24464   1.18673    0.032
 3786.00    0.21832   1.18647    0.032
 3787.00    0.24809   1.19173    0.032
 3788.00    0.39608   1.18739    0.033
 3789.00    0.48078   1.15226    0.033
 3790.00    0.44956   1.10679    0.033
 3791.00    0.35783   1.08317    0.032
 3792.00    0.16926   1.07145    0.033
 3793.00    0.10660   1.05720    0.033
 3794.00    0.22081   1.04817    0.032
 3795.00    0.35528   1.04306    0.032
 3796.00    0.51479   1.02148    0.032
 3797.00    0.44041   0.97421    0.032
 3798.00    0.11121   0.91254    0.031
 3799.00    0.02094   0.84681    0.031
 3800.00    0.16029   0.77244    0.032
 3801.00    0.14771   0.69803    0.032
 3802.00    0.00638   0.67914    0.032
 3803.00    0.09070   0.74824    0.032
 3804.00    0.34338   0.85688    0.032
 3805.00    0.52957   0.94796    0.032
 3806.00    0.67217   1.01562    0.032
 3807.00    0.62711   1.06972    0.031
 3808.00    0.47438   1.09695    0.030
 3809.00    0.37158   1.08561    0.030
 3810.00    0.29374   1.06019    0.030
 3811.00    0.13966   1.06952    0.030
 3812.00   -0.04740   1.11695    0.000
 3813.00   -0.09076   1.16125    0.000
 3814.00   -0.08083   1.18284    0.000
 3815.00    0.00109   1.18099    0.030
 3816.00    0.10563   1.15296    0.030
 3817.00    0.28955   1.11067    0.031
 3818.00    0.49429   1.07877    0.031
 3819.00    0.62237   1.06411    0.031
 3820.00    0.73403   1.06830    0.031
 3821.00    0.59922   1.07553    0.031
 3822.00    0.42259   1.03349    0.031
 3823.00    0.47706   0.94878    0.031
 3824.00    0.56118   0.91928    0.031
 3825.00    0.45814   0.98104    0.031
 3826.00    0.33830   1.05214    0.031
 3827.00    0.31608   1.06427    0.031
 3828.00    0.29910   1.02889    0.031
 3829.00    0.39360   0.99623    0.032
 3830.00    0.48707   0.98470    0.033
 3831.00    0.30518   0.98012    0.032
 3832.00    0.13638   0.97105    0.032
 3833.00    0.25861   0.95655    0.032
 3834.00    0.36485   0.93217    0.033
 3835.00    0.27213   0.88111    0.032
 3836.00    0.20785   0.80470    0.032
 3837.00    0.38397   0.72793    0.033
 3838.00    0.54979   0.66401    0.033
 3839.00    0.65078   0.63791    0.033
 3840.00    0.70203   0.67029    0.033
 3841.00    0.50783   0.72746    0.033
 3842.00    0.37480   0.77906    0.033
 3843.00    0.48666   0.83473    0.033
 3844.00    0.58545   0.89228    0.033
 3845.00    0.64078   0.95157    0.033
 3846.00    0.67750   1.01043    0.034
 3847.00    0.66194   1.04916    0.000
 3848.00    0.60726   1.06895    0.000
 3849.00    0.45860   1.07864    0.000
 3850.00    0.30778   1.08831    0.000
 3851.00    0.15248   1.10341    0.000
 3852.00    0.04612   1.10554    0.000
 3853.00    0.02801   1.08592    0.000
 3854.00    0.10927   1.07328    0.000
 3855.00    0.34722   1.09411    0.000
 3856.00    0.50653   1.12047    0.000
 3857.00    0.55695   1.11724    0.000
 3858.00    0.56573   1.09829    0.000
 3859.00    0.52377   1.07777    0.000
 3860.00    0.56153   1.06801    0.000
 3861.00    0.68495   1.07809    0.000
 3862.00    0.64352   1.07245    0.000
 3863.00    0.44590   1.04722    0.000
 3864.00    0.32163   1.04496    0.000
 3865.00    0.25863   1.07673    0.000
 3866.00    0.32906   1.11020    0.000
 3867.00    0.49762   1.11986    0.000
 3868.00    0.53424   1.11239    0.000
 3869.00    0.48562   1.10430    0.000
 3870.00    0.57203   1.09640    0.000
 3871.00    0.73475   1.08656    0.000
 3872.00    0.76216   1.09167    0.000
 3873.00    0.72301   1.09957    0.000
 3874.00    0.59795   1.07623    0.000
 3875.00    0.43635   1.03106    0.000
 3876.00    0.47357   1.00822    0.000
 3877.00    0.58321   1.03710    0.000
 3878.00    0.59512   1.08338    0.000
 3879.00    0.57691   1.09483    0.000
 3880.00    0.50124   1.06955    0.000
 3881.00    0.41083   1.03704    0.031
 3882.00    0.45276   1.01600    0.031
 3883.00    0.52236   1.02453    0.032
 3884.00    0.48601   1.03734    0.031
 3885.00    0.43219   1.01154    0.031
 3886.00    0.41960   0.97422    0.032
 3887.00    0.41213   0.96809    0.033
 3888.00    0.56005   0.96206    0.033
 3889.00    0.72127   0.90444    0.033
 3890.00    0.85162   0.81868    0.032
 3891.00    0.98043   0.74357    0.032
 3892.00    0.76219   0.68017    0.032
 3893.00    0.54010   0.66261    0.032
 3894.00    0.43645   0.73077    0.031
 3895.00    0.33927   0.83844    0.030
 3896.00    0.37471   0.92435    0.030
 3897.00    0.42728   0.97494    0.029
 3898.00    0.68250   1.00055    0.029
 3899.00    0.90218   1.01831    0.029
 3900.00    0.83226   1.04770    0.029
 3901.00    0.76589   1.07617    0.028
 3902.00    0.72126   1.07561    0.027
 3903.00    0.68126   1.06747    0.026
 3904.00    0.66357   1.08700    0.026
 3905.00    0.63832   1.12220    0.026
 3906.00    0.58340   1.13072    0.025
 3907.00    0.54320   1.11775    0.026
 3908.00    0.55097   1.10976    0.027
 3909.00    0.56886   1.09467    0.028
 3910.00    0.61463   1.08957    0.028
 3911.00    0.68489   1.11964    0.029
 3912.00    0.81301   1.16001    0.030
 3913.00    0.93954   1.18286    0.031
 3914.00    1.06285   1.18660    0.032
 3915.00    1.15539   1.18411    0.032
 3916.00    1.19330   1.18187    0.033
 3917.00    1.12236   1.17813    0.033
 3918.00    0.88230   1.17508    0.033
 3919.00    0.72233   1.17262    0.033
 3920.00    0.67161   1.16162    0.032
 3921.00    0.59190   1.14479    0.032
 3922.00    0.47736   1.11344    0.032
 3923.00    0.43892   1.06744    0.033
 3924.00    0.48109   1.03658    0.033
 3925.00    0.48011   1.04427    0.034
 3926.00    0.43884   1.07588    0.034
 3927.00    0.47627   1.09330    0.034
 3928.00    0.57853   1.09063    0.034
 3929.00    0.43020   1.06649    0.034
 3930.00    0.10021   1.02708    0.033
 3931.00    0.00481   0.99540    0.033
 3932.00    0.05871   0.97066    0.033
 3933.00    0.34780   0.94626    0.033
 3934.00    0.76779   0.92144    0.034
 3935.00    0.90122   0.88839    0.034
 3936.00    0.89594   0.84600    0.034
 3937.00    0.92039   0.80733    0.034
 3938.00    0.95726   0.80387    0.034
 3939.00    0.84789   0.83899    0.034
 3940.00    0.68621   0.88638    0.033
 3941.00    0.52764   0.93399    0.033
 3942.00    0.37000   0.97784    0.032
 3943.00    0.25337   1.01833    0.032
 3944.00    0.14703   1.04816    0.032
 3945.00    0.44580   1.05919    0.032
 3946.00    0.82718   1.05805    0.032
 3947.00    0.71520   1.04730    0.032
 3948.00    0.52423   1.04094    0.032
 3949.00    0.51827   1.06850    0.032
 3950.00    0.53441   1.11125    0.032
 3951.00    0.56508   1.11935    0.032
 3952.00    0.59694   1.10803    0.032
 3953.00    0.53693   1.11902    0.032
 3954.00    0.47271   1.14412    0.032
 3955.00    0.50022   1.14854    0.032
 3956.00    0.52988   1.12710    0.032
 3957.00    0.61063   1.11775    0.032
 3958.00    0.69380   1.13022    0.033
 3959.00    0.82266   1.12638    0.032
 3960.00    0.93612   1.10064    0.000
 3961.00    0.87596   1.09168    0.000
 3962.00    0.80815   1.10646    0.000
 3963.00    0.68023   1.11013    0.000
 3964.00    0.55325   1.06916    0.000
 3965.00    0.43184   0.99419    0.000
 3966.00    0.34316   0.93691    0.000
 3967.00    0.40822   0.90438    0.000
 3968.00    0.42236   0.85775    0.000
 3969.00    0.24136   0.79936    0.000
 3970.00    0.20442   0.73980    0.000
 3971.00    0.62795   0.66575    0.000
 3972.00    0.98285   0.58414    0.000
 3973.00    1.15190   0.52373    0.000
 3974.00    1.17986   0.52128    0.000
 3975.00    0.88022   0.58894    0.000
 3976.00    0.67745   0.68412    0.000
 3977.00    0.66925   0.76874    0.000
 3978.00    0.58284   0.84870    0.000
 3979.00    0.35963   0.92374    0.000
 3980.00    0.44691   0.97758    0.000
 3981.00    1.00954   1.01984    0.036
 3982.00    1.10555   1.06391    0.036
 3983.00    0.57401   1.10531    0.035
 3984.00    0.30266   1.13313    0.035
 3985.00    0.33941   1.13353    0.035
 3986.00    0.46653   1.11689    0.035
 3987.00    0.68802   1.11441    0.034
 3988.00    0.79808   1.13418    0.034
 3989.00    0.80549   1.15914    0.034
 3990.00    0.88324   1.17254    0.033
 3991.00    1.01808   1.18636    0.033
 3992.00    1.15989   1.20638    0.033
 3993.00    1.30668   1.20573    0.034
 3994.00    1.25280   1.19558    0.034
 3995.00    1.07311   1.20479    0.033
 3996.00    0.96915   1.22309    0.033
 3997.00    0.90668   1.22831    0.033
 3998.00    0.94320   1.21021    0.032
 3999.00    1.02688   1.18822    0.032
 4000.00    1.11545   1.17689    0.032
 4001.00    1.20604   1.16778    0.033
 4002.00    1.02168   1.17493    0.033
 4003.00    0.74076   1.21304    0.032
 4004.00    0.81073   1.24630    0.032
 4005.00    0.98468   1.25015    0.032
 4006.00    1.10478   1.24918    0.032
 4007.00    1.21165   1.24752    0.032
 4008.00    0.93001   1.21186    0.032
 4009.00    0.57111   1.15381    0.032
 4010.00    0.55055   1.14032    0.032
 4011.00    0.58256   1.17203    0.031
 4012.00    0.70474   1.18696    0.032
 4013.00    0.83728   1.17869    0.032
 4014.00    0.93509   1.19088    0.032
 4015.00    1.03021   1.22089    0.032
 4016.00    1.09186   1.23894    0.033
 4017.00    1.15211   1.24777    0.033
 4018.00    1.31772   1.25518    0.033
 4019.00    1.47722   1.26657    0.033
 4020.00    1.32665   1.26810    0.033
 4021.00    1.17911   1.25137    0.034
 4022.00    1.08501   1.25150    0.034
 4023.00    1.00000   1.27595    0.034
 4024.00    1.01273   1.28170    0.034
 4025.00    1.04989   1.26251    0.034
 4026.00    1.27252   1.24328    0.035
 4027.00    1.42742   1.22120    0.035
 4028.00    1.19158   1.17828    0.035
 4029.00    0.96455   1.13102    0.034
 4030.00    0.77789   1.12371    0.034
 4031.00    0.68547   1.17318    0.034
 4032.00    0.94653   1.23103    0.033
 4033.00    1.17367   1.23837    0.033
 4034.00    1.29449   1.19411    0.034
 4035.00    1.30040   1.15207    0.034
 4036.00    1.00060   1.14053    0.033
 4037.00    0.78336   1.14240    0.033
 4038.00    0.75467   1.15612    0.033
 4039.00    0.76363   1.18653    0.034
 4040.00    0.84703   1.23781    0.034
 4041.00    0.87464   1.28911    0.034
 4042.00    0.80612   1.30856    0.034
 4043.00    0.77205   1.29435    0.034
 4044.00    0.78996   1.26284    0.034
 4045.00    0.85149   1.24538    0.034
 4046.00    0.97083   1.25642    0.034
 4047.00    0.99167   1.24651    0.034
 4048.00    0.89750   1.18202    0.034
 4049.00    0.88960   1.10869    0.034
 4050.00    0.97051   1.10282    0.034
 4051.00    1.07312   1.17357    0.034
 4052.00    1.19544   1.23859    0.034
 4053.00    1.17188   1.26229    0.033
 4054.00    1.03156   1.27510    0.033
 4055.00    1.08541   1.27736    0.033
 4056.00    1.27597   1.25727    0.033
 4057.00    1.23329   1.22935    0.033
 4058.00    1.04655   1.20532    0.033
 4059.00    0.86863   1.19488    0.033
 4060.00    0.69549   1.19709    0.032
 4061.00    0.68186   1.18798    0.032
 4062.00    0.74298   1.17809    0.032
 4063.00    0.90090   1.19613    0.032
 4064.00    1.09791   1.22590    0.032
 4065.00    1.04729   1.23023    0.032
 4066.00    0.91127   1.18788    0.031
 4067.00    0.79883   1.12716    0.031
 4068.00    0.69325   1.12014    0.031
 4069.00    0.78171   1.16984    0.031
 4070.00    0.91677   1.19603    0.032
 4071.00    0.99508   1.18943    0.032
 4072.00    1.06240   1.20257    0.032
 4073.00    1.12843   1.22355    0.032
 4074.00    1.19427   1.20380    0.033
 4075.00    1.18949   1.14930    0.032
 4076.00    1.17691   1.13035    0.032
 4077.00    1.06954   1.17630    0.032
 4078.00    0.95524   1.20605    0.032
 4079.00    0.94445   1.17052    0.032
 4080.00    0.93762   1.11142    0.032
 4081.00    0.98553   1.07818    0.032
 4082.00    1.03382   1.09192    0.032
 4083.00    1.08469   1.14271    0.032
 4084.00    1.13790   1.20338    0.032
 4085.00    1.22947   1.24443    0.033
 4086.00    1.29276   1.24242    0.033
 4087.00    1.06499   1.20860    0.033
 4088.00    0.87295   1.17774    0.033
 4089.00    0.94317   1.16839    0.033
 4090.00    0.96497   1.18361    0.033
 4091.00    0.71522   1.21353    0.033
 4092.00    0.57291   1.23395    0.000
 4093.00    0.91141   1.23280    0.000
 4094.00    1.13419   1.22554    0.000
 4095.00    0.93199   1.21493    0.000
 4096.00    0.73739   1.19367    0.000
 4097.00    0.56619   1.18272    0.000
 4098.00    0.40587   1.17306    0.000
 4099.00    0.27396   1.12465    0.000
 4100.00    0.30556   1.05871    0.000
 4101.00    0.70440   1.01604    0.000
 4102.00    0.93655   0.98947    0.000
 4103.00    0.84432   0.94538    0.000
 4104.00    0.76186   0.85587    0.000
 4105.00    0.69598   0.74968    0.000
 4106.00    0.73912   0.72160    0.000
 4107.00    0.94433   0.79714    0.000
 4108.00    1.08430   0.89922    0.000
 4109.00    1.13903   0.98541    0.000
 4110.00    1.20818   1.05599    0.000
 4111.00    1.29391   1.09825    0.000
 4112.00    1.22824   1.11481    0.000
 4113.00    1.00888   1.11658    0.033
 4114.00    0.91142   1.11285    0.033
 4115.00    0.92311   1.11830    0.033
 4116.00    0.91491   1.13916    0.033
 4117.00    0.89102   1.17115    0.032
 4118.00    0.79986   1.19632    0.032
 4119.00    0.66201   1.20672    0.032
 4120.00    0.78627   1.21485    0.046
 4121.00    1.07000   1.21378    0.179
 4122.00    1.19097   1.17943   -1.000
 4123.00    1.22547   1.13623   -1.000
 4124.00    1.24233   1.12349   -1.000
 4125.00    1.25106   1.13269   -1.000
 4126.00    1.18973   1.15060   -1.000
 4127.00    1.10058   1.17510   -1.000
 4128.00    0.93312   1.20520    0.082
 4129.00    0.73915   1.22774    0.035
 4130.00    0.76917   1.22045    0.031
 4131.00    0.86293   1.18781    0.030
 4132.00    1.00990   1.15872    0.031
 4133.00    1.16936   1.15689    0.031
 4134.00    1.17135   1.15778    0.031
 4135.00    1.14363   1.13897    0.031
 4136.00    0.86455   1.11385    0.031
 4137.00    0.54877   1.11345    0.030
 4138.00    0.62111   1.14043    0.030
 4139.00    0.73469   1.18513    0.030
 4140.00    0.75546   1.22368    0.031
 4141.00    0.76980   1.23104    0.031
 4142.00    0.78335   1.23419    0.031
 4143.00    0.79688   1.24709    0.030
 4144.00    1.04378   1.24975    0.031
 4145.00    1.28079   1.22501    0.031
 4146.00    1.17575   1.15108    0.031
 4147.00    1.07124   1.05467    0.032
 4148.00    0.97511   1.03015    0.031
 4149.00    0.89412   1.10027    0.030
 4150.00    0.96245   1.17445    0.031
 4151.00    1.00897   1.20620    0.031
 4152.00    0.90070   1.20999    0.031
 4153.00    0.81214   1.19125    0.031
 4154.00    0.83120   1.17224    0.031
 4155.00    0.87375   1.17512    0.030
 4156.00    1.01894   1.17566    0.030
 4157.00    1.07218   1.16246    0.030
 4158.00    0.79467   1.15208    0.030
 4159.00    0.57161   1.15378    0.030
 4160.00    0.51283   1.15488    0.030
 4161.00    0.51895   1.16265    0.030
 4162.00    0.69173   1.19104    0.030
 4163.00    0.89369   1.21831    0.031
 4164.00    1.16006   1.22474    0.031
 4165.00    1.28157   1.21852    0.032
 4166.00    1.12559   1.22425    0.032
 4167.00    0.98325   1.23438    0.031
 4168.00    0.86371   1.22898    0.032
 4169.00    0.83911   1.22011    0.032
 4170.00    0.95355   1.20979    0.032
 4171.00    1.02137   1.18802    0.032
 4172.00    1.02911   1.17617    0.032
 4173.00    1.00007   1.19097    0.031
 4174.00    0.92927   1.20351    0.031
 4175.00    0.89717   1.17808    0.031
 4176.00    0.90382   1.12317    0.031
 4177.00    1.02219   1.09136    0.032
 4178.00    1.23918   1.10565    0.032
 4179.00    1.18684   1.13723    0.032
 4180.00    0.92502   1.15257    0.031
 4181.00    0.80712   1.14535    0.031
 4182.00    0.78764   1.13777    0.032
 4183.00    0.87911   1.15369    0.032
 4184.00    1.03707   1.18032    0.032
 4185.00    0.99674   1.18402    0.031
 4186.00    0.85271   1.16929    0.031
 4187.00    0.89681   1.16817    0.032
 4188.00    1.02623   1.18376    0.032
 4189.00    1.15820   1.20058    0.032
 4190.00    1.29116   1.19094    0.031
 4191.00    1.24978   1.15395    0.031
 4192.00    1.15049   1.14318    0.032
 4193.00    1.01764   1.16698    0.032
 4194.00    0.87545   1.18429    0.032
 4195.00    0.87905   1.18612    0.031
 4196.00    0.91610   1.20240    0.031
 4197.00    0.87612   1.23628    0.031
 4198.00    0.82198   1.24153    0.031
 4199.00    0.89523   1.20226    0.031
 4200.00    0.98650   1.16021    0.031
 4201.00    0.91772   1.13858    0.031
 4202.00    0.83262   1.12035    0.030
 4203.00    0.83087   1.11477    0.030
 4204.00    0.83454   1.13024    0.030
 4205.00    0.89853   1.13455    0.030
 4206.00    0.96433   1.12774    0.030
 4207.00    1.00667   1.14146    0.030
 4208.00    1.04306   1.16243    0.029
 4209.00    0.90463   1.17477    0.029
 4210.00    0.77572   1.19297    0.029
 4211.00    0.78542   1.21570    0.029
 4212.00    0.80180   1.22987    0.030
 4213.00    0.88133   1.22413    0.030
 4214.00    0.95116   1.20883    0.030
 4215.00    0.95434   1.21164    0.030
 4216.00    0.94807   1.22801    0.030
 4217.00    0.89164   1.22993    0.029
 4218.00    0.85215   1.20223    0.029
 4219.00    0.88508   1.15264    0.028
 4220.00    0.92520   1.13307    0.028
 4221.00    0.99066   1.17555    0.028
 4222.00    0.96540   1.22802    0.029
 4223.00    0.67146   1.24890    0.029
 4224.00    0.47054   1.25494    0.028
 4225.00    0.50435   1.25642    0.028
 4226.00    0.61595   1.23389    0.028
 4227.00    0.89658   1.19208    0.028
 4228.00    1.06541   1.14373    0.028
 4229.00    1.02340   1.07985    0.028
 4230.00    0.97177   1.00647    0.027
 4231.00    0.90432   0.98071    0.027
 4232.00    0.85236   1.05031    0.027
 4233.00    0.82275   1.15315    0.027
 4234.00    0.83328   1.21451    0.027
 4235.00    0.89475   1.23579    0.027
 4236.00    0.89994   1.21847    0.027
 4237.00    0.84214   1.17785    0.027
 4238.00    0.75582   1.16421    0.027
 4239.00    0.64135   1.16519    0.027
 4240.00    0.68040   1.14732    0.027
 4241.00    0.85305   1.14316    0.027
 4242.00    0.99539   1.15779    0.027
 4243.00    1.11448   1.16545    0.027
 4244.00    1.15444   1.17556    0.028
 4245.00    1.14108   1.19780    0.028
 4246.00    1.17175   1.21070    0.028
 4247.00    1.22842   1.21970    0.029
 4248.00    1.31944   1.24756    0.029
 4249.00    1.42814   1.26317    0.029
 4250.00    1.27469   1.23623    0.029
 4251.00    1.00427   1.19336    0.029
 4252.00    0.78340   1.17115    0.029
 4253.00    0.58152   1.16088    0.028
 4254.00    0.71086   1.13949    0.028
 4255.00    0.94814   1.13887    0.028
 4256.00    0.88411   1.17043    0.028
 4257.00    0.73783   1.17374    0.028
 4258.00    0.86634   1.14055    0.028
 4259.00    1.05642   1.13354    0.029
 4260.00    1.16606   1.17442    0.029
 4261.00    1.26131   1.21603    0.030
 4262.00    1.08298   1.20745    0.030
 4263.00    0.86723   1.16080    0.030
 4264.00    0.93539   1.11589    0.030
 4265.00    1.03128   1.10945    0.030
 4266.00    1.05355   1.15817    0.029
 4267.00    1.07132   1.22194    0.029
 4268.00    0.96102   1.25576    0.029
 4269.00    0.84648   1.26202    0.029
 4270.00    0.57785   1.23920    0.029
 4271.00    0.32692   1.18840    0.028
 4272.00    0.54396   1.15939    0.028
 4273.00    0.75779   1.16190    0.028
 4274.00    0.92736   1.14222    0.029
 4275.00    1.07912   1.08666    0.029
 4276.00    1.06909   1.05323    0.030
 4277.00    1.05038   1.07162    0.030
 4278.00    0.97386   1.08812    0.030
 4279.00    0.91232   1.09058    0.031
 4280.00    0.92838   1.12171    0.030
 4281.00    0.90558   1.17616    0.030
 4282.00    0.72062   1.21801   -2.000
 4283.00    0.61646   1.22269   -2.000
 4284.00    0.79121   1.19232   -2.000
 4285.00    0.85371   1.16890   -2.000
 4286.00    0.58992   1.16506   -2.000
 4287.00    0.57725   1.16767   -2.000
 4288.00    1.18740   1.17007   -2.000
 4289.00    1.55376   1.15746   -2.000
 4290.00    1.39897   1.14541   -2.000
 4291.00    1.29898   1.14975   -2.000
 4292.00    1.30074   1.13818   -2.000
 4293.00    1.09815   1.08844   -2.000
 4294.00    0.56410   1.04537   -2.000
 4295.00    0.45166   1.06190   -2.000
 4296.00    0.93901   1.12375   -2.000
 4297.00    1.16950   1.16872   -2.000
 4298.00    1.07853   1.15880    0.030
 4299.00    1.02703   1.13721    0.030
 4300.00    1.01908   1.13558    0.030
 4301.00    1.08272   1.12712    0.030
 4302.00    1.21601   1.09324    0.030
 4303.00    1.14147   1.03518    0.030
 4304.00    0.88859   0.99342    0.029
 4305.00    0.78128   0.99942    0.029
 4306.00    0.78396   1.01293    0.029
 4307.00    0.87864   1.01133    0.029
 4308.00    1.03441   1.02194    0.030
 4309.00    1.08516   1.03690    0.029
 4310.00    1.07484   1.03429    0.029
 4311.00    0.97929   1.00982    0.028
 4312.00    0.84054   0.97529    0.029
 4313.00    0.92121   0.96770    0.029
 4314.00    1.09815   1.00020    0.029
 4315.00    1.16430   1.04721    0.029
 4316.00    1.18872   1.08086    0.028
 4317.00    1.08557   1.09545    0.028
 4318.00    0.94164   1.10347    0.028
 4319.00    0.92867   1.13737    0.028
 4320.00    0.95070   1.20924    0.028
 4321.00    0.81099   1.26661    0.028
 4322.00    0.63590   1.27624    0.028
 4323.00    0.69516   1.26062    0.028
 4324.00    0.79518   1.24014    0.028
 4325.00    0.87762   1.22312    0.028
 4326.00    0.95773   1.21319    0.028
 4327.00    0.95624   1.18085    0.029
 4328.00    0.94713   1.10899    0.029
 4329.00    1.13620   1.02748    0.028
 4330.00    1.33661   0.99941    0.000
 4331.00    1.14287   1.06319    0.000
 4332.00    0.94168   1.16355    0.000
 4333.00    0.93727   1.21839    0.000
 4334.00    0.94271   1.20930    0.000
 4335.00    1.18447   1.18245    0.000
 4336.00    1.38952   1.17544    0.000
 4337.00    1.11672   1.17650    0.000
 4338.00    0.88089   1.17616    0.000
 4339.00    0.96807   1.17483    0.000
 4340.00    1.05614   1.13703    0.000
 4341.00    1.14991   1.03553    0.000
 4342.00    1.21848   0.91769    0.000
 4343.00    1.15986   0.82077    0.000
 4344.00    1.07356   0.74066    0.000
 4345.00    0.87430   0.73391    0.000
 4346.00    0.71649   0.83030    0.000
 4347.00    0.69893   0.93945    0.000
 4348.00    0.71741   1.00210    0.000
 4349.00    0.83875   1.05344    0.000
 4350.00    0.91567   1.09989    0.000
 4351.00    0.88426   1.12497    0.027
 4352.00    0.88773   1.15321    0.027
 4353.00    0.96455   1.19194    0.027
 4354.00    1.08299   1.18963    0.033
 4355.00    1.27750   1.11958    0.085
 4356.00    1.37038   1.05726   -1.000
 4357.00    1.30090   1.07701   -1.000
 4358.00    1.23698   1.13790   -1.000
 4359.00    1.18086   1.18014 2110.280
 4360.00    1.13321   1.21216   -1.000
 4361.00    1.09603   1.23881   -1.000
 4362.00    1.04932   1.23022    0.112
 4363.00    0.99227   1.19563    0.036
 4364.00    0.90197   1.19001    0.027
 4365.00    0.77980   1.22439    0.027
 4366.00    0.72193   1.25680    0.027
 4367.00    0.71846   1.26679    0.027
 4368.00    0.76922   1.27812    0.027
 4369.00    0.86037   1.29706    0.026
 4370.00    0.95430   1.28587    0.026
 4371.00    1.05005   1.23645    0.026
 4372.00    1.07089   1.19710    0.026
 4373.00    1.04883   1.19664    0.027
 4374.00    1.00832   1.21048    0.027
 4375.00    0.95861   1.21838    0.027
 4376.00    1.03780   1.22054    0.027
 4377.00    1.17263   1.20383    0.027
 4378.00    1.09667   1.15846    0.027
 4379.00    0.94273   1.12075    0.027
 4380.00    0.86725   1.13751    0.027
 4381.00    0.81636   1.19854    0.027
 4382.00    0.89365   1.24875    0.026
 4383.00    1.00447   1.25647    0.026
 4384.00    1.02478   1.24073    0.026
 4385.00    1.02575   1.22245    0.027
 4386.00    0.97288   1.17259    0.027
 4387.00    0.91090   1.06938    0.027
 4388.00    0.89961   0.98259    0.026
 4389.00    0.89479   0.99429    0.026
 4390.00    0.88128   1.07476    0.026
 4391.00    0.86700   1.12289    0.026
 4392.00    0.86144   1.11968    0.026
 4393.00    0.85635   1.12225    0.026
 4394.00    1.01820   1.13749    0.027
 4395.00    1.18217   1.15277    0.027
 4396.00    1.25226   1.18185    0.027
 4397.00    1.31126   1.20708    0.027
 4398.00    1.12628   1.19540    0.026
 4399.00    0.94064   1.16764    0.026
 4400.00    0.74694   1.18298    0.026
 4401.00    0.59390   1.23993    0.026
 4402.00    0.78298   1.27069    0.026
 4403.00    0.95916   1.24612    0.027
 4404.00    1.05453   1.19450    0.027
 4405.00    1.11963   1.17184    0.027
 4406.00    1.03584   1.20423    0.027
 4407.00    0.97400   1.22137    0.027
 4408.00    0.99979   1.16300    0.027
 4409.00    1.01270   1.10116    0.027
 4410.00    0.98289   1.11487    0.026
 4411.00    0.94411   1.15426    0.026
 4412.00    0.88017   1.15847    0.027
 4413.00    0.85259   1.16504    0.027
 4414.00    0.91216   1.20736    0.027
 4415.00    0.97698   1.25093    0.027
 4416.00    1.05269   1.27690    0.027
 4417.00    1.11914   1.28165    0.027
 4418.00    1.16893   1.23166    0.027
 4419.00    1.16829   1.14877    0.027
 4420.00    1.08824   1.11641    0.027
 4421.00    1.01519   1.14585    0.027
 4422.00    0.95181   1.19510    0.027
 4423.00    0.92917   1.24751    0.027
 4424.00    0.95610   1.28252    0.026
 4425.00    0.99093   1.27556    0.026
 4426.00    1.03424   1.23457    0.027
 4427.00    0.97166   1.20568    0.027
 4428.00    0.80892   1.21641    0.027
 4429.00    0.87475   1.23570    0.027
 4430.00    1.13119   1.23537    0.027
 4431.00    1.14726   1.22764    0.027
 4432.00    0.98686   1.23377    0.027
 4433.00    1.02338   1.24055    0.027
 4434.00    1.18687   1.21959    0.027
 4435.00    1.22873   1.20231    0.027
 4436.00    1.20199   1.21759    0.028
 4437.00    1.24420   1.22292    0.028
 4438.00    1.32027   1.18898    0.027
 4439.00    1.30468   1.14696    0.028
 4440.00    1.25021   1.14451    0.028
 4441.00    1.18887   1.19064    0.027
 4442.00    1.12503   1.25271    0.027
 4443.00    1.14998   1.29732    0.027
 4444.00    1.20223   1.29977    0.026
 4445.00    1.22229   1.25594    0.027
 4446.00    1.23412   1.19402    0.028
 4447.00    1.21689   1.15459    0.027
 4448.00    1.19360   1.16819    0.027
 4449.00    1.06583   1.22793    0.027
 4450.00    0.92090   1.27586    0.027
 4451.00    0.85367   1.27480    0.028
 4452.00    0.79603   1.26528    0.028
 4453.00    0.77526   1.27169    0.027
 4454.00    0.75764   1.26516    0.027
 4455.00    0.85722   1.25264    0.026
 4456.00    0.96259   1.25433    0.026
 4457.00    1.14117   1.24825    0.026
 4458.00    1.31726   1.21059    0.027
 4459.00    1.26372   1.15919    0.027
 4460.00    1.20872   1.14127    0.027
 4461.00    1.12406   1.16109    0.000
 4462.00    1.05025   1.17539    0.000
 4463.00    1.10381   1.17024    0.000
 4464.00    1.14491   1.16339    0.000
 4465.00    1.08498   1.15080    0.000
 4466.00    1.04587   1.14069    0.000
 4467.00    1.13350   1.16966    0.000
 4468.00    1.20654   1.21596    0.000
 4469.00    1.20963   1.22966    0.000
 4470.00    1.17808   1.22020    0.000
 4471.00    1.01128   1.21302    0.000
 4472.00    0.92065   1.20225    0.000
 4473.00    1.07772   1.17768    0.000
 4474.00    1.19475   1.14981    0.000
 4475.00    1.20164   1.13226    0.000
 4476.00    1.20031   1.14692    0.000
 4477.00    1.17962   1.20639    0.000
 4478.00    1.13037   1.26918    0.000
 4479.00    1.02296   1.29214    0.000
 4480.00    0.99362   1.29595    0.000
 4481.00    1.10267   1.31600    0.000
 4482.00    1.12210   1.33399    0.026
 4483.00    1.00254   1.30697    0.026
 4484.00    0.91328   1.23162    0.026
 4485.00    0.86528   1.15540    0.026
 4486.00    0.94396   1.13597    0.026
 4487.00    1.17454   1.18645    0.026
 4488.00    1.22893   1.25973    0.026
 4489.00    1.09707   1.31045    0.026
 4490.00    1.03477   1.33278    0.026
 4491.00    1.03735   1.32598    0.026
 4492.00    0.97914   1.28522    0.026
 4493.00    0.87097   1.22995    0.026
 4494.00    0.88253   1.20161    0.026
 4495.00    0.98074   1.22044    0.026
 4496.00    1.08330   1.26236    0.026
 4497.00    1.18862   1.28135    0.026
 4498.00    1.22466   1.25437    0.026
 4499.00    1.22222   1.21555    0.026
 4500.00    1.21777   1.20712    0.026
 4501.00    1.21234   1.23040    0.026
 4502.00    1.21603   1.26913    0.026
 4503.00    1.22351   1.30105    0.026
 4504.00    1.11452   1.30392    0.026
 4505.00    0.96396   1.27829    0.026
 4506.00    0.96585   1.26858    0.026
 4507.00    1.01370   1.31060    0.026
 4508.00    1.08363   1.36467    0.026
 4509.00    1.15909   1.38143    0.026
 4510.00    1.15326   1.36501    0.026
 4511.00    1.13090   1.33745    0.026
 4512.00    1.05215   1.31634    0.026
 4513.00    0.96442   1.31570    0.026
 4514.00    1.00536   1.33273    0.026
 4515.00    1.06160   1.34286    0.026
 4516.00    1.21543   1.32689    0.026
 4517.00    1.37715   1.29662    0.027
 4518.00    1.19602   1.27150    0.026
 4519.00    0.99930   1.26087    0.026
 4520.00    1.04756   1.26970    0.026
 4521.00    1.09679   1.27882    0.027
 4522.00    1.04170   1.27217    0.026
 4523.00    0.99462   1.27393    0.025
 4524.00    1.09791   1.29673    0.025
 4525.00    1.18212   1.31873    0.026
 4526.00    1.05267   1.30999    0.025
 4527.00    0.93734   1.27467    0.025
 4528.00    0.93258   1.25294    0.025
 4529.00    0.95497   1.24393    0.025
 4530.00    1.13796   1.22185    0.025
 4531.00    1.27066   1.19043    0.026
 4532.00    1.16793   1.15964    0.025
 4533.00    1.03780   1.14022    0.025
 4534.00    0.80297   1.14659    0.025
 4535.00    0.70280   1.17453    0.025
 4536.00    1.03200   1.20848    0.025
 4537.00    1.26949   1.21906    0.026
 4538.00    1.25914   1.18952    0.025
 4539.00    1.23471   1.15748    0.025
 4540.00    1.17763   1.17461    0.025
 4541.00    1.11942   1.24625    0.025
 4542.00    1.05894   1.31126    0.025
 4543.00    1.03733   1.31657    0.025
 4544.00    1.08358   1.28037    0.025
 4545.00    1.06012   1.24680    0.025
 4546.00    0.93014   1.24651    0.025
 4547.00    0.86345   1.27257    0.025
 4548.00    0.88171   1.27963    0.025
 4549.00    0.98510   1.25658    0.025
 4550.00    1.18911   1.24418    0.000
 4551.00    1.19648   1.25445    0.000
 4552.00    0.99887   1.25331    0.000
 4553.00    0.97701   1.22196    0.000
 4554.00    1.11674   1.19967    0.000
 4555.00    1.17335   1.22010    0.000
 4556.00    1.16260   1.23802    0.000
 4557.00    1.10504   1.22236    0.000
 4558.00    1.01410   1.20150    0.000
 4559.00    1.13285   1.19316    0.000
 4560.00    1.38285   1.20899    0.000
 4561.00    1.22885   1.25421    0.000
 4562.00    0.85390   1.29768    0.000
 4563.00    0.84115   1.31422    0.000
 4564.00    1.00058   1.31521    0.000
 4565.00    1.12527   1.31765    0.000
 4566.00    1.23571   1.32048    0.000
 4567.00    1.17812   1.30147    0.000
 4568.00    1.06166   1.25810    0.000
 4569.00    1.09306   1.22631    0.000
 4570.00    1.16816   1.23342    0.000
 4571.00    1.09197   1.27132    0.000
 4572.00    0.97872   1.30736    0.000
 4573.00    1.09074   1.32195    0.000
 4574.00    1.24740   1.31557    0.000
 4575.00    1.16684   1.28105    0.000
 4576.00    1.04955   1.24684    0.000
 4577.00    1.05600   1.26544    0.000
 4578.00    1.07660   1.30605    0.000
 4579.00    1.16499   1.31171    0.000
 4580.00    1.25858   1.30273    0.000
 4581.00    0.97835   1.30619    0.000
 4582.00    0.68256   1.30433    0.000
 4583.00    0.93656   1.27793    0.000
 4584.00    1.18667   1.23751    0.000
 4585.00    1.06460   1.21514    0.000
 4586.00    0.95694   1.22358    0.000
 4587.00    1.10097   1.23702    0.000
 4588.00    1.21728   1.23576    0.000
 4589.00    1.03707   1.23178    0.000
 4590.00    0.88821   1.23362    0.000
 4591.00    0.97633   1.24639    0.000
 4592.00    1.04855   1.27484    0.000
 4593.00    1.02942   1.30146    0.000
 4594.00    1.00228   1.30322    0.000
 4595.00    0.93853   1.27686    0.000
 4596.00    0.90698   1.24564    0.000
 4597.00    0.99591   1.23610    0.000
 4598.00    1.04649   1.24252    0.000
 4599.00    0.97713   1.24016    0.000
 4600.00    0.95198   1.23124    0.000
 4601.00    1.04418   1.23426    0.000
 4602.00    1.13531   1.24902    0.000
 4603.00    1.22398   1.26383    0.000
 4604.00    1.23553   1.26016    0.000
 4605.00    1.09493   1.23912    0.000
 4606.00    1.01474   1.23410    0.000
 4607.00    1.03842   1.25022    0.000
 4608.00    1.02332   1.26232    0.000
 4609.00    0.94983   1.25952    0.000
 4610.00    0.97608   1.25330    0.000
 4611.00    1.13431   1.26558    0.000
 4612.00    1.25897   1.30058    0.000
 4613.00    1.34450   1.33729    0.000
 4614.00    1.25362   1.34748    0.000
 4615.00    0.98142   1.32998    0.000
 4616.00    0.96542   1.30817    0.000
 4617.00    1.18166   1.29181    0.000
 4618.00    1.21525   1.28796    0.000
 4619.00    1.10293   1.30397    0.000
 4620.00    1.02596   1.31662    0.000
 4621.00    0.97384   1.31610    0.000
 4622.00    0.99376   1.31186    0.000
 4623.00    1.05809   1.29206    0.000
 4624.00    1.02195   1.27628    0.000
 4625.00    0.93172   1.29411    0.000
 4626.00    0.93877   1.31744    0.000
 4627.00    0.99133   1.32305    0.000
 4628.00    1.08563   1.32526    0.000
 4629.00    1.19677   1.32085    0.000
 4630.00    1.23488   1.30629    0.000
 4631.00    1.24787   1.30192    0.000
 4632.00    1.15204   1.30605    0.000
 4633.00    1.02469   1.29367    0.000
 4634.00    1.04605   1.27642    0.000
 4635.00    1.10303   1.28898    0.000
 4636.00    1.10463   1.31279    0.000
 4637.00    1.09554   1.30359    0.000
 4638.00    0.91834   1.27510    0.000
 4639.00    0.71591   1.26569    0.000
 4640.00    0.76806   1.27175    0.000
 4641.00    0.84824   1.26776    0.000
 4642.00    0.82362   1.24768    0.000
 4643.00    0.79139   1.22915    0.000
 4644.00    0.84810   1.22350    0.000
 4645.00    0.90817   1.23386    0.000
 4646.00    0.90572   1.25656    0.000
 4647.00    0.90754   1.26977    0.000
 4648.00    1.07888   1.26584    0.000
 4649.00    1.23590   1.25143    0.000
 4650.00    1.15885   1.21785    0.000
 4651.00    1.09067   1.17327    0.000
 4652.00    1.11328   1.15326    0.000
 4653.00    1.13016   1.16782    0.000
 4654.00    1.10515   1.19892    0.000
 4655.00    1.08379   1.22977    0.000
 4656.00    1.08280   1.25610    0.000
 4657.00    1.06283   1.27676    0.000
 4658.00    0.95822   1.27278    0.000
 4659.00    0.89039   1.24167    0.000
 4660.00    0.95728   1.21926    0.000
 4661.00    1.02175   1.22533    0.000
 4662.00    1.07881   1.26207    0.000
 4663.00    1.10546   1.31681    0.000
 4664.00    1.05281   1.35190    0.000
 4665.00    1.00908   1.34370    0.000
 4666.00    0.98535   1.30440    0.000
 4667.00    1.00603   1.26516    0.000
 4668.00    1.11299   1.24919    0.000
 4669.00    1.15901   1.24995    0.000
 4670.00    1.10182   1.22857    0.000
 4671.00    1.05623   1.16870    0.000
 4672.00    1.02785   1.12070    0.000
 4673.00    1.04477   1.13305    0.000
 4674.00    1.12081   1.18624    0.000
 4675.00    1.19145   1.23829    0.000
 4676.00    1.25590   1.26621    0.000
 4677.00    1.18828   1.26281    0.000
 4678.00    0.98683   1.24795    0.000
 4679.00    0.94274   1.24863    0.000
 4680.00    1.03928   1.26844    0.000
 4681.00    1.02207   1.28791    0.000
 4682.00    0.91527   1.28168    0.000
 4683.00    0.90836   1.25480    0.000
 4684.00    0.97063   1.23191    0.000
 4685.00    1.00447   1.22022    0.000
 4686.00    1.02105   1.21838    0.000
 4687.00    1.00230   1.23480    0.000
 4688.00    0.96481   1.26054    0.000
 4689.00    0.92589   1.27022    0.000
 4690.00    0.88632   1.26516    0.000
 4691.00    0.93032   1.26064    0.000
 4692.00    1.00743   1.25676    0.000
 4693.00    1.09765   1.25692    0.000
 4694.00    1.19230   1.25944    0.000
 4695.00    1.21293   1.25186    0.000
 4696.00    1.21256   1.24296    0.000
 4697.00    1.14195   1.24997    0.000
 4698.00    1.05490   1.26539    0.000
 4699.00    0.99638   1.28180    0.000
 4700.00    0.94324   1.29888    0.000
 4701.00    1.03702   1.30002    0.000
 4702.00    1.15218   1.26717    0.000
 4703.00    1.14549   1.21992    0.000
 4704.00    1.12592   1.20341    0.000
 4705.00    0.96728   1.21658    0.000
 4706.00    0.79909   1.21778    0.000
 4707.00    0.77174   1.20087    0.000
 4708.00    0.74918   1.19771    0.000
 4709.00    0.77967   1.22001    0.000
 4710.00    0.81121   1.23905    0.000
 4711.00    0.87448   1.23209    0.000
 4712.00    0.93390   1.21124    0.000
 4713.00    0.93415   1.19774    0.000
 4714.00    0.93743   1.20490    0.000
 4715.00    0.97046   1.23701    0.000
 4716.00    1.00793   1.26507    0.000
 4717.00    1.07684   1.25079    0.000
 4718.00    1.12483   1.21499    0.000
 4719.00    1.05892   1.20162    0.000
 4720.00    0.99354   1.22559    0.000
 4721.00    0.93046   1.26525    0.000
 4722.00    0.88980   1.29340    0.000
 4723.00    0.92958   1.30902    0.000
 4724.00    0.97962   1.32338    0.000
 4725.00    1.06058   1.32870    0.000
 4726.00    1.11099   1.31790    0.000
 4727.00    1.08314   1.30369    0.000
 4728.00    1.09041   1.30791    0.000
 4729.00    1.17508   1.32810    0.000
 4730.00    1.18728   1.33237    0.000
 4731.00    1.06093   1.29601    0.000
 4732.00    0.96708   1.23560    0.000
 4733.00    0.92743   1.19848    0.000
 4734.00    0.94716   1.19780    0.000
 4735.00    1.05372   1.20896    0.000
 4736.00    1.12839   1.22455    0.000
 4737.00    1.16207   1.24741    0.000
 4738.00    1.12963   1.26548    0.000
 4739.00    1.02230   1.27598    0.000
 4740.00    0.97614   1.27427    0.000
 4741.00    0.99111   1.25413    0.000
 4742.00    1.00926   1.25321    0.000
 4743.00    1.03023   1.28347    0.000
 4744.00    1.02918   1.29554    0.000
 4745.00    1.01103   1.27788    0.000
 4746.00    1.04918   1.26743    0.000
 4747.00    1.12576   1.28026    0.000
 4748.00    1.08359   1.29609    0.000
 4749.00    0.97036   1.29502    0.000
 4750.00    0.92418   1.29186    0.000
 4751.00    0.91298   1.30486    0.000
 4752.00    0.99155   1.31453    0.000
 4753.00    1.11074   1.31024    0.000
 4754.00    1.18162   1.30936    0.000
 4755.00    1.23369   1.31137    0.000
 4756.00    1.16137   1.30110    0.000
 4757.00    1.04782   1.28242    0.000
 4758.00    1.01832   1.26863    0.000
 4759.00    1.01218   1.26065    0.000
 4760.00    1.10660   1.25826    0.000
 4761.00    1.22402   1.25992    0.021
 4762.00    1.16892   1.26635    0.021
 4763.00    1.08222   1.27749    0.021
 4764.00    1.00668   1.28962    0.021
 4765.00    0.93271   1.28725    0.021
 4766.00    1.04791   1.25610    0.021
 4767.00    1.18231   1.21951    0.021
 4768.00    1.13405   1.20447    0.021
 4769.00    1.07398   1.19725    0.021
 4770.00    1.01120   1.18565    0.021
 4771.00    0.94862   1.18786    0.021
 4772.00    1.02681   1.21387    0.021
 4773.00    1.10003   1.24771    0.021
 4774.00    1.02949   1.27486    0.021
 4775.00    0.96426   1.27866    0.021
 4776.00    0.97595   1.25702    0.021
 4777.00    0.98211   1.24572    0.021
 4778.00    0.93622   1.26684    0.021
 4779.00    0.89622   1.29733    0.020
 4780.00    0.89652   1.30567    0.020
 4781.00    0.90195   1.30127    0.020
 4782.00    0.93450   1.30617    0.020
 4783.00    0.95346   1.30456    0.020
 4784.00    0.91457   1.28850    0.020
 4785.00    0.92447   1.27976    0.020
 4786.00    1.10587   1.27768    0.021
 4787.00    1.23368   1.26099    0.021
 4788.00    1.20317   1.24243    0.021
 4789.00    1.14996   1.24850    0.021
 4790.00    1.03962   1.25321    0.021
 4791.00    0.98417   1.23645    0.020
 4792.00    1.04775   1.23251    0.020
 4793.00    1.08915   1.24034    0.020
 4794.00    1.08881   1.23823    0.021
 4795.00    1.09301   1.24288    0.021
 4796.00    1.10469   1.25668    0.021
 4797.00    1.05918   1.27427    0.021
 4798.00    0.93127   1.30430    0.021
 4799.00    0.86733   1.33507    0.021
 4800.00    0.88443   1.34233    0.021
 4801.00    0.90752   1.32519    0.021
 4802.00    0.93730   1.29726    0.021
 4803.00    0.95056   1.26643    0.021
 4804.00    0.94756   1.24636    0.021
 4805.00    0.91059   1.25344    0.021
 4806.00    0.84412   1.28334    0.021
 4807.00    0.90215   1.30899    0.021
 4808.00    1.05545   1.30810    0.021
 4809.00    1.08015   1.28327    0.021
 4810.00    1.01836   1.25942    0.021
 4811.00    0.99727   1.25264    0.021
 4812.00    1.00017   1.24747    0.021
 4813.00    0.99324   1.24469    0.021
 4814.00    0.98125   1.25666    0.022
 4815.00    0.99061   1.27042    0.022
 4816.00    1.00947   1.27344    0.022
 4817.00    0.98502   1.27049    0.022
 4818.00    0.94399   1.27022    0.022
 4819.00    0.94186   1.27509    0.022
 4820.00    0.95238   1.28379    0.022
 4821.00    0.96137   1.29637    0.021
 4822.00    0.96995   1.30883    0.021
 4823.00    1.04639   1.31460    0.021
 4824.00    1.13800   1.31519    0.022
 4825.00    1.05692   1.31189    0.021
 4826.00    0.94506   1.30230    0.021
 4827.00    0.87868   1.27098    0.021
 4828.00    0.81849   1.22466    0.021
 4829.00    0.82333   1.21658    0.022
 4830.00    0.83449   1.25359    0.022
 4831.00    0.85426   1.28297    0.021
 4832.00    0.87455   1.27881    0.021
 4833.00    0.92841   1.25859    0.021
 4834.00    0.98295   1.25177    0.022
 4835.00    0.99997   1.25710    0.021
 4836.00    1.01793   1.24563    0.021
 4837.00    1.06047   1.23115    0.021
 4838.00    1.09841   1.24610    0.021
 4839.00    1.07349   1.26965    0.021
 4840.00    1.04972   1.27393    0.021
 4841.00    1.03621   1.26898    0.021
 4842.00    1.02407   1.26854    0.021
 4843.00    1.02101   1.25554    0.021
 4844.00    1.00981   1.22922    0.021
 4845.00    0.95655   1.21884    0.021
 4846.00    0.91647   1.22994    0.021
 4847.00    0.93127   1.23220    0.021
 4848.00    0.94609   1.22263    0.000
 4849.00    0.96094   1.23451    0.000
 4850.00    0.96968   1.26169    0.000
 4851.00    0.96071   1.26659    0.000
 4852.00    0.98467   1.23875    0.000
 4853.00    1.09014   1.20259    0.000
 4854.00    1.13149   1.19712    0.000
 4855.00    1.03602   1.21802    0.000
 4856.00    1.03757   1.22445    0.000
 4857.00    1.21893   1.21388    0.000
 4858.00    1.30566   1.19306    0.000
 4859.00    1.23921   1.14394    0.000
 4860.00    1.18432   1.08812    0.000
 4861.00    1.14583   1.07517    0.000
 4862.00    1.05139   1.08658    0.000
 4863.00    0.88704   1.05796    0.000
 4864.00    0.78432   0.96813    0.000
 4865.00    0.74947   0.84538    0.000
 4866.00    0.79661   0.77308    0.000
 4867.00    0.92338   0.82476    0.000
 4868.00    0.95662   0.93754    0.000
 4869.00    0.90976   1.01388    0.000
 4870.00    0.91743   1.06384    0.000
 4871.00    0.96625   1.10812    0.000
 4872.00    0.99097   1.13668    0.000
 4873.00    0.99973   1.15397    0.000
 4874.00    1.01810   1.16161    0.000
 4875.00    1.04207   1.13220    0.020
 4876.00    1.01364   1.08398    0.020
 4877.00    0.95871   1.08725    0.020
 4878.00    0.89999   1.13925    0.020
 4879.00    0.83960   1.17535    0.020
 4880.00    0.89924   1.18347    0.020
 4881.00    1.00399   1.19343    0.020
 4882.00    1.04724   1.20990    0.020
 4883.00    1.07088   1.23078    0.020
 4884.00    1.05186   1.26065    0.020
 4885.00    1.02148   1.26286    0.020
 4886.00    0.96967   1.22951    0.020
 4887.00    0.91319   1.21455    0.020
 4888.00    0.84216   1.22347    0.020
 4889.00    0.76862   1.21270    0.020
 4890.00    0.87166   1.18239    0.020
 4891.00    0.99796   1.16878    0.020
 4892.00    1.02128   1.18293    0.020
 4893.00    1.03503   1.19881    0.020
 4894.00    1.00138   1.18893    0.020
 4895.00    0.96503   1.14949    0.020
 4896.00    0.96858   1.12595    0.020
 4897.00    0.97232   1.17443    0.020
 4898.00    0.89787   1.25358    0.020
 4899.00    0.82846   1.30625    0.020
 4900.00    0.87847   1.33200    0.020
 4901.00    0.92664   1.33635    0.020
 4902.00    0.95098   1.33048    0.020
 4903.00    0.96790   1.31558    0.020
 4904.00    0.92021   1.28225    0.020
 4905.00    0.88274   1.25781    0.020
 4906.00    0.91100   1.26573    0.020
 4907.00    0.94464   1.26817    0.020
 4908.00    1.00539   1.25077    0.020
 4909.00    1.04268   1.25441    0.020
 4910.00    0.98453   1.28944    0.020
 4911.00    0.93504   1.31487    0.020
 4912.00    0.91482   1.30341    0.020
 4913.00    0.92773   1.26928    0.020
 4914.00    1.03499   1.22958    0.020
 4915.00    1.09049   1.20054    0.020
 4916.00    1.02007   1.20698    0.020
 4917.00    0.97632   1.23881    0.020
 4918.00    0.98855   1.26538    0.020
 4919.00    0.97696   1.28545    0.020
 4920.00    0.92189   1.30649    0.020
 4921.00    0.92479   1.30499    0.020
 4922.00    1.02016   1.25985    0.020
 4923.00    1.04275   1.18269    0.020
 4924.00    0.96347   1.10938    0.020
 4925.00    0.94760   1.07093    0.020
 4926.00    1.00985   1.08127    0.020
 4927.00    0.99233   1.13152    0.020
 4928.00    0.88823   1.16543    0.020
 4929.00    0.88808   1.17114    0.020
 4930.00    0.98747   1.19411    0.020
 4931.00    1.00202   1.24851    0.020
 4932.00    0.94494   1.28659    0.020
 4933.00    0.93651   1.30542    0.020
 4934.00    0.96424   1.32317    0.020
 4935.00    0.99142   1.32726    0.020
 4936.00    1.01823   1.31786    0.020
 4937.00    1.00964   1.28707    0.020
 4938.00    0.98080   1.23260    0.020
 4939.00    0.96705   1.21239    0.020
 4940.00    0.96079   1.24554    0.000
 4941.00    0.96299   1.26010    0.000
 4942.00    0.96883   1.22055    0.000
 4943.00    1.00636   1.16821    0.000
 4944.00    1.05561   1.16064    0.000
 4945.00    1.01354   1.21055    0.000
 4946.00    0.94290   1.26620    0.000
 4947.00    0.95707   1.28706    0.000
 4948.00    0.99336   1.29974    0.000
 4949.00    0.97276   1.30983    0.000
 4950.00    0.94003   1.29728    0.000
 4951.00    0.96147   1.28415    0.000
 4952.00    0.99204   1.29749    0.000
 4953.00    0.95933   1.31534    0.000
 4954.00    0.91858   1.32095    0.000
 4955.00    0.98232   1.32552    0.000
 4956.00    1.05534   1.33024    0.000
 4957.00    1.05555   1.31873    0.000
 4958.00    1.05191   1.29701    0.000
 4959.00    0.89393   1.28247    0.000
 4960.00    0.73684   1.26306    0.000
 4961.00    0.88025   1.20437    0.000
 4962.00    1.01505   1.12259    0.000
 4963.00    0.96249   1.11843    0.000
 4964.00    0.91408   1.20417    0.000
 4965.00    0.91661   1.27410    0.000
 4966.00    0.92252   1.28606    0.000
 4967.00    0.95680   1.27888    0.000
 4968.00    0.99502   1.27946    0.000
 4969.00    1.05781   1.26622    0.000
 4970.00    1.10104   1.23048    0.000
 4971.00    1.04840   1.20754    0.000
 4972.00    1.01401   1.20943    0.000
 4973.00    1.05228   1.21586    0.000
 4974.00    1.08449   1.22347    0.000
 4975.00    1.09661   1.23222    0.000
 4976.00    1.09777   1.24733    0.000
 4977.00    1.06830   1.26778    0.000
 4978.00    1.02478   1.28215    0.000
 4979.00    0.94768   1.29202    0.000
 4980.00    0.90883   1.29147    0.000
 4981.00    0.94898   1.27958    0.000
 4982.00    0.95400   1.26040    0.000
 4983.00    0.89590   1.23296    0.000
 4984.00    0.83947   1.21508    0.000
 4985.00    0.78569   1.20681    0.000
 4986.00    0.77360   1.17554    0.000
 4987.00    0.81901   1.12216    0.000
 4988.00    0.85459   1.09632    0.000
 4989.00    0.87822   1.11660    0.000
 4990.00    0.88530   1.15279    0.000
 4991.00    0.87466   1.19266    0.000
 4992.00    0.87546   1.23503    0.000
 4993.00    0.88707   1.25305    0.000
 4994.00    0.86333   1.24142    0.000
 4995.00    0.81018   1.22017    0.000
 4996.00    0.82670   1.20972    0.000
 4997.00    0.89426   1.22207    0.000
 4998.00    0.97769   1.22658    0.000
 4999.00    1.07132   1.22169    0.000
 5000.00    1.08470   1.23639    0.000
 5001.00    1.05291   1.25183    0.000
 5002.00    1.07772   1.24980    0.000
 5003.00    1.13028   1.23251    0.000
 5004.00    1.18793   1.19623    0.000
 5005.00    1.24776   1.15964    0.000
 5006.00    1.13724   1.14573    0.000
 5007.00    0.96495   1.15300    0.000
 5008.00    0.93851   1.16902    0.000
 5009.00    0.95682   1.16319    0.000
 5010.00    0.94583   1.12696    0.000
 5011.00    0.92736   1.09921    0.000
 5012.00    0.94347   1.12545    0.000
 5013.00    0.96677   1.18468    0.000
 5014.00    0.89711   1.21674    0.000
 5015.00    0.81224   1.20879    0.000
 5016.00    0.83718   1.18060    0.000
 5017.00    0.87558   1.13864    0.000
 5018.00    0.84637   1.10031    0.000
 5019.00    0.81144   1.08167    0.000
 5020.00    0.85873   1.09170    0.000
 5021.00    0.91003   1.12060    0.000
 5022.00    0.92785   1.12919    0.000
 5023.00    0.94468   1.12363    0.000
 5024.00    0.93267   1.13910    0.000
 5025.00    0.92277   1.16647    0.000
 5026.00    0.95520   1.16864    0.000
 5027.00    0.98460   1.15431    0.000
 5028.00    0.97849   1.16480    0.000
 5029.00    0.97379   1.19486    0.020
 5030.00    0.98051   1.20882    0.020
 5031.00    0.97997   1.19889    0.020
 5032.00    0.93539   1.17261    0.020
 5033.00    0.91208   1.16931    0.020
 5034.00    0.99051   1.20083    0.020
 5035.00    1.03050   1.22296    0.020
 5036.00    0.92077   1.23254    0.020
 5037.00    0.86166   1.25334    0.020
 5038.00    0.96669   1.27575    0.020
 5039.00    1.03750   1.26509    0.020
 5040.00    1.01436   1.21153    0.019
 5041.00    0.98271   1.16817    0.019
 5042.00    0.93104   1.17598    0.020
 5043.00    0.90684   1.18214    0.020
 5044.00    0.93847   1.14318    0.020
 5045.00    0.96319   1.07674    0.020
 5046.00    0.97565   1.03794    0.020
 5047.00    0.96998   1.08387    0.020
 5048.00    0.93624   1.17495    0.020
 5049.00    0.90411   1.23363    0.020
 5050.00    0.87415   1.26724    0.020
 5051.00    0.87433   1.28259    0.020
 5052.00    0.91058   1.25569    0.020
 5053.00    0.94106   1.19880    0.020
 5054.00    0.96547   1.16198    0.019
 5055.00    0.98828   1.16052    0.019
 5056.00    1.00960   1.16624    0.019
 5057.00    0.97292   1.17595    0.019
 5058.00    0.88866   1.20313    0.019
 5059.00    0.88150   1.23424    0.019
 5060.00    0.93004   1.24362    0.019
 5061.00    0.95501   1.23974    0.019
 5062.00    0.96505   1.24488    0.019
 5063.00    0.95985   1.26147    0.019
 5064.00    0.94619   1.26887    0.019
 5065.00    0.93201   1.27581    0.019
 5066.00    0.91759   1.29008    0.019
 5067.00    0.92225   1.29306    0.019
 5068.00    0.93487   1.26410    0.019
 5069.00    0.93461   1.20411    0.019
 5070.00    0.92975   1.16426    0.018
 5071.00    0.86709   1.17853    0.018
 5072.00    0.78703   1.19640    0.019
 5073.00    0.82206   1.19116    0.018
 5074.00    0.88583   1.19794    0.018
 5075.00    0.84686   1.22186    0.018
 5076.00    0.78707   1.21858    0.019
 5077.00    0.81902   1.19079    0.019
 5078.00    0.86555   1.19020    0.019
 5079.00    0.89651   1.20908    0.018
 5080.00    0.92562   1.20829    0.018
 5081.00    0.97683   1.20463    0.018
 5082.00    1.02981   1.21425    0.018
 5083.00    0.98497   1.19674    0.018
 5084.00    0.93573   1.13126    0.018
 5085.00    0.91650   1.08838    0.018
 5086.00    0.89747   1.10958    0.018
 5087.00    0.87068   1.14514    0.018
 5088.00    0.84762   1.15689    0.018
 5089.00    0.89381   1.17056    0.018
 5090.00    0.93968   1.19841    0.017
 5091.00    0.98197   1.21424    0.018
 5092.00    1.01069   1.21153    0.018
 5093.00    0.93370   1.21219    0.018
 5094.00    0.87437   1.22327    0.018
 5095.00    0.91904   1.22819    0.018
 5096.00    0.94288   1.22935    0.018
 5097.00    0.86955   1.24295    0.018
 5098.00    0.83209   1.26148    0.018
 5099.00    0.93134   1.26245    0.018
 5100.00    0.98047   1.24328    0.018
 5101.00    0.87020   1.21519    0.018
 5102.00    0.79749   1.18083    0.018
 5103.00    0.82603   1.14116    0.018
 5104.00    0.85201   1.11618    0.018
 5105.00    0.87208   1.13952    0.018
 5106.00    0.87465   1.19112    0.018
 5107.00    0.84224   1.22065    0.019
 5108.00    0.81904   1.21735    0.019
 5109.00    0.81188   1.20318    0.019
 5110.00    0.84135   1.19564    0.019
 5111.00    0.92668   1.18628    0.019
 5112.00    0.93348   1.16580    0.019
 5113.00    0.83506   1.15541    0.019
 5114.00    0.81634   1.15731    0.019
 5115.00    0.89168   1.15457    0.020
 5116.00    0.89619   1.17009    0.020
 5117.00    0.82702   1.19903    0.020
 5118.00    0.81451   1.21259    0.020
 5119.00    0.85400   1.21924    0.020
 5120.00    0.87846   1.22668    0.019
 5121.00    0.89077   1.23761    0.020
 5122.00    0.87874   1.25621    0.019
 5123.00    0.84937   1.26574    0.019
 5124.00    0.83935   1.25541    0.019
 5125.00    0.84143   1.23291    0.019
 5126.00    0.87860   1.20623    0.019
 5127.00    0.93493   1.17722    0.019
 5128.00    0.91860   1.14132    0.019
 5129.00    0.86778   1.11959    0.019
 5130.00    0.88185   1.12814    0.019
 5131.00    0.92247   1.14185    0.019
 5132.00    0.91132   1.14200    0.019
 5133.00    0.88209   1.13682    0.019
 5134.00    0.85704   1.13637    0.019
 5135.00    0.83323   1.14764    0.019
 5136.00    0.88430   1.17035    0.019
 5137.00    0.95367   1.18386    0.018
 5138.00    0.94898   1.18474    0.019
 5139.00    0.92965   1.19608    0.019
 5140.00    0.92147   1.22134    0.019
 5141.00    0.91500   1.21818    0.018
 5142.00    0.90602   1.18496    0.018
 5143.00    0.89674   1.15397    0.018
 5144.00    0.88995   1.13542    0.018
 5145.00    0.88335   1.15214    0.018
 5146.00    0.83707   1.17400    0.018
 5147.00    0.78915   1.14828    0.018
 5148.00    0.75461   1.12877    0.018
 5149.00    0.72481   1.15114    0.018
 5150.00    0.89011   1.16183    0.018
 5151.00    1.04408   1.14598    0.018
 5152.00    1.00167   1.13543    0.018
 5153.00    0.96248   1.14285    0.018
 5154.00    0.95749   1.16254    0.018
 5155.00    0.95376   1.16450    0.018
 5156.00    0.95958   1.14507    0.018
 5157.00    0.96533   1.13131    0.018
 5158.00    0.97067   1.12796    0.018
 5159.00    0.96622   1.13137    0.018
 5160.00    0.91714   1.15130    0.018
 5161.00    0.86728   1.18493    0.018
 5162.00    0.81450   1.21767    0.018
 5163.00    0.77029   1.23490    0.018
 5164.00    0.75280   1.23162    0.018
 5165.00    0.73421   1.23012    0.018
 5166.00    0.71270   1.22603    0.018
 5167.00    0.70004   1.20407    0.018
 5168.00    0.70754   1.18703    0.018
 5169.00    0.68650   1.17175    0.018
 5170.00    0.60926   1.11905    0.018
 5171.00    0.60358   1.02816    0.018
 5172.00    0.72072   0.93992    0.018
 5173.00    0.81757   0.91222    0.018
 5174.00    0.88391   0.96285    0.019
 5175.00    0.94134   1.02982    0.019
 5176.00    0.98700   1.01887    0.019
 5177.00    0.96904   0.93704    0.019
 5178.00    0.87707   0.91146    0.018
 5179.00    0.80214   0.99778    0.018
 5180.00    0.74469   1.10314    0.018
 5181.00    0.73392   1.15035    0.018
 5182.00    0.76540   1.16302    0.018
 5183.00    0.76155   1.17259    0.018
 5184.00    0.72952   1.17119    0.018
 5185.00    0.73323   1.15511    0.018
 5186.00    0.76201   1.12123    0.018
 5187.00    0.78818   1.04621    0.018
 5188.00    0.81275   0.94112    0.018
 5189.00    0.84798   0.90582    0.019
 5190.00    0.88894   0.99005    0.000
 5191.00    0.89196   1.10265    0.000
 5192.00    0.87728   1.16023    0.000
 5193.00    0.88911   1.16563    0.000
 5194.00    0.91162   1.17149    0.000
 5195.00    0.89042   1.18523    0.000
 5196.00    0.85420   1.14836    0.000
 5197.00    0.84365   1.08366    0.000
 5198.00    0.84051   1.07628    0.000
 5199.00    0.85860   1.11082    0.000
 5200.00    0.88176   1.12354    0.000
 5201.00    0.88508   1.12902    0.000
 5202.00    0.88457   1.14920    0.000
 5203.00    0.86041   1.17116    0.000
 5204.00    0.83272   1.19119    0.000
 5205.00    0.74291   1.20025    0.000
 5206.00    0.64630   1.19406    0.000
 5207.00    0.74801   1.18160    0.000
 5208.00    0.86405   1.16911    0.000
 5209.00    0.85515   1.13206    0.000
 5210.00    0.84160   1.07547    0.000
 5211.00    0.89647   1.04935    0.018
 5212.00    0.95098   1.05610    0.018
 5213.00    0.98031   1.05113    0.018
 5214.00    1.00655   1.05292    0.018
 5215.00    0.98246   1.08783    0.018
 5216.00    0.95815   1.13430    0.018
 5217.00    0.93147   1.17968    0.018
 5218.00    0.90759   1.21301    0.018
 5219.00    0.90405   1.21483    0.018
 5220.00    0.89846   1.18070    0.018
 5221.00    0.88150   1.14709    0.018
 5222.00    0.86669   1.15028    0.018
 5223.00    0.86145   1.18369    0.018
 5224.00    0.84837   1.21849    0.018
 5225.00    0.80660   1.23676    0.018
 5226.00    0.78455   1.24441    0.018
 5227.00    0.82283   1.24095    0.018
 5228.00    0.83767   1.21658    0.018
 5229.00    0.79155   1.17166    0.018
 5230.00    0.77406   1.11380    0.018
 5231.00    0.82060   1.05203    0.018
 5232.00    0.85292   1.02641    0.018
 5233.00    0.85767   1.08142    0.018
 5234.00    0.86658   1.16602    0.018
 5235.00    0.88252   1.21245    0.018
 5236.00    0.88845   1.22550    0.018
 5237.00    0.87958   1.20339    0.018
 5238.00    0.91650   1.15873    0.018
 5239.00    1.01305   1.14001    0.018
 5240.00    1.03193   1.15754    0.018
 5241.00    0.96173   1.19652    0.018
 5242.00    0.87027   1.23330    0.018
 5243.00    0.75732   1.24796    0.018
 5244.00    0.74870   1.24362    0.018
 5245.00    0.83313   1.23747    0.018
 5246.00    0.91497   1.23918    0.019
 5247.00    0.99475   1.23674    0.019
 5248.00    0.97561   1.23234    0.019
 5249.00    0.88807   1.24666    0.019
 5250.00    0.85196   1.25956    0.019
 5251.00    0.84703   1.22624    0.019
 5252.00    0.86790   1.17083    0.019
 5253.00    0.90243   1.15713    0.019
 5254.00    0.89934   1.16775    0.019
 5255.00    0.87898   1.15451    0.019
 5256.00    0.89024   1.14666    0.018
 5257.00    0.91400   1.17123    0.018
 5258.00    0.90044   1.19572    0.019
 5259.00    0.87431   1.18861    0.019
 5260.00    0.81433   1.16836    0.019
 5261.00    0.74477   1.18587    0.019
 5262.00    0.77282   1.23701    0.019
 5263.00    0.82366   1.27433    0.019
 5264.00    0.85084   1.27861    0.019
 5265.00    0.87358   1.25442    0.019
 5266.00    0.84195   1.20996    0.019
 5267.00    0.80244   1.15337    0.019
 5268.00    0.78269   1.09752    0.019
 5269.00    0.76502   1.05511    0.019
 5270.00    0.78204   1.02711    0.019
 5271.00    0.80142   1.02657    0.019
 5272.00    0.87314   1.06961    0.019
 5273.00    0.94662   1.09352    0.019
 5274.00    0.85937   1.03509    0.018
 5275.00    0.77504   0.98265    0.018
 5276.00    0.79004   1.03391    0.018
 5277.00    0.80413   1.12315    0.018
 5278.00    0.80433   1.16116    0.018
 5279.00    0.79767   1.15721    0.018
 5280.00    0.72406   1.13904    0.018
 5281.00    0.67148   1.14347    0.018
 5282.00    0.76700   1.19767    0.018
 5283.00    0.85106   1.25378    0.017
 5284.00    0.87300   1.26383    0.018
 5285.00    0.88523   1.23663    0.018
 5286.00    0.85527   1.20221    0.018
 5287.00    0.84125   1.17554    0.018
 5288.00    0.88429   1.15407    0.018
 5289.00    0.89699   1.15178    0.017
 5290.00    0.81855   1.19739    0.018
 5291.00    0.77885   1.26388    0.018
 5292.00    0.83815   1.29502    0.018
 5293.00    0.88315   1.28697    0.018
 5294.00    0.89668   1.27726    0.018
 5295.00    0.89449   1.28525    0.018
 5296.00    0.86232   1.29459    0.018
 5297.00    0.86351   1.28725    0.018
 5298.00    0.92023   1.27021    0.018
 5299.00    0.95060   1.26312    0.018
 5300.00    0.94248   1.25580    0.018
 5301.00    0.93273   1.21795    0.018
 5302.00    0.92087   1.15304    0.018
 5303.00    0.90999   1.11423    0.018
 5304.00    0.90021   1.14087    0.018
 5305.00    0.90412   1.18916    0.018
 5306.00    0.92168   1.20181    0.018
 5307.00    0.89991   1.19889    0.018
 5308.00    0.84354   1.22113    0.018
 5309.00    0.86321   1.26370    0.018
 5310.00    0.94181   1.29219    0.018
 5311.00    0.93484   1.28775    0.018
 5312.00    0.86955   1.26525    0.018
 5313.00    0.89499   1.25843    0.018
 5314.00    0.97461   1.27586    0.018
 5315.00    0.98282   1.29246    0.018
 5316.00    0.95384   1.29248    0.018
 5317.00    0.93655   1.28229    0.018
 5318.00    0.92454   1.26917    0.018
 5319.00    0.93768   1.26179    0.018
 5320.00    0.96058   1.25426    0.018
 5321.00    0.91927   1.23347    0.017
 5322.00    0.85672   1.21855    0.017
 5323.00    0.81587   1.22870    0.017
 5324.00    0.78103   1.24279    0.017
 5325.00    0.82946   1.24456    0.017
 5326.00    0.89688   1.24342    0.017
 5327.00    0.85222   1.23919    0.017
 5328.00    0.78709   1.21813    0.017
 5329.00    0.79677   1.18455    0.017
 5330.00    0.81693   1.17653    0.017
 5331.00    0.83953   1.18279    0.017
 5332.00    0.86237   1.13560    0.017
 5333.00    0.84929   1.04436    0.017
 5334.00    0.83391   1.02311    0.017
 5335.00    0.87929   1.10216    0.017
 5336.00    0.92636   1.18770    0.017
 5337.00    0.91937   1.21638    0.017
 5338.00    0.91290   1.21434    0.017
 5339.00    0.92111   1.22866    0.017
 5340.00    0.92935   1.25317    0.017
 5341.00    0.93816   1.25651    0.017
 5342.00    0.94072   1.24434    0.017
 5343.00    0.88482   1.23588    0.017
 5344.00    0.83588   1.21411    0.016
 5345.00    0.83449   1.16753    0.017
 5346.00    0.84284   1.14446    0.017
 5347.00    0.90258   1.17786    0.017
 5348.00    0.94201   1.22353    0.017
 5349.00    0.89513   1.24143    0.017
 5350.00    0.86021   1.22727    0.017
 5351.00    0.86718   1.20777    0.017
 5352.00    0.86861   1.20875    0.018
 5353.00    0.85371   1.20692    0.018
 5354.00    0.85779   1.18880    0.018
 5355.00    0.90958   1.19261    0.018
 5356.00    0.92634   1.23022    0.017
 5357.00    0.86728   1.26373    0.017
 5358.00    0.82352   1.27281    0.017
 5359.00    0.80852   1.28220    0.017
 5360.00    0.82167   1.30344    0.017
 5361.00    0.88101   1.31646    0.017
 5362.00    0.91248   1.31738    0.017
 5363.00    0.90390   1.31628    0.018
 5364.00    0.91927   1.31468    0.018
 5365.00    0.96495   1.30635    0.018
 5366.00    0.95326   1.28374    0.018
 5367.00    0.87762   1.25433    0.018
 5368.00    0.86718   1.23856   -2.000
 5369.00    0.92087   1.23240   -2.000
 5370.00    0.95147   1.22234   -2.000
 5371.00    0.96204   1.21860   -2.000
 5372.00    0.98135   1.22225   -2.000
 5373.00    1.00733   1.22113   -2.000
 5374.00    1.01463   1.20030   -2.000
 5375.00    1.00940   1.15131   -2.000
 5376.00    0.95917   1.10645   -2.000
 5377.00    0.88247   1.11905   -2.000
 5378.00    0.86927   1.18742   -2.000
 5379.00    0.88862   1.25241   -2.000
 5380.00    0.92578   1.28230   -2.000
 5381.00    0.97086   1.28168   -2.000
 5382.00    0.95099   1.26866   -2.000
 5383.00    0.90634   1.26700    0.017
 5384.00    0.90562   1.27257    0.016
 5385.00    0.91915   1.26437    0.016
 5386.00    0.96629   1.24796    0.016
 5387.00    1.02255   1.23684    0.016
 5388.00    0.99293   1.22828    0.016
 5389.00    0.94417   1.23192    0.016
 5390.00    0.88317   1.25183    0.016
 5391.00    0.82000   1.26477    0.016
 5392.00    0.82497   1.26266    0.016
 5393.00    0.83917   1.25316    0.016
 5394.00    0.84706   1.23462    0.016
 5395.00    0.85434   1.21108    0.016
 5396.00    0.84533   1.19682    0.016
 5397.00    0.83533   1.19404    0.016
 5398.00    0.85077   1.19492    0.016
 5399.00    0.86662   1.19644    0.016
 5400.00    0.84313   1.19486    0.016
 5401.00    0.82024   1.16952    0.016
 5402.00    0.81290   1.12929    0.016
 5403.00    0.81006   1.13342    0.016
 5404.00    0.86840   1.18129    0.016
 5405.00    0.91640   1.21006    0.017
 5406.00    0.87143   1.21292    0.017
 5407.00    0.83379   1.21915    0.017
 5408.00    0.84457   1.21078    0.017
 5409.00    0.85799   1.16321    0.017
 5410.00    0.88507   1.10423    0.017
 5411.00    0.89712   1.08405    0.017
 5412.00    0.84679   1.11722    0.017
 5413.00    0.81869   1.15949    0.017
 5414.00    0.86694   1.16055    0.017
 5415.00    0.89991   1.13827    0.017
 5416.00    0.88871   1.15012    0.017
 5417.00    0.86028   1.19709    0.017
 5418.00    0.78933   1.23148    0.017
 5419.00    0.76204   1.23313    0.017
 5420.00    0.82769   1.22624    0.017
 5421.00    0.86634   1.23968    0.017
 5422.00    0.85504   1.26414    0.017
 5423.00    0.86262   1.27103    0.016
 5424.00    0.90071   1.25614    0.016
 5425.00    0.91831   1.23507    0.016
 5426.00    0.90687   1.22712    0.016
 5427.00    0.88621   1.23810    0.016
 5428.00    0.85407   1.23640    0.016
 5429.00    0.85885   1.20811    0.016
 5430.00    0.90422   1.19944    0.016
 5431.00    0.94210   1.23386    0.016
 5432.00    0.97272   1.27216    0.016
 5433.00    0.93640   1.26185    0.016
 5434.00    0.84285   1.19462    0.016
 5435.00    0.83713   1.14597    0.016
 5436.00    0.89755   1.16841    0.016
 5437.00    0.91681   1.19814    0.016
 5438.00    0.90884   1.18454    0.016
 5439.00    0.88623   1.15515    0.016
 5440.00    0.85514   1.14420    0.015
 5441.00    0.85030   1.15861    0.015
 5442.00    0.85871   1.19152    0.016
 5443.00    0.84725   1.23400    0.016
 5444.00    0.82711   1.27140    0.015
 5445.00    0.86680   1.29216    0.016
 5446.00    0.92894   1.29757    0.016
 5447.00    0.94825   1.29706    0.016
 5448.00    0.95394   1.29545    0.016
 5449.00    0.93903   1.28030    0.016
 5450.00    0.91865   1.23625    0.016
 5451.00    0.84576   1.16932    0.016
 5452.00    0.76146   1.12339    0.016
 5453.00    0.78719   1.14258    0.016
 5454.00    0.83193   1.19840    0.016
 5455.00    0.84322   1.23501    0.016
 5456.00    0.85011   1.24145    0.016
 5457.00    0.88441   1.23370    0.016
 5458.00    0.92125   1.21772    0.016
 5459.00    0.98752   1.18521    0.016
 5460.00    1.05545   1.13662    0.017
 5461.00    1.02539   1.11584    0.016
 5462.00    0.99364   1.15481    0.016
 5463.00    1.01360   1.21489    0.017
 5464.00    1.03294   1.24564    0.017
 5465.00    1.03798   1.24082    0.017
 5466.00    1.03699   1.22028    0.016
 5467.00    0.95860   1.19336    0.016
 5468.00    0.89010   1.16681    0.016
 5469.00    0.90715   1.16774    0.016
 5470.00    0.92355   1.19523    0.016
 5471.00    0.93578   1.21042    0.016
 5472.00    0.93825   1.21172    0.016
 5473.00    0.89183   1.22058    0.016
 5474.00    0.85259   1.22620    0.016
 5475.00    0.84245   1.21495    0.016
 5476.00    0.84432   1.20444    0.016
 5477.00    0.88659   1.20194    0.016
 5478.00    0.92626   1.18933   -2.000
 5479.00    0.95856   1.17477   -2.000
 5480.00    0.96871   1.16762   -2.000
 5481.00    0.92511   1.13862   -2.000
 5482.00    0.94203   1.10334   -2.000
 5483.00    1.08573   1.12241   -2.000
 5484.00    1.15785   1.17858   -2.000
 5485.00    1.09959   1.19939   -2.000
 5486.00    1.11837   1.17190   -2.000
 5487.00    1.25980   1.15060   -2.000
 5488.00    1.19806   1.16679   -2.000
 5489.00    0.85253   1.20296   -2.000
 5490.00    0.65336   1.23476   -2.000
 5491.00    0.63412   1.23957   -2.000
 5492.00    0.60203   1.21161   -2.000
 5493.00    0.55602   1.18571   -2.000
 5494.00    0.59377   1.18884   -2.000
 5495.00    0.71161   1.20138   -2.000
 5496.00    0.80510   1.21070   -2.000
 5497.00    0.87807   1.21938   -2.000
 5498.00    0.93945   1.21504   -2.000
 5499.00    0.99223   1.20483   -2.000
 5500.00    0.99614   1.20985   -2.000
 5501.00    0.96820   1.21419   -2.000
 5502.00    0.96492   1.19683    0.016
 5503.00    0.97572   1.18812    0.016
 5504.00    0.93258   1.21261    0.016
 5505.00    0.86264   1.23045    0.016
 5506.00    0.85901   1.20894    0.016
 5507.00    0.88387   1.17846    0.016
 5508.00    0.90639   1.17443    0.016
 5509.00    0.92804   1.18871    0.016
 5510.00    0.90481   1.19219    0.016
 5511.00    0.86756   1.17195    0.016
 5512.00    0.92409   1.15782    0.016
 5513.00    1.00501   1.17684    0.016
 5514.00    0.99767   1.20006    0.016
 5515.00    0.97160   1.20126    0.016
 5516.00    0.90756   1.18736    0.016
 5517.00    0.83715   1.16377    0.016
 5518.00    0.82235   1.14487    0.016
 5519.00    0.81460   1.14667    0.016
 5520.00    0.81996   1.16280    0.016
 5521.00    0.82648   1.18076    0.015
 5522.00    0.85043   1.19843    0.015
 5523.00    0.87528   1.22207    0.015
 5524.00    0.94037   1.24436    0.015
 5525.00    1.00455   1.24912    0.015
 5526.00    0.94349   1.24134    0.015
 5527.00    0.88354   1.23573    0.015
 5528.00    0.84754   1.23552    0.015
 5529.00    0.81370   1.23475    0.015
 5530.00    0.80625   1.22473    0.015
 5531.00    0.80736   1.20399    0.015
 5532.00    0.87978   1.17484    0.015
 5533.00    0.94228   1.14531    0.015
 5534.00    0.94310   1.14405    0.015
 5535.00    0.94624   1.18088    0.015
 5536.00    0.96070   1.21806    0.015
 5537.00    0.96398   1.22677    0.015
 5538.00    0.92285   1.21766    0.015
 5539.00    0.88698   1.20381    0.015
 5540.00    0.86843   1.18915    0.015
 5541.00    0.85981   1.18834    0.015
 5542.00    0.87886   1.20281    0.015
 5543.00    0.89189   1.21253    0.015
 5544.00    0.89056   1.21894    0.015
 5545.00    0.90464   1.23436    0.015
 5546.00    0.95047   1.24971    0.015
 5547.00    0.95202   1.24754    0.015
 5548.00    0.87414   1.22737    0.015
 5549.00    0.82274   1.21112    0.015
 5550.00    0.81288   1.21017    0.015
 5551.00    0.82510   1.21155    0.015
 5552.00    0.86774   1.21603    0.015
 5553.00    0.88195   1.23446    0.015
 5554.00    0.86173   1.25444    0.015
 5555.00    0.83688   1.26169    0.015
 5556.00    0.80710   1.26030    0.015
 5557.00    0.81793   1.25361    0.015
 5558.00    0.86704   1.23874    0.016
 5559.00    0.86545   1.22059    0.015
 5560.00    0.82174   1.21265    0.015
 5561.00    0.83148   1.21824    0.015
 5562.00    0.88032   1.22293    0.015
 5563.00    0.89235   1.22099    0.015
 5564.00    0.88073   1.22218    0.015
 5565.00    0.85936   1.22541    0.015
 5566.00    0.83251   1.22242    0.015
 5567.00    0.84806   1.21140    0.015
 5568.00    0.88434   1.19822    0.015
 5569.00    0.89359   1.19424    0.015
 5570.00    0.89142   1.19442    0.015
 5571.00    0.88876   1.18700    0.015
 5572.00    0.88592   1.18254    0.015
 5573.00    0.87094   1.18724    0.015
 5574.00    0.85225   1.18719    0.015
 5575.00    0.81124   1.18640    0.015
 5576.00    0.76456   1.19888    0.015
 5577.00    0.75850   1.20061    0.015
 5578.00    0.76085   1.18173    0.015
 5579.00    0.80780   1.18348    0.015
 5580.00    0.86203   1.20630    0.015
 5581.00    0.89443   1.21329    0.015
 5582.00    0.92417   1.21199    0.015
 5583.00    0.86878   1.21659    0.015
 5584.00    0.80625   1.21870    0.015
 5585.00    0.79116   1.22254    0.015
 5586.00    0.77836   1.22502    0.015
 5587.00    0.80340   1.21610    0.015
 5588.00    0.82867   1.20984    0.015
 5589.00    0.83461   1.21091    0.015
 5590.00    0.84112   1.20082    0.015
 5591.00    0.85908   1.17021    0.015
 5592.00    0.87693   1.12864    0.016
 5593.00    0.89347   1.09926    0.016
 5594.00    0.90322   1.09649    0.016
 5595.00    0.85849   1.11646    0.016
 5596.00    0.81359   1.14557    0.016
 5597.00    0.76764   1.16412    0.016
 5598.00    0.73878   1.16488    0.016
 5599.00    0.79138   1.15795    0.016
 5600.00    0.83302   1.16511    0.016
 5601.00    0.83211   1.19729    0.016
 5602.00    0.83996   1.21785    0.016
 5603.00    0.87613   1.19420    0.016
 5604.00    0.90514   1.16001    0.015
 5605.00    0.91455   1.14966    0.015
 5606.00    0.91751   1.14490    0.015
 5607.00    0.90538   1.13131    0.015
 5608.00    0.90564   1.12735    0.015
 5609.00    0.93106   1.15228    0.015
 5610.00    0.92326   1.19521    0.015
 5611.00    0.85681   1.22823    0.015
 5612.00    0.82660   1.24267    0.015
 5613.00    0.85239   1.24505    0.015
 5614.00    0.85578   1.24169    0.014
 5615.00    0.82878   1.23754    0.014
 5616.00    0.82039   1.23877    0.014
 5617.00    0.83424   1.24702    0.014
 5618.00    0.84244   1.25002    0.014
 5619.00    0.84469   1.22223    0.014
 5620.00    0.85290   1.15821    0.014
 5621.00    0.86665   1.11099    0.014
 5622.00    0.85694   1.12779    0.014
 5623.00    0.82801   1.17015    0.014
 5624.00    0.79673   1.18561    0.014
 5625.00    0.76377   1.18252    0.014
 5626.00    0.75497   1.18937    0.014
 5627.00    0.76147   1.20617    0.014
 5628.00    0.78127   1.20602    0.014
 5629.00    0.80843   1.17239    0.014
 5630.00    0.86137   1.13527    0.015
 5631.00    0.92672   1.13705    0.015
 5632.00    0.92168   1.16657    0.015
 5633.00    0.88741   1.18887    0.015
 5634.00    0.87929   1.20322    0.015
 5635.00    0.88046   1.21833    0.015
 5636.00    0.86461   1.22805    0.015
 5637.00    0.84365   1.22906    0.015
 5638.00    0.82605   1.22336    0.015
 5639.00    0.80929   1.21315    0.015
 5640.00    0.83348   1.20183    0.015
 5641.00    0.86595   1.18929    0.015
 5642.00    0.87020   1.17437    0.015
 5643.00    0.86997   1.16617    0.015
 5644.00    0.87898   1.17076    0.015
 5645.00    0.88908   1.17447    0.015
 5646.00    0.90129   1.16495    0.015
 5647.00    0.91366   1.15785    0.015
 5648.00    0.88055   1.16770    0.014
 5649.00    0.84541   1.17989    0.014
 5650.00    0.86497   1.18563    0.014
 5651.00    0.88382   1.19043    0.014
 5652.00    0.83764   1.19675    0.014
 5653.00    0.79455   1.20150    0.014
 5654.00    0.80846   1.19912    0.014
 5655.00    0.81953   1.19388    0.014
 5656.00    0.79917   1.19851    0.014
 5657.00    0.78131   1.21364    0.014
 5658.00    0.78280   1.22301    0.014
 5659.00    0.78352   1.21187    0.014
 5660.00    0.77971   1.19020    0.014
 5661.00    0.76974   1.18366    0.014
 5662.00    0.73113   1.17953    0.014
 5663.00    0.70417   1.14188    0.014
 5664.00    0.72154   1.10313    0.014
 5665.00    0.73946   1.11968    0.014
 5666.00    0.75916   1.15823    0.014
 5667.00    0.78712   1.16054    0.014
 5668.00    0.83731   1.14599    0.014
 5669.00    0.87277   1.15672    0.014
 5670.00    0.87424   1.18494    0.014
 5671.00    0.87094   1.19769    0.014
 5672.00    0.85815   1.18658    0.014
 5673.00    0.84764   1.16958    0.014
 5674.00    0.84111   1.16639    0.015
 5675.00    0.84931   1.17549    0.015
 5676.00    0.87994   1.18610    0.015
 5677.00    0.89965   1.20044    0.015
 5678.00    0.90476   1.22151    0.015
 5679.00    0.89479   1.23554    0.015
 5680.00    0.86707   1.23021    0.015
 5681.00    0.83486   1.22151    0.015
 5682.00    0.79801   1.22690    0.015
 5683.00    0.80639   1.23144    0.015
 5684.00    0.85621   1.22101    0.015
 5685.00    0.87232   1.21068    0.015
 5686.00    0.86121   1.20760    0.014
 5687.00    0.84544   1.19448    0.014
 5688.00    0.82637   1.17307    0.014
 5689.00    0.82273   1.16986    0.014
 5690.00    0.82871   1.18529    0.014
 5691.00    0.83065   1.19145    0.014
 5692.00    0.83038   1.17724    0.014
 5693.00    0.82968   1.16078    0.014
 5694.00    0.82877   1.16302    0.014
 5695.00    0.83950   1.18315    0.014
 5696.00    0.85499   1.20532    0.014
 5697.00    0.86019   1.22142    0.014
 5698.00    0.86180   1.23195    0.015
 5699.00    0.86772   1.23126    0.015
 5700.00    0.87491   1.22197    0.015
 5701.00    0.87784   1.21632    0.015
 5702.00    0.87974   1.21491    0.015
 5703.00    0.88009   1.20540    0.014
 5704.00    0.88013   1.19105    0.014
 5705.00    0.83604   1.18331    0.014
 5706.00    0.78517   1.17282    0.014
 5707.00    0.79221   1.15831    0.014
 5708.00    0.80582   1.15966    0.014
 5709.00    0.84927   1.17828    0.014
 5710.00    0.89498   1.19018    0.014
 5711.00    0.87382   1.17891    0.014
 5712.00    0.84995   1.15550    0.014
 5713.00    0.88248   1.13486    0.014
 5714.00    0.91453   1.11667    0.015
 5715.00    0.90835   1.11017    0.015
 5716.00    0.90427   1.11904    0.015
 5717.00    0.93639   1.12762    0.015
 5718.00    0.96369   1.14578    0.015
 5719.00    0.94006   1.17998    0.015
 5720.00    0.91620   1.20339    0.014
 5721.00    0.89049   1.21178    0.014
 5722.00    0.86709   1.21558    0.015
 5723.00    0.85677   1.21366    0.014
 5724.00    0.84649   1.21375    0.014
 5725.00    0.83639   1.22204    0.014
 5726.00    0.83331   1.23086    0.014
 5727.00    0.85641   1.23873    0.014
 5728.00    0.87689   1.24626    0.014
 5729.00    0.88926   1.24846    0.014
 5730.00    0.89905   1.24517    0.014
 5731.00    0.90202   1.23451    0.014
 5732.00    0.89406   1.21312    0.014
 5733.00    0.86131   1.19904    0.014
 5734.00    0.83405   1.21059    0.014
 5735.00    0.81758   1.22682    0.014
 5736.00    0.82067   1.21885    0.014
 5737.00    0.85726   1.20029    0.014
 5738.00    0.86897   1.20354    0.014
 5739.00    0.84336   1.22507    0.014
 5740.00    0.81966   1.23967    0.000
 5741.00    0.79849   1.24026    0.000
 5742.00    0.80376   1.23292    0.000
 5743.00    0.83972   1.22599    0.000
 5744.00    0.86391   1.22237    0.000
 5745.00    0.87603   1.22033    0.000
 5746.00    0.88220   1.22040    0.000
 5747.00    0.88299   1.22037    0.000
 5748.00    0.87701   1.21674    0.000
 5749.00    0.86564   1.21681    0.000
 5750.00    0.86060   1.23088    0.000
 5751.00    0.86000   1.24574    0.000
 5752.00    0.88089   1.23987    0.000
 5753.00    0.91499   1.21367    0.000
 5754.00    0.91531   1.19849    0.000
 5755.00    0.89752   1.21384    0.000
 5756.00    0.87782   1.23458    0.000
 5757.00    0.85722   1.22881    0.000
 5758.00    0.83397   1.19706    0.000
 5759.00    0.80966   1.16619    0.000
 5760.00    0.79233   1.16491    0.000
 5761.00    0.77741   1.19610    0.000
 5762.00    0.78699   1.23147    0.000
 5763.00    0.80364   1.24824    0.000
 5764.00    0.84125   1.24549    0.000
 5765.00    0.88385   1.22685    0.000
 5766.00    0.91219   1.19940    0.000
 5767.00    0.93779   1.17269    0.000
 5768.00    0.90155   1.15826    0.000
 5769.00    0.85610   1.17285    0.000
 5770.00    0.85474   1.21059    0.000
 5771.00    0.85818   1.23797    0.000
 5772.00    0.89821   1.24452    0.000
 5773.00    0.94087   1.24376    0.000
 5774.00    0.92097   1.24073    0.000
 5775.00    0.89878   1.23569    0.000
 5776.00    0.89952   1.23050    0.000
 5777.00    0.89978   1.22305    0.000
 5778.00    0.87930   1.21628    0.000
 5779.00    0.85884   1.21399    0.000
 5780.00    0.83866   1.21169    0.000
 5781.00    0.82254   1.21355    0.000
 5782.00    0.84745   1.22306    0.000
 5783.00    0.86952   1.22979    0.000
 5784.00    0.87103   1.22491    0.000
 5785.00    0.87410   1.20215    0.000
 5786.00    0.88580   1.16259    0.000
 5787.00    0.89854   1.13110    0.000
 5788.00    0.91591   1.13052    0.000
 5789.00    0.93355   1.14216    0.000
 5790.00    0.95214   1.13870    0.000
 5791.00    0.96686   1.13341   -2.000
 5792.00    0.96973   1.15347   -2.000
 5793.00    0.96862   1.18576   -2.000
 5794.00    0.95717   1.20527   -2.000
 5795.00    0.94157   1.20837   -2.000
 5796.00    0.91674   1.19550   -2.000
 5797.00    0.90655   1.18636   -2.000
 5798.00    0.92472   1.19841   -2.000
 5799.00    0.92294   1.21797   -2.000
 5800.00    0.88754   1.23394   -2.000
 5801.00    0.86041   1.24115   -2.000
 5802.00    0.84552   1.22770   -2.000
 5803.00    0.84198   1.20189   -2.000
 5804.00    0.85321   1.19743   -2.000
 5805.00    0.85132   1.22449   -2.000
 5806.00    0.83442   1.25334   -2.000
 5807.00    0.83353   1.26540   -2.000
 5808.00    0.84878   1.26305   -2.000
 5809.00    0.84711   1.24431   -2.000
 5810.00    0.83039   1.21903   -2.000
 5811.00    0.83125   1.20812    0.000
 5812.00    0.84593   1.21277    0.000
 5813.00    0.86539   1.22146    0.000
 5814.00    0.88816   1.22712    0.000
 5815.00    0.89698   1.23057    0.000
 5816.00    0.89738   1.23539    0.000
 5817.00    0.89102   1.23817    0.000
 5818.00    0.88110   1.23624    0.000
 5819.00    0.88556   1.23074    0.000
 5820.00    0.89663   1.21785    0.000
 5821.00    0.90580   1.19872    0.000
 5822.00    0.91422   1.19015    0.000
 5823.00    0.92936   1.20544    0.000
 5824.00    0.94676   1.23092    0.000
 5825.00    0.92797   1.24511    0.000
 5826.00    0.89896   1.24839    0.000
 5827.00    0.88533   1.24685    0.000
 5828.00    0.87528   1.24032    0.000
 5829.00    0.88825   1.23458    0.000
 5830.00    0.90552   1.23576    0.000
 5831.00    0.92469   1.24051    0.000
 5832.00    0.94413   1.24122    0.000
 5833.00    0.93393   1.24032    0.000
 5834.00    0.92062   1.24328    0.000
 5835.00    0.90042   1.24849    0.000
 5836.00    0.87975   1.24951    0.000
 5837.00    0.88666   1.24610    0.000
 5838.00    0.89449   1.24351    0.000
 5839.00    0.91897   1.23759    0.000
 5840.00    0.94329   1.22709    0.000
 5841.00    0.96245   1.22493    0.000
 5842.00    0.97779   1.23400    0.000
 5843.00    0.93537   1.23502    0.000
 5844.00    0.89517   1.22637    0.000
 5845.00    0.87639   1.22773    0.000
 5846.00    0.86040   1.24129    0.000
 5847.00    0.86390   1.25276    0.000
 5848.00    0.86822   1.25689    0.000
 5849.00    0.87692   1.25514    0.000
 5850.00    0.88053   1.24769    0.000
 5851.00    0.86203   1.23604    0.000
 5852.00    0.84927   1.22181    0.000
 5853.00    0.85702   1.20944    0.000
 5854.00    0.86836   1.20663    0.000
 5855.00    0.89046   1.21137    0.000
 5856.00    0.90318   1.21315    0.000
 5857.00    0.89198   1.20273    0.000
 5858.00    0.87740   1.18016    0.000
 5859.00    0.85540   1.16229    0.000
 5860.00    0.83377   1.16734    0.000
 5861.00    0.81286   1.17880    0.000
 5862.00    0.79701   1.16631    0.000
 5863.00    0.78959   1.13893    0.000
 5864.00    0.77918   1.13374    0.000
 5865.00    0.76442   1.15723    0.000
 5866.00    0.76738   1.18272    0.000
 5867.00    0.79305   1.19200    0.000
 5868.00    0.84148   1.18555    0.000
 5869.00    0.91560   1.18376    0.000
 5870.00    0.95779   1.19307    0.000
 5871.00    0.96820   1.19495    0.000
 5872.00    0.96921   1.18360    0.000
 5873.00    0.96197   1.17999    0.000
 5874.00    0.92903   1.19472    0.000
 5875.00    0.87622   1.21221    0.000
 5876.00    0.84535   1.22009    0.000
 5877.00    0.82941   1.21713    0.000
 5878.00    0.83144   1.20686    0.000
 5879.00    0.84419   1.19642    0.000
 5880.00    0.83631   1.18675    0.000
 5881.00    0.81770   1.17682    0.000
 5882.00    0.81332   1.17108    0.000
 5883.00    0.81536   1.17525    0.000
 5884.00    0.79177   1.18101    0.000
 5885.00    0.75824   1.17261    0.000
 5886.00    0.75468   1.16329    0.000
 5887.00    0.76101   1.16813    0.000
 5888.00    0.76583   1.17770    0.000
 5889.00    0.77023   1.17426    0.000
 5890.00    0.78520   1.16712    0.000
 5891.00    0.80258   1.16986    0.000
 5892.00    0.80993   1.17017    0.000
 5893.00    0.81544   1.14042    0.000
 5894.00    0.81043   1.05309    0.000
 5895.00    0.80394   0.92843    0.000
 5896.00    0.79220   0.86704    0.000
 5897.00    0.77992   0.92661    0.000
 5898.00    0.80468   1.02212    0.000
 5899.00    0.83179   1.06730    0.000
 5900.00    0.82075   1.04691    0.000
 5901.00    0.80869   0.97275    0.013
 5902.00    0.82991   0.93259    0.013
 5903.00    0.85147   0.99055    0.013
 5904.00    0.88256   1.07323    0.013
 5905.00    0.91066   1.11476    0.013
 5906.00    0.89610   1.13696    0.013
 5907.00    0.87779   1.15625    0.013
 5908.00    0.82453   1.16587    0.013
 5909.00    0.77800   1.17028    0.013
 5910.00    0.77717   1.17067    0.013
 5911.00    0.77943   1.16400    0.013
 5912.00    0.79797   1.16029    0.013
 5913.00    0.80813   1.16817    0.013
 5914.00    0.78276   1.17775    0.013
 5915.00    0.76413   1.17978    0.013
 5916.00    0.76910   1.18114    0.013
 5917.00    0.77217   1.18713    0.013
 5918.00    0.76967   1.18434    0.013
 5919.00    0.77326   1.16279    0.013
 5920.00    0.79210   1.13911    0.013
 5921.00    0.81156   1.13404    0.013
 5922.00    0.83236   1.14342    0.013
 5923.00    0.84380   1.15857    0.013
 5924.00    0.83770   1.17040    0.013
 5925.00    0.83030   1.17700    0.014
 5926.00    0.82075   1.18235    0.014
 5927.00    0.81990   1.17974    0.014
 5928.00    0.83156   1.17245    0.014
 5929.00    0.85377   1.17292    0.014
 5930.00    0.88932   1.17989    0.014
 5931.00    0.89412   1.18678    0.013
 5932.00    0.86469   1.19043    0.014
 5933.00    0.83086   1.18500    0.013
 5934.00    0.79271   1.17039    0.013
 5935.00    0.79288   1.15402    0.013
 5936.00    0.82624   1.14895    0.013
 5937.00    0.85538   1.16534    0.013
 5938.00    0.88132   1.18471    0.013
 5939.00    0.87865   1.18195    0.013
 5940.00    0.85681   1.16432    0.013
 5941.00    0.83701   1.15921    0.013
 5942.00    0.81841   1.17428    0.013
 5943.00    0.80826   1.18868    0.013
 5944.00    0.80243   1.19525    0.013
 5945.00    0.80193   1.19585    0.013
 5946.00    0.80378   1.18233    0.013
 5947.00    0.81810   1.16287    0.013
 5948.00    0.83717   1.15962    0.013
 5949.00    0.84521   1.17090    0.013
 5950.00    0.84968   1.18428    0.013
 5951.00    0.84408   1.19582    0.013
 5952.00    0.83575   1.20025    0.013
 5953.00    0.83347   1.18915    0.013
 5954.00    0.83252   1.16595    0.013
 5955.00    0.83151   1.15360    0.013
 5956.00    0.83048   1.16456    0.013
 5957.00    0.82670   1.17498    0.013
 5958.00    0.82254   1.16412    0.013
 5959.00    0.79560   1.15417    0.013
 5960.00    0.76647   1.16560    0.013
 5961.00    0.76121   1.17469    0.013
 5962.00    0.75738   1.16296    0.013
 5963.00    0.80921   1.15042    0.013
 5964.00    0.86212   1.15530    0.014
 5965.00    0.86156   1.17194    0.013
 5966.00    0.86115   1.18911    0.013
 5967.00    0.86441   1.19984    0.013
 5968.00    0.86882   1.20302    0.013
 5969.00    0.88862   1.20036    0.013
 5970.00    0.90605   1.19493    0.013
 5971.00    0.90228   1.18537    0.013
 5972.00    0.89282   1.18062    0.013
 5973.00    0.84590   1.18902    0.013
 5974.00    0.80856   1.19925    0.013
 5975.00    0.82026   1.20516    0.013
 5976.00    0.83664   1.21053    0.013
 5977.00    0.87234   1.21352    0.013
 5978.00    0.89896   1.21187    0.013
 5979.00    0.89446   1.20768    0.013
 5980.00    0.88156   1.19843    0.013
 5981.00    0.84440   1.18077    0.013
 5982.00    0.81068   1.16241    0.013
 5983.00    0.78546   1.15374    0.013
 5984.00    0.77096   1.15570    0.013
 5985.00    0.77925   1.16836    0.013
 5986.00    0.79238   1.18565    0.013
 5987.00    0.81442   1.19421    0.013
 5988.00    0.82529   1.18456    0.013
 5989.00    0.81817   1.15848    0.013
 5990.00    0.82188   1.13502    0.013
 5991.00    0.84090   1.13913    0.013
 5992.00    0.85013   1.16076    0.013
 5993.00    0.84717   1.17315    0.013
 5994.00    0.83612   1.17878    0.013
 5995.00    0.81619   1.18608    0.013
 5996.00    0.79692   1.18699    0.013
 5997.00    0.77827   1.17898    0.013
 5998.00    0.78111   1.17961    0.013
 5999.00    0.80228   1.19698    0.013
 6000.00    0.82416   1.21143    0.013
 6001.00    0.84658   1.20908    0.013
 6002.00    0.85920   1.19309    0.013
 6003.00    0.86536   1.17413    0.013
 6004.00    0.83140   1.16606    0.013
 6005.00    0.77424   1.17207    0.013
 6006.00    0.73637   1.18225    0.013
 6007.00    0.70822   1.18448    0.013
 6008.00    0.74119   1.17349    0.013
 6009.00    0.80081   1.16552    0.013
 6010.00    0.82899   1.17436    0.013
 6011.00    0.84541   1.18082    0.013
 6012.00    0.81902   1.16927    0.013
 6013.00    0.77905   1.14591    0.013
 6014.00    0.77459   1.13089    0.013
 6015.00    0.77954   1.14763    0.013
 6016.00    0.78716   1.18069    0.013
 6017.00    0.79535   1.19224    0.013
 6018.00    0.79747   1.17606    0.013
 6019.00    0.79854   1.15716    0.013
 6020.00    0.83267   1.15812    0.013
 6021.00    0.87111   1.16756    0.013
 6022.00    0.88107   1.16404    0.013
 6023.00    0.88841   1.15897    0.013
 6024.00    0.87340   1.16353    0.013
 6025.00    0.85713   1.16095    0.013
 6026.00    0.84504   1.14947    0.013
 6027.00    0.83299   1.14724    0.013
 6028.00    0.81614   1.15563    0.013
 6029.00    0.79945   1.16281    0.013
 6030.00    0.78674   1.16738    0.013
 6031.00    0.77619   1.17781    0.013
 6032.00    0.79321   1.18537    0.013
 6033.00    0.80821   1.18487    0.012
 6034.00    0.80590   1.19157    0.013
 6035.00    0.80328   1.20248    0.013
 6036.00    0.79862   1.20463    0.013
 6037.00    0.79330   1.20189    0.013
 6038.00    0.78464   1.20531    0.012
 6039.00    0.78127   1.21230    0.012
 6040.00    0.79934   1.21471    0.013
 6041.00    0.81967   1.21329    0.013
 6042.00    0.84757   1.21253    0.013
 6043.00    0.86983   1.21329    0.013
 6044.00    0.87612   1.21290    0.013
 6045.00    0.87876   1.20786    0.013
 6046.00    0.87259   1.20158    0.013
 6047.00    0.87074   1.19859    0.013
 6048.00    0.87791   1.19899    0.013
 6049.00    0.88678   1.20770    0.013
 6050.00    0.89871   1.21879    0.013
 6051.00    0.89429   1.22316    0.013
 6052.00    0.86389   1.22413    0.013
 6053.00    0.85512   1.22504    0.013
 6054.00    0.87652   1.22313    0.013
 6055.00    0.88419   1.22099    0.013
 6056.00    0.87501   1.22404    0.013
 6057.00    0.85600   1.22531    0.013
 6058.00    0.82636   1.21701    0.013
 6059.00    0.80263   1.20483    0.013
 6060.00    0.78456   1.19771    0.013
 6061.00    0.78443   1.19256    0.013
 6062.00    0.79942   1.18528    0.012
 6063.00    0.81154   1.18421    0.012
 6064.00    0.82154   1.19282    0.013
 6065.00    0.82368   1.20604    0.013
 6066.00    0.82071   1.21533    0.012
 6067.00    0.81204   1.21512    0.012
 6068.00    0.80012   1.20559    0.013
 6069.00    0.80432   1.19060    0.012
 6070.00    0.81651   1.17036    0.012
 6071.00    0.84095   1.15095    0.013
 6072.00    0.87065   1.15974    0.013
 6073.00    0.89258   1.19626    0.013
 6074.00    0.91166   1.22420    0.013
 6075.00    0.91942   1.23224    0.013
 6076.00    0.92365   1.23258    0.013
 6077.00    0.89607   1.23327    0.013
 6078.00    0.86024   1.23484    0.013
 6079.00    0.85475   1.23529    0.013
 6080.00    0.85568   1.23453    0.013
 6081.00    0.85710   1.23160    0.013
 6082.00    0.85859   1.22429    0.013
 6083.00    0.86473   1.20977    0.013
 6084.00    0.87145   1.18938    0.013
 6085.00    0.86680   1.17979    0.013
 6086.00    0.86116   1.18563    0.013
 6087.00    0.86089   1.18377    0.013
 6088.00    0.86091   1.17253    0.012
 6089.00    0.85719   1.17273    0.012
 6090.00    0.85339   1.18042    0.012
 6091.00    0.84812   1.18029    0.012
 6092.00    0.84339   1.18045    0.012
 6093.00    0.85045   1.18922    0.012
 6094.00    0.85760   1.19699    0.012
 6095.00    0.86593   1.18898    0.012
 6096.00    0.87296   1.17147    0.012
 6097.00    0.86918   1.16582    0.012
 6098.00    0.86317   1.17117    0.013
 6099.00    0.84337   1.17657    0.013
 6100.00    0.82361   1.18872    0.013
 6101.00    0.80410   1.20554    0.013
 6102.00    0.79195   1.20840    0.013
 6103.00    0.80889   1.19937    0.013
 6104.00    0.82282   1.19915    0.013
 6105.00    0.82682   1.20990    0.013
 6106.00    0.82705   1.21397    0.013
 6107.00    0.81678   1.18795    0.013
 6108.00    0.81041   1.13171    0.013
 6109.00    0.81330   1.10143    0.013
 6110.00    0.82315   1.13454    0.013
 6111.00    0.84734   1.18209    0.013
 6112.00    0.86607   1.20010    0.013
 6113.00    0.87504   1.19459    0.013
 6114.00    0.87178   1.18863    0.013
 6115.00    0.84938   1.19733    0.013
 6116.00    0.82908   1.20466    0.013
 6117.00    0.81166   1.19579    0.012
 6118.00    0.80221   1.19059    0.012
 6119.00    0.80238   1.20255    0.012
 6120.00    0.80871   1.21637    0.012
 6121.00    0.82161   1.21474    0.012
 6122.00    0.82779   1.19990    0.012
 6123.00    0.82765   1.19528    0.012
 6124.00    0.82166   1.20204    0.012
 6125.00    0.81082   1.19513    0.012
 6126.00    0.81784   1.16999    0.012
 6127.00    0.83790   1.13720    0.012
 6128.00    0.84528   1.11357    0.012
 6129.00    0.84453   1.13117    0.012
 6130.00    0.82970   1.17470    0.013
 6131.00    0.80698   1.19421    0.012
 6132.00    0.81117   1.18781    0.013
 6133.00    0.82849   1.17618    0.013
 6134.00    0.84958   1.16777    0.013
 6135.00    0.87224   1.17112    0.013
 6136.00    0.87487   1.18810    0.013
 6137.00    0.87027   1.20400    0.013
 6138.00    0.85814   1.20973    0.013
 6139.00    0.84371   1.20841    0.013
 6140.00    0.82728   1.19328    0.013
 6141.00    0.81033   1.15336    0.013
 6142.00    0.80546   1.09282    0.013
 6143.00    0.80308   1.04898    0.013
 6144.00    0.80473   1.07253    0.013
 6145.00    0.80704   1.14294    0.013
 6146.00    0.81490   1.18376    0.012
 6147.00    0.82345   1.16926    0.012
 6148.00    0.82375   1.14978    0.012
 6149.00    0.82336   1.16859    0.012
 6150.00    0.80583   1.20166    0.012
 6151.00    0.78747   1.21523    0.012
 6152.00    0.77124   1.21089    0.012
 6153.00    0.75528   1.19833    0.012
 6154.00    0.75269   1.17871    0.012
 6155.00    0.75156   1.15846    0.012
 6156.00    0.77894   1.14997    0.013
 6157.00    0.80463   1.15900    0.013
 6158.00    0.81073   1.17673    0.013
 6159.00    0.81380   1.18701    0.013
 6160.00    0.79262   1.17722    0.013
 6161.00    0.77244   1.16135    0.013
 6162.00    0.75830   1.15957    0.013
 6163.00    0.74901   1.16151    0.013
 6164.00    0.76278   1.15721    0.013
 6165.00    0.77131   1.14729    0.013
 6166.00    0.75950   1.11694    0.013
 6167.00    0.74600   1.05803    0.013
 6168.00    0.72705   1.00895    0.013
 6169.00    0.71420   1.01099    0.013
 6170.00    0.71804   1.05110    0.013
 6171.00    0.72231   1.08966    0.013
 6172.00    0.72762   1.10984    0.013
 6173.00    0.74397   1.12105    0.012
 6174.00    0.78265   1.11298    0.012
 6175.00    0.81213   1.07558    0.012
 6176.00    0.82539   1.05400    0.012
 6177.00    0.82313   1.08223    0.012
 6178.00    0.79691   1.12094    0.012
 6179.00    0.77241   1.13057    0.012
 6180.00    0.75024   1.12701    0.012
 6181.00    0.74019   1.12701    0.012
 6182.00    0.74462   1.12545    0.012
 6183.00    0.76104   1.12579    0.012
 6184.00    0.79009   1.13686    0.012
 6185.00    0.82020   1.14647    0.013
 6186.00    0.85132   1.14504    0.013
 6187.00    0.86296   1.14814    0.013
 6188.00    0.85868   1.15784    0.013
 6189.00    0.83631   1.16062    0.013
 6190.00    0.80093   1.15756    0.013
 6191.00    0.79110   1.15067    0.013
 6192.00    0.79741   1.13359    0.013
 6193.00    0.80158   1.11512    0.013
 6194.00    0.80457   1.10812    0.013
 6195.00    0.78029   1.10728    0.013
 6196.00    0.74291   1.09220   -2.000
 6197.00    0.81657   1.05973   -2.000
 6198.00    0.93626   1.05252   -2.000
 6199.00    1.08867   1.08797   -2.000
 6200.00    1.25268   1.12316   -2.000
 6201.00    1.20075   1.13737   -2.000
 6202.00    1.08419   1.14518   -2.000
 6203.00    0.94421   1.15161   -2.000
 6204.00    0.79842   1.14477   -2.000
 6205.00    0.74700   1.12044   -2.000
 6206.00    0.71460   1.10130   -2.000
 6207.00    0.76259   1.11044   -2.000
 6208.00    0.82326   1.13572    0.013
 6209.00    0.82030   1.15193    0.013
 6210.00    0.80988   1.15323    0.012
 6211.00    0.80271   1.15065    0.012
 6212.00    0.79580   1.15298    0.012
 6213.00    0.82850   1.15660    0.012
 6214.00    0.86294   1.15719    0.012
 6215.00    0.87209   1.15456    0.012
 6216.00    0.88023   1.14734    0.013
 6217.00    0.85376   1.13787    0.012
 6218.00    0.82772   1.12445    0.012
 6219.00    0.80937   1.09810    0.012
 6220.00    0.79295   1.06971    0.013
 6221.00    0.79786   1.05749    0.013
 6222.00    0.80280   1.06445    0.013
 6223.00    0.80790   1.08526    0.013
 6224.00    0.81384   1.09835    0.013
 6225.00    0.82471   1.08797    0.012
 6226.00    0.83222   1.07422    0.012
 6227.00    0.82414   1.07818    0.012
 6228.00    0.81781   1.09351    0.012
 6229.00    0.81808   1.10254    0.012
 6230.00    0.81764   1.09986    0.012
 6231.00    0.81497   1.09949    0.012
 6232.00    0.81185   1.10580    0.012
 6233.00    0.80754   1.10990    0.012
 6234.00    0.80884   1.10731    0.012
 6235.00    0.82311   1.08760    0.012
 6236.00    0.83873   1.05021    0.012
 6237.00    0.85705   1.02748    0.012
 6238.00    0.86323   1.03995    0.012
 6239.00    0.84833   1.06871    0.012
 6240.00    0.83108   1.10212    0.012
 6241.00    0.81027   1.12947    0.012
 6242.00    0.79275   1.13467    0.012
 6243.00    0.77962   1.11949    0.012
 6244.00    0.77209   1.09716    0.012
 6245.00    0.77114   1.07626    0.012
 6246.00    0.77487   1.06429    0.013
 6247.00    0.78345   1.07045    0.013
 6248.00    0.78584   1.07582    0.013
 6249.00    0.78256   1.06157    0.012
 6250.00    0.78919   1.05137    0.012
 6251.00    0.80380   1.05450    0.012
 6252.00    0.80173   1.05796    0.012
 6253.00    0.78781   1.07129    0.012
 6254.00    0.77462   1.09728    0.012
 6255.00    0.76186   1.11643    0.012
 6256.00    0.74995   1.11983    0.012
 6257.00    0.73848   1.10567    0.012
 6258.00    0.74045   1.07579    0.012
 6259.00    0.74878   1.05325    0.013
 6260.00    0.79945   1.05219    0.013
 6261.00    0.86738   1.05995    0.014
 6262.00    0.91462   1.05761    0.015
 6263.00    0.95467   1.04261    0.015
 6264.00    0.93450   1.02782    0.015
 6265.00    0.89668   1.03375    0.015
 6266.00    0.84772   1.06234    0.014
 6267.00    0.79605   1.08666    0.013
 6268.00    0.79347   1.10453    0.013
 6269.00    0.80051   1.12354    0.012
 6270.00    0.85015   1.12569    0.012
 6271.00    0.90631   1.10767    0.013
 6272.00    0.87926   1.10016    0.012
 6273.00    0.84283   1.11181    0.012
 6274.00    0.82845   1.11768    0.012
 6275.00    0.81573   1.11008    0.012
 6276.00    0.82947   1.10442    0.012
 6277.00    0.84428   1.10883    0.012
 6278.00    0.80658   1.11948    0.012
 6279.00    0.76950   1.12745    0.012
 6280.00    0.77324   1.12701    0.000
 6281.00    0.77854   1.12472    0.000
 6282.00    0.81026   1.12538    0.000
 6283.00    0.83855   1.12525    0.000
 6284.00    0.83073   1.12218    0.000
 6285.00    0.82049   1.11251    0.000
 6286.00    0.79223   1.09557    0.000
 6287.00    0.76859   1.08814    0.000
 6288.00    0.77128   1.09815    0.000
 6289.00    0.77796   1.11485    0.000
 6290.00    0.80274   1.12775    0.000
 6291.00    0.82472   1.12990    0.000
 6292.00    0.83629   1.13128    0.000
 6293.00    0.84118   1.14188    0.000
 6294.00    0.82533   1.15487    0.000
 6295.00    0.81164   1.16035    0.000
 6296.00    0.80361   1.15201    0.000
 6297.00    0.80515   1.13679    0.000
 6298.00    0.82835   1.12661    0.000
 6299.00    0.84830   1.12440    0.000
 6300.00    0.86189   1.12962    0.000
 6301.00    0.87031   1.13062    0.000
 6302.00    0.86988   1.11452    0.000
 6303.00    0.86035   1.09492    0.000
 6304.00    0.83717   1.09292    0.000
 6305.00    0.81319   1.10539    0.000
 6306.00    0.78817   1.11020    0.000
 6307.00    0.77426   1.09690    0.000
 6308.00    0.77323   1.08423    0.000
 6309.00    0.77882   1.09311    0.000
 6310.00    0.79119   1.11269    0.000
 6311.00    0.79363   1.12154    0.000
 6312.00    0.78712   1.12548    0.000
 6313.00    0.76365   1.14023    0.000
 6314.00    0.72670   1.15634    0.000
 6315.00    0.71158   1.15759    0.000
 6316.00    0.71171   1.14466    0.000
 6317.00    0.72171   1.12944    0.000
 6318.00    0.73776   1.12385    0.000
 6319.00    0.74973   1.12742    0.000
 6320.00    0.75951   1.12149    0.000
 6321.00    0.75771   1.10424    0.012
 6322.00    0.75053   1.09935    0.012
 6323.00    0.74449   1.10055    0.012
 6324.00    0.73891   1.08772    0.012
 6325.00    0.73524   1.08299    0.012
 6326.00    0.73224   1.10212    0.012
 6327.00    0.72275   1.12117    0.012
 6328.00    0.71139   1.12507    0.012
 6329.00    0.73501   1.12834    0.012
 6330.00    0.76694   1.14109    0.012
 6331.00    0.78358   1.15183    0.012
 6332.00    0.79730   1.15362    0.012
 6333.00    0.78516   1.15021    0.012
 6334.00    0.76919   1.15081    0.012
 6335.00    0.75087   1.15476    0.012
 6336.00    0.73231   1.15014    0.011
 6337.00    0.74076   1.14579    0.011
 6338.00    0.75113   1.15469    0.011
 6339.00    0.74920   1.16566    0.012
 6340.00    0.74683   1.15672    0.012
 6341.00    0.73958   1.12191    0.012
 6342.00    0.73279   1.09090    0.012
 6343.00    0.74281   1.09315    0.012
 6344.00    0.75313   1.11483    0.012
 6345.00    0.76795   1.13036    0.012
 6346.00    0.78224   1.14321    0.012
 6347.00    0.79120   1.15549    0.012
 6348.00    0.80249   1.15261    0.012
 6349.00    0.83061   1.13226    0.012
 6350.00    0.85398   1.11083    0.012
 6351.00    0.85104   1.10709    0.012
 6352.00    0.84323   1.11545    0.012
 6353.00    0.81388   1.12406    0.012
 6354.00    0.78720   1.13525    0.012
 6355.00    0.77021   1.15015    0.012
 6356.00    0.76317   1.15915    0.012
 6357.00    0.78639   1.16101    0.012
 6358.00    0.80124   1.15988    0.012
 6359.00    0.79438   1.15220    0.012
 6360.00    0.78505   1.13434    0.012
 6361.00    0.77018   1.11762    0.012
 6362.00    0.76558   1.11756    0.012
 6363.00    0.78080   1.12132    0.012
 6364.00    0.79733   1.10644    0.012
 6365.00    0.81606   1.08536    0.012
 6366.00    0.82818   1.07899    0.012
 6367.00    0.83055   1.07848    0.012
 6368.00    0.82964   1.07227    0.012
 6369.00    0.82445   1.07068    0.012
 6370.00    0.81941   1.08238    0.012
 6371.00    0.81455   1.10038    0.012
 6372.00    0.79619   1.11626    0.012
 6373.00    0.76421   1.13096    0.012
 6374.00    0.74634   1.14574    0.012
 6375.00    0.74101   1.15136    0.012
 6376.00    0.74949   1.14357    0.012
 6377.00    0.76877   1.13808    0.012
 6378.00    0.79144   1.14809    0.012
 6379.00    0.81642   1.16538    0.012
 6380.00    0.82866   1.17370    0.012
 6381.00    0.83320   1.17167    0.012
 6382.00    0.83432   1.17012    0.012
 6383.00    0.83362   1.16832    0.012
 6384.00    0.83224   1.15685    0.012
 6385.00    0.83054   1.14227    0.012
 6386.00    0.81286   1.13658    0.012
 6387.00    0.78888   1.13862    0.011
 6388.00    0.76992   1.14625    0.011
 6389.00    0.75264   1.15307    0.011
 6390.00    0.76255   1.15014    0.012
 6391.00    0.78011   1.14517    0.012
 6392.00    0.78745   1.15026    0.012
 6393.00    0.79242   1.15957    0.012
 6394.00    0.79889   1.16281    0.012
 6395.00    0.80564   1.16264    0.012
 6396.00    0.81398   1.16345    0.013
 6397.00    0.82255   1.16010    0.013
 6398.00    0.79853   1.14049    0.013
 6399.00    0.77111   1.10686    0.012
 6400.00    0.76821   1.09250    0.012
 6401.00    0.76696   1.11657    0.012
 6402.00    0.77814   1.15222    0.012
 6403.00    0.78973   1.17222    0.012
 6404.00    0.78468   1.16923    0.012
 6405.00    0.77962   1.13727    0.012
 6406.00    0.77441   1.09478    0.012
 6407.00    0.76882   1.09308    0.012
 6408.00    0.75755   1.13479    0.012
 6409.00    0.74685   1.17068    0.012
 6410.00    0.74156   1.18276    0.012
 6411.00    0.73771   1.18095    0.011
 6412.00    0.74396   1.16943    0.011
 6413.00    0.75017   1.14825    0.011
 6414.00    0.75613   1.13036    0.012
 6415.00    0.76311   1.13709    0.012
 6416.00    0.77449   1.15285    0.012
 6417.00    0.78120   1.14505    0.012
 6418.00    0.77131   1.12882    0.012
 6419.00    0.75641   1.13042    0.012
 6420.00    0.72655   1.13979    0.012
 6421.00    0.70813   1.14606    0.012
 6422.00    0.71882   1.15283    0.012
 6423.00    0.74043   1.15687    0.012
 6424.00    0.78600   1.15331    0.012
 6425.00    0.81337   1.13953    0.012
 6426.00    0.80617   1.11555    0.012
 6427.00    0.80735   1.09866    0.012
 6428.00    0.82243   1.11216    0.012
 6429.00    0.83050   1.14843    0.012
 6430.00    0.82839   1.17191    0.012
 6431.00    0.81678   1.17273    0.012
 6432.00    0.79300   1.17187    0.012
 6433.00    0.78574   1.17895    0.012
 6434.00    0.79708   1.18349    0.012
 6435.00    0.81136   1.17125    0.012
 6436.00    0.82855   1.13794    0.012
 6437.00    0.83647   1.10544    0.012
 6438.00    0.83627   1.10487    0.012
 6439.00    0.82495   1.13038    0.012
 6440.00    0.80503   1.15531    0.012
 6441.00    0.79470   1.16928    0.012
 6442.00    0.79087   1.17490    0.012
 6443.00    0.78493   1.16932    0.012
 6444.00    0.77771   1.14329    0.012
 6445.00    0.77091   1.11342    0.012
 6446.00    0.76431   1.11915    0.012
 6447.00    0.76448   1.15690    0.012
 6448.00    0.76768   1.18628    0.012
 6449.00    0.76610   1.19433    0.012
 6450.00    0.76268   1.19376    0.013
 6451.00    0.75934   1.19417    0.012
 6452.00    0.75603   1.19687    0.012
 6453.00    0.76429   1.19494    0.012
 6454.00    0.77575   1.17281    0.012
 6455.00    0.78570   1.12182    0.012
 6456.00    0.79531   1.07334    0.012
 6457.00    0.79690   1.07517    0.012
 6458.00    0.79704   1.11761    0.012
 6459.00    0.80635   1.15647    0.012
 6460.00    0.81694   1.16940    0.011
 6461.00    0.82048   1.15350    0.011
 6462.00    0.82331   1.13023    0.011
 6463.00    0.81015   1.13268    0.011
 6464.00    0.79598   1.16071    0.011
 6465.00    0.79038   1.18764    0.012
 6466.00    0.78504   1.19661    0.012
 6467.00    0.78169   1.17909    0.012
 6468.00    0.77898   1.13348    0.012
 6469.00    0.79427   1.09647    0.012
 6470.00    0.81022   1.10844    0.012
 6471.00    0.83554   1.14670    0.012
 6472.00    0.85766   1.17255    0.012
 6473.00    0.85025   1.18300    0.012
 6474.00    0.84172   1.18484    0.012
 6475.00    0.82568   1.17779    0.012
 6476.00    0.81075   1.16582    0.012
 6477.00    0.80169   1.15372    0.012
 6478.00    0.79430   1.14885    0.012
 6479.00    0.79398   1.15719    0.012
 6480.00    0.78879   1.16238    0.012
 6481.00    0.76666   1.15321    0.012
 6482.00    0.74642   1.14864    0.012
 6483.00    0.73172   1.15972    0.011
 6484.00    0.73359   1.17032    0.011
 6485.00    0.77693   1.17095    0.011
 6486.00    0.80863   1.16480    0.011
 6487.00    0.81523   1.14566    0.011
 6488.00    0.81212   1.11602    0.011
 6489.00    0.79084   1.10088    0.011
 6490.00    0.78004   1.11266    0.011
 6491.00    0.78634   1.13417    0.012
 6492.00    0.78711   1.14868    0.012
 6493.00    0.77995   1.15617    0.012
 6494.00    0.77534   1.15988    0.012
 6495.00    0.77392   1.15675    0.012
 6496.00    0.77820   1.14417    0.012
 6497.00    0.78879   1.12902    0.012
 6498.00    0.81259   1.11654    0.012
 6499.00    0.84931   1.09145    0.012
 6500.00    0.86788   1.04115    0.012
 6501.00    0.87075   0.99392    0.012
 6502.00    0.86844   0.98224    0.012
 6503.00    0.86217   1.00147    0.012
 6504.00    0.84643   1.03183    0.012
 6505.00    0.82435   1.05529    0.012
 6506.00    0.79822   1.07368    0.011
 6507.00    0.76971   1.09754    0.011
 6508.00    0.76081   1.11960    0.011
 6509.00    0.76193   1.13293    0.011
 6510.00    0.75787   1.14027    0.011
 6511.00    0.75151   1.14608    0.011
 6512.00    0.76493   1.15236    0.011
 6513.00    0.78588   1.15320    0.012
 6514.00    0.79151   1.14428    0.012
 6515.00    0.79219   1.13585    0.012
 6516.00    0.77768   1.13967    0.012
 6517.00    0.75907   1.15045    0.012
 6518.00    0.76188   1.15553    0.012
 6519.00    0.76944   1.15437    0.012
 6520.00    0.78300   1.15022    0.012
 6521.00    0.79763   1.13930    0.012
 6522.00    0.78251   1.12439    0.012
 6523.00    0.76338   1.11520    0.012
 6524.00    0.77418   1.11079    0.012
 6525.00    0.78784   1.11135    0.012
 6526.00    0.79989   1.12516    0.012
 6527.00    0.81186   1.14466    0.012
 6528.00    0.83669   1.15461    0.000
 6529.00    0.86184   1.15497    0.000
 6530.00    0.88488   1.15532    0.000
 6531.00    0.90646   1.15680    0.000
 6532.00    0.89113   1.14929    0.000
 6533.00    0.87632   1.13447    0.000
 6534.00    0.86857   1.13047    0.000
 6535.00    0.86067   1.14195    0.000
 6536.00    0.85135   1.15360    0.000
 6537.00    0.84007   1.15248    0.000
 6538.00    0.81592   1.13989    0.000
 6539.00    0.79612   1.12857    0.000
 6540.00    0.79860   1.13077    0.000
 6541.00    0.81057   1.14532    0.000
 6542.00    0.86175   1.15772    0.000
 6543.00    0.91637   1.15695    0.000
 6544.00    0.98277   1.15114    0.000
 6545.00    1.02902   1.15506    0.000
 6546.00    1.01724   1.16561    0.000
 6547.00    0.99373   1.16759    0.000
 6548.00    0.94136   1.15714    0.000
 6549.00    0.89055   1.14256    0.000
 6550.00    0.84303   1.13046    0.000
 6551.00    0.79698   1.11636    0.000
 6552.00    0.75367   1.09591    0.000
 6553.00    0.74641   1.08596    0.000
 6554.00    0.79720   1.09903    0.000
 6555.00    0.93706   1.11669    0.000
 6556.00    1.20273   1.11990    0.000
 6557.00    1.51628   1.11041    0.000
 6558.00    1.88931   1.10001    0.000
 6559.00    2.13608   1.09291    0.000
 6560.00    2.24454   1.08064    0.000
 6561.00    2.16541   1.06128    0.000
 6562.00    1.90506   1.04772    0.000
 6563.00    1.60908   1.04848    0.000
 6564.00    1.28276   1.05375    0.000
 6565.00    1.05907   1.04911    0.000
 6566.00    0.91240   1.02830    0.000
 6567.00    0.82798   0.97068    0.000
 6568.00    0.78459   0.85162    0.000
 6569.00    0.76078   0.73566    0.000
 6570.00    0.74827   0.74644    0.000
 6571.00    0.73252   0.87310    0.000
 6572.00    0.71515   0.99022    0.000
 6573.00    0.71368   1.04762    0.000
 6574.00    0.71914   1.06767    0.000
 6575.00    0.77328   1.06644    0.000
 6576.00    0.84559   1.06265    0.000
 6577.00    0.99324   1.06970    0.000
 6578.00    1.16473   1.07391    0.000
 6579.00    1.28194   1.06442    0.000
 6580.00    1.38480   1.05262    0.000
 6581.00    1.36307   1.05259    0.000
 6582.00    1.31441   1.06996    0.000
 6583.00    1.20418   1.09618    0.000
 6584.00    1.08338   1.11467    0.000
 6585.00    0.98049   1.11883    0.000
 6586.00    0.87993   1.11173    0.000
 6587.00    0.84082   1.10023    0.000
 6588.00    0.80732   1.09656    0.000
 6589.00    0.79239   1.10649    0.000
 6590.00    0.77849   1.11833    0.000
 6591.00    0.76570   1.12237    0.000
 6592.00    0.75295   1.11914    0.000
 6593.00    0.74188   1.11841    0.000
 6594.00    0.73166   1.12875    0.000
 6595.00    0.74090   1.14070    0.000
 6596.00    0.75217   1.14467    0.000
 6597.00    0.78921   1.13625    0.000
 6598.00    0.82383   1.10621    0.000
 6599.00    0.83770   1.06311    0.000
 6600.00    0.85033   1.04489    0.000
 6601.00    0.85514   1.06888    0.000
 6602.00    0.85423   1.10356    0.000
 6603.00    0.82484   1.11711    0.000
 6604.00    0.79239   1.11119    0.000
 6605.00    0.74762   1.10496    0.000
 6606.00    0.71116   1.11345    0.000
 6607.00    0.70254   1.13217    0.000
 6608.00    0.70555   1.14404    0.000
 6609.00    0.74141   1.14211    0.012
 6610.00    0.77287   1.13064    0.012
 6611.00    0.79368   1.11660    0.012
 6612.00    0.80944   1.10740    0.012
 6613.00    0.81468   1.10293    0.012
 6614.00    0.81204   1.09483    0.012
 6615.00    0.79514   1.08227    0.012
 6616.00    0.77560   1.08271    0.012
 6617.00    0.75187   1.10599    0.011
 6618.00    0.73527   1.12957    0.011
 6619.00    0.72861   1.13170    0.011
 6620.00    0.73190   1.12319    0.011
 6621.00    0.74739   1.12601    0.011
 6622.00    0.76179   1.13782    0.011
 6623.00    0.77501   1.14152    0.011
 6624.00    0.77157   1.13739    0.011
 6625.00    0.75225   1.13629    0.012
 6626.00    0.73799   1.14062    0.012
 6627.00    0.72799   1.14517    0.011
 6628.00    0.72824   1.14415    0.012
 6629.00    0.73606   1.13399    0.012
 6630.00    0.74584   1.11520    0.012
 6631.00    0.75687   1.09808    0.012
 6632.00    0.76420   1.09761    0.012
 6633.00    0.76942   1.11004    0.012
 6634.00    0.76292   1.11859    0.012
 6635.00    0.75061   1.11939    0.012
 6636.00    0.75328   1.11671    0.012
 6637.00    0.76236   1.11282    0.012
 6638.00    0.77645   1.10545    0.012
 6639.00    0.79237   1.09016    0.012
 6640.00    0.80252   1.07438    0.011
 6641.00    0.81086   1.07527    0.011
 6642.00    0.81726   1.09376    0.011
 6643.00    0.82315   1.11289    0.011
 6644.00    0.81348   1.12133    0.011
 6645.00    0.80051   1.11854    0.011
 6646.00    0.79044   1.11264    0.011
 6647.00    0.78084   1.11485    0.012
 6648.00    0.78535   1.11898    0.012
 6649.00    0.79164   1.10729    0.011
 6650.00    0.79162   1.08935    0.012
 6651.00    0.79104   1.09111    0.012
 6652.00    0.76953   1.10716    0.012
 6653.00    0.74694   1.11455    0.012
 6654.00    0.74340   1.11273    0.012
 6655.00    0.74053   1.11364    0.012
 6656.00    0.76132   1.11609    0.012
 6657.00    0.78127   1.11208    0.012
 6658.00    0.78360   1.10413    0.012
 6659.00    0.78561   1.10019    0.012
 6660.00    0.78369   1.10167    0.011
 6661.00    0.78117   1.10507    0.011
 6662.00    0.77354   1.10655    0.011
 6663.00    0.76518   1.10509    0.011
 6664.00    0.75224   1.10503    0.011
 6665.00    0.74154   1.10675    0.011
 6666.00    0.74168   1.10503    0.011
 6667.00    0.74187   1.09922    0.011
 6668.00    0.74229   1.08954    0.011
 6669.00    0.74144   1.07312    0.011
 6670.00    0.73644   1.06122    0.011
 6671.00    0.73281   1.06842    0.011
 6672.00    0.73302   1.08157    0.012
 6673.00    0.73328   1.08444    0.012
 6674.00    0.73365   1.08437    0.012
 6675.00    0.73017   1.09196    0.012
 6676.00    0.71882   1.10515    0.012
 6677.00    0.71378   1.11531    0.012
 6678.00    0.72001   1.11831    0.012
 6679.00    0.72583   1.11732    0.012
 6680.00    0.73099   1.11670    0.011
 6681.00    0.73116   1.11713    0.011
 6682.00    0.72446   1.11107    0.011
 6683.00    0.71667   1.08354    0.011
 6684.00    0.70754   1.04243    0.011
 6685.00    0.69878   1.02654    0.011
 6686.00    0.69041   1.04907    0.011
 6687.00    0.69316   1.07609    0.011
 6688.00    0.70635   1.08494    0.011
 6689.00    0.71109   1.08815    0.011
 6690.00    0.70882   1.09490    0.011
 6691.00    0.70606   1.10052    0.011
 6692.00    0.70293   1.10180    0.011
 6693.00    0.69965   1.09955    0.012
 6694.00    0.69627   1.09597    0.012
 6695.00    0.69814   1.09537    0.012
 6696.00    0.70294   1.09886    0.000
 6697.00    0.71475   1.10177    0.000
 6698.00    0.72996   1.10188    0.000
 6699.00    0.74466   1.10111    0.000
 6700.00    0.75914   1.10031    0.000
 6701.00    0.76532   1.09440    0.000
 6702.00    0.76852   1.08016    0.000
 6703.00    0.77896   1.06808    0.000
 6704.00    0.79161   1.06903    0.000
 6705.00    0.79811   1.07895    0.000
 6706.00    0.80304   1.09163    0.000
 6707.00    0.82631   1.10244    0.000
 6708.00    0.85334   1.10460    0.000
 6709.00    0.89777   1.09693    0.000
 6710.00    0.94502   1.08498    0.000
 6711.00    0.99415   1.07877    0.000
 6712.00    1.04351   1.08356    0.000
 6713.00    1.06780   1.09222    0.000
 6714.00    1.09001   1.09661    0.000
 6715.00    1.04634   1.09665    0.000
 6716.00    0.99954   1.09327    0.000
 6717.00    0.92610   1.08889    0.000
 6718.00    0.85346   1.08768    0.000
 6719.00    0.84695   1.08453    0.000
 6720.00    0.83868   1.07525    0.000
 6721.00    0.79603   1.06313    0.000
 6722.00    0.75731   1.04880    0.000
 6723.00    0.76352   1.03212    0.000
 6724.00    0.78118   1.02277    0.000
 6725.00    0.89004   1.03457    0.000
 6726.00    0.99175   1.05851    0.000
 6727.00    1.05052   1.07122    0.000
 6728.00    1.09230   1.07083    0.000
 6729.00    1.05357   1.07212    0.000
 6730.00    1.00308   1.07937    0.000
 6731.00    0.90715   1.08139    0.000
 6732.00    0.82120   1.07416    0.000
 6733.00    0.76735   1.06881    0.000
 6734.00    0.72778   1.07291    0.000
 6735.00    0.72716   1.08076    0.000
 6736.00    0.72765   1.08670    0.000
 6737.00    0.73072   1.09026    0.000
 6738.00    0.73223   1.08963    0.000
 6739.00    0.73054   1.08491    0.000
 6740.00    0.73034   1.08088    0.000
 6741.00    0.73274   1.08210    0.000
 6742.00    0.74183   1.08676    0.000
 6743.00    0.76120   1.08756    0.000
 6744.00    0.77090   1.07915    0.000
 6745.00    0.76752   1.06738    0.000
 6746.00    0.75277   1.06379    0.000
 6747.00    0.72449   1.07007    0.000
 6748.00    0.71649   1.07423    0.000
 6749.00    0.72980   1.06866    0.000
 6750.00    0.74413   1.06468    0.000
 6751.00    0.75940   1.07015    0.000
 6752.00    0.79602   1.07483    0.000
 6753.00    0.85007   1.07138    0.012
 6754.00    0.87474   1.06406    0.013
 6755.00    0.87832   1.05659    0.013
 6756.00    0.83762   1.05108    0.013
 6757.00    0.76902   1.05197    0.013
 6758.00    0.71220   1.05718    0.013
 6759.00    0.66187   1.05674    0.013
 6760.00    0.69985   1.05609    0.013
 6761.00    0.78015   1.06449    0.014
 6762.00    0.83937   1.07393    0.014
 6763.00    0.88986   1.08092    0.014
 6764.00    0.90583   1.08843    0.014
 6765.00    0.90959   1.09485    0.014
 6766.00    0.91551   1.09860    0.014
 6767.00    0.92207   1.09925    0.013
 6768.00    0.91435   1.09646    0.013
 6769.00    0.90310   1.09372    0.013
 6770.00    0.91024   1.09463    0.013
 6771.00    0.92108   1.09459    0.013
 6772.00    0.90138   1.08706    0.013
 6773.00    0.87688   1.07227    0.012
 6774.00    0.83541   1.06146    0.012
 6775.00    0.79196   1.06542    0.012
 6776.00    0.75509   1.07479    0.012
 6777.00    0.71874   1.07453    0.012
 6778.00    0.75371   1.07048    0.013
 6779.00    0.79179   1.07588    0.013
 6780.00    0.75749   1.08883    0.013
 6781.00    0.72273   1.10039    0.013
 6782.00    0.70181   1.10707    0.013
 6783.00    0.68313   1.10868    0.013
 6784.00    0.70482   1.10737    0.013
 6785.00    0.72575   1.10811    0.013
 6786.00    0.73826   1.11010    0.013
 6787.00    0.75205   1.10621    0.012
 6788.00    0.77571   1.09286    0.012
 6789.00    0.79961   1.07227    0.012
 6790.00    0.82489   1.05272    0.012
 6791.00    0.84011   1.04337    0.012
 6792.00    0.80880   1.04585    0.012
 6793.00    0.78396   1.05558    0.012
 6794.00    0.78361   1.06884    0.012
 6795.00    0.78170   1.07891    0.012
 6796.00    0.77488   1.08045    0.012
 6797.00    0.77229   1.07976    0.012
 6798.00    0.78103   1.08103    0.012
 6799.00    0.79396   1.07785    0.012
 6800.00    0.81650   1.06964    0.013
 6801.00    0.83273   1.06568    0.013
 6802.00    0.83639   1.06822    0.013
 6803.00    0.83646   1.07289    0.013
 6804.00    0.83032   1.07804    0.013
 6805.00    0.80571   1.08107    0.013
 6806.00    0.75308   1.08332    0.012
 6807.00    0.72145   1.08756    0.012
 6808.00    0.71781   1.09165    0.012
 6809.00    0.73227   1.09186    0.012
 6810.00    0.76799   1.08752    0.012
 6811.00    0.79385   1.08447    0.012
 6812.00    0.80949   1.08549    0.012
 6813.00    0.80799   1.08422    0.012
 6814.00    0.79085   1.08303    0.013
 6815.00    0.77423   1.08536    0.013
 6816.00    0.75804   1.08406    0.012
 6817.00    0.75692   1.08150    0.012
 6818.00    0.76648   1.08497    0.012
 6819.00    0.76679   1.08871    0.012
 6820.00    0.76135   1.08531    0.012
 6821.00    0.76543   1.07604    0.012
 6822.00    0.77466   1.07216    0.012
 6823.00    0.78319   1.08153    0.012
 6824.00    0.79138   1.09298    0.012
 6825.00    0.77304   1.09354    0.012
 6826.00    0.74392   1.08530    0.012
 6827.00    0.74790   1.07955    0.012
 6828.00    0.76338   1.08452    0.013
 6829.00    0.79781   1.09526    0.013
 6830.00    0.83777   1.10244    0.013
 6831.00    0.81443   1.10445    0.012
 6832.00    0.77575   1.10384    0.012
 6833.00    0.74235   1.09859    0.012
 6834.00    0.70997   1.08564    0.012
 6835.00    0.70628   1.07393    0.012
 6836.00    0.70697   1.07634    0.012
 6837.00    0.73562   1.08867    0.012
 6838.00    0.76742   1.09614    0.013
 6839.00    0.77811   1.09424    0.013
 6840.00    0.78723   1.09272    0.013
 6841.00    0.77984   1.09848    0.013
 6842.00    0.77180   1.10393    0.013
 6843.00    0.74288   1.10129    0.013
 6844.00    0.71581   1.09297    0.012
 6845.00    0.76820   1.08186    0.012
 6846.00    0.81585   1.06811    0.012
 6847.00    0.78332   1.05381    0.012
 6848.00    0.75494   1.04305    0.012
 6849.00    0.77002   1.04362    0.012
 6850.00    0.78324   1.05826    0.012
 6851.00    0.78258   1.07844    0.012
 6852.00    0.77878   1.09256    0.012
 6853.00    0.75712   1.09652    0.012
 6854.00    0.74035   1.09636    0.012
 6855.00    0.74566   1.09567    0.012
 6856.00    0.74958   1.09237    0.012
 6857.00    0.74843   1.08849    0.012
 6858.00    0.74632   1.08794    0.012
 6859.00    0.74129   1.08924    0.012
 6860.00    0.73956   1.08465    0.012
 6861.00    0.74652   1.06860    0.012
 6862.00    0.75191   1.05346    0.012
 6863.00    0.75373   1.05418    0.012
 6864.00    0.74919   1.06322    0.012
 6865.00    0.73220   1.07000    0.012
 6866.00    0.72042   1.07243    0.013
 6867.00    0.71751   1.06489    0.013
 6868.00    0.72544   1.05330    0.013
 6869.00    0.74956   1.05727    0.013
 6870.00    0.75601   1.07876    0.012
 6871.00    0.73927   1.09678    0.012
 6872.00    0.73723   1.09736    0.012
 6873.00    0.75220   1.08444    0.012
 6874.00    0.76473   1.06723    0.012
 6875.00    0.77475   1.05830    0.012
 6876.00    0.76728   1.06527    0.011
 6877.00    0.74405   1.07576    0.011
 6878.00    0.72708   1.07436    0.012
 6879.00    0.71506   1.06745    0.012
 6880.00    0.72565   1.06898    0.012
 6881.00    0.75201   1.07527    0.012
 6882.00    0.75680   1.07823    0.012
 6883.00    0.74839   1.08284    0.012
 6884.00    0.74380   1.09228    0.012
 6885.00    0.74125   1.09993    0.012
 6886.00    0.75285   1.10038    0.012
 6887.00    0.77101   1.09342    0.012
 6888.00    0.75797   1.07970    0.012
 6889.00    0.73247   1.06700    0.012
 6890.00    0.72939   1.06651    0.012
 6891.00    0.73396   1.07724    0.012
 6892.00    0.73371   1.08456    0.012
 6893.00    0.73209   1.08654    0.012
 6894.00    0.74201   1.09370    0.012
 6895.00    0.75467   1.10282    0.012
 6896.00    0.76953   1.10794    0.012
 6897.00    0.78482   1.11164    0.012
 6898.00    0.79717   1.11342    0.012
 6899.00    0.80909   1.11060    0.012
 6900.00    0.83805   1.10702    0.012
 6901.00    0.86886   1.10460    0.012
 6902.00    0.83602   1.10058    0.012
 6903.00    0.79869   1.09852    0.012
 6904.00    0.74331   1.10280    0.012
 6905.00    0.68729   1.10751    0.012
 6906.00    0.68564   1.10453    0.012
 6907.00    0.68494   1.09852    0.012
 6908.00    0.71109   1.10142    0.012
 6909.00    0.73613   1.11083    0.012
 6910.00    0.74374   1.11435    0.012
 6911.00    0.75162   1.11033    0.013
 6912.00    0.76219   1.10799    0.013
 6913.00    0.76646   1.11324    0.012
 6914.00    0.72552   1.12082    0.012
 6915.00    0.69328   1.12407    0.012
 6916.00    0.70897   1.12405    0.012
 6917.00    0.72383   1.12112    0.012
 6918.00    0.73504   1.11451    0.012
 6919.00    0.73942   1.10625    0.012
 6920.00    0.71907   1.09575    0.012
 6921.00    0.70842   1.08734    0.012
 6922.00    0.72724   1.08916    0.012
 6923.00    0.74271   1.09461    0.012
 6924.00    0.74955   1.09679    0.012
 6925.00    0.75656   1.10084    0.012
 6926.00    0.76392   1.10686    0.012
 6927.00    0.76410   1.11349    0.012
 6928.00    0.75043   1.11915    0.012
 6929.00    0.74317   1.11824    0.012
 6930.00    0.74665   1.10588    0.012
 6931.00    0.76914   1.08636    0.012
 6932.00    0.81963   1.07485    0.012
 6933.00    0.84265   1.08004    0.012
 6934.00    0.83013   1.09549    0.012
 6935.00    0.82185   1.10743    0.012
 6936.00    0.81842   1.11131    0.012
 6937.00    0.80605   1.11103    0.012
 6938.00    0.78470   1.10763    0.012
 6939.00    0.75914   1.09938    0.012
 6940.00    0.72984   1.09159    0.012
 6941.00    0.70726   1.09611    0.012
 6942.00    0.68994   1.10729    0.012
 6943.00    0.70291   1.11124    0.012
 6944.00    0.73670   1.10905    0.012
 6945.00    0.73952   1.10888    0.012
 6946.00    0.72367   1.11403    0.012
 6947.00    0.72827   1.12147    0.012
 6948.00    0.74363   1.12400    0.012
 6949.00    0.78023   1.11712    0.012
 6950.00    0.82652   1.10352    0.012
 6951.00    0.82350   1.08707    0.012
 6952.00    0.80111   1.07797    0.012
 6953.00    0.79602   1.08784    0.012
 6954.00    0.79671   1.10704    0.012
 6955.00    0.78872   1.11902    0.012
 6956.00    0.77829   1.12195    0.012
 6957.00    0.75983   1.11528    0.012
 6958.00    0.73950   1.10170    0.012
 6959.00    0.74476   1.09276    0.012
 6960.00    0.75478   1.09040    0.012
 6961.00    0.74388   1.09162    0.012
 6962.00    0.73000   1.09939    0.012
 6963.00    0.71857   1.11104    0.012
 6964.00    0.70741   1.11823    0.012
 6965.00    0.75385   1.11923    0.012
 6966.00    0.80413   1.11896    0.013
 6967.00    0.81325   1.12047    0.013
 6968.00    0.82105   1.12407    0.013
 6969.00    0.81426   1.12768    0.013
 6970.00    0.80632   1.13059    0.013
 6971.00    0.76320   1.13026    0.013
 6972.00    0.72461   1.12379    0.012
 6973.00    0.75346   1.11969    0.012
 6974.00    0.77816   1.12745    0.012
 6975.00    0.76289   1.13877    0.012
 6976.00    0.75152   1.13992    0.012
 6977.00    0.76727   1.13108    0.012
 6978.00    0.77717   1.12321    0.012
 6979.00    0.75568   1.12602    0.012
 6980.00    0.73829   1.13322    0.012
 6981.00    0.73861   1.12968    0.012
 6982.00    0.74121   1.11610    0.012
 6983.00    0.75194   1.09912    0.012
 6984.00    0.76393   1.07529    0.013
 6985.00    0.77969   1.04773    0.013
 6986.00    0.77470   1.04276    0.013
 6987.00    0.71702   1.07082    0.013
 6988.00    0.67611   1.10497    0.013
 6989.00    0.67186   1.12644    0.013
 6990.00    0.67175   1.13703    0.013
 6991.00    0.67949   1.14027    0.013
 6992.00    0.69625   1.14029    0.012
 6993.00    0.72795   1.13910    0.012
 6994.00    0.74820   1.13450    0.012
 6995.00    0.75184   1.12429    0.012
 6996.00    0.76352   1.11362    0.012
 6997.00    0.78544   1.11272    0.012
 6998.00    0.78012   1.12208    0.012
 6999.00    0.74414   1.13199    0.012
 7000.00    0.72609   1.13368    0.012
 7001.00    0.72582   1.12901    0.012
 7002.00    0.74074   1.12672    0.012
 7003.00    0.76895   1.12927    0.013
 7004.00    0.77174   1.12988    0.012
 7005.00    0.75493   1.12109    0.012
 7006.00    0.73787   1.10402    0.012
 7007.00    0.72064   1.09542    0.013
 7008.00    0.69963   1.10544    0.013
 7009.00    0.67639   1.11968    0.013
 7010.00    0.66943   1.11911    0.012
 7011.00    0.67091   1.10574    0.012
 7012.00    0.69228   1.09645    0.012
 7013.00    0.72258   1.09874    0.012
 7014.00    0.72051   1.10765    0.012
 7015.00    0.70595   1.11784    0.012
 7016.00    0.72272   1.12585    0.012
 7017.00    0.74978   1.12585    0.012
 7018.00    0.74870   1.12018    0.012
 7019.00    0.73989   1.12065    0.012
 7020.00    0.72552   1.12657    0.012
 7021.00    0.70989   1.12051    0.013
 7022.00    0.73133   1.09206    0.013
 7023.00    0.75947   1.06180    0.013
 7024.00    0.72073   1.06573    0.013
 7025.00    0.67272   1.10119    0.013
 7026.00    0.70996   1.13235    0.013
 7027.00    0.75566   1.14454    0.013
 7028.00    0.76553   1.14321    0.013
 7029.00    0.77316   1.12824    0.013
 7030.00    0.74920   1.10382    0.013
 7031.00    0.72438   1.08882    0.013
 7032.00    0.70858   1.09457    0.013
 7033.00    0.69453   1.10991    0.013
 7034.00    0.72830   1.11844    0.013
 7035.00    0.76004   1.12121    0.013
 7036.00    0.76335   1.12575    0.013
 7037.00    0.76567   1.13142    0.013
 7038.00    0.75891   1.13340    0.013
 7039.00    0.75133   1.13022    0.013
 7040.00    0.73814   1.12617    0.013
 7041.00    0.72776   1.12515    0.013
 7042.00    0.73202   1.12943    0.013
 7043.00    0.74882   1.13384    0.013
 7044.00    0.81840   1.12156    0.013
 7045.00    0.85932   1.09784    0.013
 7046.00    0.80054   1.09824    0.014
 7047.00    0.75822   1.13033    0.014
 7048.00    0.76405   1.16289    0.014
 7049.00    0.76652   1.17748    0.014
 7050.00    0.76061   1.17596   -2.000
 7051.00    0.76085   1.16273   -2.000
 7052.00    0.77432   1.14965   -2.000
 7053.00    0.78804   1.15125   -2.000
 7054.00    0.80222   1.16465   -2.000
 7055.00    0.80975   1.17742   -2.000
 7056.00    0.80641   1.18142   -2.000
 7057.00    0.79554   1.17430   -2.000
 7058.00    0.77390   1.15645   -2.000
 7059.00    0.76970   1.12656   -2.000
 7060.00    0.78743   1.09169   -2.000
 7061.00    0.82876   1.06509   -2.000
 7062.00    0.89623   1.05535   -2.000
 7063.00    0.89877   1.06488   -2.000
 7064.00    0.83780   1.08088   -2.000
 7065.00    0.80251   1.08405   -2.000
 7066.00    0.78939   1.06907   -2.000
 7067.00    0.80881   1.05085   -2.000
 7068.00    0.85296   1.04673   -2.000
 7069.00    0.84580   1.05438   -2.000
 7070.00    0.80437   1.06380   -2.000
 7071.00    0.84686   1.07220   -2.000
 7072.00    0.93843   1.07263   -2.000
 7073.00    0.93748   1.05996   -2.000
 7074.00    0.88936   1.04262   -2.000
 7075.00    0.87827   1.03106   -2.000
 7076.00    0.88354   1.03680   -2.000
 7077.00    0.88311   1.05949   -2.000
 7078.00    0.88053   1.08025   -2.000
 7079.00    0.87993   1.08826   -2.000
 7080.00    0.87996   1.08994   -2.000
 7081.00    0.85287   1.09022   -2.000
 7082.00    0.81849   1.08861   -2.000
 7083.00    0.78092   1.08692   -2.000
 7084.00    0.74264   1.08823   -2.000
 7085.00    0.75610   1.09234   -2.000
 7086.00    0.77864   1.09664   -2.000
 7087.00    0.82737   1.10183   -2.000
 7088.00    0.87962   1.10393   -2.000
 7089.00    0.85490   1.09328   -2.000
 7090.00    0.82287   1.06780   -2.000
 7091.00    0.79513   1.03882   -2.000
 7092.00    0.76763   1.02596   -2.000
 7093.00    0.77627   1.03080   -2.000
 7094.00    0.78577   1.02905   -2.000
 7095.00    0.79299   1.01487   -2.000
 7096.00    0.79860   1.00364   -2.000
 7097.00    0.76420   1.00041   -2.000
 7098.00    0.72975   1.00484   -2.000
 7099.00    0.69464   1.01158   -2.000
 7100.00    0.66489   1.01246   -2.000
 7101.00    0.68263   1.01148   -2.000
 7102.00    0.70147   1.01067   -2.000
 7103.00    0.72752   1.01069   -2.000
 7104.00    0.74625   1.01408   -2.000
 7105.00    0.72767   1.02232   -2.000
 7106.00    0.70888   1.03416   -2.000
 7107.00    0.68919   1.03959   -2.000
 7108.00    0.67280   1.03617   -2.000
 7109.00    0.66763   1.02838   -2.000
 7110.00    0.68549   1.02551   -2.000
 7111.00    0.76951   1.03316   -2.000
 7112.00    0.83099   1.04352   -2.000
 7113.00    0.83719   1.04429   -2.000
 7114.00    0.83228   1.03834   -2.000
 7115.00    0.80389   1.03720   -2.000
 7116.00    0.78388   1.03862   -2.000
 7117.00    0.77929   1.03119   -2.000
 7118.00    0.77930   1.01816   -2.000
 7119.00    0.78672   1.01543   -2.000
 7120.00    0.79303   1.02570   -2.000
 7121.00    0.79778   1.03685   -2.000
 7122.00    0.80758   1.04238   -2.000
 7123.00    0.82366   1.04639   -2.000
 7124.00    0.90164   1.04922   -2.000
 7125.00    1.04730   1.04914   -2.000
 7126.00    1.07332   1.04801   -2.000
 7127.00    0.98395   1.04613   -2.000
 7128.00    0.90543   1.04194   -2.000
 7129.00    0.83612   1.03652   -2.000
 7130.00    0.83846   1.03917   -2.000
 7131.00    0.89446   1.04289   -2.000
 7132.00    0.92191   1.02989   -2.000
 7133.00    0.93058   1.00840   -2.000
 7134.00    0.85167   0.99971   -2.000
 7135.00    0.72233   1.00381   -2.000
 7136.00    0.73401   1.00260   -2.000
 7137.00    0.81646   0.98840   -2.000
 7138.00    0.83446   0.97716   -2.000
 7139.00    0.82447   0.98353   -2.000
 7140.00    0.78475   0.99996   -2.000
 7141.00    0.73396   1.01490   -2.000
 7142.00    0.74783   1.02282   -2.000
 7143.00    0.78212   1.02596   -2.000
 7144.00    0.75586   1.02899   -2.000
 7145.00    0.71361   1.02627   -2.000
 7146.00    0.70571   1.01791   -2.000
 7147.00    0.70520   1.01736   -2.000
 7148.00    0.72173   1.02634   -2.000
 7149.00    0.74116   1.03190   -2.000
 7150.00    0.70935   1.03157   -2.000
 7151.00    0.67090   1.03088   -2.000
 7152.00    0.69295   1.03007   -2.000
 7153.00    0.72049   1.02726   -2.000
 7154.00    0.79015   1.01480   -2.000
 7155.00    0.86211   0.99658   -2.000
 7156.00    0.78969   0.99499   -2.000
 7157.00    0.71466   1.00993   -2.000
 7158.00    0.67757   1.02444   -2.000
 7159.00    0.65064   1.03780   -2.000
 7160.00    0.85446   1.04982   -2.000
 7161.00    1.04461   1.05080   -2.000
 7162.00    1.06263   1.04324   -2.000
 7163.00    1.07391   1.04444   -2.000
 7164.00    1.02762   1.05574   -2.000
 7165.00    0.96193   1.05678   -2.000
 7166.00    0.77325   1.04395   -2.000
 7167.00    0.63747   1.03340   -2.000
 7168.00    0.76435   1.03534   -2.000
 7169.00    0.85780   1.04237   -2.000
 7170.00    0.81672   1.03571   -2.000
 7171.00    0.78392   1.01054   -2.000
 7172.00    0.77876   0.99156   -2.000
 7173.00    0.76261   1.00188   -2.000
 7174.00    0.71547   1.02953   -2.000
 7175.00    0.69338   1.04921   -2.000
 7176.00    0.73172   1.05231   -2.000
 7177.00    0.75998   1.04951   -2.000
 7178.00    0.76725   1.05312   -2.000
 7179.00    0.78525   1.06200   -2.000
 7180.00    0.82267   1.06744   -2.000
 7181.00    0.83097   1.06412   -2.000
 7182.00    0.79320   1.05291   -2.000
 7183.00    0.74767   1.04187   -2.000
 7184.00    0.69137   1.04334   -2.000
 7185.00    0.67594   1.05377   -2.000
 7186.00    0.71049   1.05203   -2.000
 7187.00    0.75774   1.03169   -2.000
 7188.00    0.81870   1.01294   -2.000
 7189.00    0.82194   1.01852   -2.000
 7190.00    0.77030   1.04453   -2.000
 7191.00    0.74172   1.06483   -2.000
 7192.00    0.73245   1.06507   -2.000
 7193.00    0.72570   1.04717   -2.000
 7194.00    0.72079   1.01986   -2.000
 7195.00    0.70021   1.00249   -2.000
 7196.00    0.66947   1.00518   -2.000
 7197.00    0.68412   1.02091   -2.000
 7198.00    0.72451   1.03743   -2.000
 7199.00    0.77896   1.04122   -2.000
 7200.00    0.84035   1.03587   -2.000
 7201.00    0.88499   1.03774   -2.000
 7202.00    0.92250   1.04760   -2.000
 7203.00    0.95463   1.04902   -2.000
 7204.00    0.98479   1.03899   -2.000
 7205.00    0.80962   1.03573   -2.000
 7206.00    0.57084   1.04472   -2.000
 7207.00    0.57178   1.05139   -2.000
 7208.00    0.63458   1.04609   -2.000
 7209.00    0.65634   1.03762   -2.000
 7210.00    0.66947   1.04349   -2.000
 7211.00    0.66178   1.06033   -2.000
 7212.00    0.65063   1.06547   -2.000
 7213.00    0.74512   1.04459   -2.000
 7214.00    0.85282   1.01058   -2.000
 7215.00    0.80148   0.99614   -2.000
 7216.00    0.73638   1.00953   -2.000
 7217.00    0.69492   1.03527   -2.000
 7218.00    0.65467   1.05899   -2.000
