###################################################################
## OUTPUT of StarlightChains_v04.for    [Cid@UFSC - 01/Apr/2007] ##
###################################################################

## Some input info
KUG0210-078._31_26.txt                   [arq_obs]
Base.CB07.vall.4m                        [arq_base]
Masks.EmLines.NEW.gm                     [arq_masks]
StCv04.C11.config                        [arq_config]
   66                                    [N_base]
    0                                    [N_YAV_components = # of components with extra extinction!]
    0                                    [i_FitPowerLaw (1/0 = Yes/No)]
-9.99                                    [alpha_PowerLaw]
CCM                                      [red_law_option]
 1.458241                                [q_norm = A(l_norm)/A(V)]

## (Re)Sampling Parameters
 3741.00                                 [l_ini (A)]
 7218.00                                 [l_fin (A)]
    1.00                                 [dl    (A)]     (OBS: dl_cushion =    50.00 A)

## Normalization info
 4020.00                                 [l_norm (A) - for base]
 4010.00                                 [llow_norm (A) - window for f_obs]
 4060.00                                 [lupp_norm (A) - window for f_obs]
2.692305E-17                             [fobs_norm (in input units)]

## S/N
 3691.00                                 [llow_SN (A) - window for S/N]
 7268.00                                 [lupp_SN (A) - window for S/N]
   4.541                                 [S/N in S/N window]
   6.456                                 [S/N in norm. window]
   0.025                                 [S/N_err in S/N window]
   0.035                                 [S/N_err in norm. window]
  1.0000                                 [fscale_chi2]

## etc...
    -2007451                             [idum_orig]
  2358                                   [NOl_eff]
  2358                                   [Nl_eff]
     0    NSIGMA                         [Ntot_cliped & clip_method]
  1759170                                [Nglobal_steps]
   7                                     [N_chains]
  24                                     [NEX0s_base = N_base in EX0s-fits]
 0   1   1        2   2.0   1.566E+03    [Clip-Bug, RC-Crash & Burn-In warning-flags, n_censored_weights, wei_nsig_threshold & wei_limit]
    41     40.563     39.991      0.571  [idt_all, wdt_TotTime, wdt_UsrTime & wdt_SysTime (sec)]

## Synthesis Results - Best model ##

 1.18254E-04                             [chi2/Nl_eff]
    22.77684                             [adev (%)]

    97.56819                             [sum-of-x (%)]
 3.61781E-17                             [Flux_tot (units of input spectrum!)]
 4.15432E-14                             [Mini_tot (???)]
 2.66955E-14                             [Mcor_tot (???)]

   0.00                                  [v0_min  (km/s)]
 181.73                                  [vd_min  (km/s)]
 0.2383                                  [AV_min  (mag)]
 0.0000                                  [YAV_min (mag)]

# j     x_j(%)      Mini_j(%)     Mcor_j(%)     age_j(yr)     Z_j      (L/M)_j    YAV?  Mstars   component_j        a/Fe...       SSP_chi2r SSP_adev(%)   SSP_AV   SSP_x(%)
  1      0.0000     0.0000E+00    0.0000E+00    1.000000E+06  0.00400  1.094E-02    0   1.0000   age020_m42            0.0000     1.6907E-04    26.7378   1.8810    84.4958
  2      1.2353     2.7516E-02    4.2816E-02    3.160000E+06  0.00400  4.007E-02    0   0.9999   age045_m42            0.0000     1.5053E-04    25.1485   1.1972    89.8188
  3      0.0000     0.0000E+00    0.0000E+00    5.010000E+06  0.00400  2.539E-02    0   0.9488   age055_m42            0.0000     1.7023E-04    25.8479   1.4914    88.0276
  4      0.0000     0.0000E+00    0.0000E+00    6.610000E+06  0.00400  2.620E-02    0   0.9220   age061_m42            0.0000     1.4957E-04    24.7625   1.1388    89.6692
  5      2.1098     1.4244E-01    1.9644E-01    1.000000E+07  0.00400  1.322E-02    0   0.8862   age070_m42            0.0000     1.2862E-04    23.0003   1.0007    87.9510
  6      0.0000     0.0000E+00    0.0000E+00    1.445000E+07  0.00400  7.883E-03    0   0.8571   age078_m42            0.0000     1.3897E-04    23.7816   1.2912    86.5316
  7      0.0000     0.0000E+00    0.0000E+00    2.512000E+07  0.00400  5.251E-03    0   0.8174   age090_m42            0.0000     1.4598E-04    22.9464   0.8446    89.9163
  8      2.1579     5.2783E-01    6.4489E-01    4.000000E+07  0.00400  3.649E-03    0   0.7851   age104_m42            0.0000     1.5484E-04    22.7781   0.6061    91.2190
  9      2.7201     7.8367E-01    9.3039E-01    5.500000E+07  0.00400  3.098E-03    0   0.7629   age110_m42            0.0000     1.4414E-04    23.1502   0.7303    91.6108
 10      4.5029     1.8039E+00    2.0231E+00    1.015200E+08  0.00400  2.228E-03    0   0.7207   age116_m42            0.0000     1.2927E-04    23.1073   0.7582    90.9843
 11     37.1137     3.0308E+01    3.1355E+01    2.861200E+08  0.00400  1.093E-03    0   0.6648   age125_m42            0.0000     1.4346E-04    22.0948   0.2009    94.5552
 12      8.8588     1.1986E+01    1.1872E+01    5.088000E+08  0.00400  6.597E-04    0   0.6365   age130_m42            0.0000     1.4275E-04    22.4207   0.1457    96.4162
 13      0.0000     0.0000E+00    0.0000E+00    1.434000E+09  0.00400  2.132E-04    0   0.5798   age139_m42            0.0000     1.1465E-04    21.2558  -0.7345    94.6085
 14      0.0000     0.0000E+00    0.0000E+00    4.250000E+09  0.00400  5.895E-05    0   0.5377   age158_m42            0.0000     1.1868E-04    20.8418  -1.0000    83.5903
 15      0.0000     0.0000E+00    0.0000E+00    7.500000E+09  0.00400  3.510E-05    0   0.5212   age171_m42            0.0000     1.4137E-04    20.5016  -1.0000    76.3312
 16      0.0000     0.0000E+00    0.0000E+00    1.300000E+10  0.00400  2.005E-05    0   0.5034   age193_m42            0.0000     1.6806E-04    20.4631  -1.0000    70.5226
 17      0.0056     3.2637E-01    2.5227E-01    1.800000E+10  0.00400  1.525E-05    0   0.4967   age213_m42            0.0000     1.7237E-04    20.3618  -1.0000    69.6425
 18      0.0000     0.0000E+00    0.0000E+00    1.000000E+06  0.00800  1.238E-02    0   1.0000   age020_m52            0.0000     1.4954E-04    26.4709   1.9143    83.3492
 19      0.0000     0.0000E+00    0.0000E+00    3.160000E+06  0.00800  3.074E-02    0   0.9966   age045_m52            0.0000     1.3483E-04    26.0165   1.8869    82.4572
 20      0.0000     0.0000E+00    0.0000E+00    5.010000E+06  0.00800  2.668E-02    0   0.9443   age055_m52            0.0000     1.3046E-04    25.2653   1.6639    84.0718
 21      3.3273     1.3904E-01    1.9856E-01    6.610000E+06  0.00800  2.136E-02    0   0.9177   age061_m52            0.0000     1.1766E-04    22.8384   0.4946    89.2385
 22      0.0000     0.0000E+00    0.0000E+00    1.000000E+07  0.00800  1.215E-02    0   0.8827   age070_m52            0.0000     1.3331E-04    22.0824   1.3031    83.7989
 23      0.0000     0.0000E+00    0.0000E+00    1.445000E+07  0.00800  8.717E-03    0   0.8552   age078_m52            0.0000     1.3459E-04    22.6609   1.3844    83.4355
 24      0.0000     0.0000E+00    0.0000E+00    2.512000E+07  0.00800  5.592E-03    0   0.8162   age090_m52            0.0000     1.5229E-04    21.3524   1.1058    84.0459
 25      0.0000     0.0000E+00    0.0000E+00    4.000000E+07  0.00800  3.896E-03    0   0.7841   age104_m52            0.0000     1.4886E-04    21.1371   1.0163    84.7664
 26      0.0000     0.0000E+00    0.0000E+00    1.015200E+08  0.00800  2.148E-03    0   0.7226   age116_m52            0.0000     1.2065E-04    21.8692   0.8441    88.0058
 27      5.9233     5.3269E+00    5.5399E+00    2.861200E+08  0.00800  9.925E-04    0   0.6683   age125_m52            0.0000     1.2223E-04    21.0247   0.3621    91.7465
 28      1.0871     3.0892E+00    2.9508E+00    9.047900E+08  0.00800  3.141E-04    0   0.6138   age135_m52            0.0000     1.1012E-04    21.0012  -0.5302    99.5349
 29      0.0000     0.0000E+00    0.0000E+00    1.434000E+09  0.00800  1.719E-04    0   0.5853   age139_m52            0.0000     1.3201E-04    20.5099  -1.0000    92.6251
 30      0.0000     0.0000E+00    0.0000E+00    2.500000E+09  0.00800  7.872E-05    0   0.5600   age150_m52            0.0000     1.5916E-04    20.1331  -1.0000    79.4524
 31      0.4704     9.6830E+00    8.1762E+00    4.250000E+09  0.00800  4.336E-05    0   0.5426   age158_m52            0.0000     1.5712E-04    20.2018  -1.0000    78.1353
 32      0.0000     0.0000E+00    0.0000E+00    6.250000E+09  0.00800  3.159E-05    0   0.5319   age166_m52            0.0000     2.0203E-04    20.0968  -1.0000    71.4463
 33      0.0000     0.0000E+00    0.0000E+00    1.300000E+10  0.00800  1.361E-05    0   0.5073   age193_m52            0.0000     2.9801E-04    20.3325  -1.0000    58.0297
 34      0.0000     0.0000E+00    0.0000E+00    1.800000E+10  0.00800  9.886E-06    0   0.4990   age213_m52            0.0000     3.1947E-04    20.7276  -1.0000    54.9481
 35      1.0311     5.9604E-02    9.2754E-02    1.000000E+06  0.02000  1.544E-02    0   1.0000   age020_m62            0.0000     1.4434E-04    26.4284   1.9216    83.1280
 36      0.0000     0.0000E+00    0.0000E+00    3.160000E+06  0.02000  3.762E-02    0   0.9858   age045_m62            0.0000     1.4016E-04    26.3161   1.8773    83.1951
 37      0.0000     0.0000E+00    0.0000E+00    5.010000E+06  0.02000  3.296E-02    0   0.9342   age055_m62            0.0000     1.2892E-04    24.6095   1.5868    84.3568
 38      0.0000     0.0000E+00    0.0000E+00    8.710000E+06  0.02000  1.154E-02    0   0.8861   age067_m62            0.0000     4.0906E-04    18.7770   1.2291    73.3371
 39      2.2087     2.5727E-01    3.3918E-01    1.445000E+07  0.02000  7.663E-03    0   0.8472   age078_m62            0.0000     1.7112E-04    20.6207   1.0724    82.7077
 40      0.0000     0.0000E+00    0.0000E+00    2.512000E+07  0.02000  4.532E-03    0   0.8099   age090_m62            0.0000     2.0618E-04    20.0123   1.1332    80.4539
 41      0.9273     3.0284E-01    3.5793E-01    5.500000E+07  0.02000  2.733E-03    0   0.7595   age110_m62            0.0000     2.0468E-04    20.9195   1.0574    81.9107
 42      2.6161     1.7056E+00    1.8540E+00    1.609000E+08  0.02000  1.369E-03    0   0.6985   age120_m62            0.0000     2.3623E-04    20.6109   0.8943    83.7487
 43      0.0000     0.0000E+00    0.0000E+00    2.861200E+08  0.02000  9.013E-04    0   0.6714   age125_m62            0.0000     2.9718E-04    19.9218   0.7029    84.0810
 44      7.2219     1.2820E+01    1.2866E+01    5.088000E+08  0.02000  5.028E-04    0   0.6449   age130_m62            0.0000     2.6701E-04    20.3051   0.2329    89.2151
 45      0.0000     0.0000E+00    0.0000E+00    9.047900E+08  0.02000  2.428E-04    0   0.6179   age135_m62            0.0000     2.8305E-04    20.4441  -0.4040    90.3925
 46      0.0000     0.0000E+00    0.0000E+00    1.434000E+09  0.02000  1.263E-04    0   0.5908   age139_m62            0.0000     3.4278E-04    20.6287  -0.8316    88.0491
 47      0.2793     4.1657E+00    3.6776E+00    2.500000E+09  0.02000  5.985E-05    0   0.5673   age150_m62            0.0000     4.6421E-04    20.3550  -0.9981    79.3594
 48      0.0674     1.8405E+00    1.5661E+00    4.250000E+09  0.02000  3.271E-05    0   0.5468   age158_m62            0.0000     6.4661E-04    20.7183  -1.0000    68.5023
 49      0.0000     0.0000E+00    0.0000E+00    1.000000E+10  0.02000  1.360E-05    0   0.5167   age181_m62            0.0000     8.7717E-04    21.1716  -1.0000    58.6707
 50      0.0000     0.0000E+00    0.0000E+00    1.800000E+10  0.02000  7.124E-06    0   0.5013   age213_m62            0.0000     9.8485E-04    21.6086  -0.9991    53.0666
 51      0.5578     1.9208E-02    2.9885E-02    1.000000E+06  0.05000  2.592E-02    0   0.9998   age020_m72            0.0000     1.4286E-04    25.8627   2.0148    79.7297
 52      0.0000     0.0000E+00    0.0000E+00    3.160000E+06  0.05000  4.845E-02    0   0.9577   age045_m72            0.0000     1.4157E-04    25.3142   1.8558    81.1597
 53      0.0000     0.0000E+00    0.0000E+00    5.010000E+06  0.05000  3.072E-02    0   0.9147   age055_m72            0.0000     1.2626E-04    22.6822   1.4832    84.2781
 54      0.0000     0.0000E+00    0.0000E+00    6.610000E+06  0.05000  1.455E-02    0   0.8877   age061_m72            0.0000     1.2962E-04    19.3120   1.0583    84.4510
 55      2.7484     2.7035E-01    3.5862E-01    1.000000E+07  0.05000  9.074E-03    0   0.8524   age070_m72            0.0000     1.3096E-04    22.8752   1.6266    85.9692
 56      0.0000     0.0000E+00    0.0000E+00    2.512000E+07  0.05000  4.250E-03    0   0.7902   age090_m72            0.0000     1.3971E-04    21.3245   1.4606    83.0265
 57      0.0000     0.0000E+00    0.0000E+00    4.000000E+07  0.05000  3.087E-03    0   0.7618   age104_m72            0.0000     1.8843E-04    20.1611   1.3401    81.3502
 58      2.5006     1.3129E+00    1.4498E+00    1.015200E+08  0.05000  1.700E-03    0   0.7096   age116_m72            0.0000     3.2789E-04    19.5746   1.1893    79.0016
 59      4.7455     5.7363E+00    5.9211E+00    2.861200E+08  0.05000  7.384E-04    0   0.6633   age125_m72            0.0000     3.7477E-04    19.4554   0.6106    84.0122
 60      3.1519     7.3664E+00    7.3045E+00    5.088000E+08  0.05000  3.819E-04    0   0.6372   age130_m72            0.0000     3.6923E-04    20.0245   0.0429    87.2920
 61      0.0000     0.0000E+00    0.0000E+00    9.047900E+08  0.05000  1.676E-04    0   0.6110   age135_m72            0.0000     3.9249E-04    20.8142  -0.7620    89.1431
 62      0.0000     0.0000E+00    0.0000E+00    1.434000E+09  0.05000  8.837E-05    0   0.5874   age139_m72            0.0000     4.4893E-04    20.1630  -0.9977    80.6980
 63      0.0000     0.0000E+00    0.0000E+00    2.500000E+09  0.05000  4.233E-05    0   0.5598   age150_m72            0.0000     8.4376E-04    20.6590  -1.0000    69.1852
 64      0.0000     0.0000E+00    0.0000E+00    6.250000E+09  0.05000  1.435E-05    0   0.5249   age166_m72            0.0000     8.2555E-04    21.2631  -1.0000    56.0923
 65      0.0000     0.0000E+00    0.0000E+00    1.300000E+10  0.05000  6.513E-06    0   0.5036   age193_m72            0.0000     1.1720E-03    21.8282  -0.9981    50.0489
 66      0.0000     0.0000E+00    0.0000E+00    1.800000E+10  0.05000  4.527E-06    0   0.4945   age213_m72            0.0000     1.3558E-03    22.0820  -1.0000    46.6502


## Synthesis Results - Average & Chains ##

# j      x_j: min, <> & last-chain-values for 1 ...  7 chains
  1      0.0000      0.3530      1.1443      0.0000      0.0000      0.2379      0.0721      0.3781      0.0000
  2      1.2353      0.3324      0.0000      0.3571      0.0000      0.0000      0.0000      0.3537      1.1520
  3      0.0000      0.5229      0.4561      0.0000      1.4776      0.0000      0.6292      1.1068      0.0000
  4      0.0000      0.3577      0.0000      0.4205      0.0000      0.3200      0.6272      0.0000      0.0000
  5      2.1098      1.7351      2.4431      3.1911      0.0000      0.0000      1.7508      0.0000      2.3136
  6      0.0000      0.8634      0.4852      0.0000      2.7042      0.8092      1.1124      1.0458      0.0328
  7      0.0000      0.6091      0.0000      0.4412      0.6416      0.0000      0.0000      0.9371      0.0000
  8      2.1579      4.7482      1.1489      4.4731      2.4478      4.3266      4.8232      1.9598      0.7840
  9      2.7201      2.8477      4.1072      2.9260      0.0000      2.6336      3.9874      0.7889      6.2727
 10      4.5029      1.9681      0.3738      6.1037      0.0000      2.4770      2.3955      6.6716      1.2542
 11     37.1137     18.0133     22.9824     18.1318     36.9446     19.2688     19.4301     24.3193     19.3334
 12      8.8588     13.5776     16.2362     19.7232      5.6774     15.7547     14.6416     18.2045     15.8368
 13      0.0000      0.3653      0.1311      0.4472      1.1283      0.0000      0.1238      0.0000      0.3881
 14      0.0000      0.0712      0.0000      0.0880      0.0000      0.0000      0.0000      0.0000      0.2257
 15      0.0000      0.0370      0.2690      0.0321      0.0000      0.0000      0.0000      0.0000      0.0000
 16      0.0000      0.0323      0.0000      0.0000      0.0000      0.0000      0.0373      0.0000      0.0000
 17      0.0056      0.0396      0.0000      0.0000      0.0000      0.0000      0.0000      0.0000      0.5006
 18      0.0000      0.2967      0.1842      0.0000      0.0000      0.0000      0.2107      0.0000      0.0000
 19      0.0000      0.1618      1.1026      0.0000      0.0000      0.0000      0.0418      0.0000      0.0000
 20      0.0000      0.2168      0.1317      0.3150      0.0000      0.0000      0.0000      0.0000      0.0000
 21      3.3273      4.2419      3.7307      3.0857      0.0000      6.3138      1.8842      0.0000      7.7142
 22      0.0000      0.5217      1.5255      0.3659      0.0000      0.7389      0.0000      1.4600      0.0000
 23      0.0000      0.4100      0.0000      0.1018      0.0000      0.0000      0.2245      0.0000      0.3101
 24      0.0000      0.9225      1.7639      0.9633      0.0000      1.5052      1.0495      0.5144      0.0000
 25      0.0000      1.6541      0.7894      0.0000      0.0000      0.4812      0.7432      0.8959      0.0000
 26      0.0000      2.0212      0.3189      3.3484      9.1435      1.9721      0.9203      2.9458      0.0000
 27      5.9233      7.7361     11.7428      3.7185     10.8894      9.2105      9.7276     16.1957      8.2409
 28      1.0871      1.5321      1.5748      1.2750      0.2853      1.5957      1.3839      0.5463      1.1093
 29      0.0000      0.1667      0.0000      0.0942      0.0000      0.5647      0.0000      0.0000      0.0000
 30      0.0000      0.1504      0.0000      0.4441      0.3744      0.0000      0.0201      0.0000      0.1411
 31      0.4704      0.2329      0.0000      0.0000      0.4346      0.0000      0.3958      0.0000      0.6618
 32      0.0000      0.0555      0.0000      0.0000      0.0000      0.0000      0.0000      0.0000      0.0000
 33      0.0000      0.0363      0.1545      0.0000      0.0000      0.0000      0.0934      0.0000      0.0000
 34      0.0000      0.6621      0.8556      0.5903      0.0000      0.3106      0.5256      0.0000      0.0000
 35      1.0311      0.2171      0.4041      0.0000      0.0000      0.0000      0.0000      0.0000      0.6298
 36      0.0000      0.3142      0.0000      1.0525      0.0000      0.0000      0.7223      0.0000      0.0000
 37      0.0000      0.1997      0.7279      0.0000      0.2541      0.0000      0.0000      0.0000      0.2444
 38      0.0000      2.3925      0.0000      0.2547      7.4510      1.9650      0.0000      0.0000      0.0000
 39      2.2087      1.7190      4.2270      1.6391      0.0000      1.3096      5.4096      0.0000      2.0360
 40      0.0000      2.1817      0.0000      2.1792      3.2430      2.8241      2.7218      0.7114      0.0000
 41      0.9273      1.1815      1.7856      0.1571      0.0000      0.0000      1.1144      0.0000      0.4258
 42      2.6161      2.5731      2.7440      3.6368      0.0000      3.0119      1.4540      0.0000      1.4195
 43      0.0000      2.5811      1.6273      1.9032      1.5118      2.5368      2.1565      0.0000      0.0000
 44      7.2219      3.0111      0.0000      2.1567      6.6492      3.9691      3.4243      4.1729      3.8144
 45      0.0000      0.6274      0.0388      1.1331      1.8904      0.0000      1.4610      0.0229      0.0000
 46      0.0000      0.1124      0.0000      0.4866      0.9911      0.0000      0.0000      0.0000      0.0000
 47      0.2793      0.0939      0.0000      0.0000      0.2705      0.0000      0.0000      0.0358      0.6273
 48      0.0674      0.0648      0.0000      0.0000      0.0000      0.0000      0.0000      0.0000      0.7920
 49      0.0000      0.0074      0.0000      0.0000      0.0000      0.0000      0.0523      0.0328      0.0276
 50      0.0000      0.0067      0.0000      0.0000      0.0000      0.0000      0.0000      0.0000      0.0000
 51      0.5578      0.1889      0.0000      0.0000      0.0000      0.7789      0.1553      0.0000      0.4261
 52      0.0000      0.1341      0.0000      0.0000      0.0000      0.4072      0.0000      0.0000      0.0000
 53      0.0000      0.6675      0.2073      0.7390      4.1375      0.3972      0.3851      1.8553      0.0000
 54      0.0000      1.3328      1.0611      0.4852      0.0000      1.2609      1.6861      0.0000      0.0000
 55      2.7484      0.2677      0.0000      0.0000      0.0000      0.1888      0.0000      0.7643      1.6939
 56      0.0000      1.1619      2.4146      1.6674      0.0000      1.2426      0.5223      3.6112      0.1629
 57      0.0000      0.3693      0.0000      0.0000      0.0000      0.2640      0.4088      1.3226      0.1466
 58      2.5006      2.7141      2.1298      2.3050      0.0000      0.1061      2.3904      5.0922      1.1355
 59      4.7455      3.6933      4.8168      6.4041      1.3630      7.4880      3.6441      2.9267      9.0854
 60      3.1519      2.3765      2.5095      1.2296      0.0000      1.3045      2.1203      1.6896      2.7853
 61      0.0000      0.1124      0.0000      0.0000      0.0000      0.3657      0.3609      0.0000      0.0000
 62      0.0000      0.0283      0.0000      0.0000      0.0000      0.0000      0.1378      0.0000      0.0000
 63      0.0000      0.0196      0.0000      0.0000      0.0000      0.0000      0.0000      0.0000      0.0000
 64      0.0000      0.0084      0.0000      0.0000      0.0000      0.0000      0.0000      0.0000      0.0000
 65      0.0000      0.1466      0.1187      0.0000      0.0000      0.1125      0.2648      0.0000      0.0000
 66      0.0000      0.0197      0.0000      0.0000      0.0000      0.0000      0.0000      0.0000      0.0000

# j      m_j: min, <> & last-chain-values for 1 ...  7 chains
  1  0.0000E+00  2.7445E-02  8.7670E-02  0.0000E+00  0.0000E+00  2.5174E-02  5.4877E-03  5.3486E-02  0.0000E+00
  2  4.2816E-02  7.0557E-03  0.0000E+00  9.1658E-03  0.0000E+00  0.0000E+00  0.0000E+00  1.3658E-02  2.7148E-02
  3  0.0000E+00  1.6619E-02  1.4286E-02  0.0000E+00  7.3392E-02  0.0000E+00  1.9581E-02  6.4006E-02  0.0000E+00
  4  0.0000E+00  1.0706E-02  0.0000E+00  1.5219E-02  0.0000E+00  1.3035E-02  1.8379E-02  0.0000E+00  0.0000E+00
  5  1.9644E-01  9.8928E-02  1.3727E-01  2.2003E-01  0.0000E+00  0.0000E+00  9.7730E-02  0.0000E+00  1.4646E-01
  6  0.0000E+00  7.9844E-02  4.4219E-02  0.0000E+00  3.9081E-01  1.0184E-01  1.0072E-01  1.7596E-01  3.3695E-03
  7  0.0000E+00  8.0646E-02  0.0000E+00  7.0646E-02  1.3275E-01  0.0000E+00  0.0000E+00  2.2575E-01  0.0000E+00
  8  6.4489E-01  8.6890E-01  2.0718E-01  9.8992E-01  7.0004E-01  1.0776E+00  8.6414E-01  6.5251E-01  1.5930E-01
  9  9.3039E-01  5.9645E-01  8.4771E-01  7.4115E-01  0.0000E+00  7.5073E-01  8.1767E-01  3.0062E-01  1.4587E+00
 10  2.0231E+00  5.4147E-01  1.0133E-01  2.0308E+00  0.0000E+00  9.2751E-01  6.4526E-01  3.3397E+00  3.8313E-01
 11  3.1355E+01  9.3187E+00  1.1716E+01  1.1344E+01  2.9869E+01  1.3567E+01  9.8412E+00  2.2890E+01  1.1105E+01
 12  1.1872E+01  1.1142E+01  1.3130E+01  1.9573E+01  7.2811E+00  1.7596E+01  1.1764E+01  2.7181E+01  1.4430E+01
 13  0.0000E+00  8.4495E-01  2.9884E-01  1.2508E+00  4.0787E+00  0.0000E+00  2.8045E-01  0.0000E+00  9.9667E-01
 14  0.0000E+00  5.5261E-01  0.0000E+00  8.2552E-01  0.0000E+00  0.0000E+00  0.0000E+00  0.0000E+00  1.9443E+00
 15  0.0000E+00  4.6668E-01  3.3473E+00  4.9025E-01  0.0000E+00  0.0000E+00  0.0000E+00  0.0000E+00  0.0000E+00
 16  0.0000E+00  6.8947E-01  0.0000E+00  0.0000E+00  0.0000E+00  0.0000E+00  7.8071E-01  0.0000E+00  0.0000E+00
 17  2.5227E-01  1.0966E+00  0.0000E+00  0.0000E+00  0.0000E+00  0.0000E+00  0.0000E+00  0.0000E+00  1.5397E+01
 18  0.0000E+00  2.0385E-02  1.2471E-02  0.0000E+00  0.0000E+00  0.0000E+00  1.4171E-02  0.0000E+00  0.0000E+00
 19  0.0000E+00  4.4604E-03  2.9961E-02  0.0000E+00  0.0000E+00  0.0000E+00  1.1279E-03  0.0000E+00  0.0000E+00
 20  0.0000E+00  6.5249E-03  3.9068E-03  1.1468E-02  0.0000E+00  0.0000E+00  0.0000E+00  0.0000E+00  0.0000E+00
 21  1.9856E-01  1.5501E-01  1.3434E-01  1.3636E-01  0.0000E+00  3.1401E-01  6.7411E-02  0.0000E+00  3.1298E-01
 22  0.0000E+00  3.2239E-02  9.2888E-02  2.7346E-02  0.0000E+00  6.2144E-02  0.0000E+00  1.6414E-01  0.0000E+00
 23  0.0000E+00  3.4213E-02  0.0000E+00  1.0268E-02  0.0000E+00  0.0000E+00  1.8343E-02  0.0000E+00  2.8733E-02
 24  0.0000E+00  1.1452E-01  2.1579E-01  1.4462E-01  0.0000E+00  2.5432E-01  1.2756E-01  1.1618E-01  0.0000E+00
 25  0.0000E+00  2.8315E-01  1.3316E-01  0.0000E+00  0.0000E+00  1.1211E-01  1.2455E-01  2.7903E-01  0.0000E+00
 26  0.0000E+00  5.7830E-01  8.9928E-02  1.1586E+00  4.0886E+00  7.6794E-01  2.5781E-01  1.5336E+00  0.0000E+00
 27  5.5399E+00  4.4305E+00  6.6272E+00  2.5754E+00  9.7463E+00  7.1791E+00  5.4544E+00  1.6876E+01  5.2402E+00
 28  2.9508E+00  2.5465E+00  2.5792E+00  2.5627E+00  7.4105E-01  3.6096E+00  2.2520E+00  1.6520E+00  2.0471E+00
 29  0.0000E+00  4.8267E-01  0.0000E+00  3.2990E-01  0.0000E+00  2.2256E+00  0.0000E+00  0.0000E+00  0.0000E+00
 30  0.0000E+00  9.0994E-01  0.0000E+00  3.2493E+00  3.5405E+00  0.0000E+00  1.1914E-01  0.0000E+00  9.4816E-01
 31  8.1762E+00  2.4790E+00  0.0000E+00  0.0000E+00  7.2283E+00  0.0000E+00  4.1242E+00  0.0000E+00  7.8208E+00
 32  0.0000E+00  7.9489E-01  0.0000E+00  0.0000E+00  0.0000E+00  0.0000E+00  0.0000E+00  0.0000E+00  0.0000E+00
 33  0.0000E+00  1.1524E+00  4.8278E+00  0.0000E+00  0.0000E+00  0.0000E+00  2.8986E+00  0.0000E+00  0.0000E+00
 34  0.0000E+00  2.8426E+01  3.6195E+01  3.0645E+01  0.0000E+00  1.8147E+01  2.2090E+01  0.0000E+00  0.0000E+00
 35  9.2754E-02  1.1962E-02  2.1937E-02  0.0000E+00  0.0000E+00  0.0000E+00  0.0000E+00  0.0000E+00  3.8522E-02
 36  0.0000E+00  7.0030E-03  0.0000E+00  2.8367E-02  0.0000E+00  0.0000E+00  1.5762E-02  0.0000E+00  0.0000E+00
 37  0.0000E+00  4.8140E-03  1.7292E-02  0.0000E+00  9.5726E-03  0.0000E+00  0.0000E+00  0.0000E+00  6.5428E-03
 38  0.0000E+00  1.5625E-01  0.0000E+00  2.0114E-02  7.6047E-01  1.7465E-01  0.0000E+00  0.0000E+00  0.0000E+00
 39  3.3918E-01  1.6165E-01  3.9169E-01  1.8639E-01  0.0000E+00  1.6761E-01  4.9803E-01  0.0000E+00  2.1256E-01
 40  0.0000E+00  3.3161E-01  0.0000E+00  4.0057E-01  7.7034E-01  5.8420E-01  4.0504E-01  1.9675E-01  0.0000E+00
 41  3.5793E-01  2.7926E-01  4.1590E-01  4.4895E-02  0.0000E+00  0.0000E+00  2.5788E-01  0.0000E+00  1.1175E-01
 42  1.8540E+00  1.1166E+00  1.1734E+00  1.9086E+00  0.0000E+00  1.7789E+00  6.1776E-01  0.0000E+00  6.8397E-01
 43  0.0000E+00  1.6353E+00  1.0160E+00  1.4582E+00  1.4969E+00  2.1875E+00  1.3377E+00  0.0000E+00  0.0000E+00
 44  1.2866E+01  3.2848E+00  0.0000E+00  2.8452E+00  1.1336E+01  5.8929E+00  3.6574E+00  8.2827E+00  4.6202E+00
 45  0.0000E+00  1.3580E+00  8.2849E-02  2.9661E+00  6.3945E+00  0.0000E+00  3.0962E+00  9.0020E-02  0.0000E+00
 46  0.0000E+00  4.4705E-01  0.0000E+00  2.3413E+00  6.1624E+00  0.0000E+00  0.0000E+00  0.0000E+00  0.0000E+00
 47  3.6776E+00  7.5694E-01  0.0000E+00  0.0000E+00  3.4087E+00  0.0000E+00  0.0000E+00  5.2481E-01  5.6147E+00
 48  1.5661E+00  9.2166E-01  0.0000E+00  0.0000E+00  0.0000E+00  0.0000E+00  0.0000E+00  0.0000E+00  1.2503E+01
 49  0.0000E+00  2.4023E-01  0.0000E+00  0.0000E+00  0.0000E+00  0.0000E+00  1.6540E+00  1.9267E+00  9.8874E-01
 50  0.0000E+00  4.0253E-01  0.0000E+00  0.0000E+00  0.0000E+00  0.0000E+00  0.0000E+00  0.0000E+00  0.0000E+00
 51  2.9885E-02  6.1979E-03  0.0000E+00  0.0000E+00  0.0000E+00  3.4778E-02  4.9869E-03  0.0000E+00  1.5519E-02
 52  0.0000E+00  2.2549E-03  0.0000E+00  0.0000E+00  0.0000E+00  9.3184E-03  0.0000E+00  0.0000E+00  0.0000E+00
 53  0.0000E+00  1.6904E-02  5.1736E-03  2.2634E-02  1.6375E-01  1.3689E-02  9.5478E-03  8.5486E-02  0.0000E+00
 54  0.0000E+00  6.9163E-02  5.4262E-02  3.0451E-02  0.0000E+00  8.9051E-02  8.5662E-02  0.0000E+00  0.0000E+00
 55  3.5862E-01  2.1387E-02  0.0000E+00  0.0000E+00  0.0000E+00  2.0531E-02  0.0000E+00  1.1110E-01  1.5026E-01
 56  0.0000E+00  1.8375E-01  3.7628E-01  3.1888E-01  0.0000E+00  2.6744E-01  8.0871E-02  1.0390E+00  2.8596E-02
 57  0.0000E+00  7.7511E-02  0.0000E+00  0.0000E+00  0.0000E+00  7.5403E-02  8.4001E-02  5.0508E-01  3.4156E-02
 58  1.4498E+00  9.6357E-01  7.4512E-01  9.8962E-01  0.0000E+00  5.1244E-02  8.3088E-01  3.2893E+00  4.4761E-01
 59  5.9211E+00  2.8218E+00  3.6266E+00  5.9171E+00  1.6275E+00  7.7863E+00  2.7259E+00  4.0684E+00  7.7071E+00
 60  7.3045E+00  3.3725E+00  3.5094E+00  2.1103E+00  0.0000E+00  2.5195E+00  2.9460E+00  4.3627E+00  4.3887E+00
 61  0.0000E+00  3.4839E-01  0.0000E+00  0.0000E+00  0.0000E+00  1.5433E+00  1.0956E+00  0.0000E+00  0.0000E+00
 62  0.0000E+00  1.5992E-01  0.0000E+00  0.0000E+00  0.0000E+00  0.0000E+00  7.6262E-01  0.0000E+00  0.0000E+00
 63  0.0000E+00  2.2013E-01  0.0000E+00  0.0000E+00  0.0000E+00  0.0000E+00  0.0000E+00  0.0000E+00  0.0000E+00
 64  0.0000E+00  2.6093E-01  0.0000E+00  0.0000E+00  0.0000E+00  0.0000E+00  0.0000E+00  0.0000E+00  0.0000E+00
 65  0.0000E+00  9.6436E+00  7.6912E+00  0.0000E+00  0.0000E+00  1.0073E+01  1.7050E+01  0.0000E+00  0.0000E+00
 66  0.0000E+00  1.8263E+00  0.0000E+00  0.0000E+00  0.0000E+00  0.0000E+00  0.0000E+00  0.0000E+00  0.0000E+00

# AV, chi2 & Mass for <> & i_chain = 1 ...  7 solutions
AV       0.2383      0.2419      0.2391      0.2414      0.1726      0.2427      0.2360      0.2460      0.3122
chi2 1.1825E-04  1.3453E-04  1.2252E-04  1.2012E-04  1.2538E-04  1.2316E-04  1.2197E-04  1.2373E-04  1.1580E-04
Mass 2.6696E-14  4.3807E-14  4.4285E-14  3.6198E-14  2.5540E-14  3.2219E-14  4.4391E-14  2.4210E-14  4.3359E-14
   0.00                                  [v0_min (km/s) before EX0s...]
 181.73                                  [vd_min (km/s) before EX0s...]


## Synthetic spectrum (Best Model) ##l_obs f_obs f_syn wei
 3478    [Nl_obs]
 3741.00    0.00000   0.64341    0.000
 3742.00    0.00000   0.64802    0.000
 3743.00    0.00000   0.63977    0.000
 3744.00    0.00000   0.62098    0.000
 3745.00    0.00000   0.59351    0.000
 3746.00    0.00000   0.56023    0.000
 3747.00    0.00000   0.52538    0.000
 3748.00    0.00000   0.49400    0.000
 3749.00    0.00000   0.47296    0.000
 3750.00    0.00000   0.46861    0.000
 3751.00    0.00000   0.48276    0.000
 3752.00    0.00000   0.51173    0.000
 3753.00    0.00000   0.54915    0.000
 3754.00    0.00000   0.58851    0.000
 3755.00    0.00000   0.62403    0.000
 3756.00    0.00000   0.65250    0.000
 3757.00    0.00000   0.67326    0.000
 3758.00    0.00000   0.68793    0.000
 3759.00    0.00000   0.69898    0.000
 3760.00    0.00000   0.70708    0.000
 3761.00    0.00000   0.71122    0.000
 3762.00    0.00000   0.70966    0.000
 3763.00    0.00000   0.69987    0.000
 3764.00    0.00000   0.68050    0.000
 3765.00    0.00000   0.65220    0.000
 3766.00    0.00000   0.61640    0.000
 3767.00    0.00000   0.57672    0.000
 3768.00    0.00000   0.53860    0.000
 3769.00    0.00000   0.50776    0.000
 3770.00    0.00000   0.49009    0.000
 3771.00    0.00000   0.49046    0.000
 3772.00    0.00000   0.50954    0.000
 3773.00    0.00000   0.54302    0.000
 3774.00    0.00000   0.58440    0.000
 3775.00    0.00000   0.62782    0.000
 3776.00    0.00000   0.66964    0.000
 3777.00    0.00000   0.70827    0.000
 3778.00    0.00000   0.74251    0.000
 3779.00    0.00000   0.77187    0.000
 3780.00    0.00000   0.79593    0.000
 3781.00    0.00000   0.81428    0.000
 3782.00    0.00000   0.82675    0.000
 3783.00    0.00000   0.83307    0.000
 3784.00    0.00000   0.83291    0.000
 3785.00    0.00000   0.82606    0.000
 3786.00    0.00000   0.81333    0.000
 3787.00    0.00000   0.79654    0.000
 3788.00    0.00000   0.77694    0.000
 3789.00    0.00000   0.75487    0.000
 3790.00    0.00000   0.72953    0.000
 3791.00    0.00000   0.69959    0.000
 3792.00    0.00000   0.66394    0.000
 3793.00    0.00000   0.62249    0.000
 3794.00    0.00000   0.57736    0.000
 3795.00    0.00000   0.53338    0.000
 3796.00    0.00000   0.49649    0.000
 3797.00    0.00000   0.47258    0.000
 3798.00    0.00000   0.46678    0.000
 3799.00    0.00000   0.48098    0.000
 3800.00    0.00000   0.51264    0.000
 3801.00    0.00000   0.55545    0.000
 3802.00    0.00000   0.60254    0.000
 3803.00    0.00000   0.64868    0.000
 3804.00    0.00000   0.69019    0.000
 3805.00    0.00000   0.72598    0.000
 3806.00    0.00000   0.75691    0.000
 3807.00    0.00000   0.78434    0.000
 3808.00    0.00000   0.80873    0.000
 3809.00    0.00000   0.82938    0.000
 3810.00    0.00000   0.84497    0.000
 3811.00    0.00000   0.85448    0.000
 3812.00    0.00000   0.85841    0.000
 3813.00    0.00000   0.85872    0.000
 3814.00    0.00000   0.85754    0.000
 3815.00    0.22980   0.85593    0.273
 3816.00    0.53183   0.85368    0.118
 3817.00    0.49102   0.85002    0.110
 3818.00    0.36027   0.84449    0.117
 3819.00    0.50974   0.83776    0.115
 3820.00    0.71924   0.83158    0.110
 3821.00    0.95360   0.82648    0.113
 3822.00    1.19218   0.82057    0.116
 3823.00    1.08869   0.81125    0.116
 3824.00    0.94130   0.79660    0.115
 3825.00    0.91701   0.77652    0.112
 3826.00    0.90378   0.75185    0.109
 3827.00    0.87881   0.72309    0.123
 3828.00    0.85322   0.69062    0.143
 3829.00    0.50004   0.65442    0.120
 3830.00    0.14375   0.61428    0.104
 3831.00    0.07870   0.57058    0.103
 3832.00    0.01927   0.52567    0.102
 3833.00    0.08487   0.48454    0.100
 3834.00    0.14331   0.45318    0.099
 3835.00    0.11263   0.43709    0.100
 3836.00    0.07256   0.43968    0.101
 3837.00   -0.04680   0.46020    0.000
 3838.00   -0.15379   0.49473    0.000
 3839.00   -0.18292   0.53798    0.000
 3840.00   -0.12138   0.58488    0.000
 3841.00    0.38761   0.63199    0.098
 3842.00    0.82040   0.67697    0.099
 3843.00    0.94819   0.71814    0.104
 3844.00    1.01872   0.75429    0.109
 3845.00    0.89890   0.78486    0.113
 3846.00    0.81842   0.81033    0.116
 3847.00    0.84845   0.83140    0.000
 3848.00    0.73605   0.84888    0.000
 3849.00    0.28155   0.86333    0.000
 3850.00    0.13491   0.87543    0.000
 3851.00    0.62675   0.88550    0.000
 3852.00    0.96513   0.89326    0.000
 3853.00    1.02670   0.89863    0.000
 3854.00    1.01619   0.90151    0.000
 3855.00    0.89202   0.90247    0.000
 3856.00    0.89182   0.90241    0.000
 3857.00    1.06324   0.90237    0.000
 3858.00    1.00672   0.90286    0.000
 3859.00    0.67244   0.90418    0.000
 3860.00    0.67340   0.90677    0.000
 3861.00    1.03445   0.91082    0.000
 3862.00    1.08529   0.91522    0.000
 3863.00    0.84221   0.91864    0.000
 3864.00    0.70825   0.92041    0.000
 3865.00    0.66546   0.92022    0.000
 3866.00    0.85705   0.91841    0.000
 3867.00    1.22105   0.91540    0.000
 3868.00    1.16921   0.91104    0.000
 3869.00    0.84877   0.90480    0.000
 3870.00    0.57430   0.89645    0.000
 3871.00    0.32581   0.88656    0.000
 3872.00    0.19387   0.87640    0.000
 3873.00    0.11927   0.86678    0.000
 3874.00    0.14402   0.85743    0.000
 3875.00    0.21102   0.84709    0.000
 3876.00    0.28985   0.83404    0.000
 3877.00    0.37300   0.81733    0.000
 3878.00    0.50733   0.79732    0.000
 3879.00    0.65744   0.77493    0.000
 3880.00    0.63983   0.75034    0.000
 3881.00    0.57917   0.72259    0.098
 3882.00    0.47746   0.69050    0.095
 3883.00    0.36717   0.65371    0.091
 3884.00    0.51721   0.61245    0.097
 3885.00    0.71018   0.56796    0.105
 3886.00    0.71780   0.52393    0.101
 3887.00    0.70246   0.48616    0.097
 3888.00    0.38466   0.46102    0.095
 3889.00    0.04098   0.45371    0.094
 3890.00    0.07690   0.46596    0.093
 3891.00    0.13173   0.49475    0.091
 3892.00    0.54450   0.53396    0.096
 3893.00    0.95613   0.57729    0.101
 3894.00    0.91532   0.62009    0.098
 3895.00    0.89746   0.65973    0.097
 3896.00    1.34866   0.69530    0.104
 3897.00    1.73552   0.72681    0.111
 3898.00    1.36145   0.75422    0.102
 3899.00    1.01499   0.77799    0.095
 3900.00    0.89343   0.79887    0.093
 3901.00    0.78100   0.81720    0.091
 3902.00    0.72424   0.83296    0.088
 3903.00    0.69114   0.84639    0.085
 3904.00    0.77191   0.85797    0.083
 3905.00    0.76610   0.86839    0.081
 3906.00    0.42124   0.87889    0.079
 3907.00    0.19754   0.89034    0.078
 3908.00    0.36875   0.90233    0.080
 3909.00    0.42188   0.91355    0.082
 3910.00    0.14937   0.92266    0.081
 3911.00    0.07306   0.92883    0.081
 3912.00    0.46011   0.93198    0.085
 3913.00    0.73194   0.93276    0.088
 3914.00    0.76865   0.93217    0.089
 3915.00    0.72577   0.93090    0.090
 3916.00    0.54152   0.92885    0.090
 3917.00    0.47119   0.92610    0.090
 3918.00    0.57788   0.92283    0.090
 3919.00    0.60523   0.91964    0.089
 3920.00    0.52432   0.91730    0.088
 3921.00    0.41431   0.91623    0.088
 3922.00    0.26933   0.91590    0.088
 3923.00    0.23786   0.91485    0.088
 3924.00    0.32661   0.91183    0.087
 3925.00    0.37488   0.90599    0.088
 3926.00    0.38535   0.89691    0.090
 3927.00    0.37129   0.88481    0.090
 3928.00    0.33702   0.86966    0.088
 3929.00    0.37535   0.85123    0.088
 3930.00    0.46630   0.83021    0.089
 3931.00    0.37634   0.80838    0.089
 3932.00    0.17125   0.78909    0.090
 3933.00    0.29776   0.77707    0.092
 3934.00    0.60881   0.77634    0.095
 3935.00    0.49068   0.78750    0.094
 3936.00    0.16480   0.80749    0.090
 3937.00    0.28757   0.83109    0.090
 3938.00    0.59791   0.85352    0.092
 3939.00    0.98652   0.87178    0.096
 3940.00    1.40314   0.88498    0.102
 3941.00    1.23969   0.89353    0.100
 3942.00    0.90092   0.89855    0.096
 3943.00    0.75554   0.90149    0.095
 3944.00    0.65874   0.90363    0.094
 3945.00    0.63888   0.90550    0.094
 3946.00    0.63471   0.90678    0.094
 3947.00    0.85495   0.90694    0.095
 3948.00    1.11112   0.90573    0.095
 3949.00    0.99731   0.90303    0.095
 3950.00    0.83932   0.89889    0.095
 3951.00    0.90011   0.89339    0.096
 3952.00    0.97871   0.88657    0.097
 3953.00    1.12960   0.87837    0.096
 3954.00    1.28382   0.86863    0.095
 3955.00    1.01040   0.85686    0.091
 3956.00    0.73484   0.84270    0.087
 3957.00    0.63229   0.82622    0.088
 3958.00    0.54465   0.80724    0.088
 3959.00    0.73939   0.78508    0.090
 3960.00    0.91533   0.75884    0.000
 3961.00    0.87926   0.72801    0.000
 3962.00    0.83753   0.69275    0.000
 3963.00    0.75134   0.65308    0.000
 3964.00    0.70317   0.60892    0.000
 3965.00    0.88066   0.56099    0.000
 3966.00    1.00586   0.51150    0.000
 3967.00    0.88554   0.46473    0.000
 3968.00    0.75805   0.42670    0.000
 3969.00    0.60307   0.40344    0.000
 3970.00    0.48888   0.39914    0.000
 3971.00    0.50508   0.41458    0.000
 3972.00    0.54900   0.44671    0.000
 3973.00    0.66800   0.49015    0.000
 3974.00    0.78989   0.53908    0.000
 3975.00    0.91854   0.58859    0.000
 3976.00    0.95473   0.63533    0.000
 3977.00    0.80525   0.67758    0.000
 3978.00    0.72068   0.71468    0.000
 3979.00    0.74967   0.74650    0.000
 3980.00    0.71831   0.77332    0.000
 3981.00    0.59457   0.79566    0.093
 3982.00    0.65526   0.81436    0.094
 3983.00    0.96396   0.83056    0.095
 3984.00    1.17110   0.84520    0.095
 3985.00    1.25796   0.85878    0.096
 3986.00    1.20734   0.87146    0.095
 3987.00    1.01316   0.88326    0.093
 3988.00    1.06073   0.89405    0.093
 3989.00    1.33096   0.90369    0.095
 3990.00    1.32923   0.91224    0.095
 3991.00    1.10669   0.91978    0.092
 3992.00    0.89451   0.92602    0.091
 3993.00    0.68975   0.93047    0.089
 3994.00    0.63888   0.93287    0.088
 3995.00    0.68450   0.93358    0.088
 3996.00    0.80581   0.93351    0.088
 3997.00    0.96860   0.93381    0.089
 3998.00    0.89436   0.93540    0.087
 3999.00    0.70722   0.93831    0.084
 4000.00    0.63226   0.94155    0.084
 4001.00    0.60340   0.94373    0.084
 4002.00    0.89139   0.94394    0.085
 4003.00    1.29067   0.94217    0.086
 4004.00    1.35529   0.93922    0.087
 4005.00    1.32076   0.93653    0.087
 4006.00    1.26734   0.93550    0.086
 4007.00    1.20927   0.93665    0.085
 4008.00    1.00776   0.93958    0.084
 4009.00    0.77774   0.94348    0.083
 4010.00    0.98385   0.94770    0.084
 4011.00    1.25773   0.95174    0.085
 4012.00    1.43305   0.95515    0.085
 4013.00    1.59703   0.95776    0.085
 4014.00    1.35365   0.95967    0.085
 4015.00    1.07878   0.96107    0.083
 4016.00    1.09956   0.96207    0.086
 4017.00    1.13280   0.96281    0.088
 4018.00    1.05950   0.96325    0.088
 4019.00    0.98690   0.96299    0.087
 4020.00    0.98783   0.96126    0.084
 4021.00    0.99742   0.95749    0.081
 4022.00    1.15982   0.95173    0.084
 4023.00    1.28144   0.94471    0.086
 4024.00    0.96431   0.93772    0.085
 4025.00    0.66840   0.93244    0.084
 4026.00    0.53365   0.93008    0.084
 4027.00    0.43521   0.93056    0.084
 4028.00    0.54620   0.93257    0.084
 4029.00    0.67217   0.93455    0.084
 4030.00    0.86685   0.93581    0.086
 4031.00    1.00000   0.93676    0.087
 4032.00    0.90232   0.93836    0.084
 4033.00    0.87715   0.94143    0.082
 4034.00    1.07929   0.94617    0.084
 4035.00    1.23504   0.95210    0.086
 4036.00    1.26736   0.95823    0.087
 4037.00    1.23409   0.96341    0.087
 4038.00    1.05107   0.96669    0.086
 4039.00    0.86400   0.96760    0.085
 4040.00    0.66893   0.96616    0.084
 4041.00    0.57931   0.96251    0.083
 4042.00    0.67135   0.95692    0.083
 4043.00    0.70949   0.95002    0.084
 4044.00    0.66633   0.94303    0.085
 4045.00    0.80731   0.93774    0.086
 4046.00    1.19240   0.93570    0.089
 4047.00    1.32452   0.93719    0.090
 4048.00    1.16128   0.94104    0.088
 4049.00    1.06309   0.94530    0.087
 4050.00    1.03187   0.94836    0.085
 4051.00    1.11433   0.94939    0.085
 4052.00    1.30001   0.94837    0.086
 4053.00    1.34584   0.94597    0.085
 4054.00    1.27973   0.94308    0.084
 4055.00    1.15189   0.94056    0.083
 4056.00    0.98057   0.93892    0.083
 4057.00    0.91343   0.93821    0.083
 4058.00    0.91064   0.93806    0.082
 4059.00    0.76901   0.93768    0.081
 4060.00    0.55245   0.93617    0.081
 4061.00    0.63050   0.93294    0.081
 4062.00    0.84663   0.92828    0.082
 4063.00    0.82108   0.92330    0.080
 4064.00    0.69790   0.91943    0.078
 4065.00    0.70869   0.91757    0.078
 4066.00    0.76568   0.91754    0.079
 4067.00    0.96526   0.91845    0.080
 4068.00    1.20623   0.91924    0.082
 4069.00    1.20486   0.91897    0.081
 4070.00    1.14527   0.91721    0.080
 4071.00    0.98155   0.91427    0.080
 4072.00    0.79766   0.91072    0.079
 4073.00    0.82448   0.90674    0.078
 4074.00    0.88307   0.90216    0.078
 4075.00    1.12953   0.89697    0.080
 4076.00    1.39679   0.89189    0.082
 4077.00    1.14062   0.88803    0.081
 4078.00    0.84612   0.88623    0.081
 4079.00    0.89871   0.88627    0.081
 4080.00    0.96460   0.88693    0.080
 4081.00    0.80120   0.88658    0.080
 4082.00    0.64471   0.88410    0.079
 4083.00    0.79630   0.87941    0.079
 4084.00    0.95008   0.87325    0.079
 4085.00    1.13989   0.86649    0.081
 4086.00    1.27597   0.85949    0.082
 4087.00    0.85902   0.85180    0.080
 4088.00    0.56853   0.84241    0.079
 4089.00    1.20601   0.83037    0.083
 4090.00    1.68617   0.81519    0.086
 4091.00    1.28373   0.79679    0.083
 4092.00    0.99349   0.77525    0.000
 4093.00    1.20539   0.75053    0.000
 4094.00    1.27268   0.72237    0.000
 4095.00    0.80889   0.69043    0.000
 4096.00    0.56283   0.65464    0.000
 4097.00    0.98637   0.61562    0.000
 4098.00    1.24381   0.57510    0.000
 4099.00    1.06713   0.53628    0.000
 4100.00    0.96669   0.50377    0.000
 4101.00    1.03745   0.48267    0.000
 4102.00    1.01391   0.47696    0.000
 4103.00    0.80686   0.48773    0.000
 4104.00    0.73442   0.51260    0.000
 4105.00    0.89036   0.54678    0.000
 4106.00    0.89166   0.58497    0.000
 4107.00    0.66306   0.62292    0.000
 4108.00    0.70148   0.65821    0.000
 4109.00    1.08880   0.69002    0.000
 4110.00    1.23241   0.71843    0.000
 4111.00    1.09548   0.74384    0.000
 4112.00    1.06145   0.76652    0.000
 4113.00    1.13187   0.78645    0.075
 4114.00    1.14530   0.80351    0.075
 4115.00    1.10771   0.81756    0.076
 4116.00    1.02632   0.82858    0.075
 4117.00    0.91037   0.83689    0.074
 4118.00    0.89252   0.84315    0.074
 4119.00    0.94273   0.84832    0.073
 4120.00    1.03827   0.85340    0.074
 4121.00    1.16139   0.85905    0.076
 4122.00    1.06469   0.86535    0.076
 4123.00    0.85121   0.87173    0.074
 4124.00    0.76088   0.87728    0.074
 4125.00    0.72733   0.88103    0.074
 4126.00    0.67576   0.88244    0.073
 4127.00    0.61704   0.88161    0.072
 4128.00    0.63998   0.87928    0.072
 4129.00    0.69055   0.87655    0.071
 4130.00    0.80623   0.87456    0.072
 4131.00    0.94044   0.87426    0.074
 4132.00    0.93737   0.87622    0.073
 4133.00    0.90208   0.88052    0.072
 4134.00    0.95408   0.88661    0.072
 4135.00    1.02256   0.89349    0.073
 4136.00    0.93834   0.89997    0.074
 4137.00    0.83182   0.90495    0.074
 4138.00    0.74520   0.90760    0.074
 4139.00    0.66069   0.90735    0.073
 4140.00    0.59189   0.90409    0.073
 4141.00    0.52417   0.89850    0.073
 4142.00    0.34583   0.89222    0.073
 4143.00    0.16367   0.88744    0.073
 4144.00    0.53201   0.88594    0.074
 4145.00    0.89015   0.88813    0.074
 4146.00    0.87515   0.89288    0.075
 4147.00    0.85533   0.89826    0.076
 4148.00    0.76094   0.90263    0.076
 4149.00    0.67535   0.90515    0.075
 4150.00    0.67658   0.90583    0.076
 4151.00    0.70107   0.90514    0.076
 4152.00    0.89068   0.90364    0.078
 4153.00    1.03508   0.90190    0.079
 4154.00    0.93271   0.90051    0.078
 4155.00    0.83340   0.90002    0.077
 4156.00    0.74747   0.90076    0.076
 4157.00    0.75071   0.90274    0.076
 4158.00    1.07467   0.90557    0.078
 4159.00    1.27685   0.90857    0.079
 4160.00    1.11152   0.91104    0.077
 4161.00    0.98385   0.91251    0.076
 4162.00    0.95287   0.91287    0.076
 4163.00    0.86890   0.91228    0.075
 4164.00    0.66788   0.91103    0.075
 4165.00    0.56077   0.90942    0.074
 4166.00    0.63358   0.90763    0.075
 4167.00    0.75319   0.90565    0.075
 4168.00    0.95104   0.90318    0.074
 4169.00    1.05680   0.89985    0.074
 4170.00    1.02767   0.89544    0.073
 4171.00    0.98246   0.89030    0.074
 4172.00    0.91656   0.88542    0.074
 4173.00    0.92470   0.88198    0.075
 4174.00    1.01686   0.88055    0.075
 4175.00    1.02427   0.88090    0.075
 4176.00    0.94688   0.88232    0.073
 4177.00    0.87339   0.88413    0.072
 4178.00    0.80335   0.88612    0.072
 4179.00    0.74606   0.88837    0.071
 4180.00    0.69868   0.89079    0.070
 4181.00    0.75971   0.89304    0.069
 4182.00    0.89488   0.89477    0.070
 4183.00    0.93838   0.89579    0.070
 4184.00    0.92693   0.89600    0.070
 4185.00    0.86855   0.89554    0.069
 4186.00    0.78563   0.89473    0.068
 4187.00    0.77100   0.89413    0.068
 4188.00    0.78735   0.89431    0.069
 4189.00    0.84988   0.89551    0.068
 4190.00    0.93043   0.89745    0.067
 4191.00    0.93435   0.89949    0.068
 4192.00    0.91282   0.90090    0.069
 4193.00    0.85784   0.90101    0.068
 4194.00    0.79354   0.89936    0.067
 4195.00    0.79893   0.89590    0.067
 4196.00    0.82031   0.89116    0.067
 4197.00    0.76704   0.88597    0.067
 4198.00    0.70006   0.88128    0.067
 4199.00    0.67308   0.87791    0.067
 4200.00    0.65174   0.87621    0.066
 4201.00    0.69390   0.87610    0.066
 4202.00    0.74252   0.87733    0.065
 4203.00    0.81105   0.87963    0.066
 4204.00    0.88088   0.88265    0.066
 4205.00    0.98730   0.88607    0.067
 4206.00    1.09446   0.88958    0.067
 4207.00    0.95474   0.89284    0.066
 4208.00    0.82341   0.89558    0.066
 4209.00    0.93886   0.89759    0.066
 4210.00    1.06006   0.89875    0.066
 4211.00    1.26503   0.89888    0.068
 4212.00    1.43185   0.89773    0.069
 4213.00    1.23798   0.89536    0.070
 4214.00    1.06633   0.89239    0.071
 4215.00    1.04748   0.88993    0.070
 4216.00    1.03519   0.88913    0.070
 4217.00    1.05775   0.89046    0.069
 4218.00    1.05423   0.89320    0.068
 4219.00    0.93934   0.89589    0.068
 4220.00    0.86529   0.89681    0.069
 4221.00    0.93514   0.89468    0.068
 4222.00    0.97670   0.88900    0.068
 4223.00    0.93450   0.88029    0.069
 4224.00    0.90534   0.87013    0.070
 4225.00    0.90912   0.86095    0.069
 4226.00    0.87743   0.85519    0.068
 4227.00    0.76869   0.85440    0.067
 4228.00    0.75128   0.85832    0.067
 4229.00    0.90613   0.86482    0.067
 4230.00    0.99207   0.87116    0.066
 4231.00    0.96460   0.87533    0.065
 4232.00    0.86488   0.87665    0.064
 4233.00    0.66089   0.87584    0.063
 4234.00    0.54928   0.87436    0.062
 4235.00    0.55495   0.87334    0.062
 4236.00    0.63992   0.87323    0.061
 4237.00    0.81362   0.87424    0.061
 4238.00    0.88003   0.87618    0.061
 4239.00    0.84056   0.87862    0.062
 4240.00    0.86393   0.88125    0.062
 4241.00    0.94197   0.88366    0.062
 4242.00    0.90214   0.88540    0.061
 4243.00    0.77193   0.88614    0.061
 4244.00    0.77822   0.88550    0.062
 4245.00    0.87650   0.88307    0.064
 4246.00    0.82576   0.87899    0.065
 4247.00    0.68702   0.87410    0.064
 4248.00    0.68786   0.86953    0.064
 4249.00    0.76056   0.86611    0.065
 4250.00    0.75173   0.86432    0.065
 4251.00    0.70652   0.86425    0.065
 4252.00    0.76156   0.86543    0.065
 4253.00    0.85505   0.86708    0.066
 4254.00    0.84234   0.86864    0.064
 4255.00    0.79502   0.86986    0.061
 4256.00    0.84694   0.87046    0.062
 4257.00    0.92594   0.87008    0.063
 4258.00    0.93754   0.86862    0.063
 4259.00    0.93404   0.86679    0.063
 4260.00    0.89041   0.86574    0.063
 4261.00    0.83961   0.86642    0.064
 4262.00    0.73998   0.86906    0.063
 4263.00    0.63368   0.87277    0.062
 4264.00    0.74920   0.87596    0.063
 4265.00    0.88638   0.87722    0.064
 4266.00    0.84597   0.87576    0.063
 4267.00    0.79469   0.87153    0.061
 4268.00    0.80732   0.86525    0.060
 4269.00    0.82198   0.85802    0.059
 4270.00    0.89399   0.85099    0.059
 4271.00    0.96223   0.84539    0.060
 4272.00    0.93098   0.84240    0.059
 4273.00    0.89012   0.84253    0.059
 4274.00    0.71726   0.84536    0.059
 4275.00    0.56743   0.85005    0.059
 4276.00    0.62688   0.85547    0.060
 4277.00    0.70644   0.86019    0.061
 4278.00    0.91999   0.86308    0.061
 4279.00    1.08616   0.86380    0.061
 4280.00    1.00707   0.86276    0.061
 4281.00    0.92326   0.86066    0.060
 4282.00    0.81975   0.85809   -2.000
 4283.00    0.72759   0.85538   -2.000
 4284.00    0.67459   0.85241   -2.000
 4285.00    0.64878   0.84882   -2.000
 4286.00    0.70199   0.84451   -2.000
 4287.00    0.73309   0.83965   -2.000
 4288.00    0.70936   0.83471   -2.000
 4289.00    0.68039   0.83050   -2.000
 4290.00    0.64025   0.82796   -2.000
 4291.00    0.65415   0.82749   -2.000
 4292.00    0.76841   0.82835   -2.000
 4293.00    0.88568   0.82905   -2.000
 4294.00    1.00783   0.82831   -2.000
 4295.00    1.05163   0.82549   -2.000
 4296.00    0.98398   0.82052   -2.000
 4297.00    0.88539   0.81374   -2.000
 4298.00    0.74809   0.80594    0.062
 4299.00    0.68896   0.79828    0.061
 4300.00    0.71606   0.79219    0.061
 4301.00    0.71901   0.78856    0.061
 4302.00    0.69846   0.78719    0.061
 4303.00    0.60454   0.78740    0.061
 4304.00    0.44765   0.78816    0.060
 4305.00    0.44246   0.78834    0.060
 4306.00    0.55190   0.78745    0.060
 4307.00    0.64085   0.78582    0.061
 4308.00    0.71620   0.78440    0.061
 4309.00    0.69839   0.78426    0.061
 4310.00    0.62639   0.78582    0.060
 4311.00    0.62985   0.78902    0.060
 4312.00    0.67153   0.79367    0.060
 4313.00    0.69734   0.79960    0.059
 4314.00    0.71618   0.80663    0.059
 4315.00    0.78524   0.81434    0.059
 4316.00    0.87321   0.82152    0.058
 4317.00    0.85649   0.82645    0.059
 4318.00    0.80630   0.82772    0.060
 4319.00    0.78403   0.82474    0.060
 4320.00    0.76922   0.81770    0.060
 4321.00    0.84429   0.80734    0.060
 4322.00    0.93904   0.79470    0.060
 4323.00    0.84457   0.78090    0.060
 4324.00    0.71719   0.76738    0.060
 4325.00    0.73689   0.75566    0.060
 4326.00    0.77605   0.74679    0.060
 4327.00    0.81904   0.74060    0.060
 4328.00    0.86238   0.73539    0.061
 4329.00    0.81253   0.72894    0.061
 4330.00    0.75736   0.71960    0.000
 4331.00    0.79654   0.70647    0.000
 4332.00    0.83765   0.68910    0.000
 4333.00    0.84703   0.66714    0.000
 4334.00    0.85675   0.64039    0.000
 4335.00    0.87449   0.60894    0.000
 4336.00    0.88810   0.57367    0.000
 4337.00    0.84776   0.53699    0.000
 4338.00    0.80033   0.50306    0.000
 4339.00    0.69094   0.47667    0.000
 4340.00    0.61342   0.46215    0.000
 4341.00    0.74178   0.46233    0.000
 4342.00    0.85578   0.47697    0.000
 4343.00    0.89724   0.50260    0.000
 4344.00    0.93100   0.53456    0.000
 4345.00    0.93329   0.56854    0.000
 4346.00    0.92933   0.60103    0.000
 4347.00    0.90426   0.62979    0.000
 4348.00    0.85464   0.65393    0.000
 4349.00    0.73502   0.67342    0.000
 4350.00    0.64341   0.68896    0.000
 4351.00    0.62007   0.70213    0.059
 4352.00    0.64331   0.71491    0.058
 4353.00    0.76450   0.72865    0.058
 4354.00    0.82961   0.74315    0.059
 4355.00    0.79217   0.75734    0.059
 4356.00    0.75853   0.77029    0.059
 4357.00    0.73096   0.78136    0.060
 4358.00    0.73700   0.79053    0.060
 4359.00    0.79019   0.79843    0.059
 4360.00    0.85001   0.80575    0.059
 4361.00    0.91801   0.81261    0.059
 4362.00    0.93172   0.81875    0.060
 4363.00    0.88639   0.82380    0.060
 4364.00    0.91832   0.82750    0.060
 4365.00    1.02434   0.82961    0.059
 4366.00    1.07374   0.83007    0.059
 4367.00    1.07524   0.82931    0.060
 4368.00    1.01176   0.82805    0.059
 4369.00    0.89987   0.82685    0.058
 4370.00    0.80899   0.82577    0.056
 4371.00    0.73185   0.82463    0.056
 4372.00    0.78517   0.82335    0.056
 4373.00    0.91320   0.82213    0.058
 4374.00    0.95612   0.82159    0.058
 4375.00    0.95657   0.82249    0.058
 4376.00    0.93640   0.82506    0.058
 4377.00    0.90732   0.82837    0.058
 4378.00    0.90171   0.83061    0.058
 4379.00    0.90478   0.83017    0.059
 4380.00    0.72405   0.82624    0.057
 4381.00    0.48568   0.81903    0.055
 4382.00    0.55197   0.80975    0.055
 4383.00    0.69797   0.80059    0.056
 4384.00    0.78963   0.79412    0.055
 4385.00    0.86970   0.79190    0.055
 4386.00    0.78447   0.79357    0.055
 4387.00    0.67129   0.79767    0.055
 4388.00    0.69869   0.80294    0.055
 4389.00    0.74406   0.80855    0.055
 4390.00    0.74449   0.81379    0.054
 4391.00    0.74092   0.81827    0.054
 4392.00    0.77861   0.82192    0.054
 4393.00    0.81850   0.82468    0.054
 4394.00    0.86036   0.82679    0.055
 4395.00    0.90076   0.82877    0.055
 4396.00    0.81969   0.83093    0.055
 4397.00    0.73735   0.83283    0.055
 4398.00    0.62713   0.83359    0.054
 4399.00    0.52998   0.83283    0.054
 4400.00    0.59410   0.83084    0.054
 4401.00    0.65876   0.82835    0.053
 4402.00    0.72799   0.82585    0.054
 4403.00    0.78390   0.82334    0.055
 4404.00    0.75633   0.82108    0.055
 4405.00    0.72175   0.82014    0.054
 4406.00    0.65265   0.82120    0.054
 4407.00    0.60092   0.82380    0.054
 4408.00    0.61851   0.82737    0.053
 4409.00    0.64271   0.83161    0.053
 4410.00    0.68885   0.83565    0.052
 4411.00    0.71894   0.83826    0.052
 4412.00    0.70406   0.83880    0.053
 4413.00    0.69965   0.83702    0.054
 4414.00    0.72036   0.83345    0.055
 4415.00    0.75249   0.82974    0.056
 4416.00    0.80824   0.82758    0.054
 4417.00    0.83502   0.82761    0.053
 4418.00    0.80963   0.82953    0.054
 4419.00    0.83826   0.83250    0.054
 4420.00    0.95192   0.83534    0.054
 4421.00    0.99925   0.83708    0.054
 4422.00    0.95491   0.83761    0.054
 4423.00    0.88956   0.83759    0.055
 4424.00    0.79862   0.83741    0.055
 4425.00    0.74324   0.83700    0.054
 4426.00    0.72600   0.83637    0.053
 4427.00    0.72006   0.83568    0.053
 4428.00    0.72479   0.83512    0.053
 4429.00    0.71973   0.83445    0.053
 4430.00    0.70651   0.83327    0.054
 4431.00    0.74158   0.83166    0.055
 4432.00    0.81213   0.82972    0.055
 4433.00    0.84324   0.82747    0.055
 4434.00    0.84892   0.82548    0.055
 4435.00    0.87388   0.82472    0.055
 4436.00    0.90972   0.82574    0.054
 4437.00    0.86183   0.82815    0.055
 4438.00    0.77285   0.83079    0.055
 4439.00    0.73066   0.83241    0.055
 4440.00    0.70833   0.83227    0.056
 4441.00    0.74093   0.83058    0.056
 4442.00    0.79349   0.82847    0.057
 4443.00    0.70263   0.82719    0.056
 4444.00    0.56767   0.82747    0.055
 4445.00    0.57264   0.82915    0.055
 4446.00    0.61342   0.83121    0.055
 4447.00    0.70937   0.83275    0.056
 4448.00    0.81682   0.83345    0.056
 4449.00    0.76983   0.83314    0.056
 4450.00    0.69747   0.83173    0.056
 4451.00    0.65372   0.82954    0.054
 4452.00    0.61349   0.82667    0.053
 4453.00    0.76351   0.82301    0.054
 4454.00    0.92972   0.81893    0.056
 4455.00    0.91118   0.81528    0.056
 4456.00    0.88353   0.81282    0.056
 4457.00    0.93082   0.81133    0.056
 4458.00    0.97657   0.81040    0.055
 4459.00    0.85015   0.80991    0.055
 4460.00    0.73235   0.80986    0.055
 4461.00    0.78924   0.81016    0.000
 4462.00    0.83322   0.81090    0.000
 4463.00    0.72554   0.81209    0.000
 4464.00    0.63958   0.81307    0.000
 4465.00    0.72983   0.81302    0.000
 4466.00    0.80175   0.81166    0.000
 4467.00    0.76211   0.80915    0.000
 4468.00    0.73448   0.80615    0.000
 4469.00    0.76446   0.80378    0.000
 4470.00    0.79763   0.80313    0.000
 4471.00    0.84327   0.80503    0.000
 4472.00    0.85833   0.80965    0.000
 4473.00    0.77393   0.81600    0.000
 4474.00    0.73617   0.82232    0.000
 4475.00    0.82674   0.82688    0.000
 4476.00    0.85534   0.82863    0.000
 4477.00    0.73793   0.82708    0.000
 4478.00    0.71544   0.82240    0.000
 4479.00    0.88628   0.81571    0.000
 4480.00    0.97005   0.80891    0.000
 4481.00    0.89947   0.80454    0.000
 4482.00    0.85594   0.80470    0.054
 4483.00    0.85436   0.80903    0.054
 4484.00    0.86009   0.81531    0.055
 4485.00    0.87576   0.82130    0.055
 4486.00    0.85637   0.82546    0.055
 4487.00    0.79492   0.82718    0.055
 4488.00    0.81927   0.82671    0.055
 4489.00    0.93430   0.82519    0.055
 4490.00    1.00115   0.82368    0.055
 4491.00    1.02308   0.82278    0.055
 4492.00    0.94812   0.82250    0.054
 4493.00    0.79350   0.82239    0.053
 4494.00    0.73811   0.82229    0.053
 4495.00    0.75452   0.82245    0.053
 4496.00    0.75564   0.82314    0.053
 4497.00    0.74704   0.82430    0.053
 4498.00    0.78997   0.82580    0.053
 4499.00    0.86152   0.82741    0.053
 4500.00    0.88498   0.82882    0.054
 4501.00    0.88520   0.83023    0.054
 4502.00    0.81825   0.83220    0.054
 4503.00    0.72327   0.83468    0.054
 4504.00    0.79815   0.83685    0.054
 4505.00    0.93364   0.83803    0.055
 4506.00    0.92702   0.83813    0.055
 4507.00    0.87755   0.83743    0.054
 4508.00    0.93972   0.83643    0.054
 4509.00    1.02985   0.83548    0.053
 4510.00    1.02922   0.83460    0.053
 4511.00    1.01014   0.83340    0.054
 4512.00    0.90230   0.83156    0.053
 4513.00    0.78029   0.82932    0.052
 4514.00    0.80323   0.82695    0.052
 4515.00    0.84340   0.82476    0.052
 4516.00    0.91195   0.82303    0.053
 4517.00    0.98280   0.82163    0.054
 4518.00    0.92575   0.82031    0.053
 4519.00    0.86288   0.81893    0.052
 4520.00    0.89005   0.81726    0.053
 4521.00    0.91862   0.81504    0.053
 4522.00    0.96160   0.81213    0.053
 4523.00    1.00517   0.80891    0.053
 4524.00    1.05990   0.80582    0.053
 4525.00    1.09758   0.80276    0.053
 4526.00    0.94404   0.79969    0.053
 4527.00    0.80933   0.79685    0.053
 4528.00    0.82197   0.79454    0.052
 4529.00    0.81438   0.79310    0.051
 4530.00    0.68720   0.79253    0.051
 4531.00    0.57788   0.79255    0.050
 4532.00    0.55216   0.79294    0.051
 4533.00    0.54465   0.79356    0.052
 4534.00    0.60672   0.79486    0.051
 4535.00    0.68644   0.79765    0.051
 4536.00    0.82243   0.80201    0.052
 4537.00    0.90551   0.80690    0.053
 4538.00    0.84564   0.81095    0.051
 4539.00    0.81520   0.81354    0.050
 4540.00    0.85300   0.81465    0.051
 4541.00    0.88614   0.81475    0.052
 4542.00    0.90996   0.81420    0.052
 4543.00    0.89969   0.81284    0.052
 4544.00    0.82989   0.81055    0.052
 4545.00    0.77648   0.80773    0.052
 4546.00    0.74810   0.80469    0.051
 4547.00    0.74694   0.80142    0.051
 4548.00    0.78231   0.79811    0.052
 4549.00    0.80468   0.79525    0.052
 4550.00    0.81169   0.79377    0.000
 4551.00    0.80449   0.79373    0.000
 4552.00    0.78248   0.79411    0.000
 4553.00    0.81449   0.79459    0.000
 4554.00    0.89617   0.79541    0.000
 4555.00    0.85819   0.79689    0.000
 4556.00    0.72324   0.79957    0.000
 4557.00    0.74128   0.80332    0.000
 4558.00    0.86845   0.80709    0.000
 4559.00    0.87669   0.81016    0.000
 4560.00    0.81051   0.81219    0.000
 4561.00    0.78308   0.81276    0.000
 4562.00    0.77683   0.81186    0.000
 4563.00    0.82199   0.81002    0.000
 4564.00    0.89157   0.80833    0.000
 4565.00    0.88008   0.80784    0.000
 4566.00    0.83533   0.80854    0.000
 4567.00    0.82532   0.80979    0.000
 4568.00    0.82750   0.81079    0.000
 4569.00    0.89350   0.81089    0.000
 4570.00    0.97836   0.81015    0.000
 4571.00    0.93689   0.80903    0.000
 4572.00    0.86447   0.80837    0.000
 4573.00    0.90144   0.80866    0.000
 4574.00    0.96009   0.80924    0.000
 4575.00    1.03278   0.80935    0.000
 4576.00    1.10764   0.80879    0.000
 4577.00    0.92071   0.80742    0.000
 4578.00    0.70382   0.80513    0.000
 4579.00    0.85850   0.80219    0.000
 4580.00    1.04172   0.79924    0.000
 4581.00    1.02015   0.79679    0.000
 4582.00    0.99005   0.79510    0.000
 4583.00    0.91432   0.79412    0.000
 4584.00    0.84007   0.79391    0.000
 4585.00    0.84582   0.79471    0.000
 4586.00    0.84985   0.79617    0.000
 4587.00    0.82369   0.79768    0.000
 4588.00    0.80726   0.79879    0.000
 4589.00    0.89478   0.79942    0.000
 4590.00    0.96649   0.79948    0.000
 4591.00    0.91864   0.79896    0.000
 4592.00    0.86713   0.79822    0.000
 4593.00    0.79465   0.79770    0.000
 4594.00    0.74999   0.79755    0.000
 4595.00    0.83243   0.79761    0.000
 4596.00    0.89464   0.79794    0.000
 4597.00    0.88117   0.79852    0.000
 4598.00    0.87569   0.79908    0.000
 4599.00    0.89521   0.79944    0.000
 4600.00    0.89356   0.79948    0.000
 4601.00    0.83570   0.79952    0.000
 4602.00    0.80428   0.79988    0.000
 4603.00    0.83312   0.80069    0.000
 4604.00    0.86500   0.80194    0.000
 4605.00    0.90288   0.80344    0.000
 4606.00    0.92651   0.80522    0.000
 4607.00    0.92564   0.80720    0.000
 4608.00    0.90685   0.80904    0.000
 4609.00    0.86110   0.81042    0.000
 4610.00    0.83926   0.81106    0.000
 4611.00    0.84904   0.81078    0.000
 4612.00    0.84706   0.80994    0.000
 4613.00    0.83137   0.80885    0.000
 4614.00    0.81694   0.80764    0.000
 4615.00    0.80379   0.80642    0.000
 4616.00    0.82065   0.80517    0.000
 4617.00    0.86473   0.80417    0.000
 4618.00    0.88034   0.80339    0.000
 4619.00    0.87321   0.80291    0.000
 4620.00    0.88084   0.80328    0.000
 4621.00    0.89884   0.80437    0.000
 4622.00    0.93557   0.80548    0.000
 4623.00    0.98385   0.80628    0.000
 4624.00    0.93727   0.80654    0.000
 4625.00    0.83960   0.80601    0.000
 4626.00    0.81219   0.80477    0.000
 4627.00    0.81764   0.80304    0.000
 4628.00    0.82357   0.80103    0.000
 4629.00    0.82969   0.79918    0.000
 4630.00    0.83880   0.79796    0.000
 4631.00    0.84894   0.79724    0.000
 4632.00    0.86496   0.79642    0.000
 4633.00    0.88270   0.79523    0.000
 4634.00    0.89465   0.79382    0.000
 4635.00    0.90521   0.79256    0.000
 4636.00    0.87245   0.79138    0.000
 4637.00    0.83132   0.79014    0.000
 4638.00    0.79670   0.78914    0.000
 4639.00    0.76307   0.78855    0.000
 4640.00    0.73856   0.78824    0.000
 4641.00    0.71504   0.78818    0.000
 4642.00    0.80401   0.78789    0.000
 4643.00    0.90115   0.78691    0.000
 4644.00    0.83481   0.78539    0.000
 4645.00    0.76229   0.78348    0.000
 4646.00    0.81139   0.78136    0.000
 4647.00    0.86006   0.77986    0.000
 4648.00    0.86992   0.77950    0.000
 4649.00    0.88274   0.78015    0.000
 4650.00    0.94378   0.78148    0.000
 4651.00    0.99317   0.78299    0.000
 4652.00    0.92338   0.78426    0.000
 4653.00    0.86309   0.78509    0.000
 4654.00    0.87224   0.78554    0.000
 4655.00    0.88904   0.78605    0.000
 4656.00    0.94859   0.78723    0.000
 4657.00    0.98414   0.78908    0.000
 4658.00    0.91256   0.79122    0.000
 4659.00    0.84363   0.79296    0.000
 4660.00    0.78434   0.79344    0.000
 4661.00    0.75949   0.79217    0.000
 4662.00    0.84028   0.78934    0.000
 4663.00    0.89043   0.78536    0.000
 4664.00    0.86065   0.78090    0.000
 4665.00    0.83965   0.77655    0.000
 4666.00    0.83830   0.77255    0.000
 4667.00    0.79872   0.76962    0.000
 4668.00    0.68487   0.76875    0.000
 4669.00    0.64234   0.76995    0.000
 4670.00    0.72060   0.77252    0.000
 4671.00    0.77945   0.77572    0.000
 4672.00    0.80950   0.77871    0.000
 4673.00    0.83465   0.78106    0.000
 4674.00    0.85343   0.78288    0.000
 4675.00    0.83463   0.78417    0.000
 4676.00    0.77265   0.78471    0.000
 4677.00    0.71645   0.78432    0.000
 4678.00    0.66612   0.78301    0.000
 4679.00    0.67571   0.78123    0.000
 4680.00    0.73884   0.77961    0.000
 4681.00    0.79345   0.77852    0.000
 4682.00    0.84136   0.77818    0.000
 4683.00    0.84969   0.77838    0.000
 4684.00    0.83060   0.77878    0.000
 4685.00    0.81601   0.77913    0.000
 4686.00    0.80416   0.77925    0.000
 4687.00    0.74548   0.77923    0.000
 4688.00    0.66198   0.77939    0.000
 4689.00    0.69221   0.77970    0.000
 4690.00    0.77478   0.78003    0.000
 4691.00    0.81576   0.78060    0.000
 4692.00    0.84025   0.78156    0.000
 4693.00    0.87614   0.78256    0.000
 4694.00    0.91588   0.78328    0.000
 4695.00    0.90476   0.78343    0.000
 4696.00    0.87921   0.78260    0.000
 4697.00    0.80871   0.78050    0.000
 4698.00    0.72768   0.77743    0.000
 4699.00    0.79433   0.77434    0.000
 4700.00    0.88876   0.77172    0.000
 4701.00    0.91182   0.76950    0.000
 4702.00    0.92450   0.76775    0.000
 4703.00    0.86145   0.76668    0.000
 4704.00    0.79040   0.76645    0.000
 4705.00    0.81172   0.76662    0.000
 4706.00    0.83938   0.76658    0.000
 4707.00    0.76039   0.76636    0.000
 4708.00    0.67777   0.76639    0.000
 4709.00    0.77986   0.76676    0.000
 4710.00    0.87743   0.76757    0.000
 4711.00    0.81901   0.76866    0.000
 4712.00    0.77203   0.76944    0.000
 4713.00    0.90042   0.76997    0.000
 4714.00    1.01524   0.77080    0.000
 4715.00    0.99701   0.77225    0.000
 4716.00    0.96862   0.77431    0.000
 4717.00    0.86842   0.77653    0.000
 4718.00    0.79884   0.77842    0.000
 4719.00    0.89584   0.78008    0.000
 4720.00    0.96664   0.78146    0.000
 4721.00    0.92331   0.78217    0.000
 4722.00    0.87762   0.78215    0.000
 4723.00    0.82347   0.78158    0.000
 4724.00    0.79447   0.78025    0.000
 4725.00    0.84118   0.77793    0.000
 4726.00    0.88609   0.77471    0.000
 4727.00    0.92640   0.77095    0.000
 4728.00    0.91159   0.76753    0.000
 4729.00    0.77530   0.76530    0.000
 4730.00    0.72771   0.76431    0.000
 4731.00    0.84971   0.76439    0.000
 4732.00    0.90933   0.76544    0.000
 4733.00    0.86487   0.76698    0.000
 4734.00    0.85816   0.76854    0.000
 4735.00    0.90664   0.76971    0.000
 4736.00    0.94241   0.77014    0.000
 4737.00    0.96183   0.77041    0.000
 4738.00    0.90965   0.77107    0.000
 4739.00    0.77636   0.77180    0.000
 4740.00    0.76962   0.77241    0.000
 4741.00    0.88931   0.77306    0.000
 4742.00    0.91127   0.77403    0.000
 4743.00    0.84710   0.77525    0.000
 4744.00    0.83461   0.77621    0.000
 4745.00    0.86225   0.77691    0.000
 4746.00    0.88645   0.77762    0.000
 4747.00    0.90831   0.77807    0.000
 4748.00    0.91791   0.77806    0.000
 4749.00    0.92017   0.77769    0.000
 4750.00    0.86073   0.77700    0.000
 4751.00    0.76907   0.77578    0.000
 4752.00    0.71986   0.77406    0.000
 4753.00    0.68985   0.77208    0.000
 4754.00    0.71005   0.77003    0.000
 4755.00    0.74981   0.76811    0.000
 4756.00    0.82113   0.76636    0.000
 4757.00    0.90291   0.76486    0.000
 4758.00    0.90406   0.76362    0.000
 4759.00    0.88280   0.76207    0.000
 4760.00    0.93312   0.75986    0.000
 4761.00    0.99981   0.75697    0.047
 4762.00    0.89062   0.75373    0.046
 4763.00    0.74921   0.75094    0.045
 4764.00    0.70150   0.74907    0.045
 4765.00    0.66700   0.74841    0.046
 4766.00    0.71732   0.74911    0.046
 4767.00    0.77625   0.75068    0.046
 4768.00    0.75318   0.75280    0.045
 4769.00    0.72482   0.75513    0.045
 4770.00    0.80334   0.75696    0.046
 4771.00    0.88499   0.75811    0.046
 4772.00    0.90599   0.75902    0.046
 4773.00    0.92565   0.76003    0.045
 4774.00    0.90609   0.76106    0.045
 4775.00    0.88566   0.76180    0.044
 4776.00    0.85255   0.76208    0.045
 4777.00    0.82458   0.76185    0.045
 4778.00    0.84501   0.76106    0.044
 4779.00    0.86204   0.75988    0.044
 4780.00    0.85583   0.75860    0.044
 4781.00    0.85345   0.75731    0.043
 4782.00    0.87131   0.75593    0.043
 4783.00    0.87726   0.75443    0.042
 4784.00    0.83243   0.75319    0.043
 4785.00    0.79686   0.75222    0.043
 4786.00    0.79382   0.75139    0.042
 4787.00    0.77367   0.75123    0.042
 4788.00    0.70294   0.75182    0.042
 4789.00    0.67155   0.75284    0.043
 4790.00    0.73919   0.75441    0.043
 4791.00    0.80457   0.75647    0.044
 4792.00    0.86505   0.75865    0.043
 4793.00    0.89475   0.76075    0.043
 4794.00    0.86654   0.76232    0.043
 4795.00    0.84369   0.76288    0.043
 4796.00    0.82966   0.76233    0.043
 4797.00    0.84675   0.76083    0.042
 4798.00    0.90870   0.75876    0.043
 4799.00    0.95015   0.75670    0.043
 4800.00    0.96564   0.75516    0.042
 4801.00    0.95156   0.75433    0.042
 4802.00    0.90447   0.75381    0.042
 4803.00    0.85170   0.75294    0.043
 4804.00    0.79335   0.75170    0.043
 4805.00    0.81082   0.75028    0.043
 4806.00    0.89416   0.74907    0.043
 4807.00    0.94515   0.74808    0.043
 4808.00    0.97137   0.74707    0.043
 4809.00    0.94835   0.74621    0.043
 4810.00    0.89220   0.74577    0.043
 4811.00    0.85873   0.74558    0.042
 4812.00    0.83862   0.74568    0.042
 4813.00    0.82576   0.74629    0.042
 4814.00    0.81662   0.74719    0.042
 4815.00    0.86745   0.74816    0.042
 4816.00    0.94498   0.74898    0.042
 4817.00    0.93390   0.74940    0.042
 4818.00    0.88892   0.74915    0.043
 4819.00    0.84745   0.74795    0.043
 4820.00    0.80711   0.74590    0.043
 4821.00    0.76415   0.74347    0.043
 4822.00    0.72048   0.74061    0.043
 4823.00    0.72987   0.73742    0.042
 4824.00    0.75112   0.73500    0.042
 4825.00    0.78557   0.73387    0.042
 4826.00    0.82237   0.73322    0.042
 4827.00    0.73850   0.73259    0.042
 4828.00    0.63819   0.73184    0.041
 4829.00    0.64224   0.73093    0.041
 4830.00    0.65642   0.72999    0.041
 4831.00    0.73787   0.72882    0.042
 4832.00    0.82340   0.72734    0.043
 4833.00    0.82697   0.72584    0.043
 4834.00    0.82832   0.72419    0.042
 4835.00    0.82114   0.72204    0.042
 4836.00    0.81490   0.71932    0.042
 4837.00    0.83322   0.71596    0.042
 4838.00    0.84921   0.71213    0.042
 4839.00    0.83338   0.70790    0.042
 4840.00    0.82121   0.70360    0.042
 4841.00    0.84216   0.69969    0.042
 4842.00    0.86320   0.69593    0.041
 4843.00    0.88483   0.69200    0.041
 4844.00    0.89924   0.68783    0.041
 4845.00    0.87637   0.68302    0.041
 4846.00    0.84957   0.67693    0.042
 4847.00    0.80645   0.66945    0.041
 4848.00    0.78197   0.66076    0.000
 4849.00    0.82171   0.65120    0.000
 4850.00    0.85135   0.64087    0.000
 4851.00    0.85170   0.62903    0.000
 4852.00    0.84460   0.61522    0.000
 4853.00    0.81910   0.59958    0.000
 4854.00    0.79801   0.58164    0.000
 4855.00    0.78637   0.56126    0.000
 4856.00    0.77506   0.53972    0.000
 4857.00    0.76436   0.51780    0.000
 4858.00    0.75156   0.49585    0.000
 4859.00    0.73537   0.47555    0.000
 4860.00    0.69344   0.45928    0.000
 4861.00    0.61497   0.45010    0.000
 4862.00    0.59482   0.45105    0.000
 4863.00    0.64752   0.46163    0.000
 4864.00    0.67563   0.47838    0.000
 4865.00    0.67665   0.49872    0.000
 4866.00    0.67569   0.52066    0.000
 4867.00    0.67280   0.54199    0.000
 4868.00    0.73926   0.56132    0.000
 4869.00    0.86513   0.57818    0.000
 4870.00    0.85976   0.59230    0.000
 4871.00    0.75538   0.60433    0.000
 4872.00    0.74189   0.61571    0.000
 4873.00    0.78863   0.62701    0.000
 4874.00    0.76919   0.63771    0.000
 4875.00    0.71133   0.64753    0.043
 4876.00    0.73064   0.65662    0.043
 4877.00    0.78897   0.66500    0.043
 4878.00    0.78203   0.67232    0.043
 4879.00    0.74651   0.67853    0.043
 4880.00    0.71356   0.68325    0.043
 4881.00    0.68158   0.68651    0.043
 4882.00    0.68553   0.68899    0.044
 4883.00    0.70094   0.69108    0.044
 4884.00    0.70612   0.69266    0.044
 4885.00    0.70858   0.69369    0.044
 4886.00    0.71903   0.69464    0.044
 4887.00    0.73124   0.69569    0.043
 4888.00    0.80832   0.69692    0.043
 4889.00    0.89665   0.69840    0.043
 4890.00    0.83635   0.70027    0.043
 4891.00    0.75647   0.70307    0.043
 4892.00    0.80523   0.70765    0.044
 4893.00    0.86595   0.71332    0.044
 4894.00    0.91083   0.71879    0.044
 4895.00    0.95481   0.72364    0.044
 4896.00    0.85560   0.72722    0.044
 4897.00    0.75401   0.72921    0.044
 4898.00    0.74935   0.72992    0.045
 4899.00    0.74698   0.72955    0.045
 4900.00    0.79914   0.72877    0.044
 4901.00    0.84969   0.72815    0.044
 4902.00    0.87945   0.72755    0.044
 4903.00    0.90709   0.72709    0.044
 4904.00    0.91631   0.72710    0.045
 4905.00    0.91536   0.72741    0.045
 4906.00    0.84895   0.72748    0.044
 4907.00    0.79899   0.72695    0.043
 4908.00    0.83167   0.72560    0.043
 4909.00    0.85844   0.72393    0.043
 4910.00    0.86112   0.72269    0.043
 4911.00    0.85753   0.72217    0.044
 4912.00    0.83284   0.72233    0.043
 4913.00    0.79312   0.72237    0.043
 4914.00    0.71058   0.72178    0.042
 4915.00    0.66907   0.72027    0.042
 4916.00    0.72735   0.71734    0.043
 4917.00    0.75494   0.71304    0.044
 4918.00    0.71811   0.70748    0.044
 4919.00    0.70277   0.70190    0.043
 4920.00    0.72661   0.69780    0.043
 4921.00    0.74097   0.69584    0.043
 4922.00    0.74022   0.69637    0.043
 4923.00    0.74615   0.69891    0.043
 4924.00    0.76143   0.70301    0.043
 4925.00    0.76085   0.70846    0.042
 4926.00    0.74074   0.71461    0.043
 4927.00    0.76659   0.72005    0.042
 4928.00    0.84233   0.72403    0.042
 4929.00    0.88217   0.72656    0.042
 4930.00    0.88763   0.72748    0.041
 4931.00    0.87729   0.72677    0.041
 4932.00    0.85363   0.72444    0.041
 4933.00    0.79913   0.72095    0.041
 4934.00    0.72171   0.71774    0.041
 4935.00    0.73475   0.71565    0.041
 4936.00    0.80688   0.71411    0.041
 4937.00    0.82105   0.71274    0.041
 4938.00    0.80209   0.71220    0.041
 4939.00    0.74008   0.71316    0.041
 4940.00    0.65665   0.71581    0.000
 4941.00    0.65973   0.71941    0.000
 4942.00    0.70007   0.72270    0.000
 4943.00    0.75120   0.72558    0.000
 4944.00    0.80631   0.72806    0.000
 4945.00    0.87831   0.72979    0.000
 4946.00    0.95559   0.73111    0.000
 4947.00    0.92227   0.73212    0.000
 4948.00    0.86009   0.73262    0.000
 4949.00    0.80050   0.73257    0.000
 4950.00    0.74146   0.73191    0.000
 4951.00    0.76770   0.73034    0.000
 4952.00    0.80831   0.72742    0.000
 4953.00    0.81600   0.72377    0.000
 4954.00    0.81950   0.72017    0.000
 4955.00    0.84126   0.71648    0.000
 4956.00    0.86463   0.71277    0.000
 4957.00    0.85035   0.70953    0.000
 4958.00    0.83408   0.70856    0.000
 4959.00    0.81881   0.71048    0.000
 4960.00    0.80399   0.71295    0.000
 4961.00    0.82195   0.71453    0.000
 4962.00    0.83701   0.71555    0.000
 4963.00    0.78919   0.71606    0.000
 4964.00    0.74771   0.71577    0.000
 4965.00    0.78415   0.71454    0.000
 4966.00    0.81368   0.71317    0.000
 4967.00    0.78529   0.71234    0.000
 4968.00    0.76446   0.71208    0.000
 4969.00    0.79081   0.71265    0.000
 4970.00    0.81252   0.71391    0.000
 4971.00    0.81144   0.71542    0.000
 4972.00    0.80437   0.71684    0.000
 4973.00    0.77347   0.71777    0.000
 4974.00    0.74459   0.71811    0.000
 4975.00    0.72240   0.71747    0.000
 4976.00    0.71686   0.71559    0.000
 4977.00    0.75784   0.71263    0.000
 4978.00    0.76673   0.70871    0.000
 4979.00    0.69888   0.70432    0.000
 4980.00    0.66025   0.69987    0.000
 4981.00    0.68199   0.69546    0.000
 4982.00    0.72183   0.69160    0.000
 4983.00    0.79415   0.68944    0.000
 4984.00    0.80619   0.68943    0.000
 4985.00    0.72348   0.69104    0.000
 4986.00    0.68819   0.69377    0.000
 4987.00    0.71831   0.69706    0.000
 4988.00    0.77022   0.69999    0.000
 4989.00    0.84862   0.70206    0.000
 4990.00    0.85884   0.70329    0.000
 4991.00    0.79608   0.70387    0.000
 4992.00    0.76254   0.70438    0.000
 4993.00    0.75659   0.70474    0.000
 4994.00    0.79260   0.70487    0.000
 4995.00    0.86355   0.70493    0.000
 4996.00    0.82933   0.70446    0.000
 4997.00    0.71804   0.70329    0.000
 4998.00    0.68054   0.70131    0.000
 4999.00    0.69052   0.69844    0.000
 5000.00    0.69920   0.69521    0.000
 5001.00    0.70715   0.69224    0.000
 5002.00    0.69460   0.68981    0.000
 5003.00    0.67201   0.68810    0.000
 5004.00    0.73177   0.68677    0.000
 5005.00    0.82639   0.68554    0.000
 5006.00    0.82555   0.68504    0.000
 5007.00    0.79009   0.68562    0.000
 5008.00    0.72273   0.68648    0.000
 5009.00    0.64559   0.68660    0.000
 5010.00    0.68753   0.68553    0.000
 5011.00    0.75986   0.68348    0.000
 5012.00    0.70495   0.68059    0.000
 5013.00    0.62359   0.67731    0.000
 5014.00    0.61348   0.67441    0.000
 5015.00    0.61502   0.67236    0.000
 5016.00    0.59533   0.67127    0.000
 5017.00    0.57304   0.67082    0.000
 5018.00    0.59055   0.67114    0.000
 5019.00    0.61143   0.67279    0.000
 5020.00    0.72206   0.67566    0.000
 5021.00    0.83706   0.67862    0.000
 5022.00    0.78180   0.68111    0.000
 5023.00    0.72475   0.68373    0.000
 5024.00    0.71980   0.68638    0.000
 5025.00    0.71204   0.68843    0.000
 5026.00    0.64777   0.68979    0.000
 5027.00    0.59509   0.69061    0.000
 5028.00    0.67782   0.69177    0.000
 5029.00    0.74884   0.69338    0.041
 5030.00    0.72526   0.69459    0.040
 5031.00    0.71683   0.69526    0.040
 5032.00    0.80021   0.69565    0.040
 5033.00    0.86314   0.69531    0.040
 5034.00    0.82829   0.69342    0.040
 5035.00    0.79047   0.68984    0.040
 5036.00    0.74110   0.68559    0.040
 5037.00    0.72163   0.68190    0.040
 5038.00    0.79913   0.67852    0.040
 5039.00    0.85442   0.67534    0.040
 5040.00    0.84875   0.67312    0.040
 5041.00    0.81234   0.67284    0.040
 5042.00    0.70362   0.67536    0.039
 5043.00    0.64001   0.67966    0.038
 5044.00    0.66810   0.68366    0.038
 5045.00    0.69738   0.68694    0.039
 5046.00    0.72879   0.68927    0.038
 5047.00    0.76468   0.69011    0.038
 5048.00    0.80750   0.68962    0.038
 5049.00    0.81853   0.68854    0.039
 5050.00    0.78632   0.68756    0.039
 5051.00    0.75086   0.68682    0.039
 5052.00    0.71150   0.68670    0.037
 5053.00    0.69573   0.68759    0.037
 5054.00    0.70486   0.68888    0.037
 5055.00    0.73499   0.69010    0.038
 5056.00    0.78466   0.69161    0.038
 5057.00    0.80274   0.69347    0.037
 5058.00    0.79490   0.69523    0.037
 5059.00    0.77633   0.69602    0.037
 5060.00    0.75000   0.69606    0.038
 5061.00    0.75393   0.69566    0.038
 5062.00    0.77704   0.69459    0.037
 5063.00    0.77070   0.69248    0.037
 5064.00    0.74803   0.68958    0.038
 5065.00    0.71608   0.68706    0.038
 5066.00    0.67966   0.68552    0.037
 5067.00    0.64949   0.68429    0.037
 5068.00    0.62193   0.68313    0.037
 5069.00    0.68790   0.68248    0.038
 5070.00    0.78717   0.68237    0.038
 5071.00    0.81184   0.68225    0.038
 5072.00    0.81409   0.68176    0.038
 5073.00    0.77158   0.68144    0.038
 5074.00    0.71790   0.68087    0.038
 5075.00    0.69666   0.67967    0.038
 5076.00    0.68199   0.67830    0.038
 5077.00    0.67206   0.67696    0.038
 5078.00    0.66287   0.67528    0.038
 5079.00    0.69620   0.67311    0.038
 5080.00    0.73456   0.67171    0.037
 5081.00    0.72493   0.67184    0.037
 5082.00    0.71144   0.67294    0.038
 5083.00    0.68583   0.67458    0.038
 5084.00    0.65967   0.67670    0.037
 5085.00    0.64564   0.67919    0.037
 5086.00    0.63269   0.68158    0.037
 5087.00    0.66646   0.68349    0.038
 5088.00    0.70074   0.68513    0.038
 5089.00    0.74457   0.68659    0.038
 5090.00    0.77907   0.68756    0.038
 5091.00    0.70971   0.68793    0.037
 5092.00    0.65273   0.68783    0.037
 5093.00    0.69212   0.68713    0.038
 5094.00    0.73617   0.68550    0.039
 5095.00    0.80774   0.68282    0.040
 5096.00    0.84800   0.67968    0.040
 5097.00    0.74218   0.67668    0.039
 5098.00    0.66566   0.67398    0.039
 5099.00    0.70084   0.67201    0.039
 5100.00    0.72433   0.67133    0.039
 5101.00    0.71058   0.67166    0.038
 5102.00    0.68401   0.67221    0.038
 5103.00    0.62285   0.67249    0.038
 5104.00    0.61151   0.67252    0.038
 5105.00    0.71536   0.67252    0.038
 5106.00    0.76795   0.67214    0.039
 5107.00    0.71800   0.67144    0.040
 5108.00    0.67033   0.67119    0.040
 5109.00    0.62661   0.67152    0.039
 5110.00    0.62702   0.67229    0.038
 5111.00    0.69475   0.67392    0.038
 5112.00    0.74680   0.67613    0.039
 5113.00    0.77782   0.67819    0.039
 5114.00    0.78392   0.67997    0.039
 5115.00    0.76062   0.68147    0.039
 5116.00    0.75507   0.68267    0.039
 5117.00    0.76801   0.68322    0.039
 5118.00    0.75311   0.68258    0.039
 5119.00    0.71267   0.68083    0.039
 5120.00    0.73677   0.67835    0.039
 5121.00    0.81309   0.67534    0.039
 5122.00    0.79088   0.67202    0.039
 5123.00    0.69854   0.66864    0.038
 5124.00    0.64385   0.66567    0.037
 5125.00    0.61269   0.66373    0.037
 5126.00    0.63921   0.66265    0.037
 5127.00    0.69722   0.66202    0.037
 5128.00    0.70172   0.66178    0.037
 5129.00    0.68082   0.66201    0.037
 5130.00    0.69129   0.66288    0.037
 5131.00    0.71461   0.66402    0.037
 5132.00    0.71984   0.66481    0.036
 5133.00    0.71875   0.66513    0.036
 5134.00    0.69528   0.66527    0.036
 5135.00    0.66521   0.66543    0.036
 5136.00    0.65502   0.66485    0.037
 5137.00    0.64970   0.66324    0.037
 5138.00    0.70449   0.66130    0.037
 5139.00    0.77115   0.65956    0.036
 5140.00    0.79168   0.65856    0.036
 5141.00    0.80509   0.65780    0.036
 5142.00    0.73597   0.65646    0.036
 5143.00    0.65745   0.65555    0.037
 5144.00    0.66566   0.65571    0.037
 5145.00    0.68048   0.65589    0.036
 5146.00    0.65614   0.65575    0.037
 5147.00    0.63019   0.65537    0.037
 5148.00    0.63117   0.65507    0.036
 5149.00    0.63285   0.65527    0.036
 5150.00    0.65517   0.65533    0.037
 5151.00    0.67552   0.65510    0.038
 5152.00    0.66176   0.65532    0.037
 5153.00    0.65044   0.65628    0.037
 5154.00    0.66509   0.65788    0.038
 5155.00    0.68225   0.66009    0.038
 5156.00    0.71842   0.66265    0.038
 5157.00    0.75582   0.66507    0.037
 5158.00    0.80022   0.66683    0.038
 5159.00    0.81920   0.66735    0.038
 5160.00    0.72237   0.66645    0.038
 5161.00    0.65007   0.66367    0.038
 5162.00    0.66925   0.65864    0.038
 5163.00    0.68153   0.65206    0.038
 5164.00    0.67230   0.64440    0.038
 5165.00    0.63903   0.63573    0.038
 5166.00    0.54212   0.62630    0.038
 5167.00    0.48602   0.61716    0.038
 5168.00    0.52269   0.61035    0.038
 5169.00    0.54529   0.60717    0.038
 5170.00    0.54020   0.60667    0.038
 5171.00    0.51312   0.60702    0.038
 5172.00    0.44830   0.60850    0.038
 5173.00    0.42713   0.61321    0.038
 5174.00    0.47157   0.62082    0.039
 5175.00    0.50615   0.62832    0.039
 5176.00    0.52773   0.63366    0.039
 5177.00    0.55100   0.63712    0.038
 5178.00    0.57626   0.63872    0.038
 5179.00    0.62929   0.63778    0.038
 5180.00    0.71080   0.63479    0.038
 5181.00    0.69958   0.63086    0.038
 5182.00    0.60445   0.62627    0.037
 5183.00    0.54398   0.62197    0.037
 5184.00    0.51116   0.62081    0.037
 5185.00    0.50917   0.62377    0.037
 5186.00    0.52881   0.62823    0.037
 5187.00    0.53013   0.63201    0.037
 5188.00    0.52018   0.63528    0.037
 5189.00    0.58636   0.63884    0.037
 5190.00    0.69346   0.64172    0.000
 5191.00    0.68371   0.64228    0.000
 5192.00    0.61941   0.64180    0.000
 5193.00    0.63559   0.64222    0.000
 5194.00    0.68413   0.64330    0.000
 5195.00    0.67919   0.64433    0.000
 5196.00    0.65590   0.64567    0.000
 5197.00    0.66178   0.64758    0.000
 5198.00    0.67608   0.64940    0.000
 5199.00    0.70350   0.65050    0.000
 5200.00    0.73404   0.65061    0.000
 5201.00    0.69024   0.64969    0.000
 5202.00    0.63212   0.64767    0.000
 5203.00    0.65667   0.64466    0.000
 5204.00    0.69358   0.64100    0.000
 5205.00    0.66025   0.63750    0.000
 5206.00    0.61923   0.63512    0.000
 5207.00    0.59325   0.63406    0.000
 5208.00    0.56836   0.63406    0.000
 5209.00    0.63174   0.63556    0.000
 5210.00    0.69841   0.63833    0.000
 5211.00    0.66936   0.64159    0.036
 5212.00    0.64112   0.64499    0.036
 5213.00    0.65858   0.64807    0.036
 5214.00    0.67420   0.65045    0.036
 5215.00    0.65987   0.65193    0.036
 5216.00    0.65129   0.65317    0.036
 5217.00    0.70114   0.65481    0.036
 5218.00    0.74555   0.65639    0.037
 5219.00    0.75035   0.65726    0.037
 5220.00    0.74658   0.65719    0.037
 5221.00    0.69502   0.65613    0.037
 5222.00    0.65325   0.65351    0.037
 5223.00    0.65503   0.64974    0.037
 5224.00    0.65411   0.64565    0.037
 5225.00    0.64330   0.64145    0.037
 5226.00    0.63319   0.63782    0.038
 5227.00    0.62524   0.63594    0.037
 5228.00    0.60709   0.63638    0.037
 5229.00    0.56241   0.63802    0.037
 5230.00    0.54788   0.63984    0.037
 5231.00    0.60078   0.64195    0.037
 5232.00    0.64192   0.64377    0.038
 5233.00    0.66027   0.64518    0.038
 5234.00    0.68820   0.64678    0.038
 5235.00    0.73231   0.64891    0.037
 5236.00    0.73471   0.65149    0.037
 5237.00    0.67533   0.65389    0.038
 5238.00    0.63722   0.65602    0.038
 5239.00    0.62683   0.65793    0.037
 5240.00    0.63622   0.65949    0.037
 5241.00    0.66831   0.66044    0.037
 5242.00    0.70507   0.66035    0.037
 5243.00    0.74656   0.65941    0.037
 5244.00    0.75451   0.65828    0.037
 5245.00    0.73253   0.65673    0.037
 5246.00    0.74209   0.65399    0.037
 5247.00    0.77643   0.65094    0.038
 5248.00    0.77099   0.64903    0.038
 5249.00    0.73804   0.64769    0.038
 5250.00    0.71229   0.64608    0.037
 5251.00    0.69091   0.64531    0.037
 5252.00    0.68871   0.64597    0.037
 5253.00    0.69665   0.64719    0.037
 5254.00    0.66403   0.64834    0.036
 5255.00    0.61278   0.64947    0.036
 5256.00    0.60067   0.65082    0.036
 5257.00    0.60403   0.65162    0.037
 5258.00    0.68632   0.65108    0.037
 5259.00    0.79519   0.64879    0.037
 5260.00    0.76486   0.64482    0.037
 5261.00    0.69513   0.63964    0.037
 5262.00    0.65635   0.63383    0.037
 5263.00    0.62479   0.62801    0.037
 5264.00    0.58972   0.62238    0.036
 5265.00    0.55399   0.61732    0.036
 5266.00    0.54674   0.61400    0.037
 5267.00    0.54362   0.61312    0.038
 5268.00    0.52824   0.61300    0.037
 5269.00    0.51156   0.61232    0.037
 5270.00    0.53410   0.61319    0.037
 5271.00    0.55930   0.61684    0.037
 5272.00    0.58503   0.62134    0.037
 5273.00    0.61077   0.62525    0.037
 5274.00    0.64736   0.62909    0.037
 5275.00    0.68342   0.63304    0.037
 5276.00    0.70238   0.63704    0.037
 5277.00    0.71868   0.64091    0.037
 5278.00    0.69453   0.64375    0.037
 5279.00    0.67425   0.64509    0.036
 5280.00    0.69172   0.64560    0.036
 5281.00    0.70382   0.64613    0.036
 5282.00    0.67810   0.64686    0.036
 5283.00    0.66321   0.64734    0.036
 5284.00    0.70704   0.64822    0.036
 5285.00    0.74076   0.65063    0.036
 5286.00    0.73050   0.65371    0.037
 5287.00    0.73080   0.65613    0.037
 5288.00    0.76887   0.65783    0.037
 5289.00    0.79754   0.65934    0.038
 5290.00    0.79802   0.66036    0.037
 5291.00    0.78425   0.66009    0.037
 5292.00    0.73409   0.65841    0.037
 5293.00    0.71080   0.65597    0.037
 5294.00    0.74663   0.65332    0.037
 5295.00    0.75685   0.65026    0.037
 5296.00    0.71822   0.64688    0.038
 5297.00    0.69124   0.64364    0.038
 5298.00    0.68366   0.64158    0.038
 5299.00    0.68874   0.64140    0.037
 5300.00    0.71228   0.64231    0.038
 5301.00    0.72767   0.64347    0.038
 5302.00    0.73261   0.64518    0.037
 5303.00    0.72858   0.64770    0.037
 5304.00    0.71439   0.65031    0.038
 5305.00    0.73190   0.65230    0.037
 5306.00    0.78101   0.65341    0.037
 5307.00    0.80139   0.65383    0.037
 5308.00    0.79651   0.65400    0.037
 5309.00    0.79449   0.65417    0.037
 5310.00    0.79469   0.65392    0.037
 5311.00    0.75247   0.65271    0.037
 5312.00    0.68134   0.65098    0.036
 5313.00    0.68383   0.64941    0.036
 5314.00    0.73028   0.64803    0.036
 5315.00    0.74080   0.64627    0.036
 5316.00    0.73260   0.64428    0.036
 5317.00    0.72520   0.64316    0.035
 5318.00    0.71817   0.64290    0.035
 5319.00    0.68354   0.64225    0.035
 5320.00    0.63820   0.64087    0.035
 5321.00    0.66135   0.63943    0.035
 5322.00    0.70714   0.63765    0.035
 5323.00    0.69044   0.63461    0.035
 5324.00    0.65643   0.63067    0.036
 5325.00    0.65873   0.62772    0.035
 5326.00    0.66931   0.62601    0.035
 5327.00    0.62897   0.62432    0.035
 5328.00    0.57932   0.62272    0.035
 5329.00    0.58949   0.62372    0.035
 5330.00    0.60805   0.62765    0.035
 5331.00    0.63173   0.63218    0.035
 5332.00    0.65594   0.63451    0.035
 5333.00    0.68105   0.63605    0.035
 5334.00    0.70623   0.63844    0.035
 5335.00    0.69641   0.63989    0.035
 5336.00    0.68554   0.63908    0.036
 5337.00    0.66888   0.63740    0.035
 5338.00    0.65358   0.63640    0.035
 5339.00    0.67739   0.63535    0.035
 5340.00    0.70157   0.63371    0.035
 5341.00    0.73108   0.63286    0.035
 5342.00    0.75513   0.63349    0.035
 5343.00    0.72816   0.63435    0.035
 5344.00    0.70662   0.63484    0.035
 5345.00    0.72223   0.63540    0.036
 5346.00    0.73106   0.63670    0.036
 5347.00    0.70415   0.63836    0.036
 5348.00    0.67023   0.63971    0.035
 5349.00    0.60660   0.64104    0.035
 5350.00    0.57001   0.64311    0.035
 5351.00    0.62822   0.64579    0.038
 5352.00    0.67284   0.64803    0.041
 5353.00    0.67742   0.64975    0.042
 5354.00    0.70537   0.65170    0.042
 5355.00    0.79202   0.65339    0.043
 5356.00    0.83868   0.65403    0.042
 5357.00    0.79878   0.65367    0.038
 5358.00    0.77518   0.65280    0.036
 5359.00    0.78221   0.65145    0.037
 5360.00    0.76561   0.64927    0.037
 5361.00    0.71025   0.64618    0.036
 5362.00    0.69228   0.64295    0.036
 5363.00    0.72811   0.64009    0.036
 5364.00    0.73790   0.63720    0.036
 5365.00    0.71477   0.63400    0.036
 5366.00    0.68048   0.63091    0.035
 5367.00    0.63377   0.62833    0.035
 5368.00    0.62696   0.62640   -2.000
 5369.00    0.65936   0.62510   -2.000
 5370.00    0.67363   0.62446   -2.000
 5371.00    0.67217   0.62496   -2.000
 5372.00    0.64870   0.62700   -2.000
 5373.00    0.60842   0.63019   -2.000
 5374.00    0.60862   0.63354   -2.000
 5375.00    0.63602   0.63654   -2.000
 5376.00    0.72234   0.63870   -2.000
 5377.00    0.84332   0.63999   -2.000
 5378.00    0.84106   0.64065   -2.000
 5379.00    0.77561   0.64038   -2.000
 5380.00    0.70955   0.63941   -2.000
 5381.00    0.64323   0.63835   -2.000
 5382.00    0.65735   0.63748   -2.000
 5383.00    0.70217   0.63665    0.035
 5384.00    0.73446   0.63618    0.035
 5385.00    0.76269   0.63594    0.035
 5386.00    0.76306   0.63544    0.035
 5387.00    0.75587   0.63463    0.035
 5388.00    0.70884   0.63364    0.035
 5389.00    0.65295   0.63230    0.035
 5390.00    0.66766   0.63058    0.035
 5391.00    0.69493   0.62872    0.034
 5392.00    0.68361   0.62655    0.035
 5393.00    0.66707   0.62433    0.035
 5394.00    0.71824   0.62269    0.035
 5395.00    0.77596   0.62155    0.035
 5396.00    0.76257   0.62022    0.035
 5397.00    0.74490   0.61913    0.035
 5398.00    0.72669   0.61930    0.035
 5399.00    0.70829   0.61971    0.035
 5400.00    0.65953   0.61897    0.035
 5401.00    0.61163   0.61774    0.035
 5402.00    0.58585   0.61677    0.035
 5403.00    0.56066   0.61535    0.036
 5404.00    0.54341   0.61319    0.035
 5405.00    0.53786   0.61107    0.035
 5406.00    0.63743   0.61001    0.036
 5407.00    0.71459   0.61029    0.036
 5408.00    0.64356   0.61118    0.036
 5409.00    0.59041   0.61209    0.036
 5410.00    0.62923   0.61346    0.036
 5411.00    0.66690   0.61597    0.036
 5412.00    0.69977   0.61908    0.036
 5413.00    0.71947   0.62169    0.036
 5414.00    0.69391   0.62364    0.036
 5415.00    0.66127   0.62565    0.036
 5416.00    0.60813   0.62772    0.035
 5417.00    0.60056   0.62913    0.035
 5418.00    0.70552   0.62965    0.035
 5419.00    0.77030   0.62956    0.035
 5420.00    0.74951   0.62908    0.035
 5421.00    0.74156   0.62857    0.035
 5422.00    0.75737   0.62812    0.035
 5423.00    0.74697   0.62728    0.034
 5424.00    0.69421   0.62594    0.034
 5425.00    0.66649   0.62472    0.034
 5426.00    0.67426   0.62392    0.034
 5427.00    0.68658   0.62305    0.034
 5428.00    0.70457   0.62111    0.034
 5429.00    0.70971   0.61847    0.034
 5430.00    0.70071   0.61679    0.034
 5431.00    0.71203   0.61618    0.034
 5432.00    0.74305   0.61542    0.034
 5433.00    0.75199   0.61469    0.034
 5434.00    0.74206   0.61529    0.034
 5435.00    0.72910   0.61720    0.034
 5436.00    0.71386   0.61965    0.034
 5437.00    0.70261   0.62233    0.034
 5438.00    0.69401   0.62523    0.034
 5439.00    0.70729   0.62787    0.034
 5440.00    0.73324   0.62962    0.034
 5441.00    0.74722   0.63015    0.034
 5442.00    0.75515   0.62931    0.034
 5443.00    0.75587   0.62762    0.034
 5444.00    0.75343   0.62546    0.034
 5445.00    0.76958   0.62276    0.035
 5446.00    0.79268   0.61987    0.035
 5447.00    0.75045   0.61794    0.035
 5448.00    0.68743   0.61748    0.035
 5449.00    0.68304   0.61739    0.035
 5450.00    0.69423   0.61689    0.035
 5451.00    0.65491   0.61624    0.035
 5452.00    0.60461   0.61585    0.035
 5453.00    0.64541   0.61546    0.036
 5454.00    0.70195   0.61444    0.036
 5455.00    0.68068   0.61303    0.036
 5456.00    0.64921   0.61255    0.036
 5457.00    0.67170   0.61311    0.036
 5458.00    0.69918   0.61353    0.035
 5459.00    0.73032   0.61347    0.035
 5460.00    0.76168   0.61371    0.036
 5461.00    0.74829   0.61414    0.035
 5462.00    0.73376   0.61415    0.035
 5463.00    0.70423   0.61384    0.035
 5464.00    0.67704   0.61416    0.035
 5465.00    0.70501   0.61489    0.035
 5466.00    0.73076   0.61512    0.034
 5467.00    0.72787   0.61518    0.035
 5468.00    0.71857   0.61545    0.035
 5469.00    0.65376   0.61511    0.034
 5470.00    0.60403   0.61394    0.034
 5471.00    0.65098   0.61255    0.034
 5472.00    0.68612   0.61057    0.034
 5473.00    0.66209   0.60804    0.034
 5474.00    0.63547   0.60610    0.034
 5475.00    0.59832   0.60471    0.033
 5476.00    0.57473   0.60290    0.033
 5477.00    0.59677   0.60175    0.034
 5478.00    0.61336   0.60238   -2.000
 5479.00    0.61445   0.60367   -2.000
 5480.00    0.61305   0.60457   -2.000
 5481.00    0.60557   0.60578   -2.000
 5482.00    0.58738   0.60775   -2.000
 5483.00    0.54671   0.60966   -2.000
 5484.00    0.47259   0.61121   -2.000
 5485.00    0.33752   0.61325   -2.000
 5486.00    0.18635   0.61495   -2.000
 5487.00    0.00953   0.61559   -2.000
 5488.00    0.02117   0.61637   -2.000
 5489.00    0.29609   0.61799   -2.000
 5490.00    0.57948   0.61848   -2.000
 5491.00    0.87328   0.61756   -2.000
 5492.00    1.03537   0.61692   -2.000
 5493.00    1.05472   0.61619   -2.000
 5494.00    1.02106   0.61497   -2.000
 5495.00    0.93674   0.61396   -2.000
 5496.00    0.87067   0.61290   -2.000
 5497.00    0.81998   0.61121   -2.000
 5498.00    0.73950   0.61013   -2.000
 5499.00    0.63690   0.60994   -2.000
 5500.00    0.59959   0.60917   -2.000
 5501.00    0.60482   0.60762   -2.000
 5502.00    0.60644   0.60646 1565.789
 5503.00    0.60600   0.60598 1565.789
 5504.00    0.61739   0.60557    0.103
 5505.00    0.63466   0.60465    0.041
 5506.00    0.66473   0.60353    0.035
 5507.00    0.70030   0.60311    0.034
 5508.00    0.70770   0.60320    0.034
 5509.00    0.70473   0.60277    0.034
 5510.00    0.67072   0.60210    0.034
 5511.00    0.62702   0.60199    0.034
 5512.00    0.62339   0.60225    0.034
 5513.00    0.63019   0.60256    0.033
 5514.00    0.61454   0.60348    0.033
 5515.00    0.59413   0.60504    0.033
 5516.00    0.64057   0.60666    0.033
 5517.00    0.69824   0.60821    0.034
 5518.00    0.67915   0.61005    0.034
 5519.00    0.65034   0.61150    0.033
 5520.00    0.66747   0.61207    0.033
 5521.00    0.68866   0.61193    0.033
 5522.00    0.70565   0.61146    0.033
 5523.00    0.72241   0.61029    0.032
 5524.00    0.70476   0.60837    0.032
 5525.00    0.68678   0.60640    0.033
 5526.00    0.69223   0.60488    0.032
 5527.00    0.69723   0.60333    0.032
 5528.00    0.69281   0.60200    0.032
 5529.00    0.68973   0.60179    0.032
 5530.00    0.70315   0.60224    0.032
 5531.00    0.71454   0.60243    0.033
 5532.00    0.70904   0.60277    0.033
 5533.00    0.70236   0.60351    0.033
 5534.00    0.68828   0.60404    0.033
 5535.00    0.67874   0.60439    0.033
 5536.00    0.69134   0.60521    0.033
 5537.00    0.69918   0.60619    0.033
 5538.00    0.68814   0.60677    0.033
 5539.00    0.68249   0.60744    0.033
 5540.00    0.69464   0.60827    0.034
 5541.00    0.71083   0.60870    0.034
 5542.00    0.73831   0.60865    0.034
 5543.00    0.75878   0.60859    0.034
 5544.00    0.76252   0.60866    0.034
 5545.00    0.76123   0.60877    0.034
 5546.00    0.74958   0.60895    0.034
 5547.00    0.73513   0.60940    0.034
 5548.00    0.71567   0.60982    0.034
 5549.00    0.71741   0.61003    0.034
 5550.00    0.75240   0.61003    0.034
 5551.00    0.76723   0.60978    0.034
 5552.00    0.75428   0.60911    0.034
 5553.00    0.73956   0.60809    0.034
 5554.00    0.72267   0.60700    0.034
 5555.00    0.71078   0.60613    0.034
 5556.00    0.70421   0.60532    0.034
 5557.00    0.69503   0.60442    0.034
 5558.00    0.68339   0.60358    0.034
 5559.00    0.68983   0.60284    0.033
 5560.00    0.71128   0.60209    0.033
 5561.00    0.70392   0.60123    0.033
 5562.00    0.67548   0.60011    0.032
 5563.00    0.68835   0.59903    0.032
 5564.00    0.72774   0.59830    0.032
 5565.00    0.73818   0.59743    0.032
 5566.00    0.73234   0.59643    0.032
 5567.00    0.70234   0.59593    0.032
 5568.00    0.66053   0.59552    0.032
 5569.00    0.63880   0.59473    0.032
 5570.00    0.62555   0.59443    0.032
 5571.00    0.65572   0.59478    0.032
 5572.00    0.70159   0.59467    0.032
 5573.00    0.71395   0.59455    0.032
 5574.00    0.71607   0.59533    0.032
 5575.00    0.70515   0.59629    0.032
 5576.00    0.69091   0.59685    0.032
 5577.00    0.70398   0.59745    0.032
 5578.00    0.72272   0.59806    0.032
 5579.00    0.73388   0.59836    0.032
 5580.00    0.74381   0.59817    0.032
 5581.00    0.72903   0.59728    0.032
 5582.00    0.71124   0.59571    0.033
 5583.00    0.70826   0.59377    0.033
 5584.00    0.70652   0.59160    0.033
 5585.00    0.62531   0.58901    0.032
 5586.00    0.54026   0.58629    0.032
 5587.00    0.55103   0.58423    0.032
 5588.00    0.56353   0.58301    0.033
 5589.00    0.59354   0.58231    0.033
 5590.00    0.62217   0.58228    0.034
 5591.00    0.62346   0.58311    0.034
 5592.00    0.62514   0.58435    0.034
 5593.00    0.63141   0.58536    0.034
 5594.00    0.63854   0.58589    0.034
 5595.00    0.65256   0.58658    0.034
 5596.00    0.65826   0.58727    0.034
 5597.00    0.61371   0.58687    0.034
 5598.00    0.58828   0.58579    0.034
 5599.00    0.65406   0.58543    0.034
 5600.00    0.69969   0.58564    0.033
 5601.00    0.66707   0.58583    0.033
 5602.00    0.64548   0.58651    0.033
 5603.00    0.65957   0.58821    0.033
 5604.00    0.66444   0.59063    0.033
 5605.00    0.64409   0.59312    0.033
 5606.00    0.64785   0.59541    0.032
 5607.00    0.70820   0.59729    0.032
 5608.00    0.74714   0.59856    0.032
 5609.00    0.74266   0.59910    0.032
 5610.00    0.74271   0.59863    0.031
 5611.00    0.75077   0.59711    0.030
 5612.00    0.74718   0.59510    0.030
 5613.00    0.72557   0.59316    0.031
 5614.00    0.69954   0.59076    0.031
 5615.00    0.66751   0.58790    0.031
 5616.00    0.65134   0.58617    0.030
 5617.00    0.65413   0.58582    0.030
 5618.00    0.64840   0.58547    0.030
 5619.00    0.63369   0.58499    0.030
 5620.00    0.62564   0.58514    0.030
 5621.00    0.62378   0.58580    0.030
 5622.00    0.64378   0.58631    0.030
 5623.00    0.68168   0.58642    0.031
 5624.00    0.68195   0.58638    0.031
 5625.00    0.65510   0.58690    0.031
 5626.00    0.63449   0.58787    0.032
 5627.00    0.61784   0.58865    0.032
 5628.00    0.61111   0.58935    0.032
 5629.00    0.60987   0.59033    0.032
 5630.00    0.63601   0.59106    0.032
 5631.00    0.67534   0.59132    0.032
 5632.00    0.69788   0.59119    0.031
 5633.00    0.71346   0.59060    0.031
 5634.00    0.69531   0.58968    0.031
 5635.00    0.66518   0.58865    0.032
 5636.00    0.65949   0.58741    0.032
 5637.00    0.66113   0.58603    0.032
 5638.00    0.63355   0.58499    0.032
 5639.00    0.59869   0.58446    0.031
 5640.00    0.63415   0.58395    0.031
 5641.00    0.68382   0.58346    0.031
 5642.00    0.66959   0.58362    0.031
 5643.00    0.64524   0.58408    0.031
 5644.00    0.64679   0.58449    0.031
 5645.00    0.65139   0.58499    0.031
 5646.00    0.68232   0.58558    0.031
 5647.00    0.71536   0.58618    0.030
 5648.00    0.68591   0.58674    0.030
 5649.00    0.65369   0.58710    0.030
 5650.00    0.64078   0.58705    0.030
 5651.00    0.62897   0.58681    0.030
 5652.00    0.65925   0.58654    0.030
 5653.00    0.68782   0.58580    0.030
 5654.00    0.68471   0.58409    0.030
 5655.00    0.68038   0.58225    0.029
 5656.00    0.66267   0.58110    0.030
 5657.00    0.64874   0.57955    0.030
 5658.00    0.66410   0.57733    0.030
 5659.00    0.67736   0.57625    0.030
 5660.00    0.67829   0.57658    0.030
 5661.00    0.67310   0.57668    0.030
 5662.00    0.63943   0.57654    0.030
 5663.00    0.61934   0.57727    0.030
 5664.00    0.65085   0.57867    0.030
 5665.00    0.67950   0.57978    0.030
 5666.00    0.69905   0.58043    0.031
 5667.00    0.70381   0.58123    0.031
 5668.00    0.66881   0.58236    0.031
 5669.00    0.64299   0.58329    0.031
 5670.00    0.63834   0.58404    0.031
 5671.00    0.63802   0.58492    0.031
 5672.00    0.64635   0.58591    0.031
 5673.00    0.64894   0.58672    0.031
 5674.00    0.64153   0.58712    0.031
 5675.00    0.64491   0.58718    0.031
 5676.00    0.66472   0.58717    0.032
 5677.00    0.69329   0.58693    0.032
 5678.00    0.73357   0.58607    0.032
 5679.00    0.72809   0.58498    0.032
 5680.00    0.66870   0.58409    0.031
 5681.00    0.64149   0.58311    0.031
 5682.00    0.64771   0.58176    0.031
 5683.00    0.65169   0.58061    0.030
 5684.00    0.65361   0.58002    0.030
 5685.00    0.65222   0.57953    0.030
 5686.00    0.64814   0.57913    0.030
 5687.00    0.65456   0.57918    0.030
 5688.00    0.66844   0.57966    0.030
 5689.00    0.69261   0.58049    0.030
 5690.00    0.72318   0.58145    0.030
 5691.00    0.72098   0.58225    0.030
 5692.00    0.70092   0.58300    0.030
 5693.00    0.71181   0.58353    0.030
 5694.00    0.73734   0.58333    0.030
 5695.00    0.73509   0.58270    0.030
 5696.00    0.72149   0.58213    0.030
 5697.00    0.71317   0.58104    0.030
 5698.00    0.70669   0.57938    0.030
 5699.00    0.69551   0.57818    0.030
 5700.00    0.68295   0.57720    0.030
 5701.00    0.66974   0.57579    0.031
 5702.00    0.65637   0.57449    0.031
 5703.00    0.64997   0.57363    0.031
 5704.00    0.64494   0.57265    0.031
 5705.00    0.67461   0.57121    0.031
 5706.00    0.70960   0.56985    0.031
 5707.00    0.68447   0.56887    0.031
 5708.00    0.65253   0.56796    0.030
 5709.00    0.62393   0.56733    0.030
 5710.00    0.59557   0.56771    0.030
 5711.00    0.63601   0.56864    0.030
 5712.00    0.67925   0.56982    0.030
 5713.00    0.67314   0.57183    0.030
 5714.00    0.66652   0.57409    0.031
 5715.00    0.65505   0.57602    0.031
 5716.00    0.64524   0.57791    0.031
 5717.00    0.66410   0.57964    0.030
 5718.00    0.68410   0.58099    0.029
 5719.00    0.71615   0.58204    0.030
 5720.00    0.74369   0.58279    0.030
 5721.00    0.73735   0.58320    0.030
 5722.00    0.73066   0.58338    0.030
 5723.00    0.72203   0.58316    0.029
 5724.00    0.71643   0.58255    0.029
 5725.00    0.72463   0.58198    0.029
 5726.00    0.72726   0.58126    0.029
 5727.00    0.70919   0.58040    0.029
 5728.00    0.69527   0.57983    0.029
 5729.00    0.69426   0.57972    0.029
 5730.00    0.68959   0.57973    0.029
 5731.00    0.67527   0.57974    0.029
 5732.00    0.66553   0.58012    0.029
 5733.00    0.66621   0.58074    0.029
 5734.00    0.67222   0.58118    0.029
 5735.00    0.68871   0.58137    0.029
 5736.00    0.70022   0.58148    0.030
 5737.00    0.70320   0.58146    0.030
 5738.00    0.70656   0.58124    0.030
 5739.00    0.71049   0.58095    0.030
 5740.00    0.69895   0.58075    0.000
 5741.00    0.66700   0.58051    0.000
 5742.00    0.66175   0.58040    0.000
 5743.00    0.68747   0.58033    0.000
 5744.00    0.70407   0.58010    0.000
 5745.00    0.71131   0.57989    0.000
 5746.00    0.70921   0.57981    0.000
 5747.00    0.69868   0.57932    0.000
 5748.00    0.69496   0.57852    0.000
 5749.00    0.69667   0.57809    0.000
 5750.00    0.69440   0.57752    0.000
 5751.00    0.68936   0.57663    0.000
 5752.00    0.69588   0.57595    0.000
 5753.00    0.70950   0.57538    0.000
 5754.00    0.69566   0.57488    0.000
 5755.00    0.66710   0.57478    0.000
 5756.00    0.66190   0.57489    0.000
 5757.00    0.66757   0.57486    0.000
 5758.00    0.67807   0.57475    0.000
 5759.00    0.69050   0.57446    0.000
 5760.00    0.68359   0.57413    0.000
 5761.00    0.67006   0.57380    0.000
 5762.00    0.65743   0.57337    0.000
 5763.00    0.64507   0.57322    0.000
 5764.00    0.65155   0.57366    0.000
 5765.00    0.66252   0.57410    0.000
 5766.00    0.66018   0.57450    0.000
 5767.00    0.65529   0.57509    0.000
 5768.00    0.65520   0.57551    0.000
 5769.00    0.65583   0.57565    0.000
 5770.00    0.67393   0.57570    0.000
 5771.00    0.69394   0.57562    0.000
 5772.00    0.68565   0.57526    0.000
 5773.00    0.67534   0.57487    0.000
 5774.00    0.68042   0.57433    0.000
 5775.00    0.68607   0.57349    0.000
 5776.00    0.69605   0.57256    0.000
 5777.00    0.70681   0.57129    0.000
 5778.00    0.74526   0.56954    0.000
 5779.00    0.78083   0.56785    0.000
 5780.00    0.77012   0.56611    0.000
 5781.00    0.75686   0.56401    0.000
 5782.00    0.71776   0.56258    0.000
 5783.00    0.68244   0.56212    0.000
 5784.00    0.67456   0.56168    0.000
 5785.00    0.66624   0.56157    0.000
 5786.00    0.65545   0.56259    0.000
 5787.00    0.64849   0.56376    0.000
 5788.00    0.65853   0.56462    0.000
 5789.00    0.66557   0.56587    0.000
 5790.00    0.66167   0.56705    0.000
 5791.00    0.66682   0.56780   -2.000
 5792.00    0.69960   0.56864   -2.000
 5793.00    0.71296   0.56952   -2.000
 5794.00    0.67591   0.57004   -2.000
 5795.00    0.64147   0.57058   -2.000
 5796.00    0.61283   0.57130   -2.000
 5797.00    0.60524   0.57173   -2.000
 5798.00    0.63835   0.57205   -2.000
 5799.00    0.66262   0.57276   -2.000
 5800.00    0.67199   0.57344   -2.000
 5801.00    0.66981   0.57364   -2.000
 5802.00    0.65059   0.57391   -2.000
 5803.00    0.64546   0.57413   -2.000
 5804.00    0.65863   0.57392   -2.000
 5805.00    0.68768   0.57364   -2.000
 5806.00    0.73488   0.57347   -2.000
 5807.00    0.75132   0.57333   -2.000
 5808.00    0.73668   0.57314   -2.000
 5809.00    0.71679   0.57290   -2.000
 5810.00    0.69222   0.57267   -2.000
 5811.00    0.67774   0.57243    0.000
 5812.00    0.67117   0.57200    0.000
 5813.00    0.65027   0.57144    0.000
 5814.00    0.61946   0.57112    0.000
 5815.00    0.62688   0.57097    0.000
 5816.00    0.65743   0.57082    0.000
 5817.00    0.66981   0.57100    0.000
 5818.00    0.67259   0.57152    0.000
 5819.00    0.67634   0.57191    0.000
 5820.00    0.68053   0.57224    0.000
 5821.00    0.67501   0.57265    0.000
 5822.00    0.66565   0.57285    0.000
 5823.00    0.67506   0.57295    0.000
 5824.00    0.69077   0.57303    0.000
 5825.00    0.71297   0.57319    0.000
 5826.00    0.73699   0.57332    0.000
 5827.00    0.72836   0.57345    0.000
 5828.00    0.71214   0.57363    0.000
 5829.00    0.70656   0.57371    0.000
 5830.00    0.70296   0.57368    0.000
 5831.00    0.72139   0.57356    0.000
 5832.00    0.74300   0.57338    0.000
 5833.00    0.73201   0.57313    0.000
 5834.00    0.71762   0.57279    0.000
 5835.00    0.68754   0.57245    0.000
 5836.00    0.65639   0.57225    0.000
 5837.00    0.64262   0.57211    0.000
 5838.00    0.62942   0.57194    0.000
 5839.00    0.64050   0.57177    0.000
 5840.00    0.65087   0.57171    0.000
 5841.00    0.63840   0.57156    0.000
 5842.00    0.62769   0.57103    0.000
 5843.00    0.64339   0.57032    0.000
 5844.00    0.66009   0.56949    0.000
 5845.00    0.68656   0.56851    0.000
 5846.00    0.70633   0.56725    0.000
 5847.00    0.67911   0.56591    0.000
 5848.00    0.65841   0.56480    0.000
 5849.00    0.67297   0.56348    0.000
 5850.00    0.68157   0.56187    0.000
 5851.00    0.66433   0.56049    0.000
 5852.00    0.65266   0.55908    0.000
 5853.00    0.66092   0.55731    0.000
 5854.00    0.66517   0.55579    0.000
 5855.00    0.65741   0.55467    0.000
 5856.00    0.64381   0.55361    0.000
 5857.00    0.61530   0.55275    0.000
 5858.00    0.58965   0.55241    0.000
 5859.00    0.57027   0.55261    0.000
 5860.00    0.56716   0.55314    0.000
 5861.00    0.59500   0.55381    0.000
 5862.00    0.60875   0.55448    0.000
 5863.00    0.59908   0.55529    0.000
 5864.00    0.59921   0.55616    0.000
 5865.00    0.61365   0.55685    0.000
 5866.00    0.64052   0.55732    0.000
 5867.00    0.68331   0.55775    0.000
 5868.00    0.70321   0.55822    0.000
 5869.00    0.69726   0.55836    0.000
 5870.00    0.68672   0.55815    0.000
 5871.00    0.67162   0.55776    0.000
 5872.00    0.66442   0.55697    0.000
 5873.00    0.66416   0.55599    0.000
 5874.00    0.66150   0.55496    0.000
 5875.00    0.65698   0.55390    0.000
 5876.00    0.64591   0.55284    0.000
 5877.00    0.63038   0.55201    0.000
 5878.00    0.61750   0.55154    0.000
 5879.00    0.60620   0.55086    0.000
 5880.00    0.61057   0.54998    0.000
 5881.00    0.62309   0.54906    0.000
 5882.00    0.63641   0.54768    0.000
 5883.00    0.65009   0.54531    0.000
 5884.00    0.63208   0.54222    0.000
 5885.00    0.60179   0.53835    0.000
 5886.00    0.57911   0.53326    0.000
 5887.00    0.55895   0.52784    0.000
 5888.00    0.53732   0.52284    0.000
 5889.00    0.51530   0.51731    0.000
 5890.00    0.52448   0.51253    0.000
 5891.00    0.54075   0.51053    0.000
 5892.00    0.53785   0.50898    0.000
 5893.00    0.53146   0.50791    0.000
 5894.00    0.53962   0.50930    0.000
 5895.00    0.54982   0.51089    0.000
 5896.00    0.53696   0.51250    0.000
 5897.00    0.52179   0.51647    0.000
 5898.00    0.52662   0.52100    0.000
 5899.00    0.53273   0.52470    0.000
 5900.00    0.56256   0.52913    0.000
 5901.00    0.59301   0.53381    0.027
 5902.00    0.60170   0.53733    0.027
 5903.00    0.61030   0.54021    0.027
 5904.00    0.61662   0.54282    0.027
 5905.00    0.62368   0.54458    0.027
 5906.00    0.64129   0.54556    0.027
 5907.00    0.65747   0.54626    0.027
 5908.00    0.66042   0.54672    0.027
 5909.00    0.66113   0.54652    0.027
 5910.00    0.64659   0.54594    0.027
 5911.00    0.63507   0.54552    0.027
 5912.00    0.63946   0.54486    0.027
 5913.00    0.64667   0.54387    0.027
 5914.00    0.66578   0.54318    0.027
 5915.00    0.68234   0.54290    0.028
 5916.00    0.69002   0.54264    0.028
 5917.00    0.69238   0.54274    0.028
 5918.00    0.67910   0.54305    0.028
 5919.00    0.66591   0.54334    0.028
 5920.00    0.65295   0.54393    0.028
 5921.00    0.64280   0.54436    0.028
 5922.00    0.63871   0.54459    0.027
 5923.00    0.64394   0.54502    0.027
 5924.00    0.66665   0.54523    0.027
 5925.00    0.68573   0.54517    0.028
 5926.00    0.69884   0.54517    0.027
 5927.00    0.69964   0.54498    0.027
 5928.00    0.68277   0.54478    0.027
 5929.00    0.66495   0.54466    0.027
 5930.00    0.64591   0.54444    0.027
 5931.00    0.63584   0.54442    0.027
 5932.00    0.63575   0.54466    0.026
 5933.00    0.64104   0.54482    0.026
 5934.00    0.65163   0.54483    0.027
 5935.00    0.66181   0.54504    0.027
 5936.00    0.67164   0.54534    0.027
 5937.00    0.67404   0.54529    0.027
 5938.00    0.67076   0.54501    0.027
 5939.00    0.66273   0.54488    0.027
 5940.00    0.65151   0.54464    0.026
 5941.00    0.65245   0.54396    0.027
 5942.00    0.66051   0.54352    0.027
 5943.00    0.65872   0.54335    0.027
 5944.00    0.65186   0.54285    0.026
 5945.00    0.65766   0.54236    0.026
 5946.00    0.66907   0.54209    0.027
 5947.00    0.67264   0.54178    0.027
 5948.00    0.67322   0.54125    0.027
 5949.00    0.66391   0.54067    0.027
 5950.00    0.65140   0.54034    0.027
 5951.00    0.64563   0.54020    0.027
 5952.00    0.64169   0.53979    0.027
 5953.00    0.63993   0.53931    0.027
 5954.00    0.63865   0.53951    0.026
 5955.00    0.63295   0.53978    0.027
 5956.00    0.62646   0.53964    0.027
 5957.00    0.63215   0.54008    0.027
 5958.00    0.63948   0.54095    0.027
 5959.00    0.64785   0.54158    0.027
 5960.00    0.65632   0.54234    0.027
 5961.00    0.66764   0.54323    0.027
 5962.00    0.67912   0.54393    0.027
 5963.00    0.71202   0.54442    0.027
 5964.00    0.74512   0.54485    0.026
 5965.00    0.72240   0.54508    0.027
 5966.00    0.69952   0.54516    0.027
 5967.00    0.67276   0.54536    0.026
 5968.00    0.64785   0.54539    0.026
 5969.00    0.64783   0.54528    0.026
 5970.00    0.64984   0.54517    0.026
 5971.00    0.66996   0.54481    0.026
 5972.00    0.68639   0.54418    0.026
 5973.00    0.67854   0.54344    0.026
 5974.00    0.67354   0.54249    0.026
 5975.00    0.68322   0.54141    0.026
 5976.00    0.68911   0.54050    0.026
 5977.00    0.67934   0.53970    0.026
 5978.00    0.66927   0.53888    0.026
 5979.00    0.65817   0.53838    0.026
 5980.00    0.65312   0.53807    0.026
 5981.00    0.66554   0.53755    0.027
 5982.00    0.67072   0.53723    0.027
 5983.00    0.65807   0.53700    0.027
 5984.00    0.64598   0.53656    0.027
 5985.00    0.63507   0.53655    0.027
 5986.00    0.62847   0.53688    0.027
 5987.00    0.62983   0.53709    0.027
 5988.00    0.63145   0.53756    0.027
 5989.00    0.63349   0.53839    0.027
 5990.00    0.64786   0.53911    0.027
 5991.00    0.67969   0.53961    0.027
 5992.00    0.68823   0.54013    0.027
 5993.00    0.66776   0.54049    0.026
 5994.00    0.65134   0.54048    0.026
 5995.00    0.63936   0.54028    0.026
 5996.00    0.63254   0.53993    0.026
 5997.00    0.63070   0.53934    0.026
 5998.00    0.63114   0.53870    0.026
 5999.00    0.63351   0.53815    0.026
 6000.00    0.62869   0.53755    0.026
 6001.00    0.61845   0.53693    0.026
 6002.00    0.61159   0.53637    0.026
 6003.00    0.60696   0.53574    0.026
 6004.00    0.61678   0.53519    0.026
 6005.00    0.63497   0.53468    0.026
 6006.00    0.63863   0.53416    0.026
 6007.00    0.63497   0.53380    0.026
 6008.00    0.64123   0.53357    0.026
 6009.00    0.65182   0.53347    0.026
 6010.00    0.64148   0.53352    0.026
 6011.00    0.62330   0.53367    0.026
 6012.00    0.61630   0.53379    0.027
 6013.00    0.61285   0.53363    0.027
 6014.00    0.63161   0.53360    0.027
 6015.00    0.65626   0.53372    0.028
 6016.00    0.66454   0.53331    0.028
 6017.00    0.66928   0.53284    0.028
 6018.00    0.65223   0.53279    0.027
 6019.00    0.63144   0.53254    0.026
 6020.00    0.62500   0.53214    0.026
 6021.00    0.62044   0.53206    0.027
 6022.00    0.62104   0.53233    0.026
 6023.00    0.62211   0.53265    0.026
 6024.00    0.61051   0.53291    0.026
 6025.00    0.59821   0.53375    0.026
 6026.00    0.61629   0.53473    0.025
 6027.00    0.63497   0.53533    0.025
 6028.00    0.64793   0.53631    0.026
 6029.00    0.65989   0.53739    0.026
 6030.00    0.64873   0.53809    0.026
 6031.00    0.63932   0.53877    0.026
 6032.00    0.65243   0.53942    0.026
 6033.00    0.66477   0.53982    0.026
 6034.00    0.67046   0.53999    0.026
 6035.00    0.67833   0.54007    0.026
 6036.00    0.70017   0.53996    0.026
 6037.00    0.71870   0.53970    0.027
 6038.00    0.72073   0.53945    0.027
 6039.00    0.71822   0.53923    0.027
 6040.00    0.69733   0.53902    0.026
 6041.00    0.67611   0.53896    0.026
 6042.00    0.65381   0.53910    0.027
 6043.00    0.63987   0.53924    0.027
 6044.00    0.64962   0.53945    0.027
 6045.00    0.66286   0.53981    0.027
 6046.00    0.68455   0.53995    0.027
 6047.00    0.69994   0.54001    0.027
 6048.00    0.70214   0.54015    0.026
 6049.00    0.69718   0.53988    0.026
 6050.00    0.67919   0.53946    0.026
 6051.00    0.66205   0.53912    0.026
 6052.00    0.64629   0.53846    0.026
 6053.00    0.63273   0.53766    0.026
 6054.00    0.62226   0.53706    0.026
 6055.00    0.62407   0.53645    0.026
 6056.00    0.64097   0.53581    0.026
 6057.00    0.65765   0.53535    0.026
 6058.00    0.67409   0.53498    0.026
 6059.00    0.68886   0.53449    0.026
 6060.00    0.70204   0.53396    0.026
 6061.00    0.70206   0.53346    0.026
 6062.00    0.69103   0.53273    0.026
 6063.00    0.68816   0.53221    0.026
 6064.00    0.69134   0.53206    0.026
 6065.00    0.69900   0.53179    0.026
 6066.00    0.70959   0.53206    0.026
 6067.00    0.70621   0.53299    0.026
 6068.00    0.69489   0.53377    0.026
 6069.00    0.68722   0.53474    0.026
 6070.00    0.68137   0.53582    0.026
 6071.00    0.68058   0.53654    0.026
 6072.00    0.68196   0.53705    0.026
 6073.00    0.69003   0.53713    0.026
 6074.00    0.70057   0.53677    0.026
 6075.00    0.71950   0.53617    0.026
 6076.00    0.74103   0.53519    0.027
 6077.00    0.73341   0.53408    0.027
 6078.00    0.71823   0.53286    0.026
 6079.00    0.69114   0.53164    0.026
 6080.00    0.66152   0.53081    0.026
 6081.00    0.64592   0.53001    0.026
 6082.00    0.63267   0.52929    0.026
 6083.00    0.64833   0.52914    0.026
 6084.00    0.66764   0.52908    0.026
 6085.00    0.66064   0.52896    0.026
 6086.00    0.65133   0.52908    0.026
 6087.00    0.64753   0.52919    0.026
 6088.00    0.64401   0.52925    0.025
 6089.00    0.64719   0.52932    0.025
 6090.00    0.65037   0.52932    0.025
 6091.00    0.64514   0.52944    0.025
 6092.00    0.64036   0.52969    0.025
 6093.00    0.64506   0.52980    0.025
 6094.00    0.64933   0.52995    0.026
 6095.00    0.64837   0.53015    0.025
 6096.00    0.64733   0.52989    0.025
 6097.00    0.64564   0.52942    0.026
 6098.00    0.64552   0.52885    0.026
 6099.00    0.65516   0.52768    0.026
 6100.00    0.65989   0.52654    0.026
 6101.00    0.64074   0.52580    0.026
 6102.00    0.62989   0.52470    0.026
 6103.00    0.65187   0.52408    0.026
 6104.00    0.66923   0.52446    0.027
 6105.00    0.67136   0.52474    0.027
 6106.00    0.67214   0.52532    0.027
 6107.00    0.66918   0.52644    0.026
 6108.00    0.66291   0.52728    0.026
 6109.00    0.64878   0.52817    0.026
 6110.00    0.64252   0.52908    0.025
 6111.00    0.65246   0.52954    0.025
 6112.00    0.66339   0.52996    0.026
 6113.00    0.67608   0.53020    0.026
 6114.00    0.67776   0.53003    0.026
 6115.00    0.66224   0.52978    0.026
 6116.00    0.65209   0.52904    0.026
 6117.00    0.64934   0.52806    0.026
 6118.00    0.64815   0.52714    0.025
 6119.00    0.64886   0.52567    0.025
 6120.00    0.64891   0.52442    0.025
 6121.00    0.64824   0.52361    0.025
 6122.00    0.64541   0.52249    0.026
 6123.00    0.64055   0.52201    0.026
 6124.00    0.64373   0.52229    0.025
 6125.00    0.65358   0.52220    0.025
 6126.00    0.66827   0.52245    0.025
 6127.00    0.68649   0.52328    0.025
 6128.00    0.69987   0.52353    0.025
 6129.00    0.71015   0.52349    0.026
 6130.00    0.71287   0.52358    0.026
 6131.00    0.71136   0.52293    0.026
 6132.00    0.69906   0.52167    0.026
 6133.00    0.68151   0.52035    0.026
 6134.00    0.66245   0.51858    0.026
 6135.00    0.64276   0.51685    0.026
 6136.00    0.63235   0.51563    0.026
 6137.00    0.62530   0.51458    0.027
 6138.00    0.62506   0.51424    0.027
 6139.00    0.62689   0.51495    0.027
 6140.00    0.63276   0.51589    0.026
 6141.00    0.63966   0.51695    0.026
 6142.00    0.63443   0.51856    0.026
 6143.00    0.62669   0.52006    0.026
 6144.00    0.62426   0.52107    0.025
 6145.00    0.62268   0.52187    0.025
 6146.00    0.63901   0.52226    0.025
 6147.00    0.65752   0.52229    0.025
 6148.00    0.66200   0.52197    0.025
 6149.00    0.66531   0.52139    0.025
 6150.00    0.66675   0.52092    0.025
 6151.00    0.66811   0.52023    0.025
 6152.00    0.65599   0.51937    0.025
 6153.00    0.64356   0.51877    0.025
 6154.00    0.62445   0.51772    0.025
 6155.00    0.60629   0.51616    0.025
 6156.00    0.60662   0.51473    0.025
 6157.00    0.60741   0.51274    0.025
 6158.00    0.61350   0.51004    0.026
 6159.00    0.61870   0.50761    0.026
 6160.00    0.61679   0.50516    0.026
 6161.00    0.61277   0.50257    0.026
 6162.00    0.59613   0.50071    0.026
 6163.00    0.58078   0.49935    0.026
 6164.00    0.57163   0.49853    0.026
 6165.00    0.56550   0.49846    0.026
 6166.00    0.57109   0.49832    0.026
 6167.00    0.57488   0.49869    0.025
 6168.00    0.57288   0.49963    0.025
 6169.00    0.57559   0.49996    0.025
 6170.00    0.59118   0.50054    0.025
 6171.00    0.60190   0.50181    0.025
 6172.00    0.60119   0.50269    0.025
 6173.00    0.59687   0.50349    0.025
 6174.00    0.58523   0.50474    0.025
 6175.00    0.58390   0.50589    0.025
 6176.00    0.60071   0.50675    0.025
 6177.00    0.60961   0.50762    0.025
 6178.00    0.60630   0.50847    0.025
 6179.00    0.60347   0.50914    0.025
 6180.00    0.60130   0.50948    0.025
 6181.00    0.60290   0.50966    0.025
 6182.00    0.60901   0.50977    0.025
 6183.00    0.61321   0.50936    0.025
 6184.00    0.61542   0.50859    0.025
 6185.00    0.61201   0.50776    0.025
 6186.00    0.60338   0.50669    0.025
 6187.00    0.59401   0.50545    0.025
 6188.00    0.58402   0.50414    0.026
 6189.00    0.58019   0.50329    0.026
 6190.00    0.58078   0.50285    0.026
 6191.00    0.57830   0.50227    0.026
 6192.00    0.57387   0.50240    0.026
 6193.00    0.56671   0.50316    0.026
 6194.00    0.55805   0.50351    0.026
 6195.00    0.53098   0.50410    0.026
 6196.00    0.49508   0.50491   -2.000
 6197.00    0.38621   0.50524   -2.000
 6198.00    0.24710   0.50564   -2.000
 6199.00    0.22233   0.50605   -2.000
 6200.00    0.23808   0.50624   -2.000
 6201.00    0.33491   0.50678   -2.000
 6202.00    0.45601   0.50733   -2.000
 6203.00    0.57956   0.50773   -2.000
 6204.00    0.70372   0.50832   -2.000
 6205.00    0.73240   0.50870   -2.000
 6206.00    0.74185   0.50879   -2.000
 6207.00    0.68875   0.50857   -2.000
 6208.00    0.62579   0.50799    0.026
 6209.00    0.59430   0.50709    0.026
 6210.00    0.56651   0.50562    0.025
 6211.00    0.56562   0.50405    0.025
 6212.00    0.56686   0.50251    0.025
 6213.00    0.56747   0.50058    0.025
 6214.00    0.56805   0.49912    0.025
 6215.00    0.58169   0.49810    0.025
 6216.00    0.59474   0.49698    0.025
 6217.00    0.57255   0.49653    0.025
 6218.00    0.55130   0.49648    0.025
 6219.00    0.54733   0.49633    0.025
 6220.00    0.54496   0.49650    0.025
 6221.00    0.56020   0.49677    0.025
 6222.00    0.57544   0.49694    0.025
 6223.00    0.59068   0.49705    0.025
 6224.00    0.60566   0.49688    0.025
 6225.00    0.61917   0.49666    0.025
 6226.00    0.62621   0.49628    0.025
 6227.00    0.60325   0.49544    0.025
 6228.00    0.58423   0.49477    0.025
 6229.00    0.58018   0.49434    0.025
 6230.00    0.57715   0.49356    0.025
 6231.00    0.57736   0.49330    0.025
 6232.00    0.58011   0.49365    0.025
 6233.00    0.58965   0.49368    0.025
 6234.00    0.59755   0.49391    0.025
 6235.00    0.60170   0.49447    0.025
 6236.00    0.60829   0.49453    0.025
 6237.00    0.61973   0.49412    0.025
 6238.00    0.62607   0.49390    0.025
 6239.00    0.62356   0.49338    0.025
 6240.00    0.61426   0.49217    0.025
 6241.00    0.59465   0.49159    0.025
 6242.00    0.58273   0.49113    0.025
 6243.00    0.58110   0.49003    0.025
 6244.00    0.58490   0.48990    0.025
 6245.00    0.59508   0.49006    0.025
 6246.00    0.60597   0.48957    0.025
 6247.00    0.61758   0.48974    0.025
 6248.00    0.62396   0.49003    0.025
 6249.00    0.62555   0.48950    0.025
 6250.00    0.62820   0.48910    0.025
 6251.00    0.63172   0.48872    0.025
 6252.00    0.62195   0.48762    0.025
 6253.00    0.60275   0.48669    0.025
 6254.00    0.59310   0.48612    0.025
 6255.00    0.58938   0.48527    0.025
 6256.00    0.57853   0.48495    0.025
 6257.00    0.56381   0.48533    0.025
 6258.00    0.54043   0.48556    0.025
 6259.00    0.51296   0.48643    0.026
 6260.00    0.46986   0.48799    0.027
 6261.00    0.42040   0.48909    0.029
 6262.00    0.42010   0.49040    0.030
 6263.00    0.43691   0.49210    0.031
 6264.00    0.49077   0.49309    0.031
 6265.00    0.55551   0.49397    0.030
 6266.00    0.61183   0.49496    0.029
 6267.00    0.66612   0.49546    0.028
 6268.00    0.65878   0.49598    0.027
 6269.00    0.63936   0.49641    0.026
 6270.00    0.60747   0.49660    0.025
 6271.00    0.57369   0.49699    0.025
 6272.00    0.57185   0.49716    0.025
 6273.00    0.57362   0.49709    0.025
 6274.00    0.58501   0.49713    0.025
 6275.00    0.59713   0.49687    0.025
 6276.00    0.60704   0.49639    0.025
 6277.00    0.61685   0.49612    0.025
 6278.00    0.63010   0.49576    0.025
 6279.00    0.64274   0.49529    0.025
 6280.00    0.62978   0.49532    0.000
 6281.00    0.61710   0.49560    0.000
 6282.00    0.60909   0.49573    0.000
 6283.00    0.60267   0.49644    0.000
 6284.00    0.61295   0.49731    0.000
 6285.00    0.62236   0.49774    0.000
 6286.00    0.62542   0.49847    0.000
 6287.00    0.62799   0.49902    0.000
 6288.00    0.62782   0.49905    0.000
 6289.00    0.62952   0.49905    0.000
 6290.00    0.63969   0.49865    0.000
 6291.00    0.64809   0.49809    0.000
 6292.00    0.64990   0.49737    0.000
 6293.00    0.64952   0.49634    0.000
 6294.00    0.64237   0.49550    0.000
 6295.00    0.63342   0.49450    0.000
 6296.00    0.61973   0.49341    0.000
 6297.00    0.61688   0.49260    0.000
 6298.00    0.63858   0.49174    0.000
 6299.00    0.65674   0.49124    0.000
 6300.00    0.66799   0.49104    0.000
 6301.00    0.67237   0.49093    0.000
 6302.00    0.66501   0.49134    0.000
 6303.00    0.66122   0.49202    0.000
 6304.00    0.66278   0.49286    0.000
 6305.00    0.66671   0.49383    0.000
 6306.00    0.67374   0.49459    0.000
 6307.00    0.67198   0.49542    0.000
 6308.00    0.66003   0.49597    0.000
 6309.00    0.64606   0.49592    0.000
 6310.00    0.63005   0.49588    0.000
 6311.00    0.62586   0.49549    0.000
 6312.00    0.63232   0.49458    0.000
 6313.00    0.63188   0.49402    0.000
 6314.00    0.62595   0.49333    0.000
 6315.00    0.61702   0.49226    0.000
 6316.00    0.60597   0.49191    0.000
 6317.00    0.61321   0.49191    0.000
 6318.00    0.63165   0.49156    0.000
 6319.00    0.64664   0.49189    0.000
 6320.00    0.65978   0.49274    0.000
 6321.00    0.66205   0.49330    0.025
 6322.00    0.65926   0.49409    0.025
 6323.00    0.65462   0.49510    0.025
 6324.00    0.64924   0.49581    0.024
 6325.00    0.64904   0.49653    0.025
 6326.00    0.65060   0.49717    0.025
 6327.00    0.65136   0.49732    0.025
 6328.00    0.65189   0.49754    0.025
 6329.00    0.64870   0.49759    0.025
 6330.00    0.64464   0.49709    0.025
 6331.00    0.64894   0.49659    0.024
 6332.00    0.65484   0.49596    0.024
 6333.00    0.65902   0.49505    0.024
 6334.00    0.66295   0.49426    0.024
 6335.00    0.66618   0.49345    0.024
 6336.00    0.66933   0.49269    0.024
 6337.00    0.65231   0.49241    0.024
 6338.00    0.63386   0.49224    0.024
 6339.00    0.62144   0.49201    0.024
 6340.00    0.60923   0.49206    0.024
 6341.00    0.63113   0.49197    0.024
 6342.00    0.65237   0.49177    0.025
 6343.00    0.64641   0.49147    0.025
 6344.00    0.64112   0.49100    0.025
 6345.00    0.64656   0.49079    0.024
 6346.00    0.65110   0.49064    0.024
 6347.00    0.64671   0.49050    0.024
 6348.00    0.64378   0.49064    0.025
 6349.00    0.65147   0.49101    0.025
 6350.00    0.66048   0.49118    0.025
 6351.00    0.67684   0.49110    0.025
 6352.00    0.69030   0.49097    0.025
 6353.00    0.69099   0.49058    0.025
 6354.00    0.68492   0.48970    0.025
 6355.00    0.65428   0.48860    0.024
 6356.00    0.62829   0.48765    0.024
 6357.00    0.61644   0.48658    0.024
 6358.00    0.60702   0.48535    0.025
 6359.00    0.60389   0.48454    0.025
 6360.00    0.60044   0.48411    0.025
 6361.00    0.59627   0.48382    0.024
 6362.00    0.59984   0.48390    0.024
 6363.00    0.61836   0.48431    0.025
 6364.00    0.63500   0.48512    0.025
 6365.00    0.64846   0.48610    0.025
 6366.00    0.65407   0.48697    0.025
 6367.00    0.64810   0.48806    0.025
 6368.00    0.63984   0.48912    0.025
 6369.00    0.62865   0.48998    0.025
 6370.00    0.63107   0.49071    0.025
 6371.00    0.64906   0.49145    0.025
 6372.00    0.66874   0.49208    0.025
 6373.00    0.69015   0.49255    0.025
 6374.00    0.69456   0.49293    0.025
 6375.00    0.68387   0.49300    0.025
 6376.00    0.68407   0.49294    0.025
 6377.00    0.69281   0.49277    0.025
 6378.00    0.69338   0.49237    0.025
 6379.00    0.68832   0.49197    0.025
 6380.00    0.68891   0.49158    0.025
 6381.00    0.69292   0.49124    0.025
 6382.00    0.69663   0.49110    0.025
 6383.00    0.70019   0.49090    0.025
 6384.00    0.69668   0.49070    0.024
 6385.00    0.68994   0.49067    0.024
 6386.00    0.68002   0.49040    0.024
 6387.00    0.66886   0.49010    0.024
 6388.00    0.66105   0.48979    0.024
 6389.00    0.65435   0.48919    0.023
 6390.00    0.66843   0.48858    0.023
 6391.00    0.68834   0.48808    0.023
 6392.00    0.68261   0.48753    0.024
 6393.00    0.67092   0.48692    0.024
 6394.00    0.64945   0.48659    0.025
 6395.00    0.62616   0.48663    0.025
 6396.00    0.62658   0.48649    0.025
 6397.00    0.63040   0.48646    0.025
 6398.00    0.64281   0.48691    0.025
 6399.00    0.65612   0.48715    0.025
 6400.00    0.65821   0.48730    0.025
 6401.00    0.65955   0.48803    0.025
 6402.00    0.64581   0.48869    0.025
 6403.00    0.63158   0.48906    0.025
 6404.00    0.63252   0.48949    0.025
 6405.00    0.63354   0.48968    0.025
 6406.00    0.63684   0.48973    0.025
 6407.00    0.64019   0.48960    0.025
 6408.00    0.64427   0.48910    0.025
 6409.00    0.64838   0.48892    0.025
 6410.00    0.65289   0.48879    0.024
 6411.00    0.65595   0.48828    0.024
 6412.00    0.64897   0.48809    0.024
 6413.00    0.64345   0.48814    0.024
 6414.00    0.64586   0.48809    0.024
 6415.00    0.64484   0.48796    0.024
 6416.00    0.62898   0.48794    0.024
 6417.00    0.61562   0.48797    0.025
 6418.00    0.61119   0.48787    0.025
 6419.00    0.61099   0.48805    0.025
 6420.00    0.62347   0.48821    0.025
 6421.00    0.63363   0.48835    0.025
 6422.00    0.63789   0.48899    0.025
 6423.00    0.64534   0.48951    0.025
 6424.00    0.65978   0.48982    0.025
 6425.00    0.66905   0.49014    0.025
 6426.00    0.66849   0.49018    0.025
 6427.00    0.66200   0.49000    0.025
 6428.00    0.64568   0.48957    0.025
 6429.00    0.63039   0.48915    0.025
 6430.00    0.61662   0.48851    0.026
 6431.00    0.61211   0.48785    0.025
 6432.00    0.61943   0.48773    0.025
 6433.00    0.62894   0.48753    0.024
 6434.00    0.64092   0.48745    0.024
 6435.00    0.64823   0.48761    0.024
 6436.00    0.65092   0.48772    0.024
 6437.00    0.64261   0.48817    0.024
 6438.00    0.62467   0.48850    0.024
 6439.00    0.61897   0.48878    0.024
 6440.00    0.62271   0.48965    0.025
 6441.00    0.63880   0.49030    0.025
 6442.00    0.66326   0.49067    0.024
 6443.00    0.67968   0.49106    0.024
 6444.00    0.69130   0.49092    0.025
 6445.00    0.67250   0.49045    0.025
 6446.00    0.63791   0.48961    0.025
 6447.00    0.62315   0.48840    0.025
 6448.00    0.61731   0.48727    0.025
 6449.00    0.63836   0.48593    0.026
 6450.00    0.66979   0.48465    0.026
 6451.00    0.67100   0.48414    0.026
 6452.00    0.66227   0.48382    0.025
 6453.00    0.65309   0.48353    0.025
 6454.00    0.64378   0.48367    0.025
 6455.00    0.63744   0.48383    0.024
 6456.00    0.63178   0.48390    0.024
 6457.00    0.63429   0.48415    0.024
 6458.00    0.63830   0.48432    0.025
 6459.00    0.64290   0.48421    0.024
 6460.00    0.64760   0.48421    0.023
 6461.00    0.65320   0.48439    0.024
 6462.00    0.65890   0.48414    0.024
 6463.00    0.66703   0.48423    0.024
 6464.00    0.67532   0.48491    0.025
 6465.00    0.67930   0.48515    0.025
 6466.00    0.68316   0.48547    0.025
 6467.00    0.68894   0.48592    0.024
 6468.00    0.69371   0.48595    0.024
 6469.00    0.67025   0.48576    0.024
 6470.00    0.64848   0.48550    0.024
 6471.00    0.65066   0.48496    0.025
 6472.00    0.65253   0.48426    0.025
 6473.00    0.65160   0.48382    0.025
 6474.00    0.65097   0.48322    0.025
 6475.00    0.65230   0.48247    0.025
 6476.00    0.65218   0.48201    0.025
 6477.00    0.64445   0.48157    0.025
 6478.00    0.63863   0.48082    0.025
 6479.00    0.64089   0.48007    0.024
 6480.00    0.64135   0.47945    0.024
 6481.00    0.63557   0.47869    0.024
 6482.00    0.62831   0.47794    0.024
 6483.00    0.61672   0.47743    0.024
 6484.00    0.61225   0.47707    0.024
 6485.00    0.62559   0.47664    0.024
 6486.00    0.64136   0.47604    0.024
 6487.00    0.66234   0.47523    0.024
 6488.00    0.67186   0.47408    0.024
 6489.00    0.65995   0.47244    0.024
 6490.00    0.64584   0.47039    0.024
 6491.00    0.62816   0.46789    0.024
 6492.00    0.61884   0.46541    0.024
 6493.00    0.62151   0.46306    0.024
 6494.00    0.61848   0.46071    0.025
 6495.00    0.60826   0.45934    0.025
 6496.00    0.60200   0.45870    0.025
 6497.00    0.60011   0.45875    0.024
 6498.00    0.60558   0.45993    0.025
 6499.00    0.61826   0.46137    0.025
 6500.00    0.62755   0.46340    0.025
 6501.00    0.63390   0.46575    0.025
 6502.00    0.64329   0.46784    0.025
 6503.00    0.65500   0.46991    0.025
 6504.00    0.65779   0.47158    0.025
 6505.00    0.65461   0.47289    0.025
 6506.00    0.64975   0.47389    0.024
 6507.00    0.64392   0.47442    0.024
 6508.00    0.64794   0.47466    0.024
 6509.00    0.65699   0.47458    0.024
 6510.00    0.66388   0.47430    0.024
 6511.00    0.66980   0.47389    0.024
 6512.00    0.65567   0.47316    0.024
 6513.00    0.63394   0.47244    0.024
 6514.00    0.63132   0.47179    0.024
 6515.00    0.63487   0.47098    0.024
 6516.00    0.65374   0.47035    0.024
 6517.00    0.67676   0.47004    0.025
 6518.00    0.66455   0.46982    0.025
 6519.00    0.64455   0.46982    0.024
 6520.00    0.64224   0.47005    0.025
 6521.00    0.64306   0.47038    0.025
 6522.00    0.66203   0.47074    0.025
 6523.00    0.68345   0.47091    0.026
 6524.00    0.67724   0.47106    0.025
 6525.00    0.66839   0.47117    0.025
 6526.00    0.65265   0.47101    0.025
 6527.00    0.63651   0.47075    0.024
 6528.00    0.63749   0.47044    0.000
 6529.00    0.63900   0.47007    0.000
 6530.00    0.65483   0.46970    0.000
 6531.00    0.67032   0.46921    0.000
 6532.00    0.67715   0.46865    0.000
 6533.00    0.68369   0.46820    0.000
 6534.00    0.68628   0.46775    0.000
 6535.00    0.68774   0.46722    0.000
 6536.00    0.67924   0.46669    0.000
 6537.00    0.67021   0.46601    0.000
 6538.00    0.65774   0.46514    0.000
 6539.00    0.64903   0.46405    0.000
 6540.00    0.65960   0.46267    0.000
 6541.00    0.66868   0.46098    0.000
 6542.00    0.67169   0.45892    0.000
 6543.00    0.67218   0.45662    0.000
 6544.00    0.66409   0.45423    0.000
 6545.00    0.66253   0.45158    0.000
 6546.00    0.67978   0.44873    0.000
 6547.00    0.69542   0.44596    0.000
 6548.00    0.70707   0.44302    0.000
 6549.00    0.71588   0.43980    0.000
 6550.00    0.71865   0.43613    0.000
 6551.00    0.71856   0.43204    0.000
 6552.00    0.71320   0.42750    0.000
 6553.00    0.70643   0.42211    0.000
 6554.00    0.69740   0.41595    0.000
 6555.00    0.68471   0.40909    0.000
 6556.00    0.66685   0.40145    0.000
 6557.00    0.65171   0.39321    0.000
 6558.00    0.63996   0.38467    0.000
 6559.00    0.63639   0.37616    0.000
 6560.00    0.64181   0.36877    0.000
 6561.00    0.64974   0.36310    0.000
 6562.00    0.66012   0.35863    0.000
 6563.00    0.66555   0.35708    0.000
 6564.00    0.66677   0.35952    0.000
 6565.00    0.66552   0.36395    0.000
 6566.00    0.66241   0.36979    0.000
 6567.00    0.65798   0.37730    0.000
 6568.00    0.65267   0.38533    0.000
 6569.00    0.64564   0.39334    0.000
 6570.00    0.63761   0.40097    0.000
 6571.00    0.64689   0.40781    0.000
 6572.00    0.66489   0.41397    0.000
 6573.00    0.67175   0.41950    0.000
 6574.00    0.67377   0.42435    0.000
 6575.00    0.66455   0.42873    0.000
 6576.00    0.65115   0.43281    0.000
 6577.00    0.64978   0.43643    0.000
 6578.00    0.65224   0.43964    0.000
 6579.00    0.66011   0.44258    0.000
 6580.00    0.66941   0.44506    0.000
 6581.00    0.68444   0.44716    0.000
 6582.00    0.70071   0.44915    0.000
 6583.00    0.72725   0.45080    0.000
 6584.00    0.75556   0.45213    0.000
 6585.00    0.77256   0.45332    0.000
 6586.00    0.78810   0.45415    0.000
 6587.00    0.77011   0.45482    0.000
 6588.00    0.74906   0.45527    0.000
 6589.00    0.72872   0.45532    0.000
 6590.00    0.70843   0.45543    0.000
 6591.00    0.67439   0.45540    0.000
 6592.00    0.64050   0.45524    0.000
 6593.00    0.64847   0.45529    0.000
 6594.00    0.65585   0.45560    0.000
 6595.00    0.65002   0.45633    0.000
 6596.00    0.64271   0.45707    0.000
 6597.00    0.61671   0.45785    0.000
 6598.00    0.59622   0.45880    0.000
 6599.00    0.62301   0.45957    0.000
 6600.00    0.64786   0.46040    0.000
 6601.00    0.66037   0.46101    0.000
 6602.00    0.66661   0.46130    0.000
 6603.00    0.64163   0.46160    0.000
 6604.00    0.62092   0.46156    0.000
 6605.00    0.61746   0.46154    0.000
 6606.00    0.61864   0.46156    0.000
 6607.00    0.63534   0.46150    0.000
 6608.00    0.64602   0.46168    0.000
 6609.00    0.63965   0.46183    0.024
 6610.00    0.63297   0.46216    0.024
 6611.00    0.62556   0.46277    0.024
 6612.00    0.62872   0.46322    0.024
 6613.00    0.65397   0.46361    0.025
 6614.00    0.68080   0.46407    0.025
 6615.00    0.71049   0.46450    0.025
 6616.00    0.73117   0.46484    0.025
 6617.00    0.73755   0.46501    0.025
 6618.00    0.73347   0.46506    0.025
 6619.00    0.71483   0.46506    0.025
 6620.00    0.69651   0.46482    0.025
 6621.00    0.67858   0.46446    0.025
 6622.00    0.67356   0.46399    0.025
 6623.00    0.68249   0.46339    0.025
 6624.00    0.68384   0.46279    0.025
 6625.00    0.67797   0.46207    0.025
 6626.00    0.66860   0.46151    0.025
 6627.00    0.65629   0.46105    0.024
 6628.00    0.65227   0.46054    0.024
 6629.00    0.65437   0.46013    0.024
 6630.00    0.65028   0.45966    0.024
 6631.00    0.64216   0.45938    0.024
 6632.00    0.63793   0.45918    0.024
 6633.00    0.63590   0.45889    0.024
 6634.00    0.64632   0.45886    0.025
 6635.00    0.66289   0.45891    0.025
 6636.00    0.66884   0.45915    0.025
 6637.00    0.67024   0.45926    0.025
 6638.00    0.66677   0.45935    0.025
 6639.00    0.66152   0.45950    0.025
 6640.00    0.66321   0.45932    0.025
 6641.00    0.66706   0.45942    0.025
 6642.00    0.65406   0.45935    0.025
 6643.00    0.63670   0.45895    0.025
 6644.00    0.62661   0.45894    0.025
 6645.00    0.61806   0.45894    0.025
 6646.00    0.62849   0.45894    0.025
 6647.00    0.64207   0.45900    0.025
 6648.00    0.64165   0.45897    0.024
 6649.00    0.63947   0.45901    0.024
 6650.00    0.66050   0.45910    0.024
 6651.00    0.68355   0.45900    0.025
 6652.00    0.67625   0.45880    0.025
 6653.00    0.66740   0.45865    0.025
 6654.00    0.66627   0.45837    0.025
 6655.00    0.66523   0.45804    0.025
 6656.00    0.66090   0.45756    0.025
 6657.00    0.65633   0.45696    0.025
 6658.00    0.64657   0.45634    0.025
 6659.00    0.63691   0.45563    0.025
 6660.00    0.62845   0.45483    0.025
 6661.00    0.62075   0.45416    0.025
 6662.00    0.61931   0.45358    0.025
 6663.00    0.61878   0.45297    0.025
 6664.00    0.62394   0.45282    0.025
 6665.00    0.62485   0.45288    0.025
 6666.00    0.60510   0.45302    0.025
 6667.00    0.58568   0.45339    0.025
 6668.00    0.56757   0.45374    0.025
 6669.00    0.56503   0.45415    0.025
 6670.00    0.61366   0.45450    0.025
 6671.00    0.64748   0.45458    0.025
 6672.00    0.64021   0.45436    0.025
 6673.00    0.63965   0.45397    0.025
 6674.00    0.65507   0.45331    0.025
 6675.00    0.66432   0.45264    0.024
 6676.00    0.66094   0.45193    0.024
 6677.00    0.65124   0.45105    0.024
 6678.00    0.63026   0.45049    0.024
 6679.00    0.61319   0.45039    0.024
 6680.00    0.60223   0.45052    0.024
 6681.00    0.59916   0.45075    0.024
 6682.00    0.60692   0.45111    0.025
 6683.00    0.61647   0.45153    0.025
 6684.00    0.62820   0.45216    0.025
 6685.00    0.63819   0.45263    0.025
 6686.00    0.64632   0.45290    0.025
 6687.00    0.65523   0.45321    0.026
 6688.00    0.66487   0.45335    0.025
 6689.00    0.65987   0.45346    0.025
 6690.00    0.64274   0.45343    0.025
 6691.00    0.63918   0.45323    0.025
 6692.00    0.64552   0.45303    0.025
 6693.00    0.65091   0.45282    0.025
 6694.00    0.65569   0.45256    0.025
 6695.00    0.65246   0.45237    0.025
 6696.00    0.64475   0.45211    0.000
 6697.00    0.63953   0.45200    0.000
 6698.00    0.63552   0.45198    0.000
 6699.00    0.64743   0.45193    0.000
 6700.00    0.66602   0.45199    0.000
 6701.00    0.65545   0.45192    0.000
 6702.00    0.63438   0.45187    0.000
 6703.00    0.62830   0.45178    0.000
 6704.00    0.62679   0.45161    0.000
 6705.00    0.63795   0.45146    0.000
 6706.00    0.65232   0.45126    0.000
 6707.00    0.64511   0.45094    0.000
 6708.00    0.63345   0.45057    0.000
 6709.00    0.62132   0.45009    0.000
 6710.00    0.60911   0.44938    0.000
 6711.00    0.60186   0.44863    0.000
 6712.00    0.59521   0.44773    0.000
 6713.00    0.62366   0.44673    0.000
 6714.00    0.65502   0.44574    0.000
 6715.00    0.62925   0.44480    0.000
 6716.00    0.60078   0.44400    0.000
 6717.00    0.60583   0.44333    0.000
 6718.00    0.61129   0.44300    0.000
 6719.00    0.61297   0.44306    0.000
 6720.00    0.61432   0.44330    0.000
 6721.00    0.60917   0.44350    0.000
 6722.00    0.60376   0.44391    0.000
 6723.00    0.59531   0.44454    0.000
 6724.00    0.58736   0.44503    0.000
 6725.00    0.58344   0.44551    0.000
 6726.00    0.57943   0.44592    0.000
 6727.00    0.57490   0.44625    0.000
 6728.00    0.57627   0.44659    0.000
 6729.00    0.60549   0.44681    0.000
 6730.00    0.62879   0.44694    0.000
 6731.00    0.62917   0.44707    0.000
 6732.00    0.63152   0.44702    0.000
 6733.00    0.64015   0.44687    0.000
 6734.00    0.64656   0.44674    0.000
 6735.00    0.64691   0.44644    0.000
 6736.00    0.63694   0.44625    0.000
 6737.00    0.60282   0.44601    0.000
 6738.00    0.58266   0.44556    0.000
 6739.00    0.59072   0.44532    0.000
 6740.00    0.59683   0.44515    0.000
 6741.00    0.59950   0.44494    0.000
 6742.00    0.60219   0.44474    0.000
 6743.00    0.60491   0.44447    0.000
 6744.00    0.61047   0.44433    0.000
 6745.00    0.61986   0.44426    0.000
 6746.00    0.62695   0.44406    0.000
 6747.00    0.63132   0.44384    0.000
 6748.00    0.63042   0.44367    0.000
 6749.00    0.62399   0.44357    0.000
 6750.00    0.60086   0.44353    0.000
 6751.00    0.56227   0.44363    0.000
 6752.00    0.54474   0.44381    0.000
 6753.00    0.54439   0.44398    0.028
 6754.00    0.56706   0.44437    0.029
 6755.00    0.60625   0.44478    0.030
 6756.00    0.62086   0.44518    0.030
 6757.00    0.61996   0.44557    0.030
 6758.00    0.62019   0.44587    0.030
 6759.00    0.62104   0.44607    0.030
 6760.00    0.63832   0.44614    0.030
 6761.00    0.66346   0.44605    0.030
 6762.00    0.68298   0.44579    0.030
 6763.00    0.70016   0.44545    0.030
 6764.00    0.72040   0.44512    0.031
 6765.00    0.74171   0.44473    0.031
 6766.00    0.72765   0.44426    0.031
 6767.00    0.70303   0.44396    0.030
 6768.00    0.69587   0.44382    0.030
 6769.00    0.69305   0.44387    0.029
 6770.00    0.67415   0.44412    0.029
 6771.00    0.65202   0.44431    0.028
 6772.00    0.65129   0.44472    0.028
 6773.00    0.65391   0.44525    0.028
 6774.00    0.63382   0.44573    0.028
 6775.00    0.61108   0.44609    0.028
 6776.00    0.61746   0.44624    0.028
 6777.00    0.62615   0.44625    0.029
 6778.00    0.64993   0.44605    0.029
 6779.00    0.67436   0.44565    0.030
 6780.00    0.64246   0.44504    0.030
 6781.00    0.61081   0.44426    0.030
 6782.00    0.61819   0.44352    0.030
 6783.00    0.62507   0.44278    0.030
 6784.00    0.62284   0.44206    0.029
 6785.00    0.62076   0.44154    0.029
 6786.00    0.62037   0.44115    0.028
 6787.00    0.61881   0.44094    0.028
 6788.00    0.60838   0.44085    0.028
 6789.00    0.60241   0.44082    0.028
 6790.00    0.62246   0.44079    0.028
 6791.00    0.63600   0.44085    0.028
 6792.00    0.61938   0.44093    0.029
 6793.00    0.61179   0.44094    0.029
 6794.00    0.63830   0.44100    0.029
 6795.00    0.65514   0.44118    0.029
 6796.00    0.64143   0.44135    0.029
 6797.00    0.62451   0.44155    0.029
 6798.00    0.59902   0.44174    0.029
 6799.00    0.58904   0.44194    0.029
 6800.00    0.61470   0.44226    0.029
 6801.00    0.62332   0.44243    0.029
 6802.00    0.59809   0.44255    0.029
 6803.00    0.59048   0.44266    0.029
 6804.00    0.61343   0.44262    0.029
 6805.00    0.63128   0.44268    0.029
 6806.00    0.64139   0.44264    0.028
 6807.00    0.63888   0.44247    0.028
 6808.00    0.61956   0.44247    0.028
 6809.00    0.60943   0.44232    0.028
 6810.00    0.61009   0.44212    0.028
 6811.00    0.61005   0.44205    0.028
 6812.00    0.60928   0.44187    0.029
 6813.00    0.61722   0.44176    0.029
 6814.00    0.63311   0.44160    0.029
 6815.00    0.62459   0.44142    0.029
 6816.00    0.59643   0.44145    0.029
 6817.00    0.58652   0.44154    0.028
 6818.00    0.58952   0.44165    0.028
 6819.00    0.60020   0.44172    0.028
 6820.00    0.61564   0.44184    0.028
 6821.00    0.63518   0.44202    0.029
 6822.00    0.65694   0.44222    0.029
 6823.00    0.65217   0.44228    0.029
 6824.00    0.63489   0.44222    0.029
 6825.00    0.62161   0.44213    0.029
 6826.00    0.60996   0.44210    0.029
 6827.00    0.61995   0.44191    0.029
 6828.00    0.63744   0.44166    0.029
 6829.00    0.63626   0.44154    0.029
 6830.00    0.62962   0.44135    0.029
 6831.00    0.60957   0.44130    0.029
 6832.00    0.58627   0.44109    0.029
 6833.00    0.59233   0.44064    0.028
 6834.00    0.60415   0.44039    0.028
 6835.00    0.62258   0.43998    0.029
 6836.00    0.64201   0.43940    0.029
 6837.00    0.64656   0.43885    0.029
 6838.00    0.64943   0.43813    0.030
 6839.00    0.63049   0.43765    0.030
 6840.00    0.60991   0.43738    0.031
 6841.00    0.59723   0.43700    0.031
 6842.00    0.58486   0.43699    0.030
 6843.00    0.57616   0.43718    0.030
 6844.00    0.56878   0.43755    0.029
 6845.00    0.61284   0.43808    0.029
 6846.00    0.65218   0.43836    0.029
 6847.00    0.61193   0.43865    0.029
 6848.00    0.57480   0.43896    0.029
 6849.00    0.57031   0.43901    0.029
 6850.00    0.56954   0.43898    0.028
 6851.00    0.59629   0.43870    0.028
 6852.00    0.61733   0.43826    0.028
 6853.00    0.60590   0.43789    0.028
 6854.00    0.59141   0.43737    0.028
 6855.00    0.56308   0.43680    0.028
 6856.00    0.54405   0.43636    0.028
 6857.00    0.55946   0.43603    0.029
 6858.00    0.57026   0.43583    0.029
 6859.00    0.56675   0.43577    0.028
 6860.00    0.56881   0.43565    0.028
 6861.00    0.58552   0.43560    0.029
 6862.00    0.59331   0.43578    0.030
 6863.00    0.58097   0.43590    0.030
 6864.00    0.56417   0.43615    0.030
 6865.00    0.53863   0.43620    0.030
 6866.00    0.52536   0.43610    0.030
 6867.00    0.53300   0.43614    0.030
 6868.00    0.55518   0.43604    0.030
 6869.00    0.59909   0.43611    0.031
 6870.00    0.61091   0.43613    0.030
 6871.00    0.58055   0.43606    0.030
 6872.00    0.58046   0.43618    0.029
 6873.00    0.61539   0.43638    0.029
 6874.00    0.62836   0.43669    0.029
 6875.00    0.61892   0.43698    0.029
 6876.00    0.59257   0.43721    0.028
 6877.00    0.55101   0.43729    0.028
 6878.00    0.54680   0.43750    0.028
 6879.00    0.57223   0.43746    0.029
 6880.00    0.58800   0.43737    0.029
 6881.00    0.59704   0.43726    0.029
 6882.00    0.61802   0.43691    0.029
 6883.00    0.64633   0.43699    0.030
 6884.00    0.65122   0.43704    0.030
 6885.00    0.64360   0.43729    0.030
 6886.00    0.60300   0.43765    0.030
 6887.00    0.54711   0.43792    0.030
 6888.00    0.55920   0.43855    0.030
 6889.00    0.59846   0.43910    0.030
 6890.00    0.60375   0.43958    0.030
 6891.00    0.59745   0.44008    0.031
 6892.00    0.58053   0.44024    0.030
 6893.00    0.56056   0.44044    0.030
 6894.00    0.57074   0.44057    0.030
 6895.00    0.58805   0.44046    0.030
 6896.00    0.60327   0.44047    0.030
 6897.00    0.61810   0.44037    0.030
 6898.00    0.61426   0.44029    0.030
 6899.00    0.60768   0.44031    0.030
 6900.00    0.60131   0.44017    0.030
 6901.00    0.59497   0.44014    0.030
 6902.00    0.60064   0.44036    0.030
 6903.00    0.60716   0.44044    0.030
 6904.00    0.61425   0.44061    0.030
 6905.00    0.62136   0.44068    0.030
 6906.00    0.63091   0.44070    0.030
 6907.00    0.64056   0.44093    0.031
 6908.00    0.65347   0.44081    0.031
 6909.00    0.66311   0.44057    0.032
 6910.00    0.62093   0.44026    0.031
 6911.00    0.58442   0.43982    0.030
 6912.00    0.60463   0.43942    0.031
 6913.00    0.62061   0.43897    0.031
 6914.00    0.60623   0.43839    0.030
 6915.00    0.59486   0.43807    0.030
 6916.00    0.60003   0.43784    0.030
 6917.00    0.59954   0.43764    0.030
 6918.00    0.57401   0.43766    0.030
 6919.00    0.56133   0.43745    0.029
 6920.00    0.59520   0.43743    0.030
 6921.00    0.62115   0.43737    0.030
 6922.00    0.62305   0.43729    0.030
 6923.00    0.61799   0.43729    0.030
 6924.00    0.59492   0.43704    0.030
 6925.00    0.59171   0.43702    0.030
 6926.00    0.63264   0.43693    0.031
 6927.00    0.65472   0.43701    0.031
 6928.00    0.64049   0.43708    0.032
 6929.00    0.62257   0.43700    0.032
 6930.00    0.59847   0.43710    0.032
 6931.00    0.58850   0.43701    0.032
 6932.00    0.59934   0.43705    0.032
 6933.00    0.62106   0.43695    0.032
 6934.00    0.65686   0.43694    0.033
 6935.00    0.65562   0.43706    0.032
 6936.00    0.61212   0.43690    0.032
 6937.00    0.59228   0.43692    0.031
 6938.00    0.59624   0.43679    0.032
 6939.00    0.60147   0.43674    0.032
 6940.00    0.60780   0.43666    0.031
 6941.00    0.60741   0.43644    0.031
 6942.00    0.60174   0.43634    0.031
 6943.00    0.59069   0.43615    0.031
 6944.00    0.57593   0.43604    0.031
 6945.00    0.56214   0.43591    0.031
 6946.00    0.54892   0.43590    0.031
 6947.00    0.54948   0.43610    0.031
 6948.00    0.55729   0.43617    0.031
 6949.00    0.56264   0.43627    0.031
 6950.00    0.56687   0.43629    0.031
 6951.00    0.58722   0.43624    0.032
 6952.00    0.61390   0.43632    0.032
 6953.00    0.61221   0.43635    0.032
 6954.00    0.60105   0.43638    0.032
 6955.00    0.60060   0.43641    0.032
 6956.00    0.60317   0.43657    0.033
 6957.00    0.59309   0.43677    0.032
 6958.00    0.58010   0.43702    0.032
 6959.00    0.57914   0.43727    0.032
 6960.00    0.58042   0.43756    0.032
 6961.00    0.59449   0.43786    0.032
 6962.00    0.61039   0.43806    0.031
 6963.00    0.63237   0.43833    0.031
 6964.00    0.65497   0.43845    0.031
 6965.00    0.61003   0.43852    0.031
 6966.00    0.56058   0.43850    0.031
 6967.00    0.58025   0.43843    0.031
 6968.00    0.60213   0.43840    0.032
 6969.00    0.56909   0.43812    0.032
 6970.00    0.53670   0.43776    0.032
 6971.00    0.52385   0.43719    0.032
 6972.00    0.51467   0.43662    0.033
 6973.00    0.56001   0.43597    0.033
 6974.00    0.60117   0.43522    0.033
 6975.00    0.60206   0.43453    0.033
 6976.00    0.60286   0.43396    0.033
 6977.00    0.60290   0.43357    0.033
 6978.00    0.59934   0.43341    0.033
 6979.00    0.57635   0.43355    0.033
 6980.00    0.55286   0.43412    0.033
 6981.00    0.52719   0.43489    0.032
 6982.00    0.50451   0.43561    0.031
 6983.00    0.49249   0.43641    0.031
 6984.00    0.47982   0.43710    0.031
 6985.00    0.46523   0.43768    0.031
 6986.00    0.46170   0.43816    0.031
 6987.00    0.48621   0.43841    0.031
 6988.00    0.50930   0.43850    0.032
 6989.00    0.52928   0.43840    0.031
 6990.00    0.54439   0.43833    0.031
 6991.00    0.55024   0.43829    0.032
 6992.00    0.55705   0.43823    0.032
 6993.00    0.56545   0.43797    0.033
 6994.00    0.57611   0.43763    0.033
 6995.00    0.59003   0.43733    0.033
 6996.00    0.57573   0.43695    0.033
 6997.00    0.52539   0.43660    0.033
 6998.00    0.52024   0.43606    0.033
 6999.00    0.56591   0.43542    0.033
 7000.00    0.56581   0.43489    0.033
 7001.00    0.52031   0.43446    0.033
 7002.00    0.51073   0.43416    0.032
 7003.00    0.53258   0.43393    0.032
 7004.00    0.55824   0.43364    0.032
 7005.00    0.58684   0.43358    0.032
 7006.00    0.58056   0.43362    0.032
 7007.00    0.55063   0.43370    0.032
 7008.00    0.54008   0.43382    0.032
 7009.00    0.54102   0.43378    0.032
 7010.00    0.55328   0.43368    0.032
 7011.00    0.57140   0.43341    0.032
 7012.00    0.59988   0.43308    0.033
 7013.00    0.63301   0.43288    0.034
 7014.00    0.61690   0.43256    0.034
 7015.00    0.58179   0.43231    0.034
 7016.00    0.54408   0.43203    0.034
 7017.00    0.50551   0.43199    0.033
 7018.00    0.52906   0.43241    0.034
 7019.00    0.56969   0.43272    0.034
 7020.00    0.55325   0.43313    0.034
 7021.00    0.52390   0.43355    0.034
 7022.00    0.51229   0.43392    0.033
 7023.00    0.50390   0.43439    0.033
 7024.00    0.51936   0.43474    0.032
 7025.00    0.53812   0.43520    0.032
 7026.00    0.54102   0.43563    0.032
 7027.00    0.54235   0.43589    0.033
 7028.00    0.50993   0.43616    0.033
 7029.00    0.47538   0.43644    0.032
 7030.00    0.49004   0.43668    0.032
 7031.00    0.50592   0.43677    0.032
 7032.00    0.47518   0.43677    0.032
 7033.00    0.44751   0.43672    0.032
 7034.00    0.50391   0.43670    0.033
 7035.00    0.55850   0.43692    0.033
 7036.00    0.58763   0.43713    0.034
 7037.00    0.60989   0.43747    0.035
 7038.00    0.56877   0.43782    0.034
 7039.00    0.53740   0.43834    0.034
 7040.00    0.57179   0.43930    0.034
 7041.00    0.59378   0.44008    0.034
 7042.00    0.55091   0.44067    0.034
 7043.00    0.51840   0.44110    0.033
 7044.00    0.52953   0.44107    0.033
 7045.00    0.53229   0.44096    0.033
 7046.00    0.50594   0.44068    0.033
 7047.00    0.49442   0.43991    0.032
 7048.00    0.52634   0.43912    0.032
 7049.00    0.54595   0.43770    0.032
 7050.00    0.53483   0.43628   -2.000
 7051.00    0.53373   0.43522   -2.000
 7052.00    0.55417   0.43386   -2.000
 7053.00    0.57731   0.43235   -2.000
 7054.00    0.60546   0.43100   -2.000
 7055.00    0.62033   0.42963   -2.000
 7056.00    0.61355   0.42858   -2.000
 7057.00    0.61435   0.42765   -2.000
 7058.00    0.62601   0.42672   -2.000
 7059.00    0.61169   0.42594   -2.000
 7060.00    0.56470   0.42519   -2.000
 7061.00    0.54732   0.42464   -2.000
 7062.00    0.56277   0.42431   -2.000
 7063.00    0.55136   0.42393   -2.000
 7064.00    0.51366   0.42384   -2.000
 7065.00    0.51690   0.42363   -2.000
 7066.00    0.55545   0.42354   -2.000
 7067.00    0.55215   0.42369   -2.000
 7068.00    0.51706   0.42376   -2.000
 7069.00    0.48882   0.42411   -2.000
 7070.00    0.46517   0.42452   -2.000
 7071.00    0.52292   0.42495   -2.000
 7072.00    0.62828   0.42537   -2.000
 7073.00    0.65160   0.42572   -2.000
 7074.00    0.63310   0.42597   -2.000
 7075.00    0.61999   0.42613   -2.000
 7076.00    0.60927   0.42606   -2.000
 7077.00    0.61664   0.42570   -2.000
 7078.00    0.63088   0.42527   -2.000
 7079.00    0.64526   0.42449   -2.000
 7080.00    0.65968   0.42342   -2.000
 7081.00    0.62807   0.42227   -2.000
 7082.00    0.58406   0.42069   -2.000
 7083.00    0.55933   0.41904   -2.000
 7084.00    0.53885   0.41720   -2.000
 7085.00    0.57115   0.41534   -2.000
 7086.00    0.61271   0.41374   -2.000
 7087.00    0.60318   0.41206   -2.000
 7088.00    0.58680   0.41049   -2.000
 7089.00    0.54541   0.40923   -2.000
 7090.00    0.50164   0.40817   -2.000
 7091.00    0.50590   0.40743   -2.000
 7092.00    0.51298   0.40708   -2.000
 7093.00    0.51908   0.40684   -2.000
 7094.00    0.52523   0.40705   -2.000
 7095.00    0.54130   0.40736   -2.000
 7096.00    0.55547   0.40794   -2.000
 7097.00    0.52246   0.40872   -2.000
 7098.00    0.49124   0.40941   -2.000
 7099.00    0.48361   0.41051   -2.000
 7100.00    0.47436   0.41126   -2.000
 7101.00    0.45066   0.41208   -2.000
 7102.00    0.43622   0.41265   -2.000
 7103.00    0.48219   0.41313   -2.000
 7104.00    0.51883   0.41357   -2.000
 7105.00    0.50797   0.41378   -2.000
 7106.00    0.49353   0.41394   -2.000
 7107.00    0.46441   0.41390   -2.000
 7108.00    0.44751   0.41396   -2.000
 7109.00    0.47228   0.41402   -2.000
 7110.00    0.48119   0.41404   -2.000
 7111.00    0.44455   0.41413   -2.000
 7112.00    0.42675   0.41432   -2.000
 7113.00    0.45520   0.41461   -2.000
 7114.00    0.48110   0.41490   -2.000
 7115.00    0.50160   0.41517   -2.000
 7116.00    0.51720   0.41539   -2.000
 7117.00    0.52378   0.41554   -2.000
 7118.00    0.52164   0.41553   -2.000
 7119.00    0.50549   0.41532   -2.000
 7120.00    0.50357   0.41499   -2.000
 7121.00    0.52170   0.41444   -2.000
 7122.00    0.51299   0.41367   -2.000
 7123.00    0.47100   0.41287   -2.000
 7124.00    0.40846   0.41195   -2.000
 7125.00    0.32346   0.41095   -2.000
 7126.00    0.32060   0.40983   -2.000
 7127.00    0.39698   0.40895   -2.000
 7128.00    0.44873   0.40823   -2.000
 7129.00    0.47953   0.40767   -2.000
 7130.00    0.48451   0.40734   -2.000
 7131.00    0.47013   0.40708   -2.000
 7132.00    0.45314   0.40730   -2.000
 7133.00    0.43442   0.40753   -2.000
 7134.00    0.46022   0.40798   -2.000
 7135.00    0.51168   0.40850   -2.000
 7136.00    0.54693   0.40887   -2.000
 7137.00    0.57405   0.40940   -2.000
 7138.00    0.53919   0.40967   -2.000
 7139.00    0.47743   0.40992   -2.000
 7140.00    0.45453   0.41002   -2.000
 7141.00    0.44610   0.41003   -2.000
 7142.00    0.46024   0.41000   -2.000
 7143.00    0.48150   0.40978   -2.000
 7144.00    0.49020   0.40961   -2.000
 7145.00    0.49559   0.40940   -2.000
 7146.00    0.52547   0.40928   -2.000
 7147.00    0.56062   0.40928   -2.000
 7148.00    0.51969   0.40926   -2.000
 7149.00    0.46576   0.40962   -2.000
 7150.00    0.45809   0.41015   -2.000
 7151.00    0.45642   0.41076   -2.000
 7152.00    0.44161   0.41147   -2.000
 7153.00    0.42561   0.41211   -2.000
 7154.00    0.45270   0.41269   -2.000
 7155.00    0.48215   0.41317   -2.000
 7156.00    0.52191   0.41339   -2.000
 7157.00    0.56155   0.41361   -2.000
 7158.00    0.57008   0.41341   -2.000
 7159.00    0.57258   0.41308   -2.000
 7160.00    0.43786   0.41262   -2.000
 7161.00    0.31040   0.41204   -2.000
 7162.00    0.27438   0.41166   -2.000
 7163.00    0.25711   0.41099   -2.000
 7164.00    0.39977   0.41058   -2.000
 7165.00    0.54554   0.41021   -2.000
 7166.00    0.71106   0.41023   -2.000
 7167.00    0.81726   0.41044   -2.000
 7168.00    0.62899   0.41064   -2.000
 7169.00    0.45884   0.41094   -2.000
 7170.00    0.36163   0.41125   -2.000
 7171.00    0.32114   0.41154   -2.000
 7172.00    0.47017   0.41181   -2.000
 7173.00    0.58348   0.41194   -2.000
 7174.00    0.59601   0.41191   -2.000
 7175.00    0.60187   0.41177   -2.000
 7176.00    0.59163   0.41146   -2.000
 7177.00    0.55660   0.41116   -2.000
 7178.00    0.46998   0.41089   -2.000
 7179.00    0.42697   0.41053   -2.000
 7180.00    0.46294   0.41000   -2.000
 7181.00    0.47091   0.40960   -2.000
 7182.00    0.43456   0.40922   -2.000
 7183.00    0.43344   0.40904   -2.000
 7184.00    0.48128   0.40877   -2.000
 7185.00    0.50292   0.40848   -2.000
 7186.00    0.49252   0.40827   -2.000
 7187.00    0.44874   0.40790   -2.000
 7188.00    0.36898   0.40781   -2.000
 7189.00    0.33061   0.40778   -2.000
 7190.00    0.33159   0.40784   -2.000
 7191.00    0.39269   0.40807   -2.000
 7192.00    0.50419   0.40816   -2.000
 7193.00    0.53862   0.40838   -2.000
 7194.00    0.51618   0.40853   -2.000
 7195.00    0.53160   0.40878   -2.000
 7196.00    0.57158   0.40897   -2.000
 7197.00    0.55803   0.40890   -2.000
 7198.00    0.51412   0.40901   -2.000
 7199.00    0.40987   0.40892   -2.000
 7200.00    0.27582   0.40883   -2.000
 7201.00    0.15613   0.40866   -2.000
 7202.00    0.04257   0.40838   -2.000
 7203.00    0.13672   0.40820   -2.000
 7204.00    0.30688   0.40803   -2.000
 7205.00    0.41901   0.40785   -2.000
 7206.00    0.51317   0.40764   -2.000
 7207.00    0.49279   0.40737   -2.000
 7208.00    0.44286   0.40739   -2.000
 7209.00    0.49397   0.40762   -2.000
 7210.00    0.56633   0.40787   -2.000
 7211.00    0.27420   0.40842   -2.000
 7212.00   -0.07847   0.40884   -2.000
 7213.00    0.08927   0.40935   -2.000
 7214.00    0.32203   0.40988   -2.000
 7215.00    0.35834   0.41044   -2.000
 7216.00    0.37763   0.41107   -2.000
 7217.00    0.46037   0.41157   -2.000
 7218.00    0.54632   0.41219   -2.000
