###################################################################
## OUTPUT of StarlightChains_v04.for    [Cid@UFSC - 01/Apr/2007] ##
###################################################################

## Some input info
KUG0210-078._31_25.txt                   [arq_obs]
Base.CB07.vall.4m                        [arq_base]
Masks.EmLines.NEW.gm                     [arq_masks]
StCv04.C11.config                        [arq_config]
   66                                    [N_base]
    0                                    [N_YAV_components = # of components with extra extinction!]
    0                                    [i_FitPowerLaw (1/0 = Yes/No)]
-9.99                                    [alpha_PowerLaw]
CCM                                      [red_law_option]
 1.458241                                [q_norm = A(l_norm)/A(V)]

## (Re)Sampling Parameters
 3741.00                                 [l_ini (A)]
 7218.00                                 [l_fin (A)]
    1.00                                 [dl    (A)]     (OBS: dl_cushion =    50.00 A)

## Normalization info
 4020.00                                 [l_norm (A) - for base]
 4010.00                                 [llow_norm (A) - window for f_obs]
 4060.00                                 [lupp_norm (A) - window for f_obs]
2.417858E-17                             [fobs_norm (in input units)]

## S/N
 3691.00                                 [llow_SN (A) - window for S/N]
 7268.00                                 [lupp_SN (A) - window for S/N]
   3.554                                 [S/N in S/N window]
   5.862                                 [S/N in norm. window]
   0.019                                 [S/N_err in S/N window]
   0.032                                 [S/N_err in norm. window]
  1.0000                                 [fscale_chi2]

## etc...
    -2007450                             [idum_orig]
  2428                                   [NOl_eff]
  2214                                   [Nl_eff]
   214    NSIGMA                         [Ntot_cliped & clip_method]
 10640070                                [Nglobal_steps]
   7                                     [N_chains]
  45                                     [NEX0s_base = N_base in EX0s-fits]
 0   0   1      214   2.0   1.559E+04    [Clip-Bug, RC-Crash & Burn-In warning-flags, n_censored_weights, wei_nsig_threshold & wei_limit]
    92     91.337     90.429      0.908  [idt_all, wdt_TotTime, wdt_UsrTime & wdt_SysTime (sec)]

## Synthesis Results - Best model ##

 1.69109E-05                             [chi2/Nl_eff]
     8.87375                             [adev (%)]

    95.80597                             [sum-of-x (%)]
 2.80761E-17                             [Flux_tot (units of input spectrum!)]
 1.82772E-13                             [Mini_tot (???)]
 9.38291E-14                             [Mcor_tot (???)]

-104.22                                  [v0_min  (km/s)]
 156.68                                  [vd_min  (km/s)]
 0.1432                                  [AV_min  (mag)]
 0.0000                                  [YAV_min (mag)]

# j     x_j(%)      Mini_j(%)     Mcor_j(%)     age_j(yr)     Z_j      (L/M)_j    YAV?  Mstars   component_j        a/Fe...       SSP_chi2r SSP_adev(%)   SSP_AV   SSP_x(%)
  1      5.1366     7.5282E-02    1.4664E-01    1.000000E+06  0.00400  1.094E-02    0   1.0000   age020_m42            0.0000     2.1031E-05    12.9512   1.7508    88.3921
  2      0.0000     0.0000E+00    0.0000E+00    3.160000E+06  0.00400  4.007E-02    0   0.9999   age045_m42            0.0000     2.0508E-05    11.9193   1.1382    90.4139
  3      0.5072     3.2028E-03    5.9194E-03    5.010000E+06  0.00400  2.539E-02    0   0.9488   age055_m42            0.0000     2.0512E-05    12.2697   1.4087    89.9779
  4      0.0000     0.0000E+00    0.0000E+00    6.610000E+06  0.00400  2.620E-02    0   0.9220   age061_m42            0.0000     2.0133E-05    11.6675   1.0716    90.4637
  5      2.7185     3.2971E-02    5.6916E-02    1.000000E+07  0.00400  1.322E-02    0   0.8862   age070_m42            0.0000     1.8691E-05    10.2991   0.8240    91.9247
  6      0.0000     0.0000E+00    0.0000E+00    1.445000E+07  0.00400  7.883E-03    0   0.8571   age078_m42            0.0000     1.9044E-05    10.7538   1.1136    90.8109
  7      0.0000     0.0000E+00    0.0000E+00    2.512000E+07  0.00400  5.251E-03    0   0.8174   age090_m42            0.0000     1.8388E-05     9.9902   0.7102    92.0232
  8      0.0000     0.0000E+00    0.0000E+00    4.000000E+07  0.00400  3.649E-03    0   0.7851   age104_m42            0.0000     1.8309E-05     9.9271   0.4974    92.1934
  9      0.0000     0.0000E+00    0.0000E+00    5.500000E+07  0.00400  3.098E-03    0   0.7629   age110_m42            0.0000     1.8960E-05    10.3675   0.6518    91.8049
 10      0.0000     0.0000E+00    0.0000E+00    1.015200E+08  0.00400  2.228E-03    0   0.7207   age116_m42            0.0000     1.9390E-05    10.6158   0.6755    91.6260
 11      0.0030     4.4336E-04    5.7414E-04    2.861200E+08  0.00400  1.093E-03    0   0.6648   age125_m42            0.0000     1.8842E-05     9.8657   0.1501    92.8817
 12      0.0000     0.0000E+00    0.0000E+00    5.088000E+08  0.00400  6.597E-04    0   0.6365   age130_m42            0.0000     1.9204E-05    10.1657   0.1459    93.1474
 13      0.0000     0.0000E+00    0.0000E+00    1.434000E+09  0.00400  2.132E-04    0   0.5798   age139_m42            0.0000     1.8259E-05     9.8910  -0.8039    94.0502
 14      0.0000     0.0000E+00    0.0000E+00    4.250000E+09  0.00400  5.895E-05    0   0.5377   age158_m42            0.0000     2.0978E-05    10.7604  -1.0000    87.0441
 15      0.0000     0.0000E+00    0.0000E+00    7.500000E+09  0.00400  3.510E-05    0   0.5212   age171_m42            0.0000     2.4655E-05    13.1452  -1.0000    82.9901
 16      6.4584     5.1647E+01    5.0644E+01    1.300000E+10  0.00400  2.005E-05    0   0.5034   age193_m42            0.0000     2.9240E-05    16.1514  -1.0000    79.3231
 17      2.8191     2.9640E+01    2.8677E+01    1.800000E+10  0.00400  1.525E-05    0   0.4967   age213_m42            0.0000     3.0000E-05    16.6790  -1.0000    78.5735
 18      0.0084     1.0916E-04    2.1264E-04    1.000000E+06  0.00800  1.238E-02    0   1.0000   age020_m52            0.0000     2.1114E-05    12.9598   1.7463    88.6073
 19      0.0000     0.0000E+00    0.0000E+00    3.160000E+06  0.00800  3.074E-02    0   0.9966   age045_m52            0.0000     2.1087E-05    12.9270   1.6740    89.2299
 20      0.0000     0.0000E+00    0.0000E+00    5.010000E+06  0.00800  2.668E-02    0   0.9443   age055_m52            0.0000     2.0486E-05    12.3380   1.4730    89.8216
 21      0.0000     0.0000E+00    0.0000E+00    6.610000E+06  0.00800  2.136E-02    0   0.9177   age061_m52            0.0000     1.8186E-05    10.3543   0.3105    93.3841
 22      0.0000     0.0000E+00    0.0000E+00    1.000000E+07  0.00800  1.215E-02    0   0.8827   age070_m52            0.0000     1.8594E-05    10.0779   0.9925    92.2715
 23      0.0000     0.0000E+00    0.0000E+00    1.445000E+07  0.00800  8.717E-03    0   0.8552   age078_m52            0.0000     1.8900E-05    10.5514   1.0899    91.7100
 24      0.0003     9.1604E-06    1.4564E-05    2.512000E+07  0.00800  5.592E-03    0   0.8162   age090_m52            0.0000     1.8391E-05     9.7829   0.7802    92.8869
 25      0.5979     2.4605E-02    3.7581E-02    4.000000E+07  0.00800  3.896E-03    0   0.7841   age104_m52            0.0000     1.8564E-05     9.8778   0.7038    92.9597
 26      0.0000     0.0000E+00    0.0000E+00    1.015200E+08  0.00800  2.148E-03    0   0.7226   age116_m52            0.0000     1.8912E-05    10.2808   0.6462    92.3642
 27      0.0000     0.0000E+00    0.0000E+00    2.861200E+08  0.00800  9.925E-04    0   0.6683   age125_m52            0.0000     1.9002E-05    10.0232   0.2116    94.0171
 28      0.0000     0.0000E+00    0.0000E+00    9.047900E+08  0.00800  3.141E-04    0   0.6138   age135_m52            0.0000     1.9291E-05    10.2594  -0.5664    96.4728
 29      0.0000     0.0000E+00    0.0000E+00    1.434000E+09  0.00800  1.719E-04    0   0.5853   age139_m52            0.0000     1.9384E-05     9.6024  -1.0000    92.6067
 30      0.0000     0.0000E+00    0.0000E+00    2.500000E+09  0.00800  7.872E-05    0   0.5600   age150_m52            0.0000     2.4496E-05    12.7378  -1.0000    85.5120
 31      0.0000     0.0000E+00    0.0000E+00    4.250000E+09  0.00800  4.336E-05    0   0.5426   age158_m52            0.0000     2.5087E-05    13.0516  -1.0000    84.4706
 32      2.1294     1.0808E+01    1.1198E+01    6.250000E+09  0.00800  3.159E-05    0   0.5319   age166_m52            0.0000     3.0930E-05    16.6180  -1.0000    80.3569
 33      0.0000     0.0000E+00    0.0000E+00    1.300000E+10  0.00800  1.361E-05    0   0.5073   age193_m52            0.0000     5.1136E-05    25.7883  -1.0000    69.9511
 34      0.0000     0.0000E+00    0.0000E+00    1.800000E+10  0.00800  9.886E-06    0   0.4990   age213_m52            0.0000     5.8197E-05    27.6868  -1.0000    67.1901
 35      0.0000     0.0000E+00    0.0000E+00    1.000000E+06  0.02000  1.544E-02    0   1.0000   age020_m62            0.0000     2.1166E-05    12.9918   1.7390    88.9341
 36      0.0000     0.0000E+00    0.0000E+00    3.160000E+06  0.02000  3.762E-02    0   0.9858   age045_m62            0.0000     2.1061E-05    13.0199   1.6749    89.7894
 37      0.0000     0.0000E+00    0.0000E+00    5.010000E+06  0.02000  3.296E-02    0   0.9342   age055_m62            0.0000     2.0479E-05    12.2336   1.3793    90.6202
 38     43.2849     6.0140E-01    1.0381E+00    8.710000E+06  0.02000  1.154E-02    0   0.8861   age067_m62            0.0000     1.6966E-05     8.4528   0.4708    95.3085
 39      0.0000     0.0000E+00    0.0000E+00    1.445000E+07  0.02000  7.663E-03    0   0.8472   age078_m62            0.0000     1.7665E-05     9.3270   0.6594    93.9757
 40      7.3816     2.6115E-01    4.1200E-01    2.512000E+07  0.02000  4.532E-03    0   0.8099   age090_m62            0.0000     1.7535E-05     9.2086   0.6603    93.4504
 41      0.0000     0.0000E+00    0.0000E+00    5.500000E+07  0.02000  2.733E-03    0   0.7595   age110_m62            0.0000     1.8248E-05     9.8994   0.6750    92.7558
 42      0.0000     0.0000E+00    0.0000E+00    1.609000E+08  0.02000  1.369E-03    0   0.6985   age120_m62            0.0000     1.8893E-05    10.1185   0.5485    93.6208
 43      0.0000     0.0000E+00    0.0000E+00    2.861200E+08  0.02000  9.013E-04    0   0.6714   age125_m62            0.0000     1.9183E-05    10.0153   0.3309    94.9354
 44      0.0000     0.0000E+00    0.0000E+00    5.088000E+08  0.02000  5.028E-04    0   0.6449   age130_m62            0.0000     1.9870E-05    10.4895  -0.0337    96.3677
 45      0.0000     0.0000E+00    0.0000E+00    9.047900E+08  0.02000  2.428E-04    0   0.6179   age135_m62            0.0000     1.9728E-05    10.9685  -0.6517    96.5407
 46      2.8114     3.5691E+00    4.1074E+00    1.434000E+09  0.02000  1.263E-04    0   0.5908   age139_m62            0.0000     2.0164E-05    10.4607  -1.0000    93.9530
 47      0.0000     0.0000E+00    0.0000E+00    2.500000E+09  0.02000  5.985E-05    0   0.5673   age150_m62            0.0000     2.6267E-05    13.2382  -1.0000    86.1293
 48      0.0000     0.0000E+00    0.0000E+00    4.250000E+09  0.02000  3.271E-05    0   0.5468   age158_m62            0.0000     3.6543E-05    18.7227  -1.0000    79.1518
 49      0.0000     0.0000E+00    0.0000E+00    1.000000E+10  0.02000  1.360E-05    0   0.5167   age181_m62            0.0000     5.3934E-05    25.3319  -1.0000    71.1919
 50      0.0000     0.0000E+00    0.0000E+00    1.800000E+10  0.02000  7.124E-06    0   0.5013   age213_m62            0.0000     6.8120E-05    28.9785  -1.0000    65.9221
 51      0.0000     0.0000E+00    0.0000E+00    1.000000E+06  0.05000  2.592E-02    0   0.9998   age020_m72            0.0000     2.1412E-05    13.0721   1.7192    89.3455
 52      0.0000     0.0000E+00    0.0000E+00    3.160000E+06  0.05000  4.845E-02    0   0.9577   age045_m72            0.0000     2.0816E-05    12.8539   1.5831    90.0228
 53      0.0000     0.0000E+00    0.0000E+00    5.010000E+06  0.05000  3.072E-02    0   0.9147   age055_m72            0.0000     1.8880E-05    10.7294   1.1743    92.2137
 54      0.0000     0.0000E+00    0.0000E+00    6.610000E+06  0.05000  1.455E-02    0   0.8877   age061_m72            0.0000     1.7483E-05     9.8945   0.5078    96.2719
 55     20.3895     3.6028E-01    5.9822E-01    1.000000E+07  0.05000  9.074E-03    0   0.8524   age070_m72            0.0000     1.9191E-05    11.5366   1.3424    92.0200
 56      0.0000     0.0000E+00    0.0000E+00    2.512000E+07  0.05000  4.250E-03    0   0.7902   age090_m72            0.0000     1.8667E-05    10.4984   1.1026    91.9528
 57      1.2944     6.7229E-02    9.9763E-02    4.000000E+07  0.05000  3.087E-03    0   0.7618   age104_m72            0.0000     1.8473E-05    10.1191   0.9044    92.5585
 58      0.0000     0.0000E+00    0.0000E+00    1.015200E+08  0.05000  1.700E-03    0   0.7096   age116_m72            0.0000     1.8802E-05     9.8754   0.6905    93.4071
 59      0.0000     0.0000E+00    0.0000E+00    2.861200E+08  0.05000  7.384E-04    0   0.6633   age125_m72            0.0000     1.9908E-05    10.2680   0.1981    95.9048
 60      0.0000     0.0000E+00    0.0000E+00    5.088000E+08  0.05000  3.819E-04    0   0.6372   age130_m72            0.0000     2.0235E-05    10.9191  -0.3100    97.5284
 61      0.0000     0.0000E+00    0.0000E+00    9.047900E+08  0.05000  1.676E-04    0   0.6110   age135_m72            0.0000     2.1191E-05    11.7284  -1.0000    96.1991
 62      0.0000     0.0000E+00    0.0000E+00    1.434000E+09  0.05000  8.837E-05    0   0.5874   age139_m72            0.0000     2.6744E-05    13.2108  -1.0000    87.2654
 63      0.0076     2.8714E-02    3.1311E-02    2.500000E+09  0.05000  4.233E-05    0   0.5598   age150_m72            0.0000     3.7629E-05    18.7664  -1.0000    79.8067
 64      0.2579     2.8814E+00    2.9461E+00    6.250000E+09  0.05000  1.435E-05    0   0.5249   age166_m72            0.0000     6.0468E-05    27.1109  -1.0000    68.7740
 65      0.0000     0.0000E+00    0.0000E+00    1.300000E+10  0.05000  6.513E-06    0   0.5036   age193_m72            0.0000     8.0772E-05    31.6516  -1.0000    63.0016
 66      0.0000     0.0000E+00    0.0000E+00    1.800000E+10  0.05000  4.527E-06    0   0.4945   age213_m72            0.0000     9.4089E-05    33.8660  -1.0000    59.1600


## Synthesis Results - Average & Chains ##

# j      x_j: min, <> & last-chain-values for 1 ...  7 chains
  1      5.1366      0.0985      0.3655      0.2794      0.2441      0.0000      0.0000      0.4099      0.3335
  2      0.0000      0.1803      0.9591      0.0642      0.4780      0.1269      0.4164      0.2457      0.2282
  3      0.5072      0.1762      0.7693      0.3458      0.7341      0.9820      0.6295      0.2452      0.6460
  4      0.0000      0.1803      1.2145      0.3214      1.0944      0.1658      0.5779      0.0000      0.9851
  5      2.7185      0.1658      0.0000      0.7402      0.9830      0.0000      0.5724      0.4238      0.3223
  6      0.0000      0.1442      0.0000      0.4408      0.0325      0.3692      0.5345      0.3343      0.0000
  7      0.0000      0.1493      0.0000      0.1083      0.9304      0.3660      0.1482      0.1506      1.2276
  8      0.0000      0.1792      0.3009      0.0002      0.4496      1.2331      0.2988      0.1473      0.0000
  9      0.0000      0.1863      0.0407      0.3933      0.0000      1.3743      0.0462      0.0000      0.1068
 10      0.0000      0.1358      0.0000      0.3717      1.4970      0.5254      0.6093      0.1684      0.0000
 11      0.0030      0.1743      0.3823      0.6396      0.7337      0.8510      0.0000      0.2532      0.1305
 12      0.0000     11.3112      8.6627     10.2064     11.2642      9.7841     11.5214     10.7400      9.3072
 13      0.0000      0.1396      0.4792      0.0000      0.2892      0.1728      0.0000      0.0861      0.0485
 14      0.0000      0.2168      1.0719      0.0495      0.0000      0.2349      0.1474      0.1933      0.2027
 15      0.0000      0.1606      0.8124      0.2306      0.1803      0.5074      0.0891      0.0000      0.5004
 16      6.4584      0.1879      0.4155      0.3288      0.1429      0.3007      0.0000      0.4304      0.4182
 17      2.8191      0.1399      0.1843      0.6196      0.0612      0.0490      0.6771      0.2318      0.2245
 18      0.0084      0.1572      0.1875      0.0821      0.2902      0.8382      0.0000      1.5170      0.0000
 19      0.0000      0.1580      0.4994      0.0383      1.3222      0.7442      0.4987      0.0000      0.0000
 20      0.0000      0.1687      1.2812      0.4655      0.2196      0.5619      0.5771      1.0504      0.8178
 21      0.0000      0.1657      0.2018      0.0606      1.0049      0.0000      0.0000      0.0000      0.5210
 22      0.0000      0.1764      1.3843      0.5408      0.0000      0.3606      0.7974      0.6231      0.0000
 23      0.0000      0.2691      0.0636      0.7145      1.3270      0.0000      2.0649      0.1515      0.0000
 24      0.0003      0.2436      1.0715      0.3270      0.0000      0.1350      1.5656      1.5750      0.9310
 25      0.5979      0.1832      1.6192      0.4306      0.1588      0.7213      0.3330      0.3913      0.2476
 26      0.0000      0.1715      0.1934      0.7270      0.0000      0.7346      1.3434      0.2431      0.2833
 27      0.0000      0.1371      0.6178      0.1112      0.0000      0.2302      0.1239      0.2779      0.4905
 28      0.0000      0.1712      0.0000      1.0488      0.0000      1.4643      0.4544      0.2057      0.7951
 29      0.0000      0.4181      0.0571      1.0776      0.0382      0.6229      0.2436      0.4790      0.4127
 30      0.0000      0.1328      0.3381      0.5153      0.0000      0.1392      0.8961      0.0926      0.0000
 31      0.0000      0.1968      0.2852      0.5232      0.0000      0.0000      0.0000      0.4569      0.5426
 32      2.1294      0.1885      0.7129      0.1738      0.0089      0.5077      0.5676      0.5646      0.6457
 33      0.0000      0.1468      0.2437      0.7442      0.1163      0.0657      0.8504      0.0000      0.0000
 34      0.0000      0.1905      0.4582      0.1913      0.3521      0.2706      0.7086      0.0583      1.0313
 35      0.0000      0.1905      0.1353      0.3051      0.1280      0.1959      0.3370      0.4218      0.7915
 36      0.0000      0.2143      0.0810      0.1371      0.3468      0.9840      0.1565      0.0000      0.2271
 37      0.0000      0.1461      0.0965      0.0000      0.3017      0.0000      0.2509      0.0000      1.0234
 38     43.2849      0.2137      1.1022      0.0000      0.2251      0.0974      0.4192      0.2870      0.1552
 39      0.0000      0.1519      0.0000      1.3277      0.0431      0.7210      0.1409      0.1685      0.0656
 40      7.3816      0.1998      0.4453      0.4537      0.2076      0.6605      0.5644      1.1836      0.9789
 41      0.0000      0.1752      0.4527      0.0097      0.2094      0.6195      0.0000      0.3216      0.0000
 42      0.0000      0.1699      0.3995      0.5441      0.7650      0.1486      0.1320      0.3859      0.5356
 43      0.0000      0.2146      0.6929      0.6887      0.9883      0.0000      0.6394      0.2436      0.2002
 44      0.0000      0.1653      0.7646      1.0643      0.7892      0.0000      0.7163      0.4693      0.0000
 45      0.0000     12.1068     10.2261     11.2590      9.7543     11.1836     11.9586     10.2845     12.4546
 46      2.8114     66.3218     55.8860     53.8863     56.1321     52.4620     54.0313     55.7779     56.1906
 47      0.0000      0.1655      0.0377      0.1858      0.0000      0.0266      0.8390      0.2573      0.1252
 48      0.0000      0.1661      0.0000      0.8086      0.4123      0.3815      0.3074      0.8380      0.3666
 49      0.0000      0.1249      0.3495      0.2374      0.2811      0.0034      0.0000      0.7043      0.0406
 50      0.0000      0.2749      0.5786      0.1304      1.4180      1.4031      0.0000      0.4218      0.4696
 51      0.0000      0.1753      0.0455      0.8041      0.1486      0.3299      0.1287      0.2028      0.7680
 52      0.0000      0.1354      0.0087      0.4462      0.0000      1.1214      0.0000      0.4878      0.4007
 53      0.0000      0.2043      0.3430      0.3242      0.0288      0.0000      0.0000      1.1746      0.0000
 54      0.0000      0.1355      0.0000      0.0716      0.4007      0.8106      0.1253      0.1925      0.0955
 55     20.3895      0.1601      0.0000      1.2947      0.0000      0.0459      0.0267      0.2659      0.1916
 56      0.0000      0.1861      0.4647      0.2707      0.2681      0.2771      0.4189      0.3977      1.2045
 57      1.2944      0.2701      0.4807      0.7416      0.3909      0.8218      0.5976      0.9568      1.0580
 58      0.0000      0.1206      0.3693      0.0000      0.2068      0.6155      0.0838      0.3978      0.0299
 59      0.0000      0.1319      0.3209      0.0790      0.2193      0.1167      0.1398      0.5433      0.6290
 60      0.0000      0.1413      0.1542      0.0000      0.0000      0.6318      0.1945      0.2408      0.1094
 61      0.0000      0.2086      0.8783      0.2814      1.0302      0.5536      0.2521      0.3844      0.1687
 62      0.0000      0.1367      0.6235      0.4033      0.0000      0.1297      0.1749      0.3369      0.0000
 63      0.0076      0.1958      0.0000      0.7124      1.3355      0.1410      0.1096      0.6904      0.1214
 64      0.2579      0.1786      0.0000      0.9589      0.1283      1.9082      0.0000      0.3794      0.8556
 65      0.0000      0.2595      0.1289      0.0000      0.7780      0.0000      0.1364      0.1989      0.0000
 66      0.0000      0.1506      0.8681      0.8191      0.1172      0.2574      0.6911      0.0000      0.2615

# j      m_j: min, <> & last-chain-values for 1 ...  7 chains
  1  1.4664E-01  1.9277E-03  6.0012E-03  4.6049E-03  4.0536E-03  0.0000E+00  0.0000E+00  8.1892E-03  5.9722E-03
  2  0.0000E+00  9.6371E-04  4.2988E-03  2.8897E-04  2.1667E-03  5.8023E-04  2.0343E-03  1.3400E-03  1.1153E-03
  3  5.9194E-03  1.4103E-03  5.1633E-03  2.3300E-03  4.9836E-03  6.7239E-03  4.6060E-03  2.0028E-03  4.7289E-03
  4  0.0000E+00  1.3588E-03  7.6761E-03  2.0398E-03  6.9960E-03  1.0691E-03  3.9818E-03  0.0000E+00  6.7912E-03
  5  5.6916E-02  2.3808E-03  0.0000E+00  8.9473E-03  1.1970E-02  0.0000E+00  7.5128E-03  6.2091E-03  4.2320E-03
  6  0.0000E+00  3.3570E-03  0.0000E+00  8.6429E-03  6.4118E-04  7.3544E-03  1.1379E-02  7.9449E-03  0.0000E+00
  7  0.0000E+00  4.9777E-03  0.0000E+00  3.0399E-03  2.6310E-02  1.0440E-02  4.5155E-03  5.1226E-03  3.7433E-02
  8  0.0000E+00  8.2559E-03  1.1628E-02  8.7615E-06  1.7571E-02  4.8613E-02  1.2588E-02  6.9262E-03  0.0000E+00
  9  0.0000E+00  9.8280E-03  1.8017E-03  1.7467E-02  0.0000E+00  6.2010E-02  2.2259E-03  0.0000E+00  5.1537E-03
 10  0.0000E+00  9.4094E-03  0.0000E+00  2.1685E-02  8.7967E-02  3.1138E-02  3.8587E-02  1.1905E-02  0.0000E+00
 11  5.7414E-04  2.2705E-02  4.1765E-02  7.0159E-02  8.1064E-02  9.4836E-02  0.0000E+00  3.3656E-02  1.5551E-02
 12  0.0000E+00  2.3375E+00  1.5012E+00  1.7758E+00  1.9743E+00  1.7297E+00  2.1765E+00  2.2647E+00  1.7591E+00
 13  0.0000E+00  8.1286E-02  2.3406E-01  0.0000E+00  1.4286E-01  8.6090E-02  0.0000E+00  5.1173E-02  2.5847E-02
 14  0.0000E+00  4.2363E-01  1.7561E+00  8.1408E-02  0.0000E+00  3.9263E-01  2.6317E-01  3.8532E-01  3.6211E-01
 15  0.0000E+00  5.1064E-01  2.1666E+00  6.1762E-01  4.8634E-01  1.3805E+00  2.5892E-01  0.0000E+00  1.4555E+00
 16  5.0644E+01  1.0105E+00  1.8735E+00  1.4885E+00  6.5192E-01  1.3833E+00  0.0000E+00  2.3619E+00  2.0569E+00
 17  2.8677E+01  9.7624E-01  1.0784E+00  3.6395E+00  3.6190E-01  2.9266E-01  4.3177E+00  1.6498E+00  1.4323E+00
 18  2.1264E-04  2.7198E-03  2.7196E-03  1.1956E-03  4.2578E-03  1.2406E-02  0.0000E+00  2.6780E-02  0.0000E+00
 19  0.0000E+00  1.0968E-03  2.9078E-03  2.2406E-04  7.7869E-03  4.4208E-03  3.1659E-03  0.0000E+00  0.0000E+00
 20  0.0000E+00  1.2787E-03  8.1447E-03  2.9709E-03  1.4122E-03  3.6441E-03  3.9996E-03  8.1250E-03  5.6702E-03
 21  0.0000E+00  1.5248E-03  1.5569E-03  4.6972E-04  7.8427E-03  0.0000E+00  0.0000E+00  0.0000E+00  4.3846E-03
 22  0.0000E+00  2.7442E-03  1.8064E-02  7.0847E-03  0.0000E+00  4.7999E-03  1.1343E-02  9.8936E-03  0.0000E+00
 23  0.0000E+00  5.6552E-03  1.1206E-03  1.2642E-02  2.3649E-02  0.0000E+00  3.9664E-02  3.2492E-03  0.0000E+00
 24  1.4564E-05  7.6154E-03  2.8089E-02  8.6071E-03  0.0000E+00  3.6092E-03  4.4741E-02  5.0240E-02  2.6620E-02
 25  3.7581E-02  7.8953E-03  5.8532E-02  1.5629E-02  5.8072E-03  2.6600E-02  1.3123E-02  1.7211E-02  9.7609E-03
 26  0.0000E+00  1.2358E-02  1.1683E-02  4.4104E-02  0.0000E+00  4.5280E-02  8.8488E-02  1.7873E-02  1.8669E-02
 27  0.0000E+00  1.9774E-02  7.4713E-02  1.3501E-02  0.0000E+00  2.8401E-02  1.6333E-02  4.0892E-02  6.4698E-02
 28  0.0000E+00  7.1645E-02  0.0000E+00  3.6958E-01  0.0000E+00  5.2432E-01  1.7386E-01  8.7854E-02  3.0435E-01
 29  0.0000E+00  3.0494E-01  3.4941E-02  6.6167E-01  2.3654E-02  3.8862E-01  1.6238E-01  3.5647E-01  2.7527E-01
 30  0.0000E+00  2.0231E-01  4.3205E-01  6.6103E-01  0.0000E+00  1.8141E-01  1.2482E+00  1.4404E-01  0.0000E+00
 31  0.0000E+00  5.2741E-01  6.4104E-01  1.1806E+00  0.0000E+00  0.0000E+00  0.0000E+00  1.2495E+00  1.3302E+00
 32  1.1198E+01  6.7980E-01  2.1560E+00  5.2771E-01  2.7317E-02  1.5663E+00  1.8712E+00  2.0775E+00  2.1298E+00
 33  0.0000E+00  1.1718E+00  1.6317E+00  5.0020E+00  7.8734E-01  4.4845E-01  6.2064E+00  0.0000E+00  0.0000E+00
 34  0.0000E+00  2.0594E+00  4.1535E+00  1.7416E+00  3.2287E+00  2.5024E+00  7.0032E+00  6.4340E-01  1.0197E+01
 35  0.0000E+00  2.6432E-03  1.5738E-03  3.5632E-03  1.5059E-03  2.3246E-03  4.2739E-03  5.9707E-03  1.0042E-02
 36  0.0000E+00  1.2030E-03  3.8117E-04  6.4793E-04  1.6508E-03  4.7246E-03  8.0314E-04  0.0000E+00  1.1657E-03
 37  0.0000E+00  8.8684E-04  4.9129E-04  0.0000E+00  1.5535E-03  0.0000E+00  1.3925E-03  0.0000E+00  5.6820E-03
 38  1.0381E+00  3.5153E-03  1.5200E-02  0.0000E+00  3.1392E-03  1.3710E-03  6.3027E-03  4.8155E-03  2.3346E-03
 39  0.0000E+00  3.5973E-03  0.0000E+00  2.6471E-02  8.6533E-04  1.4606E-02  3.0495E-03  4.0705E-03  1.4203E-03
 40  4.1200E-01  7.6470E-03  1.4293E-02  1.4620E-02  6.7405E-03  2.1628E-02  1.9750E-02  4.6228E-02  3.4268E-02
 41  0.0000E+00  1.0426E-02  2.2594E-02  4.8770E-04  1.0571E-02  3.1545E-02  0.0000E+00  1.9535E-02  0.0000E+00
 42  0.0000E+00  1.8567E-02  3.6610E-02  5.0066E-02  7.0909E-02  1.3896E-02  1.3191E-02  4.3034E-02  5.3534E-02
 43  0.0000E+00  3.4235E-02  9.2702E-02  9.2514E-02  1.3374E-01  0.0000E+00  9.3253E-02  3.9662E-02  2.9220E-02
 44  0.0000E+00  4.5400E-02  1.7615E-01  2.4617E-01  1.8388E-01  0.0000E+00  1.7989E-01  1.3156E-01  0.0000E+00
 45  0.0000E+00  6.5992E+00  4.6742E+00  5.1670E+00  4.5094E+00  5.2149E+00  5.9588E+00  5.7201E+00  6.2089E+00
 46  4.1074E+00  6.6449E+01  4.6953E+01  4.5456E+01  4.7699E+01  4.4965E+01  4.9487E+01  5.7023E+01  5.1489E+01
 47  0.0000E+00  3.3603E-01  6.4258E-02  3.1758E-01  0.0000E+00  4.6138E-02  1.5571E+00  5.3292E-01  2.3252E-01
 48  0.0000E+00  5.9488E-01  0.0000E+00  2.4375E+00  1.2520E+00  1.1684E+00  1.0060E+00  3.0617E+00  1.2006E+00
 49  0.0000E+00  1.0162E+00  2.3849E+00  1.6265E+00  1.9404E+00  2.3566E-02  0.0000E+00  5.8480E+00  3.0216E-01
 50  0.0000E+00  4.1430E+00  7.3131E+00  1.6550E+00  1.8126E+01  1.8091E+01  0.0000E+00  6.4866E+00  6.4730E+00
 51  0.0000E+00  1.4480E-03  3.1506E-04  5.5930E-03  1.0410E-03  2.3319E-03  9.7225E-04  1.7093E-03  5.8031E-03
 52  0.0000E+00  5.7336E-04  3.0841E-05  1.5905E-03  0.0000E+00  4.0615E-03  0.0000E+00  2.1074E-03  1.5516E-03
 53  0.0000E+00  1.3032E-03  1.8345E-03  1.7410E-03  1.5579E-04  0.0000E+00  0.0000E+00  7.6435E-03  0.0000E+00
 54  0.0000E+00  1.7702E-03  0.0000E+00  7.8746E-04  4.4405E-03  9.0620E-03  1.4966E-03  2.5668E-03  1.1417E-03
 55  5.9822E-01  3.2204E-03  0.0000E+00  2.1932E-02  0.0000E+00  7.8923E-04  4.9078E-04  5.4584E-03  3.5262E-03
 56  0.0000E+00  7.4102E-03  1.5518E-02  9.0768E-03  9.0560E-03  9.4397E-03  1.5248E-02  1.6162E-02  4.3869E-02
 57  9.9763E-02  1.4277E-02  2.1308E-02  3.3001E-02  1.7523E-02  3.7160E-02  2.8877E-02  5.1602E-02  5.1145E-02
 58  0.0000E+00  1.0781E-02  2.7684E-02  0.0000E+00  1.5684E-02  4.7075E-02  6.8514E-03  3.6292E-02  2.4485E-03
 59  0.0000E+00  2.5380E-02  5.1776E-02  1.2798E-02  3.5787E-02  1.9207E-02  2.4594E-02  1.0667E-01  1.1068E-01
 60  0.0000E+00  5.0510E-02  4.6204E-02  0.0000E+00  0.0000E+00  1.9315E-01  6.3528E-02  8.7808E-02  3.5760E-02
 61  0.0000E+00  1.6287E-01  5.7510E-01  1.8503E-01  6.8225E-01  3.6978E-01  1.7998E-01  3.0623E-01  1.2045E-01
 62  0.0000E+00  1.9467E-01  7.4433E-01  4.8344E-01  0.0000E+00  1.5793E-01  2.2759E-01  4.8940E-01  0.0000E+00
 63  3.1311E-02  5.5451E-01  0.0000E+00  1.6989E+00  3.2084E+00  3.4174E-01  2.8387E-01  1.9955E+00  3.1447E-01
 64  2.9461E+00  1.3989E+00  0.0000E+00  6.3251E+00  8.5221E-01  1.2789E+01  0.0000E+00  3.0327E+00  6.1308E+00
 65  0.0000E+00  4.2972E+00  1.7897E+00  0.0000E+00  1.0928E+01  0.0000E+00  2.0654E+00  3.3614E+00  0.0000E+00
 66  0.0000E+00  3.5227E+00  1.7031E+01  1.6135E+01  2.3256E+00  5.1516E+00  1.4781E+01  0.0000E+00  5.5947E+00

# AV, chi2 & Mass for <> & i_chain = 1 ...  7 solutions
AV       0.1432     -0.9929     -0.9778     -1.0000     -0.9682     -0.9562     -0.9478     -0.9282     -0.9698
chi2 1.6911E-05  2.0022E-05  1.9520E-05  1.9619E-05  1.9590E-05  1.9519E-05  1.9525E-05  1.9370E-05  1.9572E-05
Mass 9.3829E-14  2.9751E-14  3.6205E-14  3.5000E-14  3.6260E-14  3.6535E-14  3.4576E-14  3.1803E-14  3.3554E-14
-104.22                                  [v0_min (km/s) before EX0s...]
 156.68                                  [vd_min (km/s) before EX0s...]


## Synthetic spectrum (Best Model) ##l_obs f_obs f_syn wei
 3478    [Nl_obs]
 3741.00    0.41440   0.91821    0.000
 3742.00    0.58750   0.90780    0.000
 3743.00    0.72543   0.88717    0.000
 3744.00    0.71475   0.85772    0.000
 3745.00    0.61749   0.82145   -1.000
 3746.00    0.62824   0.78184   -1.000
 3747.00    0.69385   0.74628   -1.000
 3748.00    0.54725   0.72487   -1.000
 3749.00    0.30734   0.72456   -1.000
 3750.00    0.34790   0.74549   -1.000
 3751.00    0.49435   0.78198   -1.000
 3752.00    0.61562   0.82486   -1.000
 3753.00    0.72881   0.86457   -1.000
 3754.00    0.73464   0.89528   -1.000
 3755.00    0.71170   0.91593   -1.000
 3756.00    0.73203   0.92866   -1.000
 3757.00    0.76185   0.93669   -1.000
 3758.00    0.69062   0.94224   -1.000
 3759.00    0.60175   0.94567   -1.000
 3760.00    0.55852   0.94601   -1.000
 3761.00    0.52135   0.94183   -1.000
 3762.00    0.47669   0.93165   -1.000
 3763.00    0.43132   0.91392   -1.000
 3764.00    0.63112   0.88765   -1.000
 3765.00    0.84507   0.85356   -1.000
 3766.00    0.76027   0.81407   -1.000
 3767.00    0.66809   0.77414   -1.000
 3768.00    0.54047   0.74237   -1.000
 3769.00    0.42281   0.72816   -1.000
 3770.00    0.54714   0.73563   -1.000
 3771.00    0.66098   0.76206   -1.000
 3772.00    0.63733   0.80057   -1.000
 3773.00    0.62449   0.84280   -1.000
 3774.00    0.70669   0.88173   -1.000
 3775.00    0.76671   0.91419   -1.000
 3776.00    0.68286   0.94049   -1.000
 3777.00    0.57765   0.96211   -1.000
 3778.00    0.36432   0.97980   -1.000
 3779.00    0.18149   0.99338   -1.000
 3780.00    0.12349   1.00256   -1.000
 3781.00    0.15898   1.00699   -1.000
 3782.00    0.51156   1.00652   -1.000
 3783.00    0.77218   1.00196   -1.000
 3784.00    0.76984   0.99470   -1.000
 3785.00    0.68579   0.98577   -1.000
 3786.00    0.40212   0.97557   -1.000
 3787.00    0.23290   0.96381   -1.000
 3788.00    0.30489   0.94958   -1.000
 3789.00    0.39993   0.93161   -1.000
 3790.00    0.53718   0.90830   -1.000
 3791.00    0.59348   0.87789   -1.000
 3792.00    0.52019   0.83969   -1.000
 3793.00    0.44932   0.79510   -1.000
 3794.00    0.38183   0.74851   -1.000
 3795.00    0.38449   0.70829   -1.000
 3796.00    0.47385   0.68499   -1.000
 3797.00    0.49985   0.68560   -1.000
 3798.00    0.45684   0.70968   -1.000
 3799.00    0.40993   0.75049   -1.000
 3800.00    0.35927   0.79829   -1.000
 3801.00    0.29925   0.84351   -1.000
 3802.00    0.23130   0.87973   -1.000
 3803.00    0.27343   0.90550   -1.000
 3804.00    0.39771   0.92402   -1.000
 3805.00    0.57625   0.93994   -1.000
 3806.00    0.79037   0.95566   -1.000
 3807.00    0.74865   0.97119   -1.000
 3808.00    0.56014   0.98508   -1.000
 3809.00    0.43465   0.99480   -1.000
 3810.00    0.34066   0.99856   -1.000
 3811.00    0.38127   0.99668   -1.000
 3812.00    0.48009   0.99053   -1.000
 3813.00    0.58956   0.98096   -1.000
 3814.00    0.70297   0.96785   -1.000
 3815.00    0.71922   0.95008   -1.000
 3816.00    0.70494   0.92751   -1.000
 3817.00    0.57409   0.90520   -1.000
 3818.00    0.41265   0.89155   -1.000
 3819.00    0.59777   0.89077   -1.000
 3820.00    0.85714   0.90061   -1.000
 3821.00    1.12868   0.91514   -1.000
 3822.00    1.40228   0.92735   -1.000
 3823.00    1.26391   0.93217   -1.000
 3824.00    1.07267   0.92874   -1.000
 3825.00    1.05952   0.91873   -1.000
 3826.00    1.06235   0.90358   -1.000
 3827.00    1.04579   0.88317   -1.000
 3828.00    1.02820   0.85606   -1.000
 3829.00    0.60488   0.82089   -1.000
 3830.00    0.17745   0.77826   -1.000
 3831.00    0.09030   0.73163   -1.000
 3832.00    0.00974   0.68779   -1.000
 3833.00    0.07563   0.65616   -1.000
 3834.00    0.13321   0.64442   -1.000
 3835.00    0.08751   0.65453   -1.000
 3836.00    0.03062   0.68347   -1.000
 3837.00   -0.12090   0.72494    0.000
 3838.00   -0.25504   0.77112    0.000
 3839.00   -0.27977   0.81572    0.000
 3840.00   -0.19285   0.85543    0.000
 3841.00    0.44504   0.88878   -1.000
 3842.00    0.98583   0.91543   -1.000
 3843.00    1.13794   0.93583   -1.000
 3844.00    1.22073   0.95085   -1.000
 3845.00    1.07309   0.96130   -1.000
 3846.00    0.98001   0.96791   -1.000
 3847.00    1.04011   0.97157    0.000
 3848.00    0.91812   0.97378    0.000
 3849.00    0.35873   0.97591    0.000
 3850.00    0.16761   0.97798    0.000
 3851.00    0.74025   0.97915    0.000
 3852.00    1.13554   0.97873    0.000
 3853.00    1.21094   0.97665    0.000
 3854.00    1.19455   0.97400    0.000
 3855.00    1.03339   0.97176    0.000
 3856.00    1.03812   0.96999    0.000
 3857.00    1.27251   0.96865    0.000
 3858.00    1.21218   0.96820    0.000
 3859.00    0.79275   0.96855    0.000
 3860.00    0.78715   0.96911    0.000
 3861.00    1.22608   0.96954    0.000
 3862.00    1.28429   0.96950    0.000
 3863.00    0.98176   0.96831    0.000
 3864.00    0.79330   0.96558    0.000
 3865.00    0.70013   0.96255    0.000
 3866.00    0.81765   0.96036    0.000
 3867.00    1.09012   0.95785    0.000
 3868.00    1.04234   0.95341    0.000
 3869.00    0.78769   0.94749    0.000
 3870.00    0.55455   0.94215    0.000
 3871.00    0.33357   0.93848    0.000
 3872.00    0.21253   0.93596    0.000
 3873.00    0.14064   0.93350    0.000
 3874.00    0.13177   0.93034    0.000
 3875.00    0.14970   0.92578    0.000
 3876.00    0.28875   0.91993    0.000
 3877.00    0.47192   0.91322    0.000
 3878.00    0.61290   0.90483    0.000
 3879.00    0.74088   0.89312    0.000
 3880.00    0.65017   0.87709    0.000
 3881.00    0.50333   0.85575   -1.000
 3882.00    0.44416   0.82742   -1.000
 3883.00    0.40333   0.79126   -1.000
 3884.00    0.56710   0.74858   -1.000
 3885.00    0.76461   0.70336   -1.000
 3886.00    0.69903   0.66372   -1.000
 3887.00    0.60087   0.64030   -1.000
 3888.00    0.34808   0.63977   -1.000
 3889.00    0.08206   0.66153   -1.000
 3890.00    0.19138   0.69939   -1.000
 3891.00    0.31940   0.74439   -1.000
 3892.00    0.62157   0.78799   -1.000
 3893.00    0.92021   0.82517   -1.000
 3894.00    0.80721   0.85471   -1.000
 3895.00    0.72298   0.87705   -1.000
 3896.00    1.22714   0.89371   -1.000
 3897.00    1.66843   0.90699   -1.000
 3898.00    1.36627   0.91852   -1.000
 3899.00    1.08175   0.92865   -1.000
 3900.00    0.94081   0.93729   -1.000
 3901.00    0.79311   0.94435   -1.000
 3902.00    0.60409   0.94932   -1.000
 3903.00    0.47749   0.95256   -1.000
 3904.00    0.65124   0.95563   -1.000
 3905.00    0.72720   0.95960   -1.000
 3906.00    0.42014   0.96437   -1.000
 3907.00    0.21754   0.96898   -1.000
 3908.00    0.35538   0.97237   -1.000
 3909.00    0.39656   0.97416   -1.000
 3910.00    0.17123   0.97480   -1.000
 3911.00    0.11909   0.97479   -1.000
 3912.00    0.47593   0.97427   -1.000
 3913.00    0.72033   0.97259   -1.000
 3914.00    0.73525   0.96848   -1.000
 3915.00    0.66922   0.96054   -1.000
 3916.00    0.45941   0.94891   -1.000
 3917.00    0.39140   0.93621   -1.000
 3918.00    0.54372   0.92612   -1.000
 3919.00    0.62257   0.92095   -1.000
 3920.00    0.60117   0.91996   -1.000
 3921.00    0.51969   0.92066   -1.000
 3922.00    0.36606   0.92014   -1.000
 3923.00    0.29687   0.91621   -1.000
 3924.00    0.31712   0.90954   -1.000
 3925.00    0.32905   0.90219   -1.000
 3926.00    0.33322   0.89557   -1.000
 3927.00    0.37200   0.88988   -1.000
 3928.00    0.43929   0.88404   -1.000
 3929.00    0.48855   0.87680   -1.000
 3930.00    0.52474   0.86803   -1.000
 3931.00    0.38615   0.86009   -1.000
 3932.00    0.13632   0.85600   -1.000
 3933.00    0.26773   0.85750   -1.000
 3934.00    0.61129   0.86490   -1.000
 3935.00    0.52999   0.87678   -1.000
 3936.00    0.24300   0.89062   -1.000
 3937.00    0.32909   0.90381   -1.000
 3938.00    0.57116   0.91444   -1.000
 3939.00    0.88926   0.92172   -1.000
 3940.00    1.23456   0.92558   -1.000
 3941.00    1.11489   0.92676   -1.000
 3942.00    0.85470   0.92707   -1.000
 3943.00    0.75324   0.92814   -1.000
 3944.00    0.69166   0.93025   -1.000
 3945.00    0.62418   0.93308   -1.000
 3946.00    0.55550   0.93629   -1.000
 3947.00    0.77330   0.93919   -1.000
 3948.00    1.03698   0.94078   -1.000
 3949.00    0.94224   0.94032   -1.000
 3950.00    0.80470   0.93793   -1.000
 3951.00    0.82368   0.93409   -1.000
 3952.00    0.85540   0.92936   -1.000
 3953.00    1.05097   0.92434   -1.000
 3954.00    1.25408   0.91959   -1.000
 3955.00    1.06891   0.91491   -1.000
 3956.00    0.87919   0.90898   -1.000
 3957.00    0.70956   0.89981   -1.000
 3958.00    0.55832   0.88576   -1.000
 3959.00    0.75539   0.86639   -1.000
 3960.00    0.93266   0.84178    0.000
 3961.00    0.88668   0.81212    0.000
 3962.00    0.83997   0.77844    0.000
 3963.00    0.78746   0.74154    0.000
 3964.00    0.77192   0.70128    0.000
 3965.00    0.97577   0.65844    0.000
 3966.00    1.11214   0.61665    0.000
 3967.00    0.93174   0.58285    0.000
 3968.00    0.74814   0.56480    0.000
 3969.00    0.55227   0.56727    0.000
 3970.00    0.41429   0.59020    0.000
 3971.00    0.46134   0.62914    0.000
 3972.00    0.55640   0.67668    0.000
 3973.00    0.78148   0.72504    0.000
 3974.00    0.95198   0.76886    0.000
 3975.00    0.99577   0.80592    0.000
 3976.00    0.95611   0.83589    0.000
 3977.00    0.74886   0.85919    0.000
 3978.00    0.67689   0.87644    0.000
 3979.00    0.84156   0.88855    0.000
 3980.00    0.89071   0.89717    0.000
 3981.00    0.76300   0.90422   -1.000
 3982.00    0.78107   0.91104   -1.000
 3983.00    0.99517   0.91819   -1.000
 3984.00    1.15245   0.92567   -1.000
 3985.00    1.24244   0.93283   -1.000
 3986.00    1.17719   0.93871   -1.000
 3987.00    0.94983   0.94296   -1.000
 3988.00    0.97341   0.94595   -1.000
 3989.00    1.22812   0.94792   -1.000
 3990.00    1.23696   0.94858   -1.000
 3991.00    1.04618   0.94758   -1.000
 3992.00    0.92809   0.94534   -1.000
 3993.00    0.86195   0.94273   -1.000
 3994.00    0.80804   0.94059   -1.000
 3995.00    0.76181   0.93981   -1.000
 3996.00    0.87619   0.94101   -1.000
 3997.00    1.07859   0.94383   -1.000
 3998.00    0.98630   0.94709   -1.000
 3999.00    0.75364   0.94952   -1.000
 4000.00    0.66605   0.95001   -1.000
 4001.00    0.63809   0.94760   -1.000
 4002.00    0.90287   0.94218   -1.000
 4003.00    1.27048   0.93474   -1.000
 4004.00    1.29641   0.92628   -1.000
 4005.00    1.22111   0.91762   -1.000
 4006.00    1.13193   0.91043   -1.000
 4007.00    1.03934   0.90706   -1.000
 4008.00    0.91709   0.90872   -1.000
 4009.00    0.78894   0.91491   -1.000
 4010.00    0.96106   0.92410   -1.000
 4011.00    1.17984   0.93417   -1.000
 4012.00    1.37138   0.94298   -1.000
 4013.00    1.55978   0.94904   -1.000
 4014.00    1.29315   0.95226   -1.000
 4015.00    0.99134   0.95356   -1.000
 4016.00    0.97947   0.95359    0.147
 4017.00    0.97982   0.95219    0.072
 4018.00    1.02586   0.94856    0.071
 4019.00    1.07119   0.94151    0.071
 4020.00    1.06760   0.92967    0.068
 4021.00    1.07132   0.91227    0.066
 4022.00    1.20424   0.89101    0.068
 4023.00    1.29795   0.87103    0.070
 4024.00    0.96992   0.85859    0.069
 4025.00    0.67146   0.85706    0.068
 4026.00    0.59762   0.86540    0.068
 4027.00    0.55214   0.87938    0.068
 4028.00    0.67031   0.89371    0.068
 4029.00    0.79374   0.90453    0.068
 4030.00    0.94134   0.91071    0.070
 4031.00    1.03693   0.91404    0.070
 4032.00    0.93742   0.91749    0.068
 4033.00    0.88829   0.92306    0.067
 4034.00    0.99712   0.93067    0.068
 4035.00    1.08148   0.93874    0.069
 4036.00    1.10073   0.94518    0.070
 4037.00    1.08747   0.94839    0.070
 4038.00    1.00000   0.94802    0.069
 4039.00    0.89160   0.94457    0.068
 4040.00    0.74182   0.93883    0.068
 4041.00    0.66157   0.93174    0.067
 4042.00    0.70110   0.92464    0.068
 4043.00    0.69806   0.91932    0.068
 4044.00    0.63080   0.91729    0.069
 4045.00    0.76111   0.91904    0.070
 4046.00    1.15328   0.92398    0.072
 4047.00    1.35052   0.93050    0.072
 4048.00    1.32018   0.93632    0.071
 4049.00    1.24967   0.93962    0.070
 4050.00    1.13782   0.93972    0.069
 4051.00    1.16184   0.93725    0.069
 4052.00    1.30924   0.93345    0.069
 4053.00    1.32265   0.92939    0.069
 4054.00    1.22880   0.92579    0.068
 4055.00    1.13143   0.92307    0.068
 4056.00    1.03159   0.92122    0.068
 4057.00    0.94826   0.91982    0.067
 4058.00    0.87513   0.91820    0.067
 4059.00    0.74301   0.91570    0.066
 4060.00    0.57905   0.91251    0.066
 4061.00    0.66786   0.90960    0.066
 4062.00    0.87512   0.90779    0.066
 4063.00    0.86052   0.90741    0.065
 4064.00    0.75629   0.90806    0.064
 4065.00    0.72873   0.90859    0.063
 4066.00    0.72762   0.90766    0.064
 4067.00    0.95056   0.90449    0.065
 4068.00    1.23855   0.89945    0.066
 4069.00    1.20950   0.89424    0.066
 4070.00    1.10431   0.89005    0.065
 4071.00    0.99525   0.88668    0.064
 4072.00    0.88544   0.88361    0.064
 4073.00    0.85996   0.88053    0.063
 4074.00    0.84719   0.87783    0.063
 4075.00    1.04276   0.87669    0.064
 4076.00    1.26138   0.87829    0.066
 4077.00    1.08018   0.88284    0.065
 4078.00    0.86970   0.88914    0.065
 4079.00    0.87835   0.89484    0.065
 4080.00    0.89539   0.89787    0.064
 4081.00    0.75869   0.89774    0.064
 4082.00    0.62723   0.89544    0.063
 4083.00    0.72535   0.89249    0.063
 4084.00    0.82861   0.89003    0.064
 4085.00    1.01667   0.88842    0.065
 4086.00    1.16090   0.88727    0.066
 4087.00    0.85403   0.88564    0.064
 4088.00    0.64115   0.88235    0.063
 4089.00    1.11797   0.87665    0.066
 4090.00    1.48069   0.86803    0.068
 4091.00    1.20331   0.85560    0.066
 4092.00    1.00229   0.83862    0.000
 4093.00    1.14299   0.81684    0.000
 4094.00    1.15727   0.79031    0.000
 4095.00    0.70727   0.75920    0.000
 4096.00    0.48634   0.72368    0.000
 4097.00    0.96988   0.68504    0.000
 4098.00    1.26811   0.64780    0.000
 4099.00    1.08201   0.61890    0.000
 4100.00    0.96418   0.60474    0.000
 4101.00    0.99969   0.60910    0.000
 4102.00    0.97687   0.63126    0.000
 4103.00    0.84055   0.66580    0.000
 4104.00    0.80128   0.70518    0.000
 4105.00    0.92666   0.74246    0.000
 4106.00    0.92994   0.77332    0.000
 4107.00    0.75171   0.79689    0.000
 4108.00    0.78783   0.81454    0.000
 4109.00    1.10402   0.82823    0.000
 4110.00    1.23151   0.83957    0.000
 4111.00    1.14181   0.84936    0.000
 4112.00    1.08390   0.85762    0.000
 4113.00    1.05827   0.86376    0.061
 4114.00    1.04375   0.86670    0.061
 4115.00    1.03918   0.86572    0.061
 4116.00    1.00337   0.86117    0.061
 4117.00    0.94291   0.85492    0.060
 4118.00    0.87942   0.84998    0.060
 4119.00    0.81383   0.84907    0.059
 4120.00    0.90174   0.85333    0.060
 4121.00    1.08306   0.86194    0.061
 4122.00    1.04542   0.87206    0.061
 4123.00    0.89146   0.88027    0.060
 4124.00    0.83058   0.88433    0.059
 4125.00    0.81263   0.88385    0.059
 4126.00    0.75717   0.87989    0.059
 4127.00    0.68682   0.87421    0.059
 4128.00    0.66215   0.86855    0.058
 4129.00    0.65295   0.86434    0.058
 4130.00    0.74482   0.86263    0.058
 4131.00    0.86544   0.86399    0.059
 4132.00    0.87361   0.86813    0.059
 4133.00    0.85539   0.87404    0.058
 4134.00    0.89859   0.88030    0.058
 4135.00    0.95339   0.88529    0.058
 4136.00    0.89783   0.88748    0.059
 4137.00    0.82615   0.88553    0.059
 4138.00    0.75361   0.87815    0.059
 4139.00    0.68097   0.86521    0.058
 4140.00    0.65099   0.84929    0.058
 4141.00    0.62395   0.83493    0.059
 4142.00    0.43970   0.82666    0.058
 4143.00    0.25002   0.82710    0.058
 4144.00    0.56424   0.83538    0.059
 4145.00    0.86972   0.84759    0.059
 4146.00    0.85361   0.85933    0.060
 4147.00    0.83309   0.86756    0.061
 4148.00    0.74446   0.87128    0.060
 4149.00    0.66643   0.87156    0.060
 4150.00    0.69292   0.87029    0.060
 4151.00    0.73228   0.86885    0.061
 4152.00    0.86299   0.86814    0.062
 4153.00    0.95798   0.86882    0.063
 4154.00    0.85793   0.87105    0.062
 4155.00    0.76542   0.87454    0.061
 4156.00    0.70587   0.87868    0.060
 4157.00    0.72599   0.88254    0.060
 4158.00    1.03263   0.88532    0.061
 4159.00    1.22852   0.88664    0.062
 4160.00    1.09017   0.88647    0.061
 4161.00    0.97559   0.88505    0.060
 4162.00    0.92204   0.88270    0.060
 4163.00    0.81560   0.87960    0.060
 4164.00    0.59236   0.87593    0.059
 4165.00    0.49602   0.87204    0.059
 4166.00    0.64278   0.86829    0.059
 4167.00    0.81425   0.86479    0.059
 4168.00    1.02704   0.86146    0.059
 4169.00    1.09280   0.85822    0.059
 4170.00    0.94322   0.85518    0.058
 4171.00    0.85332   0.85282    0.058
 4172.00    0.84031   0.85167    0.059
 4173.00    0.84840   0.85197    0.059
 4174.00    0.88046   0.85362    0.060
 4175.00    0.89762   0.85630    0.059
 4176.00    0.89986   0.85944    0.058
 4177.00    0.88831   0.86247    0.058
 4178.00    0.86458   0.86498    0.058
 4179.00    0.78756   0.86666    0.057
 4180.00    0.66908   0.86730    0.056
 4181.00    0.71669   0.86690    0.056
 4182.00    0.87789   0.86557    0.056
 4183.00    0.90902   0.86352    0.056
 4184.00    0.86218   0.86110    0.056
 4185.00    0.78736   0.85875    0.055
 4186.00    0.69791   0.85704    0.054
 4187.00    0.70843   0.85659    0.054
 4188.00    0.76429   0.85780    0.055
 4189.00    0.87180   0.86048    0.055
 4190.00    0.99947   0.86378    0.054
 4191.00    1.06605   0.86639    0.055
 4192.00    1.11235   0.86711    0.056
 4193.00    0.99416   0.86526    0.055
 4194.00    0.83012   0.86100    0.054
 4195.00    0.86047   0.85530    0.054
 4196.00    0.93542   0.84946    0.054
 4197.00    0.84194   0.84464    0.054
 4198.00    0.71752   0.84167    0.054
 4199.00    0.67034   0.84086    0.053
 4200.00    0.63408   0.84199    0.053
 4201.00    0.72672   0.84470    0.052
 4202.00    0.83251   0.84853    0.052
 4203.00    0.84996   0.85293    0.053
 4204.00    0.86166   0.85737    0.053
 4205.00    0.98516   0.86134    0.053
 4206.00    1.11160   0.86438    0.053
 4207.00    0.92130   0.86626    0.052
 4208.00    0.73957   0.86692    0.052
 4209.00    0.81015   0.86644    0.052
 4210.00    0.89133   0.86485    0.053
 4211.00    1.12703   0.86227    0.054
 4212.00    1.32472   0.85916    0.055
 4213.00    1.16312   0.85627    0.055
 4214.00    1.01360   0.85455    0.056
 4215.00    0.94718   0.85458    0.055
 4216.00    0.90100   0.85612    0.055
 4217.00    0.96243   0.85794    0.054
 4218.00    1.00026   0.85847    0.053
 4219.00    0.93724   0.85634    0.054
 4220.00    0.89841   0.85076    0.054
 4221.00    0.94476   0.84184    0.054
 4222.00    0.95974   0.83076    0.054
 4223.00    0.88179   0.81965    0.054
 4224.00    0.82612   0.81103    0.055
 4225.00    0.82670   0.80710    0.054
 4226.00    0.81997   0.80880    0.053
 4227.00    0.79734   0.81506    0.053
 4228.00    0.82327   0.82330    0.052
 4229.00    0.94076   0.83077    0.053
 4230.00    0.99615   0.83561    0.052
 4231.00    0.94929   0.83726    0.051
 4232.00    0.84972   0.83650    0.051
 4233.00    0.67406   0.83468    0.051
 4234.00    0.58186   0.83292    0.051
 4235.00    0.59563   0.83200    0.050
 4236.00    0.64507   0.83229    0.050
 4237.00    0.73442   0.83372    0.050
 4238.00    0.76792   0.83603    0.050
 4239.00    0.74629   0.83904    0.050
 4240.00    0.80400   0.84246    0.050
 4241.00    0.93075   0.84582    0.050
 4242.00    0.87719   0.84840    0.050
 4243.00    0.68542   0.84939    0.050
 4244.00    0.66377   0.84819    0.051
 4245.00    0.75678   0.84486    0.052
 4246.00    0.77024   0.84020    0.053
 4247.00    0.73674   0.83517    0.053
 4248.00    0.74521   0.83035    0.053
 4249.00    0.77530   0.82606    0.053
 4250.00    0.72963   0.82246    0.053
 4251.00    0.65015   0.81985    0.053
 4252.00    0.71050   0.81867    0.053
 4253.00    0.82447   0.81930    0.054
 4254.00    0.85443   0.82140    0.053
 4255.00    0.85700   0.82385    0.051
 4256.00    0.89217   0.82547    0.051
 4257.00    0.93624   0.82592    0.052
 4258.00    0.92417   0.82588    0.052
 4259.00    0.89952   0.82646    0.051
 4260.00    0.82617   0.82814    0.052
 4261.00    0.74410   0.83000    0.053
 4262.00    0.69162   0.83028    0.052
 4263.00    0.64319   0.82765    0.051
 4264.00    0.74685   0.82216    0.052
 4265.00    0.86537   0.81531    0.053
 4266.00    0.78196   0.80906    0.052
 4267.00    0.68620   0.80456    0.051
 4268.00    0.73837   0.80155    0.050
 4269.00    0.79460   0.79906    0.049
 4270.00    0.86310   0.79660    0.049
 4271.00    0.92739   0.79451    0.049
 4272.00    0.88021   0.79360    0.049
 4273.00    0.82631   0.79474    0.049
 4274.00    0.67981   0.79831    0.048
 4275.00    0.55107   0.80380    0.048
 4276.00    0.58362   0.80983    0.049
 4277.00    0.64191   0.81473    0.050
 4278.00    0.87174   0.81729    0.050
 4279.00    1.04409   0.81723    0.050
 4280.00    0.91890   0.81519    0.049
 4281.00    0.81091   0.81228    0.048
 4282.00    0.77470   0.80936   -2.000
 4283.00    0.75105   0.80672   -2.000
 4284.00    0.77071   0.80410   -2.000
 4285.00    0.79372   0.80107   -2.000
 4286.00    0.82651   0.79752   -2.000
 4287.00    0.80825   0.79406   -2.000
 4288.00    0.66335   0.79172   -2.000
 4289.00    0.55200   0.79140   -2.000
 4290.00    0.51237   0.79307   -2.000
 4291.00    0.50557   0.79567   -2.000
 4292.00    0.55971   0.79774   -2.000
 4293.00    0.67244   0.79813   -2.000
 4294.00    0.88021   0.79633   -2.000
 4295.00    0.96210   0.79239   -2.000
 4296.00    0.86493   0.78673   -2.000
 4297.00    0.75937   0.78011   -2.000
 4298.00    0.64329   0.77357    0.048
 4299.00    0.63291   0.76805    0.048
 4300.00    0.73911   0.76403    0.048
 4301.00    0.75454   0.76153    0.048
 4302.00    0.68166   0.76009    0.048
 4303.00    0.56959   0.75907    0.047
 4304.00    0.42389   0.75794    0.047
 4305.00    0.43860   0.75665    0.047
 4306.00    0.57453   0.75587    0.047
 4307.00    0.64665   0.75663    0.047
 4308.00    0.67639   0.75960    0.047
 4309.00    0.63445   0.76474    0.047
 4310.00    0.55082   0.77144    0.047
 4311.00    0.56567   0.77902    0.046
 4312.00    0.63044   0.78703    0.046
 4313.00    0.67098   0.79516    0.046
 4314.00    0.70089   0.80287    0.045
 4315.00    0.72387   0.80934    0.045
 4316.00    0.74425   0.81368    0.045
 4317.00    0.75251   0.81534    0.046
 4318.00    0.75689   0.81415    0.047
 4319.00    0.77014   0.81010    0.047
 4320.00    0.78576   0.80328    0.046
 4321.00    0.83230   0.79420    0.046
 4322.00    0.88560   0.78420    0.047
 4323.00    0.80470   0.77546    0.047
 4324.00    0.70045   0.77022    0.046
 4325.00    0.65846   0.76939    0.046
 4326.00    0.62470   0.77194    0.047
 4327.00    0.63081   0.77538    0.047
 4328.00    0.64065   0.77705    0.047
 4329.00    0.68919   0.77531    0.047
 4330.00    0.73994   0.76955    0.000
 4331.00    0.74169   0.75951    0.000
 4332.00    0.74265   0.74451    0.000
 4333.00    0.78349   0.72338    0.000
 4334.00    0.82419   0.69529    0.000
 4335.00    0.86125   0.66114    0.000
 4336.00    0.89283   0.62457    0.000
 4337.00    0.85320   0.59160    0.000
 4338.00    0.80638   0.56908    0.000
 4339.00    0.69682   0.56207    0.000
 4340.00    0.61162   0.57166    0.000
 4341.00    0.68377   0.59455    0.000
 4342.00    0.75197   0.62476    0.000
 4343.00    0.80022   0.65621    0.000
 4344.00    0.84560   0.68466    0.000
 4345.00    0.87926   0.70797    0.000
 4346.00    0.89699   0.72553    0.000
 4347.00    0.86083   0.73764    0.000
 4348.00    0.81233   0.74525    0.000
 4349.00    0.72859   0.75005    0.000
 4350.00    0.65299   0.75427    0.000
 4351.00    0.59725   0.75991    0.046
 4352.00    0.59383   0.76776    0.046
 4353.00    0.70049   0.77709    0.046
 4354.00    0.74781   0.78629    0.046
 4355.00    0.68662   0.79383    0.046
 4356.00    0.63807   0.79904    0.047
 4357.00    0.60970   0.80231    0.047
 4358.00    0.63283   0.80472    0.047
 4359.00    0.72815   0.80721    0.046
 4360.00    0.78588   0.81004    0.046
 4361.00    0.79724   0.81268    0.047
 4362.00    0.79199   0.81424    0.047
 4363.00    0.76868   0.81400    0.047
 4364.00    0.81034   0.81186    0.047
 4365.00    0.91431   0.80847    0.047
 4366.00    0.96595   0.80482    0.047
 4367.00    0.97332   0.80168    0.047
 4368.00    0.93416   0.79915    0.047
 4369.00    0.86033   0.79682    0.046
 4370.00    0.78206   0.79424    0.045
 4371.00    0.70089   0.79148    0.044
 4372.00    0.75606   0.78922    0.045
 4373.00    0.88932   0.78842    0.046
 4374.00    0.90880   0.78958    0.046
 4375.00    0.87153   0.79225    0.046
 4376.00    0.83486   0.79497    0.046
 4377.00    0.79844   0.79584    0.046
 4378.00    0.79755   0.79324    0.046
 4379.00    0.80980   0.78651    0.046
 4380.00    0.68236   0.77623    0.045
 4381.00    0.51111   0.76423    0.044
 4382.00    0.54154   0.75285    0.044
 4383.00    0.62473   0.74406    0.044
 4384.00    0.67304   0.73887    0.044
 4385.00    0.71389   0.73751    0.044
 4386.00    0.65910   0.73991    0.043
 4387.00    0.58814   0.74584    0.043
 4388.00    0.64966   0.75457    0.043
 4389.00    0.72810   0.76464    0.043
 4390.00    0.70072   0.77424    0.043
 4391.00    0.66390   0.78203    0.043
 4392.00    0.72453   0.78768    0.043
 4393.00    0.79036   0.79178    0.043
 4394.00    0.79749   0.79516    0.044
 4395.00    0.80237   0.79810    0.044
 4396.00    0.71699   0.80016    0.044
 4397.00    0.63098   0.80069    0.043
 4398.00    0.53130   0.79940    0.043
 4399.00    0.44348   0.79649    0.043
 4400.00    0.50234   0.79229    0.043
 4401.00    0.56228   0.78719    0.043
 4402.00    0.63137   0.78184    0.043
 4403.00    0.69525   0.77728    0.043
 4404.00    0.72650   0.77469    0.043
 4405.00    0.73652   0.77483    0.043
 4406.00    0.64209   0.77762    0.043
 4407.00    0.56917   0.78223    0.043
 4408.00    0.58211   0.78731    0.043
 4409.00    0.60516   0.79121    0.042
 4410.00    0.66169   0.79242    0.042
 4411.00    0.69323   0.79023    0.042
 4412.00    0.65476   0.78537    0.042
 4413.00    0.63736   0.77993    0.043
 4414.00    0.67049   0.77651    0.044
 4415.00    0.69748   0.77685    0.044
 4416.00    0.71176   0.78092    0.043
 4417.00    0.70383   0.78705    0.042
 4418.00    0.65596   0.79296    0.043
 4419.00    0.68512   0.79696    0.043
 4420.00    0.83556   0.79857    0.043
 4421.00    0.91372   0.79828    0.043
 4422.00    0.89202   0.79695    0.043
 4423.00    0.84570   0.79522    0.043
 4424.00    0.76944   0.79346    0.043
 4425.00    0.71301   0.79180    0.043
 4426.00    0.67786   0.79029    0.042
 4427.00    0.66223   0.78892    0.042
 4428.00    0.66504   0.78752    0.041
 4429.00    0.69402   0.78581    0.042
 4430.00    0.74483   0.78352    0.042
 4431.00    0.76390   0.78064    0.043
 4432.00    0.75968   0.77764    0.043
 4433.00    0.73477   0.77554    0.043
 4434.00    0.69652   0.77546    0.043
 4435.00    0.71501   0.77789    0.043
 4436.00    0.76551   0.78210    0.043
 4437.00    0.73149   0.78638    0.043
 4438.00    0.65598   0.78893    0.043
 4439.00    0.63310   0.78903    0.043
 4440.00    0.63254   0.78741    0.043
 4441.00    0.65670   0.78575    0.044
 4442.00    0.68985   0.78550    0.044
 4443.00    0.63575   0.78700    0.044
 4444.00    0.55484   0.78954    0.043
 4445.00    0.58228   0.79206    0.043
 4446.00    0.63747   0.79376    0.043
 4447.00    0.67906   0.79433    0.043
 4448.00    0.71783   0.79369    0.044
 4449.00    0.63205   0.79177    0.043
 4450.00    0.52580   0.78849    0.043
 4451.00    0.52471   0.78401    0.042
 4452.00    0.53659   0.77890    0.042
 4453.00    0.63508   0.77401    0.042
 4454.00    0.74095   0.77015    0.043
 4455.00    0.72554   0.76769    0.043
 4456.00    0.70414   0.76643    0.044
 4457.00    0.78007   0.76593    0.043
 4458.00    0.85443   0.76588    0.043
 4459.00    0.73371   0.76633    0.043
 4460.00    0.62044   0.76744    0.043
 4461.00    0.65822   0.76904    0.000
 4462.00    0.68961   0.77042    0.000
 4463.00    0.64603   0.77044    0.000
 4464.00    0.61535   0.76796    0.000
 4465.00    0.68922   0.76234    0.000
 4466.00    0.73845   0.75381    0.000
 4467.00    0.63776   0.74381    0.000
 4468.00    0.55729   0.73498    0.000
 4469.00    0.57380   0.73043    0.000
 4470.00    0.60887   0.73249    0.000
 4471.00    0.71644   0.74135    0.000
 4472.00    0.78279   0.75474    0.000
 4473.00    0.71517   0.76895    0.000
 4474.00    0.68433   0.78033    0.000
 4475.00    0.75464   0.78655    0.000
 4476.00    0.77377   0.78696    0.000
 4477.00    0.67229   0.78271    0.000
 4478.00    0.63461   0.77639    0.000
 4479.00    0.72690   0.77126    0.000
 4480.00    0.80090   0.76996    0.000
 4481.00    0.84251   0.77331    0.000
 4482.00    0.85376   0.77989    0.042
 4483.00    0.81792   0.78697    0.042
 4484.00    0.78412   0.79193    0.043
 4485.00    0.75309   0.79347    0.043
 4486.00    0.70454   0.79202    0.043
 4487.00    0.63499   0.78914    0.042
 4488.00    0.63367   0.78651    0.042
 4489.00    0.70449   0.78499    0.043
 4490.00    0.75600   0.78439    0.043
 4491.00    0.78951   0.78398    0.043
 4492.00    0.73788   0.78324    0.042
 4493.00    0.61627   0.78244    0.041
 4494.00    0.58828   0.78230    0.041
 4495.00    0.62804   0.78344    0.041
 4496.00    0.62945   0.78584    0.041
 4497.00    0.60650   0.78900    0.042
 4498.00    0.65231   0.79239    0.042
 4499.00    0.73632   0.79583    0.041
 4500.00    0.77418   0.79939    0.042
 4501.00    0.78974   0.80298    0.042
 4502.00    0.73827   0.80606    0.042
 4503.00    0.65883   0.80796    0.042
 4504.00    0.73398   0.80831    0.042
 4505.00    0.86430   0.80732    0.043
 4506.00    0.83503   0.80555    0.043
 4507.00    0.75764   0.80343    0.042
 4508.00    0.80985   0.80102    0.042
 4509.00    0.89454   0.79811    0.042
 4510.00    0.93847   0.79469    0.042
 4511.00    0.97412   0.79112    0.042
 4512.00    0.87169   0.78804    0.041
 4513.00    0.74723   0.78598    0.041
 4514.00    0.70637   0.78514    0.041
 4515.00    0.67544   0.78532    0.041
 4516.00    0.75275   0.78615    0.041
 4517.00    0.83882   0.78713    0.042
 4518.00    0.83345   0.78767    0.042
 4519.00    0.82393   0.78710    0.041
 4520.00    0.84370   0.78494    0.041
 4521.00    0.86365   0.78105    0.041
 4522.00    0.87425   0.77566    0.041
 4523.00    0.88502   0.76924    0.042
 4524.00    0.89893   0.76234    0.042
 4525.00    0.90282   0.75566    0.042
 4526.00    0.79430   0.75008    0.041
 4527.00    0.69904   0.74642    0.041
 4528.00    0.70752   0.74503    0.041
 4529.00    0.70376   0.74553    0.040
 4530.00    0.62765   0.74701    0.040
 4531.00    0.56195   0.74875    0.040
 4532.00    0.54496   0.75074    0.041
 4533.00    0.54384   0.75359    0.041
 4534.00    0.60332   0.75780    0.041
 4535.00    0.67225   0.76310    0.040
 4536.00    0.77131   0.76836    0.041
 4537.00    0.82194   0.77231    0.041
 4538.00    0.74171   0.77434    0.040
 4539.00    0.69779   0.77477    0.040
 4540.00    0.73800   0.77432    0.040
 4541.00    0.78276   0.77359    0.041
 4542.00    0.83665   0.77274    0.041
 4543.00    0.84868   0.77162    0.041
 4544.00    0.78760   0.77004    0.041
 4545.00    0.74525   0.76793    0.040
 4546.00    0.73150   0.76538    0.040
 4547.00    0.73743   0.76257    0.040
 4548.00    0.76976   0.75973    0.041
 4549.00    0.77788   0.75712    0.041
 4550.00    0.75737   0.75508    0.000
 4551.00    0.71707   0.75411    0.000
 4552.00    0.65613   0.75483    0.000
 4553.00    0.67638   0.75768    0.000
 4554.00    0.77127   0.76257    0.000
 4555.00    0.74381   0.76872    0.000
 4556.00    0.61720   0.77491    0.000
 4557.00    0.65242   0.77990    0.000
 4558.00    0.80306   0.78282    0.000
 4559.00    0.80754   0.78339    0.000
 4560.00    0.72055   0.78192    0.000
 4561.00    0.72612   0.77919    0.000
 4562.00    0.78232   0.77626    0.000
 4563.00    0.78433   0.77411    0.000
 4564.00    0.76056   0.77328    0.000
 4565.00    0.71926   0.77361    0.000
 4566.00    0.67078   0.77441    0.000
 4567.00    0.70116   0.77491    0.000
 4568.00    0.75919   0.77468    0.000
 4569.00    0.79864   0.77392    0.000
 4570.00    0.83259   0.77318    0.000
 4571.00    0.79452   0.77296    0.000
 4572.00    0.73880   0.77332    0.000
 4573.00    0.74125   0.77384    0.000
 4574.00    0.75522   0.77388    0.000
 4575.00    0.87745   0.77290    0.000
 4576.00    1.01642   0.77074    0.000
 4577.00    0.84243   0.76774    0.000
 4578.00    0.63262   0.76459    0.000
 4579.00    0.76343   0.76204    0.000
 4580.00    0.92040   0.76053    0.000
 4581.00    0.88100   0.76009    0.000
 4582.00    0.83344   0.76049    0.000
 4583.00    0.83908   0.76149    0.000
 4584.00    0.84419   0.76289    0.000
 4585.00    0.80664   0.76441    0.000
 4586.00    0.77098   0.76559    0.000
 4587.00    0.76826   0.76591    0.000
 4588.00    0.76919   0.76503    0.000
 4589.00    0.80921   0.76308    0.000
 4590.00    0.83972   0.76057    0.000
 4591.00    0.79827   0.75814    0.000
 4592.00    0.75748   0.75627    0.000
 4593.00    0.72040   0.75520    0.000
 4594.00    0.69670   0.75496    0.000
 4595.00    0.73408   0.75530    0.000
 4596.00    0.75944   0.75580    0.000
 4597.00    0.73981   0.75597    0.000
 4598.00    0.74279   0.75561    0.000
 4599.00    0.81648   0.75494    0.000
 4600.00    0.84800   0.75443    0.000
 4601.00    0.76757   0.75456    0.000
 4602.00    0.71654   0.75551    0.000
 4603.00    0.73252   0.75726    0.000
 4604.00    0.75169   0.75967    0.000
 4605.00    0.77717   0.76258    0.000
 4606.00    0.79894   0.76567    0.000
 4607.00    0.81435   0.76844    0.000
 4608.00    0.79900   0.77039    0.000
 4609.00    0.73735   0.77126    0.000
 4610.00    0.71617   0.77122    0.000
 4611.00    0.74852   0.77071    0.000
 4612.00    0.77033   0.77013    0.000
 4613.00    0.77986   0.76958    0.000
 4614.00    0.77862   0.76886    0.000
 4615.00    0.76631   0.76779    0.000
 4616.00    0.76480   0.76648    0.000
 4617.00    0.77308   0.76541    0.000
 4618.00    0.75219   0.76512    0.000
 4619.00    0.70799   0.76580    0.000
 4620.00    0.73224   0.76714    0.000
 4621.00    0.80459   0.76850    0.000
 4622.00    0.80219   0.76926    0.000
 4623.00    0.75369   0.76909    0.000
 4624.00    0.68737   0.76801    0.000
 4625.00    0.61145   0.76633    0.000
 4626.00    0.63962   0.76443    0.000
 4627.00    0.71649   0.76269    0.000
 4628.00    0.76711   0.76135    0.000
 4629.00    0.80716   0.76039    0.000
 4630.00    0.80159   0.75952    0.000
 4631.00    0.78033   0.75836    0.000
 4632.00    0.76885   0.75659    0.000
 4633.00    0.76022   0.75405    0.000
 4634.00    0.76434   0.75077    0.000
 4635.00    0.77152   0.74697    0.000
 4636.00    0.76454   0.74312    0.000
 4637.00    0.75482   0.73988    0.000
 4638.00    0.73838   0.73782    0.000
 4639.00    0.72093   0.73710    0.000
 4640.00    0.69275   0.73725    0.000
 4641.00    0.66339   0.73731    0.000
 4642.00    0.75198   0.73624    0.000
 4643.00    0.84915   0.73346    0.000
 4644.00    0.79919   0.72928    0.000
 4645.00    0.74367   0.72479    0.000
 4646.00    0.74909   0.72144    0.000
 4647.00    0.75526   0.72038    0.000
 4648.00    0.77776   0.72194    0.000
 4649.00    0.79989   0.72554    0.000
 4650.00    0.81586   0.73003    0.000
 4651.00    0.82849   0.73429    0.000
 4652.00    0.80700   0.73778    0.000
 4653.00    0.78447   0.74075    0.000
 4654.00    0.75431   0.74389    0.000
 4655.00    0.73038   0.74766    0.000
 4656.00    0.74124   0.75183    0.000
 4657.00    0.74914   0.75547    0.000
 4658.00    0.74387   0.75746    0.000
 4659.00    0.73555   0.75713    0.000
 4660.00    0.71605   0.75454    0.000
 4661.00    0.72290   0.75021    0.000
 4662.00    0.81057   0.74479    0.000
 4663.00    0.85376   0.73885    0.000
 4664.00    0.78090   0.73304    0.000
 4665.00    0.72316   0.72832    0.000
 4666.00    0.69930   0.72568    0.000
 4667.00    0.67541   0.72567    0.000
 4668.00    0.65148   0.72798    0.000
 4669.00    0.65656   0.73151    0.000
 4670.00    0.71075   0.73495    0.000
 4671.00    0.72509   0.73743    0.000
 4672.00    0.68030   0.73883    0.000
 4673.00    0.69006   0.73944    0.000
 4674.00    0.77098   0.73963    0.000
 4675.00    0.78071   0.73947    0.000
 4676.00    0.70864   0.73885    0.000
 4677.00    0.64327   0.73772    0.000
 4678.00    0.58468   0.73628    0.000
 4679.00    0.60537   0.73491    0.000
 4680.00    0.69690   0.73396    0.000
 4681.00    0.75492   0.73354    0.000
 4682.00    0.78652   0.73356    0.000
 4683.00    0.78745   0.73383    0.000
 4684.00    0.76713   0.73421    0.000
 4685.00    0.75022   0.73468    0.000
 4686.00    0.73538   0.73522    0.000
 4687.00    0.68794   0.73582    0.000
 4688.00    0.62323   0.73647    0.000
 4689.00    0.65747   0.73729    0.000
 4690.00    0.73725   0.73836    0.000
 4691.00    0.74284   0.73966    0.000
 4692.00    0.71902   0.74081    0.000
 4693.00    0.78303   0.74118    0.000
 4694.00    0.87668   0.74016    0.000
 4695.00    0.85273   0.73750    0.000
 4696.00    0.79540   0.73358    0.000
 4697.00    0.69185   0.72922    0.000
 4698.00    0.57748   0.72528    0.000
 4699.00    0.65038   0.72231    0.000
 4700.00    0.75851   0.72043    0.000
 4701.00    0.74803   0.71946    0.000
 4702.00    0.72031   0.71909    0.000
 4703.00    0.74901   0.71903    0.000
 4704.00    0.78369   0.71904    0.000
 4705.00    0.74908   0.71895    0.000
 4706.00    0.70971   0.71871    0.000
 4707.00    0.61349   0.71830    0.000
 4708.00    0.51534   0.71768    0.000
 4709.00    0.66777   0.71680    0.000
 4710.00    0.81353   0.71585    0.000
 4711.00    0.72939   0.71539    0.000
 4712.00    0.65829   0.71619    0.000
 4713.00    0.78735   0.71885    0.000
 4714.00    0.90048   0.72332    0.000
 4715.00    0.85744   0.72893    0.000
 4716.00    0.81172   0.73464    0.000
 4717.00    0.74701   0.73952    0.000
 4718.00    0.70105   0.74298    0.000
 4719.00    0.75713   0.74494    0.000
 4720.00    0.79828   0.74558    0.000
 4721.00    0.77442   0.74512    0.000
 4722.00    0.75090   0.74360    0.000
 4723.00    0.72866   0.74088    0.000
 4724.00    0.71917   0.73689    0.000
 4725.00    0.74809   0.73201    0.000
 4726.00    0.77013   0.72707    0.000
 4727.00    0.77452   0.72311    0.000
 4728.00    0.75950   0.72089    0.000
 4729.00    0.70168   0.72057    0.000
 4730.00    0.68205   0.72176    0.000
 4731.00    0.73542   0.72374    0.000
 4732.00    0.74982   0.72579    0.000
 4733.00    0.69922   0.72743    0.000
 4734.00    0.69957   0.72850    0.000
 4735.00    0.77442   0.72908    0.000
 4736.00    0.82270   0.72934    0.000
 4737.00    0.83682   0.72939    0.000
 4738.00    0.77732   0.72935    0.000
 4739.00    0.63445   0.72936    0.000
 4740.00    0.61719   0.72960    0.000
 4741.00    0.72541   0.73021    0.000
 4742.00    0.77627   0.73120    0.000
 4743.00    0.77660   0.73242    0.000
 4744.00    0.76761   0.73363    0.000
 4745.00    0.75139   0.73460    0.000
 4746.00    0.74634   0.73510    0.000
 4747.00    0.74892   0.73497    0.000
 4748.00    0.76733   0.73413    0.000
 4749.00    0.79521   0.73262    0.000
 4750.00    0.75272   0.73061    0.000
 4751.00    0.67350   0.72838    0.000
 4752.00    0.63102   0.72624    0.000
 4753.00    0.60518   0.72442    0.000
 4754.00    0.62191   0.72302    0.000
 4755.00    0.65522   0.72194    0.000
 4756.00    0.69215   0.72091    0.000
 4757.00    0.73028   0.71959    0.000
 4758.00    0.75686   0.71762    0.000
 4759.00    0.78022   0.71486    0.000
 4760.00    0.82124   0.71147    0.000
 4761.00    0.86630   0.70793    0.037
 4762.00    0.77753   0.70489    0.036
 4763.00    0.66426   0.70295    0.035
 4764.00    0.64681   0.70245    0.035
 4765.00    0.64286   0.70333    0.036
 4766.00    0.66194   0.70516    0.036
 4767.00    0.68337   0.70735    0.036
 4768.00    0.67587   0.70934    0.036
 4769.00    0.66650   0.71092    0.036
 4770.00    0.71814   0.71220    0.036
 4771.00    0.77153   0.71341    0.036
 4772.00    0.78325   0.71467    0.036
 4773.00    0.79376   0.71580    0.036
 4774.00    0.76915   0.71645    0.035
 4775.00    0.74494   0.71632    0.035
 4776.00    0.72639   0.71528    0.035
 4777.00    0.71246   0.71346    0.036
 4778.00    0.74211   0.71115    0.035
 4779.00    0.76619   0.70866    0.034
 4780.00    0.75212   0.70629    0.034
 4781.00    0.74326   0.70424    0.034
 4782.00    0.76195   0.70261    0.034
 4783.00    0.76968   0.70140    0.034
 4784.00    0.73074   0.70061    0.034
 4785.00    0.70224   0.70027    0.034
 4786.00    0.71050   0.70049    0.033
 4787.00    0.71042   0.70145    0.033
 4788.00    0.68576   0.70330    0.034
 4789.00    0.69042   0.70604    0.034
 4790.00    0.76892   0.70945    0.034
 4791.00    0.82291   0.71304    0.034
 4792.00    0.82373   0.71613    0.034
 4793.00    0.80626   0.71804    0.034
 4794.00    0.75434   0.71840    0.034
 4795.00    0.72959   0.71732    0.034
 4796.00    0.74946   0.71539    0.034
 4797.00    0.77016   0.71337    0.034
 4798.00    0.79206   0.71189    0.034
 4799.00    0.81011   0.71113    0.034
 4800.00    0.82328   0.71083    0.034
 4801.00    0.82578   0.71049    0.034
 4802.00    0.81634   0.70972    0.034
 4803.00    0.78513   0.70846    0.035
 4804.00    0.73248   0.70699    0.035
 4805.00    0.73110   0.70568    0.034
 4806.00    0.77426   0.70482    0.034
 4807.00    0.79819   0.70445    0.034
 4808.00    0.80741   0.70442    0.034
 4809.00    0.77999   0.70454    0.034
 4810.00    0.72793   0.70470    0.034
 4811.00    0.72192   0.70495    0.034
 4812.00    0.74305   0.70546    0.034
 4813.00    0.73083   0.70634    0.034
 4814.00    0.70148   0.70753    0.034
 4815.00    0.73072   0.70872    0.034
 4816.00    0.78603   0.70953    0.034
 4817.00    0.79046   0.70956    0.034
 4818.00    0.77542   0.70861    0.035
 4819.00    0.75645   0.70673    0.035
 4820.00    0.73621   0.70423    0.034
 4821.00    0.68300   0.70165    0.034
 4822.00    0.62082   0.69949    0.034
 4823.00    0.64817   0.69800    0.034
 4824.00    0.69552   0.69706    0.034
 4825.00    0.72800   0.69632    0.034
 4826.00    0.75782   0.69549    0.034
 4827.00    0.68339   0.69452    0.034
 4828.00    0.59476   0.69358    0.034
 4829.00    0.55886   0.69298    0.034
 4830.00    0.52807   0.69291    0.033
 4831.00    0.58743   0.69336    0.034
 4832.00    0.65227   0.69409    0.034
 4833.00    0.66097   0.69469    0.034
 4834.00    0.66828   0.69470    0.034
 4835.00    0.69356   0.69388    0.034
 4836.00    0.71728   0.69225    0.035
 4837.00    0.70021   0.69009    0.034
 4838.00    0.68321   0.68781    0.034
 4839.00    0.66706   0.68580    0.034
 4840.00    0.65632   0.68427    0.034
 4841.00    0.69453   0.68324    0.034
 4842.00    0.72961   0.68249    0.034
 4843.00    0.74388   0.68162    0.034
 4844.00    0.74914   0.68021    0.033
 4845.00    0.70792   0.67799    0.034
 4846.00    0.68272   0.67489    0.034
 4847.00    0.72422   0.67101    0.034
 4848.00    0.75110   0.66632    0.000
 4849.00    0.72767   0.66055    0.000
 4850.00    0.71961   0.65322    0.000
 4851.00    0.75616   0.64386    0.000
 4852.00    0.76163   0.63215    0.000
 4853.00    0.69021   0.61791    0.000
 4854.00    0.63519   0.60102    0.000
 4855.00    0.61519   0.58151    0.000
 4856.00    0.61834   0.55999    0.000
 4857.00    0.66440   0.53832    0.000
 4858.00    0.67606   0.51970    0.000
 4859.00    0.63206   0.50795    0.000
 4860.00    0.58634   0.50587    0.000
 4861.00    0.53817   0.51404    0.000
 4862.00    0.53815   0.53041    0.000
 4863.00    0.59829   0.55127    0.000
 4864.00    0.61784   0.57270    0.000
 4865.00    0.59270   0.59172    0.000
 4866.00    0.58397   0.60680    0.000
 4867.00    0.59119   0.61774    0.000
 4868.00    0.63069   0.62536    0.000
 4869.00    0.69784   0.63098    0.000
 4870.00    0.68564   0.63595    0.000
 4871.00    0.61357   0.64120    0.000
 4872.00    0.63538   0.64705    0.000
 4873.00    0.71942   0.65326    0.000
 4874.00    0.69383   0.65938    0.000
 4875.00    0.60461   0.66488    0.035
 4876.00    0.63734   0.66936    0.035
 4877.00    0.73175   0.67254    0.035
 4878.00    0.72756   0.67433    0.035
 4879.00    0.68021   0.67483    0.035
 4880.00    0.61843   0.67432    0.035
 4881.00    0.55121   0.67312    0.035
 4882.00    0.53228   0.67154    0.035
 4883.00    0.52875   0.66983    0.035
 4884.00    0.56090   0.66812    0.035
 4885.00    0.60257   0.66653    0.035
 4886.00    0.62064   0.66518    0.035
 4887.00    0.63358   0.66438    0.035
 4888.00    0.70207   0.66471    0.035
 4889.00    0.78019   0.66685    0.036
 4890.00    0.70347   0.67121    0.035
 4891.00    0.60637   0.67753    0.035
 4892.00    0.62825   0.68483    0.035
 4893.00    0.66118   0.69170    0.035
 4894.00    0.71671   0.69683    0.035
 4895.00    0.77352   0.69948    0.035
 4896.00    0.74443   0.69964    0.035
 4897.00    0.71340   0.69791    0.035
 4898.00    0.68406   0.69525    0.036
 4899.00    0.65902   0.69257    0.036
 4900.00    0.73579   0.69055    0.035
 4901.00    0.80449   0.68949    0.035
 4902.00    0.76887   0.68928    0.035
 4903.00    0.73921   0.68950    0.035
 4904.00    0.76143   0.68957    0.036
 4905.00    0.77863   0.68901    0.036
 4906.00    0.76352   0.68772    0.035
 4907.00    0.74961   0.68607    0.035
 4908.00    0.74177   0.68468    0.035
 4909.00    0.73851   0.68410    0.035
 4910.00    0.75396   0.68446    0.035
 4911.00    0.75171   0.68530    0.035
 4912.00    0.68972   0.68565    0.035
 4913.00    0.63474   0.68426    0.035
 4914.00    0.59971   0.68008    0.034
 4915.00    0.58778   0.67267    0.034
 4916.00    0.63204   0.66255    0.035
 4917.00    0.64879   0.65128    0.035
 4918.00    0.60779   0.64114    0.035
 4919.00    0.58108   0.63434    0.034
 4920.00    0.58044   0.63240    0.034
 4921.00    0.59647   0.63560    0.034
 4922.00    0.63909   0.64310    0.034
 4923.00    0.66670   0.65332    0.034
 4924.00    0.67330   0.66447    0.034
 4925.00    0.66790   0.67495    0.034
 4926.00    0.64774   0.68350    0.034
 4927.00    0.64820   0.68931    0.034
 4928.00    0.67107   0.69206    0.033
 4929.00    0.70572   0.69193    0.033
 4930.00    0.75165   0.68957    0.033
 4931.00    0.75252   0.68591    0.033
 4932.00    0.71535   0.68185    0.033
 4933.00    0.66057   0.67795    0.033
 4934.00    0.59270   0.67446    0.033
 4935.00    0.60953   0.67155    0.033
 4936.00    0.68168   0.66952    0.033
 4937.00    0.71217   0.66879    0.033
 4938.00    0.71885   0.66970    0.033
 4939.00    0.64839   0.67221    0.033
 4940.00    0.53954   0.67585    0.000
 4941.00    0.53227   0.67994    0.000
 4942.00    0.56875   0.68387    0.000
 4943.00    0.60931   0.68728    0.000
 4944.00    0.65138   0.69012    0.000
 4945.00    0.71186   0.69247    0.000
 4946.00    0.77811   0.69439    0.000
 4947.00    0.78377   0.69573    0.000
 4948.00    0.77362   0.69615    0.000
 4949.00    0.70689   0.69521    0.000
 4950.00    0.62812   0.69249    0.000
 4951.00    0.66231   0.68781    0.000
 4952.00    0.71553   0.68137    0.000
 4953.00    0.72108   0.67392    0.000
 4954.00    0.72058   0.66670    0.000
 4955.00    0.70877   0.66115    0.000
 4956.00    0.69596   0.65837    0.000
 4957.00    0.67669   0.65858    0.000
 4958.00    0.65709   0.66100    0.000
 4959.00    0.63804   0.66422    0.000
 4960.00    0.62003   0.66679    0.000
 4961.00    0.68209   0.66785    0.000
 4962.00    0.74073   0.66727    0.000
 4963.00    0.72512   0.66561    0.000
 4964.00    0.70965   0.66371    0.000
 4965.00    0.69607   0.66237    0.000
 4966.00    0.68189   0.66208    0.000
 4967.00    0.66273   0.66299    0.000
 4968.00    0.64770   0.66491    0.000
 4969.00    0.65844   0.66743    0.000
 4970.00    0.66989   0.67003    0.000
 4971.00    0.68491   0.67218    0.000
 4972.00    0.69675   0.67337    0.000
 4973.00    0.69592   0.67327    0.000
 4974.00    0.70226   0.67168    0.000
 4975.00    0.73231   0.66864    0.000
 4976.00    0.73660   0.66430    0.000
 4977.00    0.66891   0.65897    0.000
 4978.00    0.61547   0.65315    0.000
 4979.00    0.59614   0.64752    0.000
 4980.00    0.58356   0.64294    0.000
 4981.00    0.58493   0.64023    0.000
 4982.00    0.60538   0.63981    0.000
 4983.00    0.66012   0.64155    0.000
 4984.00    0.66680   0.64472    0.000
 4985.00    0.59796   0.64829    0.000
 4986.00    0.57829   0.65134    0.000
 4987.00    0.62644   0.65337    0.000
 4988.00    0.66450   0.65439    0.000
 4989.00    0.69031   0.65476    0.000
 4990.00    0.67694   0.65493    0.000
 4991.00    0.62164   0.65518    0.000
 4992.00    0.59685   0.65549    0.000
 4993.00    0.60089   0.65554    0.000
 4994.00    0.63000   0.65485    0.000
 4995.00    0.67999   0.65300    0.000
 4996.00    0.67384   0.64985    0.000
 4997.00    0.62656   0.64569    0.000
 4998.00    0.62371   0.64116    0.000
 4999.00    0.64945   0.63696    0.000
 5000.00    0.63493   0.63356    0.000
 5001.00    0.59775   0.63111    0.000
 5002.00    0.60934   0.62955    0.000
 5003.00    0.64481   0.62882    0.000
 5004.00    0.68162   0.62893    0.000
 5005.00    0.71900   0.62974    0.000
 5006.00    0.70477   0.63081    0.000
 5007.00    0.67183   0.63137    0.000
 5008.00    0.63985   0.63058    0.000
 5009.00    0.60818   0.62798    0.000
 5010.00    0.60590   0.62377    0.000
 5011.00    0.61112   0.61882    0.000
 5012.00    0.58806   0.61443    0.000
 5013.00    0.55913   0.61184    0.000
 5014.00    0.52570   0.61174    0.000
 5015.00    0.49154   0.61401    0.000
 5016.00    0.50736   0.61791    0.000
 5017.00    0.52932   0.62242    0.000
 5018.00    0.51604   0.62663    0.000
 5019.00    0.49979   0.63007    0.000
 5020.00    0.57830   0.63266    0.000
 5021.00    0.66145   0.63458    0.000
 5022.00    0.62335   0.63604    0.000
 5023.00    0.58439   0.63721    0.000
 5024.00    0.60731   0.63827    0.000
 5025.00    0.62805   0.63947    0.000
 5026.00    0.60498   0.64104    0.000
 5027.00    0.58845   0.64311    0.000
 5028.00    0.64828   0.64546    0.000
 5029.00    0.70040   0.64760    0.032
 5030.00    0.69033   0.64889    0.032
 5031.00    0.68606   0.64875    0.032
 5032.00    0.71708   0.64685    0.032
 5033.00    0.73351   0.64322    0.032
 5034.00    0.68019   0.63815    0.032
 5035.00    0.63046   0.63216    0.032
 5036.00    0.59471   0.62593    0.032
 5037.00    0.58441   0.62038    0.032
 5038.00    0.65664   0.61657    0.032
 5039.00    0.70167   0.61549    0.032
 5040.00    0.67201   0.61748    0.032
 5041.00    0.64108   0.62192    0.032
 5042.00    0.60716   0.62741    0.031
 5043.00    0.58783   0.63233    0.031
 5044.00    0.59817   0.63542    0.031
 5045.00    0.60454   0.63631    0.031
 5046.00    0.60389   0.63547    0.031
 5047.00    0.62001   0.63393    0.031
 5048.00    0.66209   0.63272    0.031
 5049.00    0.67742   0.63245    0.031
 5050.00    0.65638   0.63327    0.032
 5051.00    0.63231   0.63498    0.032
 5052.00    0.60460   0.63724    0.031
 5053.00    0.59184   0.63973    0.031
 5054.00    0.59484   0.64234    0.031
 5055.00    0.63170   0.64500    0.031
 5056.00    0.70008   0.64752    0.031
 5057.00    0.72979   0.64951    0.031
 5058.00    0.72779   0.65043    0.031
 5059.00    0.70505   0.64983    0.031
 5060.00    0.66733   0.64760    0.031
 5061.00    0.66124   0.64406    0.031
 5062.00    0.67520   0.63987    0.031
 5063.00    0.65962   0.63595    0.031
 5064.00    0.62768   0.63301    0.031
 5065.00    0.61286   0.63131    0.031
 5066.00    0.60630   0.63068    0.031
 5067.00    0.59661   0.63074    0.031
 5068.00    0.58561   0.63108    0.031
 5069.00    0.60035   0.63139    0.031
 5070.00    0.62425   0.63155    0.031
 5071.00    0.63346   0.63153    0.032
 5072.00    0.63824   0.63122    0.032
 5073.00    0.65966   0.63034    0.032
 5074.00    0.68524   0.62861    0.032
 5075.00    0.64879   0.62597    0.033
 5076.00    0.59977   0.62266    0.032
 5077.00    0.59119   0.61923    0.032
 5078.00    0.58904   0.61644    0.032
 5079.00    0.64330   0.61493    0.032
 5080.00    0.70423   0.61502    0.032
 5081.00    0.65637   0.61658    0.032
 5082.00    0.59976   0.61921    0.032
 5083.00    0.60875   0.62239    0.031
 5084.00    0.62069   0.62561    0.031
 5085.00    0.60661   0.62852    0.031
 5086.00    0.59195   0.63099    0.031
 5087.00    0.56385   0.63305    0.031
 5088.00    0.54103   0.63475    0.031
 5089.00    0.61656   0.63606    0.031
 5090.00    0.67948   0.63678    0.031
 5091.00    0.60201   0.63664    0.031
 5092.00    0.53441   0.63538    0.031
 5093.00    0.54370   0.63291    0.031
 5094.00    0.56349   0.62952    0.032
 5095.00    0.64517   0.62586    0.032
 5096.00    0.70385   0.62268    0.033
 5097.00    0.65519   0.62052    0.032
 5098.00    0.61231   0.61959    0.032
 5099.00    0.59149   0.61962    0.031
 5100.00    0.57999   0.62009    0.031
 5101.00    0.59815   0.62038    0.031
 5102.00    0.60915   0.62006    0.031
 5103.00    0.60083   0.61908    0.031
 5104.00    0.60025   0.61767    0.031
 5105.00    0.61756   0.61618    0.032
 5106.00    0.61662   0.61512    0.032
 5107.00    0.57918   0.61483    0.032
 5108.00    0.55004   0.61544    0.031
 5109.00    0.53537   0.61698    0.031
 5110.00    0.53772   0.61930    0.031
 5111.00    0.56601   0.62217    0.031
 5112.00    0.59348   0.62532    0.031
 5113.00    0.61983   0.62836    0.031
 5114.00    0.64365   0.63079    0.032
 5115.00    0.66448   0.63212    0.032
 5116.00    0.67367   0.63192    0.032
 5117.00    0.67076   0.62997    0.032
 5118.00    0.64933   0.62635    0.032
 5119.00    0.61090   0.62155    0.032
 5120.00    0.61711   0.61632    0.031
 5121.00    0.65943   0.61134    0.031
 5122.00    0.64574   0.60717    0.031
 5123.00    0.59217   0.60415    0.030
 5124.00    0.53910   0.60237    0.030
 5125.00    0.48635   0.60176    0.030
 5126.00    0.48597   0.60223    0.030
 5127.00    0.51418   0.60358    0.030
 5128.00    0.52035   0.60558    0.030
 5129.00    0.51607   0.60805    0.030
 5130.00    0.53382   0.61077    0.030
 5131.00    0.56058   0.61328    0.030
 5132.00    0.56035   0.61515    0.030
 5133.00    0.55068   0.61601    0.030
 5134.00    0.53444   0.61570    0.030
 5135.00    0.51627   0.61442    0.030
 5136.00    0.54860   0.61253    0.030
 5137.00    0.59326   0.61029    0.030
 5138.00    0.62873   0.60802    0.030
 5139.00    0.66238   0.60601    0.030
 5140.00    0.66694   0.60433    0.030
 5141.00    0.66701   0.60295    0.030
 5142.00    0.60361   0.60190    0.030
 5143.00    0.53299   0.60121    0.030
 5144.00    0.53017   0.60087    0.030
 5145.00    0.53253   0.60069    0.030
 5146.00    0.50153   0.60040    0.031
 5147.00    0.46915   0.59988    0.031
 5148.00    0.49963   0.59916    0.031
 5149.00    0.53018   0.59848    0.031
 5150.00    0.54222   0.59829    0.031
 5151.00    0.55449   0.59911    0.031
 5152.00    0.57071   0.60129    0.031
 5153.00    0.58397   0.60480    0.031
 5154.00    0.56583   0.60919    0.031
 5155.00    0.54933   0.61375    0.031
 5156.00    0.54519   0.61775    0.031
 5157.00    0.55096   0.62043    0.031
 5158.00    0.61353   0.62120    0.032
 5159.00    0.64764   0.61969    0.032
 5160.00    0.55209   0.61554    0.031
 5161.00    0.48910   0.60849    0.031
 5162.00    0.54763   0.59870    0.032
 5163.00    0.58745   0.58706    0.032
 5164.00    0.56891   0.57512    0.032
 5165.00    0.54072   0.56449    0.031
 5166.00    0.48702   0.55614    0.031
 5167.00    0.44923   0.55018    0.031
 5168.00    0.44762   0.54652    0.031
 5169.00    0.45680   0.54531    0.031
 5170.00    0.48722   0.54671    0.032
 5171.00    0.49792   0.55061    0.032
 5172.00    0.47480   0.55658    0.032
 5173.00    0.43935   0.56383    0.032
 5174.00    0.38540   0.57106    0.032
 5175.00    0.37960   0.57675    0.032
 5176.00    0.43743   0.57972    0.032
 5177.00    0.49257   0.57927    0.031
 5178.00    0.54458   0.57549    0.031
 5179.00    0.56800   0.56953    0.031
 5180.00    0.56207   0.56364    0.031
 5181.00    0.52105   0.56012    0.031
 5182.00    0.44828   0.56027    0.030
 5183.00    0.41308   0.56414    0.029
 5184.00    0.40784   0.57072    0.030
 5185.00    0.42551   0.57831    0.030
 5186.00    0.45925   0.58506    0.030
 5187.00    0.46981   0.58947    0.030
 5188.00    0.46609   0.59119    0.030
 5189.00    0.51211   0.59100    0.030
 5190.00    0.58485   0.59006    0.000
 5191.00    0.59926   0.58942    0.000
 5192.00    0.58646   0.58994    0.000
 5193.00    0.59444   0.59188    0.000
 5194.00    0.61080   0.59490    0.000
 5195.00    0.58689   0.59830    0.000
 5196.00    0.54916   0.60121    0.000
 5197.00    0.53797   0.60287    0.000
 5198.00    0.53445   0.60276    0.000
 5199.00    0.53615   0.60064    0.000
 5200.00    0.53910   0.59638    0.000
 5201.00    0.54085   0.59035    0.000
 5202.00    0.54237   0.58344    0.000
 5203.00    0.56947   0.57667    0.000
 5204.00    0.60039   0.57093    0.000
 5205.00    0.58424   0.56721    0.000
 5206.00    0.56293   0.56628    0.000
 5207.00    0.51711   0.56835    0.000
 5208.00    0.46951   0.57314    0.000
 5209.00    0.53714   0.57980    0.000
 5210.00    0.60906   0.58711    0.000
 5211.00    0.57112   0.59383    0.030
 5212.00    0.53406   0.59927    0.030
 5213.00    0.54799   0.60346    0.030
 5214.00    0.56146   0.60676    0.030
 5215.00    0.56777   0.60957    0.030
 5216.00    0.57386   0.61206    0.030
 5217.00    0.57784   0.61413    0.030
 5218.00    0.58269   0.61518    0.031
 5219.00    0.59388   0.61448    0.031
 5220.00    0.59826   0.61158    0.031
 5221.00    0.56472   0.60664    0.031
 5222.00    0.54048   0.60046    0.031
 5223.00    0.55764   0.59456    0.031
 5224.00    0.56647   0.59069    0.031
 5225.00    0.54487   0.58974    0.031
 5226.00    0.52666   0.59149    0.031
 5227.00    0.51879   0.59511    0.031
 5228.00    0.50420   0.59920    0.031
 5229.00    0.47208   0.60258    0.031
 5230.00    0.46142   0.60496    0.031
 5231.00    0.49875   0.60674    0.031
 5232.00    0.52342   0.60853    0.031
 5233.00    0.52357   0.61080    0.031
 5234.00    0.54656   0.61351    0.031
 5235.00    0.60817   0.61634    0.031
 5236.00    0.62847   0.61889    0.031
 5237.00    0.58760   0.62084    0.031
 5238.00    0.57381   0.62198    0.031
 5239.00    0.59529   0.62228    0.031
 5240.00    0.60482   0.62189    0.031
 5241.00    0.60064   0.62071    0.031
 5242.00    0.62738   0.61838    0.030
 5243.00    0.68540   0.61488    0.030
 5244.00    0.69469   0.61082    0.030
 5245.00    0.66050   0.60678    0.031
 5246.00    0.64209   0.60307    0.031
 5247.00    0.63606   0.60023    0.031
 5248.00    0.63200   0.59873    0.031
 5249.00    0.62930   0.59862    0.030
 5250.00    0.60056   0.59958    0.030
 5251.00    0.55604   0.60135    0.030
 5252.00    0.54740   0.60392    0.030
 5253.00    0.55774   0.60716    0.030
 5254.00    0.54845   0.61050    0.030
 5255.00    0.53016   0.61309    0.029
 5256.00    0.51103   0.61401    0.029
 5257.00    0.49157   0.61253    0.030
 5258.00    0.55794   0.60835    0.030
 5259.00    0.65322   0.60174    0.030
 5260.00    0.62703   0.59352    0.030
 5261.00    0.56645   0.58489    0.030
 5262.00    0.53452   0.57702    0.030
 5263.00    0.50928   0.57085    0.031
 5264.00    0.50218   0.56649    0.031
 5265.00    0.49847   0.56334    0.031
 5266.00    0.46453   0.56138    0.031
 5267.00    0.42621   0.56134    0.031
 5268.00    0.44141   0.56360    0.031
 5269.00    0.46224   0.56780    0.031
 5270.00    0.50166   0.57340    0.031
 5271.00    0.54234   0.57976    0.032
 5272.00    0.51442   0.58637    0.032
 5273.00    0.48419   0.59300    0.032
 5274.00    0.50233   0.59926    0.031
 5275.00    0.52174   0.60450    0.031
 5276.00    0.58001   0.60812    0.031
 5277.00    0.63362   0.60986    0.031
 5278.00    0.61614   0.60989    0.031
 5279.00    0.59769   0.60887    0.031
 5280.00    0.56983   0.60778    0.031
 5281.00    0.54360   0.60778    0.031
 5282.00    0.52877   0.60949    0.031
 5283.00    0.52620   0.61263    0.030
 5284.00    0.59008   0.61643    0.031
 5285.00    0.64271   0.62014    0.031
 5286.00    0.64652   0.62324    0.031
 5287.00    0.65662   0.62535    0.031
 5288.00    0.68928   0.62620    0.032
 5289.00    0.70958   0.62570    0.032
 5290.00    0.69273   0.62393    0.032
 5291.00    0.66264   0.62090    0.032
 5292.00    0.59867   0.61653    0.032
 5293.00    0.56213   0.61098    0.031
 5294.00    0.58594   0.60507    0.031
 5295.00    0.59166   0.60006    0.032
 5296.00    0.56283   0.59694    0.031
 5297.00    0.55898   0.59597    0.031
 5298.00    0.59669   0.59706    0.031
 5299.00    0.61662   0.60004    0.031
 5300.00    0.61059   0.60446    0.031
 5301.00    0.61203   0.60949    0.031
 5302.00    0.62306   0.61420    0.031
 5303.00    0.61339   0.61794    0.031
 5304.00    0.58031   0.62060    0.031
 5305.00    0.58670   0.62241    0.031
 5306.00    0.63244   0.62359    0.030
 5307.00    0.66393   0.62415    0.030
 5308.00    0.68288   0.62416    0.030
 5309.00    0.66795   0.62368    0.030
 5310.00    0.62676   0.62273    0.030
 5311.00    0.60800   0.62140    0.030
 5312.00    0.60453   0.61974    0.030
 5313.00    0.61234   0.61790    0.029
 5314.00    0.62689   0.61621    0.030
 5315.00    0.62424   0.61479    0.030
 5316.00    0.61264   0.61349    0.029
 5317.00    0.60436   0.61210    0.029
 5318.00    0.59757   0.61042    0.029
 5319.00    0.58584   0.60814    0.029
 5320.00    0.57219   0.60495    0.029
 5321.00    0.59435   0.60081    0.029
 5322.00    0.62836   0.59594    0.029
 5323.00    0.59298   0.59032    0.029
 5324.00    0.53836   0.58411    0.029
 5325.00    0.53402   0.57851    0.029
 5326.00    0.54115   0.57539    0.029
 5327.00    0.52127   0.57557    0.029
 5328.00    0.49646   0.57858    0.030
 5329.00    0.52325   0.58349    0.030
 5330.00    0.55728   0.58939    0.030
 5331.00    0.53956   0.59536    0.030
 5332.00    0.51662   0.60036    0.030
 5333.00    0.54720   0.60361    0.029
 5334.00    0.58121   0.60493    0.029
 5335.00    0.58413   0.60450    0.030
 5336.00    0.58612   0.60254    0.030
 5337.00    0.58496   0.59974    0.030
 5338.00    0.58384   0.59722    0.030
 5339.00    0.58392   0.59575    0.030
 5340.00    0.58504   0.59526    0.029
 5341.00    0.60112   0.59539    0.030
 5342.00    0.61650   0.59568    0.030
 5343.00    0.62539   0.59606    0.030
 5344.00    0.62998   0.59656    0.031
 5345.00    0.60519   0.59711    0.030
 5346.00    0.58366   0.59799    0.030
 5347.00    0.57935   0.59987    0.030
 5348.00    0.56297   0.60291    0.030
 5349.00    0.49531   0.60679    0.030
 5350.00    0.46373   0.61107    0.029
 5351.00    0.55860   0.61546    0.031
 5352.00    0.62719   0.61953    0.032
 5353.00    0.61829   0.62281    0.032
 5354.00    0.62209   0.62505    0.033
 5355.00    0.65781   0.62615    0.033
 5356.00    0.67852   0.62600    0.033
 5357.00    0.66675   0.62457    0.031
 5358.00    0.66290   0.62200    0.030
 5359.00    0.67394   0.61868    0.030
 5360.00    0.66552   0.61512    0.030
 5361.00    0.62519   0.61154    0.030
 5362.00    0.61809   0.60802    0.030
 5363.00    0.65880   0.60469    0.030
 5364.00    0.66487   0.60142    0.030
 5365.00    0.62711   0.59803    0.030
 5366.00    0.58877   0.59438    0.029
 5367.00    0.54977   0.59075    0.029
 5368.00    0.54222   0.58807   -2.000
 5369.00    0.56560   0.58751   -2.000
 5370.00    0.57832   0.58944   -2.000
 5371.00    0.58180   0.59325   -2.000
 5372.00    0.55293   0.59798   -2.000
 5373.00    0.49935   0.60268   -2.000
 5374.00    0.50180   0.60671   -2.000
 5375.00    0.54185   0.60976   -2.000
 5376.00    0.62479   0.61155   -2.000
 5377.00    0.73295   0.61200   -2.000
 5378.00    0.72001   0.61146   -2.000
 5379.00    0.64497   0.61036   -2.000
 5380.00    0.60554   0.60906   -2.000
 5381.00    0.58193   0.60789   -2.000
 5382.00    0.60434   0.60707   -2.000
 5383.00    0.64430   0.60635    0.029
 5384.00    0.66342   0.60550    0.029
 5385.00    0.67578   0.60424    0.030
 5386.00    0.66352   0.60235    0.030
 5387.00    0.64457   0.59991    0.030
 5388.00    0.60538   0.59724    0.030
 5389.00    0.56167   0.59450    0.030
 5390.00    0.59056   0.59174    0.030
 5391.00    0.63234   0.58900    0.030
 5392.00    0.61012   0.58638    0.030
 5393.00    0.57922   0.58386    0.030
 5394.00    0.61035   0.58186    0.030
 5395.00    0.64747   0.58127    0.030
 5396.00    0.67063   0.58195    0.030
 5397.00    0.69294   0.58301    0.030
 5398.00    0.62363   0.58386    0.030
 5399.00    0.55231   0.58405    0.030
 5400.00    0.54336   0.58293    0.030
 5401.00    0.53449   0.58026    0.031
 5402.00    0.52760   0.57666    0.031
 5403.00    0.52110   0.57335    0.030
 5404.00    0.51972   0.57126    0.030
 5405.00    0.52212   0.57051    0.030
 5406.00    0.55843   0.57083    0.030
 5407.00    0.58920   0.57236    0.030
 5408.00    0.58329   0.57546    0.030
 5409.00    0.58319   0.57981    0.030
 5410.00    0.61300   0.58470    0.030
 5411.00    0.62709   0.58954    0.030
 5412.00    0.57601   0.59400    0.030
 5413.00    0.54557   0.59796    0.030
 5414.00    0.58608   0.60110    0.029
 5415.00    0.59989   0.60312    0.029
 5416.00    0.53641   0.60401    0.029
 5417.00    0.51376   0.60400    0.029
 5418.00    0.59193   0.60348    0.029
 5419.00    0.65645   0.60275    0.029
 5420.00    0.69192   0.60171    0.029
 5421.00    0.70100   0.60039    0.029
 5422.00    0.66125   0.59916    0.029
 5423.00    0.61600   0.59804    0.028
 5424.00    0.56186   0.59657    0.028
 5425.00    0.54462   0.59403    0.028
 5426.00    0.57970   0.59025    0.028
 5427.00    0.60298   0.58621    0.028
 5428.00    0.61153   0.58281    0.028
 5429.00    0.59654   0.57998    0.028
 5430.00    0.55568   0.57775    0.029
 5431.00    0.55584   0.57657    0.029
 5432.00    0.59576   0.57682    0.029
 5433.00    0.60307   0.57876    0.029
 5434.00    0.58250   0.58234    0.029
 5435.00    0.57867   0.58717    0.029
 5436.00    0.58745   0.59253    0.029
 5437.00    0.59726   0.59753    0.029
 5438.00    0.60774   0.60138    0.029
 5439.00    0.61267   0.60349    0.029
 5440.00    0.61438   0.60351    0.029
 5441.00    0.61732   0.60126    0.030
 5442.00    0.62087   0.59694    0.029
 5443.00    0.63023   0.59134    0.030
 5444.00    0.64212   0.58594    0.030
 5445.00    0.64696   0.58212    0.030
 5446.00    0.64914   0.58016    0.030
 5447.00    0.63438   0.57944    0.030
 5448.00    0.61422   0.57919    0.030
 5449.00    0.61110   0.57879    0.030
 5450.00    0.61251   0.57778    0.030
 5451.00    0.56798   0.57610    0.030
 5452.00    0.51346   0.57416    0.030
 5453.00    0.53994   0.57295    0.030
 5454.00    0.58041   0.57319    0.030
 5455.00    0.55578   0.57470    0.030
 5456.00    0.52261   0.57667    0.030
 5457.00    0.52675   0.57836    0.030
 5458.00    0.53434   0.57946    0.030
 5459.00    0.58989   0.57990    0.030
 5460.00    0.64814   0.57987    0.030
 5461.00    0.63215   0.57990    0.030
 5462.00    0.61441   0.58028    0.030
 5463.00    0.58553   0.58086    0.030
 5464.00    0.56019   0.58154    0.029
 5465.00    0.61794   0.58222    0.029
 5466.00    0.66935   0.58247    0.029
 5467.00    0.63948   0.58193    0.029
 5468.00    0.60542   0.58069    0.029
 5469.00    0.53515   0.57887    0.029
 5470.00    0.48074   0.57646    0.028
 5471.00    0.52807   0.57379    0.028
 5472.00    0.56570   0.57128    0.028
 5473.00    0.55468   0.56898    0.028
 5474.00    0.54746   0.56728    0.028
 5475.00    0.55561   0.56690    0.029
 5476.00    0.55263   0.56773    0.029
 5477.00    0.51213   0.56898    0.028
 5478.00    0.49208   0.57020   -2.000
 5479.00    0.53007   0.57166   -2.000
 5480.00    0.56391   0.57357   -2.000
 5481.00    0.58765   0.57577   -2.000
 5482.00    0.56066   0.57788   -2.000
 5483.00    0.42741   0.57945   -2.000
 5484.00    0.32260   0.58025   -2.000
 5485.00    0.26957   0.58057   -2.000
 5486.00    0.23406   0.58084   -2.000
 5487.00    0.22646   0.58111   -2.000
 5488.00    0.30858   0.58139   -2.000
 5489.00    0.51604   0.58173   -2.000
 5490.00    0.68645   0.58189   -2.000
 5491.00    0.81132   0.58178   -2.000
 5492.00    0.84657   0.58151   -2.000
 5493.00    0.78468   0.58101   -2.000
 5494.00    0.72744   0.58020   -2.000
 5495.00    0.67463   0.57939   -2.000
 5496.00    0.65993   0.57887   -2.000
 5497.00    0.67735   0.57829   -2.000
 5498.00    0.64211   0.57723   -2.000
 5499.00    0.56779   0.57587   -2.000
 5500.00    0.52526   0.57459   -2.000
 5501.00    0.50345   0.57345   -2.000
 5502.00    0.51127   0.57230   -1.000
 5503.00    0.53600   0.57112   -1.000
 5504.00    0.51220   0.57020    0.085
 5505.00    0.46431   0.56985    0.034
 5506.00    0.51782   0.56976    0.029
 5507.00    0.61491   0.56937    0.029
 5508.00    0.61016   0.56849    0.029
 5509.00    0.56789   0.56722    0.028
 5510.00    0.54612   0.56599    0.028
 5511.00    0.53075   0.56544    0.028
 5512.00    0.55982   0.56596    0.028
 5513.00    0.60046   0.56770    0.028
 5514.00    0.58843   0.57050    0.028
 5515.00    0.56521   0.57403    0.027
 5516.00    0.57339   0.57770    0.028
 5517.00    0.58683   0.58082    0.028
 5518.00    0.56948   0.58297    0.028
 5519.00    0.54822   0.58405    0.028
 5520.00    0.56525   0.58407    0.028
 5521.00    0.58566   0.58310    0.028
 5522.00    0.61292   0.58125    0.028
 5523.00    0.64054   0.57878    0.028
 5524.00    0.60091   0.57609    0.027
 5525.00    0.56088   0.57369    0.027
 5526.00    0.58436   0.57225    0.028
 5527.00    0.60737   0.57208    0.028
 5528.00    0.62032   0.57279    0.028
 5529.00    0.62805   0.57374    0.028
 5530.00    0.57217   0.57460    0.028
 5531.00    0.52750   0.57529    0.028
 5532.00    0.57637   0.57582    0.028
 5533.00    0.61716   0.57641    0.029
 5534.00    0.60764   0.57726    0.028
 5535.00    0.59933   0.57829    0.028
 5536.00    0.59693   0.57945    0.029
 5537.00    0.59187   0.58069    0.029
 5538.00    0.57621   0.58176    0.029
 5539.00    0.56727   0.58231    0.029
 5540.00    0.58050   0.58225    0.029
 5541.00    0.60550   0.58191    0.029
 5542.00    0.66328   0.58165    0.029
 5543.00    0.70168   0.58165    0.029
 5544.00    0.69377   0.58205    0.030
 5545.00    0.67846   0.58292    0.030
 5546.00    0.64789   0.58399    0.029
 5547.00    0.61736   0.58482    0.029
 5548.00    0.58692   0.58518    0.028
 5549.00    0.58786   0.58495    0.028
 5550.00    0.63800   0.58410    0.029
 5551.00    0.64983   0.58280    0.029
 5552.00    0.60891   0.58141    0.028
 5553.00    0.59069   0.58015    0.028
 5554.00    0.59998   0.57906    0.028
 5555.00    0.60284   0.57810    0.028
 5556.00    0.59883   0.57732    0.028
 5557.00    0.58707   0.57659    0.028
 5558.00    0.56801   0.57569    0.028
 5559.00    0.57267   0.57448    0.027
 5560.00    0.59704   0.57301    0.027
 5561.00    0.57772   0.57143    0.027
 5562.00    0.52643   0.56993    0.027
 5563.00    0.53930   0.56854    0.027
 5564.00    0.59337   0.56744    0.027
 5565.00    0.61730   0.56675    0.027
 5566.00    0.62430   0.56637    0.027
 5567.00    0.59806   0.56625    0.027
 5568.00    0.55556   0.56652    0.027
 5569.00    0.53223   0.56695    0.027
 5570.00    0.51701   0.56731    0.027
 5571.00    0.52286   0.56791    0.027
 5572.00    0.53633   0.56889    0.027
 5573.00    0.54688   0.56985    0.027
 5574.00    0.55653   0.57066    0.027
 5575.00    0.55399   0.57138    0.027
 5576.00    0.54835   0.57182    0.028
 5577.00    0.58536   0.57192    0.027
 5578.00    0.63121   0.57158    0.027
 5579.00    0.61413   0.57050    0.027
 5580.00    0.58679   0.56868    0.027
 5581.00    0.59276   0.56621    0.028
 5582.00    0.60281   0.56304    0.028
 5583.00    0.58554   0.55924    0.028
 5584.00    0.56599   0.55517    0.029
 5585.00    0.51074   0.55143    0.029
 5586.00    0.45376   0.54873    0.028
 5587.00    0.47351   0.54749    0.028
 5588.00    0.49455   0.54774    0.028
 5589.00    0.52412   0.54903    0.028
 5590.00    0.55170   0.55085    0.029
 5591.00    0.53981   0.55282    0.029
 5592.00    0.53007   0.55469    0.028
 5593.00    0.54514   0.55626    0.028
 5594.00    0.55712   0.55704    0.028
 5595.00    0.54414   0.55655    0.028
 5596.00    0.52898   0.55518    0.028
 5597.00    0.50059   0.55378    0.028
 5598.00    0.48319   0.55276    0.028
 5599.00    0.51817   0.55239    0.028
 5600.00    0.54649   0.55306    0.028
 5601.00    0.54896   0.55510    0.028
 5602.00    0.55635   0.55842    0.028
 5603.00    0.57964   0.56240    0.027
 5604.00    0.59429   0.56638    0.027
 5605.00    0.58529   0.56978    0.027
 5606.00    0.59210   0.57220    0.027
 5607.00    0.63601   0.57346    0.027
 5608.00    0.65574   0.57356    0.027
 5609.00    0.62641   0.57255    0.027
 5610.00    0.60388   0.57044    0.026
 5611.00    0.59337   0.56730    0.026
 5612.00    0.58210   0.56335    0.026
 5613.00    0.56967   0.55952    0.026
 5614.00    0.54582   0.55701    0.026
 5615.00    0.50646   0.55593    0.026
 5616.00    0.49640   0.55564    0.026
 5617.00    0.52135   0.55578    0.026
 5618.00    0.54549   0.55624    0.026
 5619.00    0.56880   0.55680    0.026
 5620.00    0.57238   0.55703    0.027
 5621.00    0.55764   0.55665    0.027
 5622.00    0.56171   0.55601    0.027
 5623.00    0.58118   0.55596    0.027
 5624.00    0.57010   0.55688    0.027
 5625.00    0.53701   0.55840    0.027
 5626.00    0.51500   0.56021    0.027
 5627.00    0.50000   0.56212    0.027
 5628.00    0.53111   0.56380    0.027
 5629.00    0.58774   0.56492    0.027
 5630.00    0.61077   0.56532    0.027
 5631.00    0.61764   0.56494    0.027
 5632.00    0.60662   0.56383    0.027
 5633.00    0.58817   0.56214    0.027
 5634.00    0.56147   0.56014    0.027
 5635.00    0.53184   0.55819    0.027
 5636.00    0.54205   0.55655    0.027
 5637.00    0.56421   0.55525    0.027
 5638.00    0.53516   0.55431    0.026
 5639.00    0.49336   0.55388    0.026
 5640.00    0.49590   0.55412    0.026
 5641.00    0.50741   0.55469    0.026
 5642.00    0.50695   0.55538    0.026
 5643.00    0.50460   0.55618    0.026
 5644.00    0.53003   0.55708    0.026
 5645.00    0.55873   0.55809    0.026
 5646.00    0.57129   0.55918    0.026
 5647.00    0.58257   0.56029    0.026
 5648.00    0.57866   0.56137    0.026
 5649.00    0.57408   0.56223    0.025
 5650.00    0.56754   0.56252    0.025
 5651.00    0.56102   0.56192    0.025
 5652.00    0.55641   0.56033    0.025
 5653.00    0.55163   0.55805    0.025
 5654.00    0.54380   0.55533    0.025
 5655.00    0.53778   0.55213    0.025
 5656.00    0.55179   0.54896    0.025
 5657.00    0.56431   0.54700    0.025
 5658.00    0.56532   0.54644    0.026
 5659.00    0.56545   0.54639    0.026
 5660.00    0.56042   0.54667    0.026
 5661.00    0.55137   0.54761    0.026
 5662.00    0.52360   0.54905    0.026
 5663.00    0.50617   0.55047    0.026
 5664.00    0.52803   0.55152    0.026
 5665.00    0.54251   0.55232    0.026
 5666.00    0.53353   0.55321    0.026
 5667.00    0.52553   0.55440    0.026
 5668.00    0.52021   0.55574    0.026
 5669.00    0.51774   0.55721    0.026
 5670.00    0.52185   0.55886    0.026
 5671.00    0.52762   0.56044    0.027
 5672.00    0.53670   0.56153    0.026
 5673.00    0.54158   0.56203    0.026
 5674.00    0.53916   0.56216    0.027
 5675.00    0.54106   0.56190    0.027
 5676.00    0.54955   0.56104    0.027
 5677.00    0.57029   0.55974    0.027
 5678.00    0.60743   0.55842    0.027
 5679.00    0.60399   0.55708    0.027
 5680.00    0.55273   0.55563    0.026
 5681.00    0.52593   0.55436    0.026
 5682.00    0.52452   0.55356    0.026
 5683.00    0.53223   0.55301    0.025
 5684.00    0.54830   0.55262    0.025
 5685.00    0.55249   0.55258    0.025
 5686.00    0.54707   0.55318    0.025
 5687.00    0.54017   0.55446    0.025
 5688.00    0.53220   0.55622    0.024
 5689.00    0.54111   0.55796    0.024
 5690.00    0.56056   0.55935    0.025
 5691.00    0.58211   0.56008    0.025
 5692.00    0.60481   0.55994    0.025
 5693.00    0.61710   0.55899    0.025
 5694.00    0.62446   0.55749    0.026
 5695.00    0.60685   0.55560    0.026
 5696.00    0.57905   0.55351    0.026
 5697.00    0.56126   0.55155    0.026
 5698.00    0.54696   0.54976    0.027
 5699.00    0.55962   0.54810    0.027
 5700.00    0.58020   0.54677    0.026
 5701.00    0.55767   0.54579    0.027
 5702.00    0.52464   0.54486    0.027
 5703.00    0.53043   0.54354    0.027
 5704.00    0.54386   0.54171    0.026
 5705.00    0.55841   0.53984    0.026
 5706.00    0.57314   0.53824    0.026
 5707.00    0.59521   0.53732    0.026
 5708.00    0.61812   0.53754    0.026
 5709.00    0.58509   0.53874    0.026
 5710.00    0.54781   0.54087    0.026
 5711.00    0.55398   0.54408    0.025
 5712.00    0.56192   0.54762    0.025
 5713.00    0.54235   0.55090    0.025
 5714.00    0.52338   0.55388    0.025
 5715.00    0.53859   0.55639    0.025
 5716.00    0.55355   0.55845    0.025
 5717.00    0.56448   0.56024    0.025
 5718.00    0.57688   0.56159    0.025
 5719.00    0.60490   0.56242    0.025
 5720.00    0.62822   0.56280    0.025
 5721.00    0.61620   0.56268    0.025
 5722.00    0.60436   0.56205    0.025
 5723.00    0.59350   0.56100    0.025
 5724.00    0.58358   0.55953    0.025
 5725.00    0.57796   0.55810    0.025
 5726.00    0.57348   0.55729    0.025
 5727.00    0.57321   0.55710    0.024
 5728.00    0.57391   0.55700    0.024
 5729.00    0.57760   0.55694    0.025
 5730.00    0.57643   0.55732    0.025
 5731.00    0.56242   0.55810    0.025
 5732.00    0.55177   0.55879    0.025
 5733.00    0.54875   0.55916    0.026
 5734.00    0.55742   0.55912    0.026
 5735.00    0.58907   0.55881    0.025
 5736.00    0.60772   0.55840    0.025
 5737.00    0.60411   0.55801    0.026
 5738.00    0.59394   0.55784    0.026
 5739.00    0.57391   0.55796    0.026
 5740.00    0.54878   0.55819    0.000
 5741.00    0.51693   0.55840    0.000
 5742.00    0.50588   0.55884    0.000
 5743.00    0.51899   0.55935    0.000
 5744.00    0.52250   0.55947    0.000
 5745.00    0.51620   0.55893    0.000
 5746.00    0.52619   0.55804    0.000
 5747.00    0.55090   0.55744    0.000
 5748.00    0.56688   0.55705    0.000
 5749.00    0.57593   0.55642    0.000
 5750.00    0.57168   0.55553    0.000
 5751.00    0.55812   0.55476    0.000
 5752.00    0.54735   0.55464    0.000
 5753.00    0.53830   0.55532    0.000
 5754.00    0.53875   0.55622    0.000
 5755.00    0.54432   0.55671    0.000
 5756.00    0.55845   0.55663    0.000
 5757.00    0.57657   0.55592    0.000
 5758.00    0.59173   0.55478    0.000
 5759.00    0.60571   0.55360    0.000
 5760.00    0.59222   0.55284    0.000
 5761.00    0.56934   0.55295    0.000
 5762.00    0.53781   0.55410    0.000
 5763.00    0.50380   0.55565    0.000
 5764.00    0.52288   0.55711    0.000
 5765.00    0.55460   0.55836    0.000
 5766.00    0.56192   0.55924    0.000
 5767.00    0.56456   0.55957    0.000
 5768.00    0.55063   0.55943    0.000
 5769.00    0.53422   0.55886    0.000
 5770.00    0.53191   0.55800    0.000
 5771.00    0.53114   0.55708    0.000
 5772.00    0.56105   0.55600    0.000
 5773.00    0.59316   0.55471    0.000
 5774.00    0.58634   0.55322    0.000
 5775.00    0.57808   0.55137    0.000
 5776.00    0.58927   0.54910    0.000
 5777.00    0.60101   0.54630    0.000
 5778.00    0.62958   0.54298    0.000
 5779.00    0.65424   0.53974    0.000
 5780.00    0.61603   0.53745    0.000
 5781.00    0.57819   0.53629    0.000
 5782.00    0.54396   0.53590    0.000
 5783.00    0.51631   0.53618    0.000
 5784.00    0.53628   0.53749    0.000
 5785.00    0.55449   0.53967    0.000
 5786.00    0.56287   0.54206    0.000
 5787.00    0.56699   0.54438    0.000
 5788.00    0.55223   0.54634    0.000
 5789.00    0.54066   0.54806    0.000
 5790.00    0.54068   0.54994    0.000
 5791.00    0.54959   0.55176   -2.000
 5792.00    0.58566   0.55333   -2.000
 5793.00    0.61250   0.55461   -2.000
 5794.00    0.61538   0.55548   -2.000
 5795.00    0.60280   0.55601   -2.000
 5796.00    0.55570   0.55674   -2.000
 5797.00    0.53564   0.55800   -2.000
 5798.00    0.56784   0.55931   -2.000
 5799.00    0.58447   0.56021   -2.000
 5800.00    0.57481   0.56065   -2.000
 5801.00    0.56603   0.56055   -2.000
 5802.00    0.55853   0.55994   -2.000
 5803.00    0.54915   0.55927   -2.000
 5804.00    0.53732   0.55874   -2.000
 5805.00    0.55266   0.55838   -2.000
 5806.00    0.59911   0.55809   -2.000
 5807.00    0.62585   0.55779   -2.000
 5808.00    0.63267   0.55743   -2.000
 5809.00    0.61634   0.55690   -2.000
 5810.00    0.57939   0.55614   -2.000
 5811.00    0.55546   0.55528    0.000
 5812.00    0.54175   0.55440    0.000
 5813.00    0.52455   0.55362    0.000
 5814.00    0.50494   0.55323    0.000
 5815.00    0.50929   0.55354    0.000
 5816.00    0.52814   0.55440    0.000
 5817.00    0.53792   0.55536    0.000
 5818.00    0.54292   0.55621    0.000
 5819.00    0.55082   0.55686    0.000
 5820.00    0.56006   0.55724    0.000
 5821.00    0.56190   0.55739    0.000
 5822.00    0.56081   0.55747    0.000
 5823.00    0.57880   0.55762    0.000
 5824.00    0.60319   0.55772    0.000
 5825.00    0.62649   0.55780    0.000
 5826.00    0.64949   0.55786    0.000
 5827.00    0.63912   0.55782    0.000
 5828.00    0.62098   0.55758    0.000
 5829.00    0.60250   0.55716    0.000
 5830.00    0.58396   0.55665    0.000
 5831.00    0.59583   0.55601    0.000
 5832.00    0.61209   0.55526    0.000
 5833.00    0.60473   0.55471    0.000
 5834.00    0.59489   0.55461    0.000
 5835.00    0.57660   0.55468    0.000
 5836.00    0.55774   0.55474    0.000
 5837.00    0.54667   0.55499    0.000
 5838.00    0.53585   0.55552    0.000
 5839.00    0.54476   0.55600    0.000
 5840.00    0.55314   0.55602    0.000
 5841.00    0.54456   0.55549    0.000
 5842.00    0.53821   0.55450    0.000
 5843.00    0.56545   0.55314    0.000
 5844.00    0.59129   0.55140    0.000
 5845.00    0.60363   0.54934    0.000
 5846.00    0.61137   0.54723    0.000
 5847.00    0.58676   0.54523    0.000
 5848.00    0.56702   0.54324    0.000
 5849.00    0.57361   0.54108    0.000
 5850.00    0.57692   0.53863    0.000
 5851.00    0.56606   0.53620    0.000
 5852.00    0.55908   0.53431    0.000
 5853.00    0.56596   0.53296    0.000
 5854.00    0.56998   0.53177    0.000
 5855.00    0.56543   0.53063    0.000
 5856.00    0.55167   0.53015    0.000
 5857.00    0.51441   0.53070    0.000
 5858.00    0.48292   0.53183    0.000
 5859.00    0.46414   0.53293    0.000
 5860.00    0.46119   0.53368    0.000
 5861.00    0.48841   0.53435    0.000
 5862.00    0.51360   0.53518    0.000
 5863.00    0.53542   0.53589    0.000
 5864.00    0.54790   0.53620    0.000
 5865.00    0.54676   0.53640    0.000
 5866.00    0.54529   0.53681    0.000
 5867.00    0.54341   0.53700    0.000
 5868.00    0.53856   0.53644    0.000
 5869.00    0.53037   0.53496    0.000
 5870.00    0.53125   0.53277    0.000
 5871.00    0.54114   0.53029    0.000
 5872.00    0.55407   0.52738    0.000
 5873.00    0.56968   0.52446    0.000
 5874.00    0.57430   0.52250    0.000
 5875.00    0.57040   0.52196    0.000
 5876.00    0.54919   0.52245    0.000
 5877.00    0.51621   0.52276    0.000
 5878.00    0.49419   0.52283    0.000
 5879.00    0.47871   0.52283    0.000
 5880.00    0.49139   0.52224    0.000
 5881.00    0.51871   0.52002    0.000
 5882.00    0.53409   0.51545    0.000
 5883.00    0.54408   0.50882    0.000
 5884.00    0.52442   0.50083    0.000
 5885.00    0.49326   0.49182    0.000
 5886.00    0.48267   0.48186    0.000
 5887.00    0.47887   0.47175    0.000
 5888.00    0.47101   0.46340    0.000
 5889.00    0.46203   0.45881    0.000
 5890.00    0.48278   0.45768    0.000
 5891.00    0.51030   0.45827    0.000
 5892.00    0.48998   0.45976    0.000
 5893.00    0.46095   0.46176    0.000
 5894.00    0.45398   0.46528    0.000
 5895.00    0.45008   0.47135    0.000
 5896.00    0.44773   0.47895    0.000
 5897.00    0.44553   0.48660    0.000
 5898.00    0.44344   0.49404    0.000
 5899.00    0.44135   0.50129    0.000
 5900.00    0.45604   0.50787    0.000
 5901.00    0.47121   0.51330    0.023
 5902.00    0.48456   0.51742    0.023
 5903.00    0.49763   0.52038    0.023
 5904.00    0.50276   0.52258    0.023
 5905.00    0.50895   0.52428    0.023
 5906.00    0.53022   0.52543    0.023
 5907.00    0.55059   0.52591    0.023
 5908.00    0.56255   0.52586    0.023
 5909.00    0.56958   0.52551    0.024
 5910.00    0.54316   0.52481    0.024
 5911.00    0.52283   0.52373    0.024
 5912.00    0.53453   0.52254    0.024
 5913.00    0.54451   0.52183    0.024
 5914.00    0.54720   0.52169    0.024
 5915.00    0.54766   0.52199    0.024
 5916.00    0.54028   0.52255    0.024
 5917.00    0.53329   0.52322    0.024
 5918.00    0.52742   0.52402    0.024
 5919.00    0.52523   0.52474    0.024
 5920.00    0.53222   0.52524    0.024
 5921.00    0.54124   0.52566    0.024
 5922.00    0.55459   0.52598    0.023
 5923.00    0.56234   0.52610    0.023
 5924.00    0.55959   0.52609    0.023
 5925.00    0.55870   0.52600    0.023
 5926.00    0.56085   0.52574    0.023
 5927.00    0.55920   0.52527    0.023
 5928.00    0.55211   0.52480    0.023
 5929.00    0.53528   0.52472    0.023
 5930.00    0.50613   0.52496    0.022
 5931.00    0.48188   0.52508    0.022
 5932.00    0.46309   0.52500    0.022
 5933.00    0.47510   0.52497    0.022
 5934.00    0.51735   0.52519    0.023
 5935.00    0.54313   0.52540    0.023
 5936.00    0.55466   0.52540    0.023
 5937.00    0.55729   0.52526    0.023
 5938.00    0.55314   0.52493    0.023
 5939.00    0.55004   0.52457    0.023
 5940.00    0.54766   0.52458    0.023
 5941.00    0.54075   0.52493    0.023
 5942.00    0.53119   0.52527    0.023
 5943.00    0.51489   0.52554    0.023
 5944.00    0.49514   0.52572    0.023
 5945.00    0.49690   0.52552    0.023
 5946.00    0.50820   0.52471    0.023
 5947.00    0.52353   0.52370    0.024
 5948.00    0.54039   0.52296    0.024
 5949.00    0.53554   0.52230    0.024
 5950.00    0.52366   0.52137    0.024
 5951.00    0.50813   0.52045    0.023
 5952.00    0.49161   0.52014    0.023
 5953.00    0.50461   0.52031    0.023
 5954.00    0.52416   0.52052    0.023
 5955.00    0.53696   0.52093    0.023
 5956.00    0.54856   0.52190    0.023
 5957.00    0.53928   0.52337    0.023
 5958.00    0.52717   0.52492    0.023
 5959.00    0.52924   0.52618    0.023
 5960.00    0.53267   0.52717    0.022
 5961.00    0.53532   0.52792    0.022
 5962.00    0.53792   0.52843    0.022
 5963.00    0.57029   0.52872    0.022
 5964.00    0.60313   0.52895    0.022
 5965.00    0.59243   0.52940    0.022
 5966.00    0.58153   0.52996    0.022
 5967.00    0.56554   0.53042    0.022
 5968.00    0.55144   0.53064    0.023
 5969.00    0.56280   0.53048    0.022
 5970.00    0.57459   0.52984    0.022
 5971.00    0.59010   0.52870    0.023
 5972.00    0.60276   0.52715    0.023
 5973.00    0.59673   0.52533    0.023
 5974.00    0.58859   0.52351    0.023
 5975.00    0.56967   0.52192    0.023
 5976.00    0.55429   0.52063    0.023
 5977.00    0.55356   0.51970    0.023
 5978.00    0.55214   0.51917    0.023
 5979.00    0.54834   0.51893    0.023
 5980.00    0.54631   0.51873    0.023
 5981.00    0.54937   0.51839    0.023
 5982.00    0.54913   0.51814    0.023
 5983.00    0.54072   0.51848    0.023
 5984.00    0.53373   0.51942    0.023
 5985.00    0.52975   0.52046    0.023
 5986.00    0.52617   0.52147    0.023
 5987.00    0.52335   0.52271    0.023
 5988.00    0.52339   0.52408    0.023
 5989.00    0.52806   0.52515    0.023
 5990.00    0.54022   0.52589    0.023
 5991.00    0.56298   0.52651    0.022
 5992.00    0.56855   0.52689    0.022
 5993.00    0.55271   0.52673    0.022
 5994.00    0.53309   0.52606    0.022
 5995.00    0.50933   0.52511    0.022
 5996.00    0.50012   0.52407    0.022
 5997.00    0.50500   0.52310    0.022
 5998.00    0.51638   0.52233    0.022
 5999.00    0.53333   0.52163    0.022
 6000.00    0.53847   0.52075    0.023
 6001.00    0.53474   0.51975    0.023
 6002.00    0.51834   0.51903    0.023
 6003.00    0.49357   0.51860    0.022
 6004.00    0.49456   0.51815    0.022
 6005.00    0.51044   0.51759    0.022
 6006.00    0.52608   0.51715    0.023
 6007.00    0.54158   0.51724    0.023
 6008.00    0.54409   0.51782    0.023
 6009.00    0.54094   0.51823    0.023
 6010.00    0.53343   0.51808    0.023
 6011.00    0.52429   0.51767    0.024
 6012.00    0.51480   0.51747    0.023
 6013.00    0.50520   0.51730    0.023
 6014.00    0.51496   0.51675    0.023
 6015.00    0.52985   0.51611    0.024
 6016.00    0.52926   0.51583    0.024
 6017.00    0.52532   0.51582    0.023
 6018.00    0.52117   0.51590    0.023
 6019.00    0.51698   0.51625    0.023
 6020.00    0.51001   0.51702    0.023
 6021.00    0.50268   0.51806    0.023
 6022.00    0.47498   0.51928    0.022
 6023.00    0.44541   0.52077    0.022
 6024.00    0.45542   0.52233    0.022
 6025.00    0.46763   0.52368    0.022
 6026.00    0.49818   0.52500    0.022
 6027.00    0.52893   0.52632    0.022
 6028.00    0.54074   0.52738    0.022
 6029.00    0.55133   0.52808    0.022
 6030.00    0.53387   0.52864    0.022
 6031.00    0.51864   0.52922    0.022
 6032.00    0.53181   0.52963    0.022
 6033.00    0.54616   0.52970    0.023
 6034.00    0.57062   0.52955    0.023
 6035.00    0.59213   0.52934    0.023
 6036.00    0.59492   0.52915    0.023
 6037.00    0.59376   0.52896    0.023
 6038.00    0.57284   0.52888    0.023
 6039.00    0.55718   0.52909    0.023
 6040.00    0.56276   0.52957    0.023
 6041.00    0.56575   0.53024    0.023
 6042.00    0.56004   0.53097    0.023
 6043.00    0.55416   0.53162    0.023
 6044.00    0.54779   0.53216    0.023
 6045.00    0.55013   0.53250    0.023
 6046.00    0.57356   0.53249    0.023
 6047.00    0.59061   0.53213    0.023
 6048.00    0.59430   0.53161    0.023
 6049.00    0.59284   0.53090    0.022
 6050.00    0.58201   0.52985    0.023
 6051.00    0.56621   0.52857    0.023
 6052.00    0.54251   0.52737    0.023
 6053.00    0.52591   0.52639    0.022
 6054.00    0.51922   0.52557    0.022
 6055.00    0.51972   0.52493    0.022
 6056.00    0.52906   0.52452    0.022
 6057.00    0.53356   0.52429    0.022
 6058.00    0.53283   0.52398    0.022
 6059.00    0.54351   0.52336    0.022
 6060.00    0.56507   0.52267    0.022
 6061.00    0.58052   0.52219    0.022
 6062.00    0.59084   0.52193    0.022
 6063.00    0.58988   0.52198    0.022
 6064.00    0.58055   0.52283    0.022
 6065.00    0.58041   0.52468    0.022
 6066.00    0.58624   0.52689    0.023
 6067.00    0.57850   0.52890    0.023
 6068.00    0.56304   0.53058    0.023
 6069.00    0.56507   0.53197    0.023
 6070.00    0.57578   0.53283    0.023
 6071.00    0.57889   0.53289    0.023
 6072.00    0.57874   0.53220    0.023
 6073.00    0.58268   0.53103    0.023
 6074.00    0.58811   0.52951    0.023
 6075.00    0.59038   0.52759    0.023
 6076.00    0.59165   0.52538    0.023
 6077.00    0.59303   0.52341    0.023
 6078.00    0.59442   0.52190    0.023
 6079.00    0.57758   0.52053    0.022
 6080.00    0.55688   0.51936    0.022
 6081.00    0.54384   0.51882    0.022
 6082.00    0.53208   0.51883    0.022
 6083.00    0.53233   0.51873    0.022
 6084.00    0.53408   0.51838    0.022
 6085.00    0.53024   0.51822    0.022
 6086.00    0.52592   0.51820    0.021
 6087.00    0.54266   0.51791    0.021
 6088.00    0.56049   0.51751    0.021
 6089.00    0.55421   0.51755    0.021
 6090.00    0.54751   0.51802    0.021
 6091.00    0.54177   0.51856    0.022
 6092.00    0.53670   0.51927    0.022
 6093.00    0.54572   0.52015    0.022
 6094.00    0.55422   0.52071    0.022
 6095.00    0.55643   0.52045    0.022
 6096.00    0.55810   0.51927    0.023
 6097.00    0.55538   0.51776    0.023
 6098.00    0.55383   0.51630    0.023
 6099.00    0.55952   0.51463    0.023
 6100.00    0.56196   0.51257    0.024
 6101.00    0.54855   0.51099    0.023
 6102.00    0.54193   0.51097    0.023
 6103.00    0.56220   0.51221    0.023
 6104.00    0.57495   0.51365    0.023
 6105.00    0.56297   0.51482    0.023
 6106.00    0.55586   0.51620    0.023
 6107.00    0.56226   0.51800    0.022
 6108.00    0.56190   0.51957    0.022
 6109.00    0.54543   0.52041    0.022
 6110.00    0.53531   0.52076    0.022
 6111.00    0.53828   0.52115    0.022
 6112.00    0.53813   0.52137    0.022
 6113.00    0.53237   0.52079    0.022
 6114.00    0.52296   0.51924    0.022
 6115.00    0.50786   0.51715    0.022
 6116.00    0.50085   0.51476    0.022
 6117.00    0.50497   0.51226    0.021
 6118.00    0.51273   0.50981    0.021
 6119.00    0.52489   0.50756    0.022
 6120.00    0.53054   0.50592    0.022
 6121.00    0.52925   0.50550    0.022
 6122.00    0.52801   0.50629    0.022
 6123.00    0.52682   0.50759    0.022
 6124.00    0.52370   0.50907    0.022
 6125.00    0.51898   0.51072    0.023
 6126.00    0.52408   0.51242    0.023
 6127.00    0.53637   0.51380    0.023
 6128.00    0.55216   0.51455    0.023
 6129.00    0.57021   0.51432    0.023
 6130.00    0.57301   0.51277    0.023
 6131.00    0.56726   0.51011    0.022
 6132.00    0.56387   0.50720    0.022
 6133.00    0.56164   0.50452    0.022
 6134.00    0.55436   0.50196    0.023
 6135.00    0.54496   0.49990    0.023
 6136.00    0.53162   0.49955    0.023
 6137.00    0.51687   0.50140    0.023
 6138.00    0.49912   0.50412    0.023
 6139.00    0.48046   0.50648    0.023
 6140.00    0.48308   0.50869    0.023
 6141.00    0.49112   0.51133    0.022
 6142.00    0.50546   0.51369    0.022
 6143.00    0.52111   0.51478    0.022
 6144.00    0.51557   0.51467    0.022
 6145.00    0.50658   0.51413    0.021
 6146.00    0.51908   0.51337    0.021
 6147.00    0.53419   0.51223    0.021
 6148.00    0.54789   0.51078    0.021
 6149.00    0.56148   0.50952    0.022
 6150.00    0.53956   0.50874    0.022
 6151.00    0.51595   0.50791    0.022
 6152.00    0.49740   0.50649    0.022
 6153.00    0.47939   0.50443    0.021
 6154.00    0.48752   0.50180    0.022
 6155.00    0.49533   0.49815    0.022
 6156.00    0.49684   0.49348    0.023
 6157.00    0.49760   0.48850    0.023
 6158.00    0.48961   0.48369    0.023
 6159.00    0.48296   0.47906    0.023
 6160.00    0.48703   0.47509    0.023
 6161.00    0.49056   0.47289    0.023
 6162.00    0.49081   0.47250    0.023
 6163.00    0.49134   0.47279    0.023
 6164.00    0.49321   0.47344    0.023
 6165.00    0.49462   0.47492    0.023
 6166.00    0.49426   0.47681    0.023
 6167.00    0.49163   0.47811    0.023
 6168.00    0.48163   0.47924    0.022
 6169.00    0.47762   0.48122    0.022
 6170.00    0.48997   0.48371    0.022
 6171.00    0.49360   0.48581    0.021
 6172.00    0.47682   0.48768    0.022
 6173.00    0.46413   0.48981    0.022
 6174.00    0.45972   0.49183    0.022
 6175.00    0.46689   0.49344    0.021
 6176.00    0.49448   0.49485    0.021
 6177.00    0.51227   0.49607    0.021
 6178.00    0.51495   0.49683    0.021
 6179.00    0.51314   0.49712    0.022
 6180.00    0.50523   0.49695    0.022
 6181.00    0.50919   0.49614    0.022
 6182.00    0.52732   0.49468    0.022
 6183.00    0.54652   0.49274    0.022
 6184.00    0.56687   0.49026    0.023
 6185.00    0.56806   0.48723    0.023
 6186.00    0.55148   0.48440    0.023
 6187.00    0.53251   0.48246    0.023
 6188.00    0.51160   0.48116    0.023
 6189.00    0.49889   0.48023    0.023
 6190.00    0.49208   0.48027    0.023
 6191.00    0.47995   0.48174    0.023
 6192.00    0.46445   0.48375    0.023
 6193.00    0.46698   0.48525    0.022
 6194.00    0.47945   0.48634    0.022
 6195.00    0.48939   0.48751    0.023
 6196.00    0.49809   0.48848   -2.000
 6197.00    0.46262   0.48883   -2.000
 6198.00    0.40882   0.48901   -2.000
 6199.00    0.41531   0.48972   -2.000
 6200.00    0.44316   0.49092   -2.000
 6201.00    0.41399   0.49208   -2.000
 6202.00    0.36777   0.49297   -2.000
 6203.00    0.37360   0.49363   -2.000
 6204.00    0.39236   0.49392   -2.000
 6205.00    0.42928   0.49358   -2.000
 6206.00    0.46986   0.49249   -2.000
 6207.00    0.47048   0.49054   -2.000
 6208.00    0.46480   0.48783    0.023
 6209.00    0.46350   0.48469    0.023
 6210.00    0.46271   0.48148    0.023
 6211.00    0.46459   0.47839    0.022
 6212.00    0.46668   0.47560    0.022
 6213.00    0.47317   0.47335    0.022
 6214.00    0.47985   0.47186    0.022
 6215.00    0.48035   0.47120    0.022
 6216.00    0.48059   0.47112    0.022
 6217.00    0.47154   0.47116    0.022
 6218.00    0.46314   0.47121    0.022
 6219.00    0.46638   0.47158    0.022
 6220.00    0.46943   0.47219    0.022
 6221.00    0.47044   0.47259    0.022
 6222.00    0.47273   0.47261    0.022
 6223.00    0.48496   0.47233    0.022
 6224.00    0.49669   0.47167    0.022
 6225.00    0.50549   0.47059    0.022
 6226.00    0.51009   0.46944    0.021
 6227.00    0.49520   0.46836    0.022
 6228.00    0.48193   0.46747    0.022
 6229.00    0.47480   0.46722    0.022
 6230.00    0.46771   0.46792    0.022
 6231.00    0.46076   0.46923    0.022
 6232.00    0.45781   0.47062    0.022
 6233.00    0.46554   0.47172    0.021
 6234.00    0.47272   0.47222    0.021
 6235.00    0.47861   0.47206    0.021
 6236.00    0.48693   0.47120    0.022
 6237.00    0.50010   0.46958    0.022
 6238.00    0.50279   0.46774    0.022
 6239.00    0.48725   0.46645    0.022
 6240.00    0.47026   0.46568    0.022
 6241.00    0.45106   0.46514    0.022
 6242.00    0.44627   0.46530    0.022
 6243.00    0.46074   0.46637    0.022
 6244.00    0.47652   0.46765    0.022
 6245.00    0.49385   0.46871    0.022
 6246.00    0.49682   0.46947    0.022
 6247.00    0.48490   0.46970    0.022
 6248.00    0.47594   0.46920    0.022
 6249.00    0.46966   0.46800    0.022
 6250.00    0.47687   0.46613    0.022
 6251.00    0.49493   0.46381    0.021
 6252.00    0.50310   0.46160    0.021
 6253.00    0.50425   0.45990    0.021
 6254.00    0.49122   0.45880    0.021
 6255.00    0.46937   0.45824    0.021
 6256.00    0.44633   0.45844    0.021
 6257.00    0.42265   0.45988    0.021
 6258.00    0.41962   0.46231    0.022
 6259.00    0.42635   0.46477    0.023
 6260.00    0.42927   0.46704    0.024
 6261.00    0.43063   0.46955    0.026
 6262.00    0.43177   0.47174    0.027
 6263.00    0.43284   0.47292    0.028
 6264.00    0.41827   0.47362    0.028
 6265.00    0.39911   0.47456    0.027
 6266.00    0.42995   0.47539    0.026
 6267.00    0.47294   0.47583    0.025
 6268.00    0.48837   0.47626    0.024
 6269.00    0.49839   0.47695    0.023
 6270.00    0.48649   0.47758    0.023
 6271.00    0.47124   0.47793    0.022
 6272.00    0.47636   0.47805    0.022
 6273.00    0.48378   0.47801    0.022
 6274.00    0.48917   0.47772    0.022
 6275.00    0.49441   0.47718    0.022
 6276.00    0.49269   0.47670    0.022
 6277.00    0.49068   0.47643    0.021
 6278.00    0.50639   0.47627    0.021
 6279.00    0.52187   0.47634    0.021
 6280.00    0.52330   0.47699    0.000
 6281.00    0.52412   0.47827    0.000
 6282.00    0.51474   0.47980    0.000
 6283.00    0.50654   0.48129    0.000
 6284.00    0.51078   0.48268    0.000
 6285.00    0.51464   0.48391    0.000
 6286.00    0.51565   0.48470    0.000
 6287.00    0.51328   0.48485    0.000
 6288.00    0.49171   0.48441    0.000
 6289.00    0.47443   0.48349    0.000
 6290.00    0.47663   0.48211    0.000
 6291.00    0.48618   0.48041    0.000
 6292.00    0.52304   0.47885    0.000
 6293.00    0.55322   0.47761    0.000
 6294.00    0.56265   0.47642    0.000
 6295.00    0.56311   0.47528    0.000
 6296.00    0.53992   0.47463    0.000
 6297.00    0.52188   0.47470    0.000
 6298.00    0.51552   0.47512    0.000
 6299.00    0.51171   0.47549    0.000
 6300.00    0.51291   0.47603    0.000
 6301.00    0.51322   0.47720    0.000
 6302.00    0.51201   0.47887    0.000
 6303.00    0.51910   0.48039    0.000
 6304.00    0.53862   0.48162    0.000
 6305.00    0.54147   0.48287    0.000
 6306.00    0.52238   0.48396    0.000
 6307.00    0.50440   0.48445    0.000
 6308.00    0.48772   0.48426    0.000
 6309.00    0.47926   0.48351    0.000
 6310.00    0.47922   0.48254    0.000
 6311.00    0.49494   0.48165    0.000
 6312.00    0.52487   0.48058    0.000
 6313.00    0.53789   0.47929    0.000
 6314.00    0.53746   0.47861    0.000
 6315.00    0.52409   0.47869    0.000
 6316.00    0.50168   0.47880    0.000
 6317.00    0.49875   0.47913    0.000
 6318.00    0.50777   0.48037    0.000
 6319.00    0.50961   0.48206    0.000
 6320.00    0.50761   0.48348    0.000
 6321.00    0.50416   0.48483    0.022
 6322.00    0.50005   0.48635    0.022
 6323.00    0.49304   0.48776    0.022
 6324.00    0.48487   0.48874    0.022
 6325.00    0.49309   0.48936    0.022
 6326.00    0.50690   0.48988    0.022
 6327.00    0.50610   0.49035    0.022
 6328.00    0.50109   0.49038    0.022
 6329.00    0.51611   0.48974    0.022
 6330.00    0.53589   0.48878    0.022
 6331.00    0.55118   0.48789    0.021
 6332.00    0.56560   0.48697    0.021
 6333.00    0.56944   0.48572    0.021
 6334.00    0.57171   0.48455    0.021
 6335.00    0.57903   0.48423    0.021
 6336.00    0.58689   0.48453    0.021
 6337.00    0.56945   0.48459    0.020
 6338.00    0.55022   0.48441    0.020
 6339.00    0.54310   0.48443    0.021
 6340.00    0.53642   0.48444    0.022
 6341.00    0.55363   0.48401    0.022
 6342.00    0.57047   0.48349    0.022
 6343.00    0.57112   0.48350    0.022
 6344.00    0.57092   0.48405    0.022
 6345.00    0.55709   0.48469    0.022
 6346.00    0.54186   0.48546    0.022
 6347.00    0.51264   0.48638    0.022
 6348.00    0.48727   0.48695    0.022
 6349.00    0.48966   0.48673    0.022
 6350.00    0.49679   0.48598    0.022
 6351.00    0.53013   0.48484    0.022
 6352.00    0.55872   0.48296    0.022
 6353.00    0.56630   0.48042    0.022
 6354.00    0.56496   0.47800    0.022
 6355.00    0.53118   0.47593    0.021
 6356.00    0.50136   0.47371    0.021
 6357.00    0.48362   0.47159    0.021
 6358.00    0.47424   0.47044    0.021
 6359.00    0.48651   0.47024    0.021
 6360.00    0.49698   0.47049    0.021
 6361.00    0.50342   0.47135    0.021
 6362.00    0.51067   0.47319    0.022
 6363.00    0.51946   0.47565    0.022
 6364.00    0.52683   0.47811    0.022
 6365.00    0.53179   0.48044    0.022
 6366.00    0.53077   0.48287    0.022
 6367.00    0.52092   0.48519    0.022
 6368.00    0.51361   0.48694    0.022
 6369.00    0.50962   0.48815    0.022
 6370.00    0.50944   0.48920    0.022
 6371.00    0.51361   0.49011    0.022
 6372.00    0.52903   0.49042    0.022
 6373.00    0.55578   0.49003    0.022
 6374.00    0.56389   0.48938    0.022
 6375.00    0.55542   0.48870    0.022
 6376.00    0.54842   0.48774    0.023
 6377.00    0.54259   0.48668    0.023
 6378.00    0.54445   0.48593    0.022
 6379.00    0.55162   0.48549    0.022
 6380.00    0.55271   0.48531    0.022
 6381.00    0.55015   0.48544    0.021
 6382.00    0.55254   0.48564    0.021
 6383.00    0.55756   0.48566    0.021
 6384.00    0.56407   0.48564    0.021
 6385.00    0.57125   0.48557    0.021
 6386.00    0.56109   0.48512    0.021
 6387.00    0.54410   0.48415    0.021
 6388.00    0.54125   0.48298    0.021
 6389.00    0.54315   0.48211    0.020
 6390.00    0.56708   0.48143    0.021
 6391.00    0.59722   0.48065    0.022
 6392.00    0.58702   0.48024    0.022
 6393.00    0.56745   0.48053    0.022
 6394.00    0.52493   0.48078    0.022
 6395.00    0.47814   0.48080    0.022
 6396.00    0.48490   0.48137    0.022
 6397.00    0.49937   0.48216    0.023
 6398.00    0.52355   0.48249    0.023
 6399.00    0.54875   0.48317    0.023
 6400.00    0.56050   0.48468    0.023
 6401.00    0.57135   0.48602    0.023
 6402.00    0.56748   0.48660    0.023
 6403.00    0.56313   0.48705    0.024
 6404.00    0.54936   0.48751    0.023
 6405.00    0.53590   0.48733    0.023
 6406.00    0.53246   0.48640    0.022
 6407.00    0.52942   0.48565    0.022
 6408.00    0.53228   0.48534    0.021
 6409.00    0.53535   0.48483    0.021
 6410.00    0.54046   0.48422    0.021
 6411.00    0.54516   0.48409    0.021
 6412.00    0.54687   0.48417    0.021
 6413.00    0.54888   0.48406    0.021
 6414.00    0.55251   0.48383    0.022
 6415.00    0.55096   0.48345    0.022
 6416.00    0.52700   0.48297    0.021
 6417.00    0.50499   0.48283    0.021
 6418.00    0.48987   0.48303    0.022
 6419.00    0.48235   0.48328    0.022
 6420.00    0.49752   0.48395    0.022
 6421.00    0.51239   0.48527    0.022
 6422.00    0.52646   0.48655    0.022
 6423.00    0.53818   0.48726    0.023
 6424.00    0.54476   0.48750    0.022
 6425.00    0.54493   0.48725    0.022
 6426.00    0.53292   0.48657    0.023
 6427.00    0.50959   0.48583    0.023
 6428.00    0.46749   0.48501    0.025
 6429.00    0.44033   0.48409    0.026
 6430.00    0.43492   0.48373    0.026
 6431.00    0.43259   0.48418    0.026
 6432.00    0.43422   0.48462    0.025
 6433.00    0.44256   0.48458    0.025
 6434.00    0.45848   0.48470    0.024
 6435.00    0.47796   0.48542    0.023
 6436.00    0.50099   0.48609    0.022
 6437.00    0.50820   0.48645    0.021
 6438.00    0.50155   0.48735    0.021
 6439.00    0.50229   0.48890    0.021
 6440.00    0.50874   0.49014    0.021
 6441.00    0.51293   0.49074    0.021
 6442.00    0.51558   0.49091    0.022
 6443.00    0.51438   0.49024    0.022
 6444.00    0.51088   0.48834    0.022
 6445.00    0.50750   0.48590    0.022
 6446.00    0.50418   0.48373    0.022
 6447.00    0.49484   0.48164    0.022
 6448.00    0.48278   0.47987    0.023
 6449.00    0.48908   0.47930    0.023
 6450.00    0.50247   0.47990    0.023
 6451.00    0.51167   0.48108    0.023
 6452.00    0.51949   0.48269    0.023
 6453.00    0.50890   0.48434    0.022
 6454.00    0.49324   0.48564    0.022
 6455.00    0.49359   0.48672    0.021
 6456.00    0.49758   0.48725    0.021
 6457.00    0.49865   0.48671    0.021
 6458.00    0.49920   0.48586    0.021
 6459.00    0.51458   0.48536    0.021
 6460.00    0.53204   0.48458    0.021
 6461.00    0.52997   0.48373    0.021
 6462.00    0.52596   0.48395    0.021
 6463.00    0.52415   0.48500    0.021
 6464.00    0.52248   0.48586    0.021
 6465.00    0.53257   0.48661    0.021
 6466.00    0.54300   0.48736    0.021
 6467.00    0.55460   0.48780    0.021
 6468.00    0.56557   0.48785    0.022
 6469.00    0.55891   0.48743    0.022
 6470.00    0.55069   0.48672    0.022
 6471.00    0.52050   0.48631    0.022
 6472.00    0.49289   0.48607    0.023
 6473.00    0.48913   0.48537    0.022
 6474.00    0.48886   0.48465    0.023
 6475.00    0.51211   0.48422    0.023
 6476.00    0.52993   0.48336    0.023
 6477.00    0.51927   0.48191    0.022
 6478.00    0.51057   0.48072    0.022
 6479.00    0.51016   0.47989    0.022
 6480.00    0.50981   0.47893    0.022
 6481.00    0.50965   0.47818    0.022
 6482.00    0.50635   0.47817    0.021
 6483.00    0.49380   0.47845    0.021
 6484.00    0.48676   0.47830    0.021
 6485.00    0.49349   0.47755    0.021
 6486.00    0.50348   0.47633    0.021
 6487.00    0.52049   0.47435    0.021
 6488.00    0.53065   0.47108    0.021
 6489.00    0.52799   0.46671    0.021
 6490.00    0.51800   0.46228    0.021
 6491.00    0.49601   0.45817    0.021
 6492.00    0.47799   0.45429    0.021
 6493.00    0.46567   0.45140    0.021
 6494.00    0.46207   0.45018    0.022
 6495.00    0.46945   0.45073    0.022
 6496.00    0.47819   0.45260    0.022
 6497.00    0.48841   0.45556    0.022
 6498.00    0.48778   0.45920    0.022
 6499.00    0.47650   0.46318    0.022
 6500.00    0.47807   0.46704    0.023
 6501.00    0.49074   0.47043    0.022
 6502.00    0.49703   0.47318    0.022
 6503.00    0.49846   0.47519    0.022
 6504.00    0.50821   0.47673    0.022
 6505.00    0.52354   0.47791    0.021
 6506.00    0.53885   0.47855    0.021
 6507.00    0.55415   0.47879    0.022
 6508.00    0.55223   0.47903    0.021
 6509.00    0.54149   0.47911    0.021
 6510.00    0.54364   0.47876    0.021
 6511.00    0.55149   0.47824    0.021
 6512.00    0.54685   0.47776    0.021
 6513.00    0.53745   0.47710    0.021
 6514.00    0.51903   0.47647    0.021
 6515.00    0.49771   0.47634    0.021
 6516.00    0.51609   0.47654    0.021
 6517.00    0.54519   0.47683    0.022
 6518.00    0.55375   0.47739    0.022
 6519.00    0.55777   0.47832    0.022
 6520.00    0.54101   0.47917    0.022
 6521.00    0.52060   0.47958    0.022
 6522.00    0.51825   0.47976    0.022
 6523.00    0.51833   0.48000    0.023
 6524.00    0.51853   0.48007    0.022
 6525.00    0.51875   0.47979    0.022
 6526.00    0.52733   0.47945    0.022
 6527.00    0.53641   0.47929    0.022
 6528.00    0.55936   0.47918    0.000
 6529.00    0.58248   0.47914    0.000
 6530.00    0.58146   0.47926    0.000
 6531.00    0.57975   0.47950    0.000
 6532.00    0.56060   0.47978    0.000
 6533.00    0.54238   0.48019    0.000
 6534.00    0.53664   0.48069    0.000
 6535.00    0.53076   0.48094    0.000
 6536.00    0.52356   0.48071    0.000
 6537.00    0.51648   0.48006    0.000
 6538.00    0.51025   0.47904    0.000
 6539.00    0.50589   0.47756    0.000
 6540.00    0.51112   0.47548    0.000
 6541.00    0.51807   0.47294    0.000
 6542.00    0.53209   0.47056    0.000
 6543.00    0.54288   0.46849    0.000
 6544.00    0.54268   0.46635    0.000
 6545.00    0.54420   0.46420    0.000
 6546.00    0.55068   0.46241    0.000
 6547.00    0.55888   0.46077    0.000
 6548.00    0.57131   0.45878    0.000
 6549.00    0.58395   0.45620    0.000
 6550.00    0.59700   0.45318    0.000
 6551.00    0.60198   0.44977    0.000
 6552.00    0.59208   0.44570    0.000
 6553.00    0.57691   0.44044    0.000
 6554.00    0.55325   0.43405    0.000
 6555.00    0.52965   0.42718    0.000
 6556.00    0.50613   0.41940    0.000
 6557.00    0.49865   0.40998    0.000
 6558.00    0.51108   0.40118    0.000
 6559.00    0.52123   0.39579    0.000
 6560.00    0.52889   0.39260    0.000
 6561.00    0.53760   0.39091    0.000
 6562.00    0.54733   0.39366    0.000
 6563.00    0.56542   0.40087    0.000
 6564.00    0.59065   0.40882    0.000
 6565.00    0.60391   0.41666    0.000
 6566.00    0.60820   0.42500    0.000
 6567.00    0.60149   0.43216    0.000
 6568.00    0.58754   0.43716    0.000
 6569.00    0.57559   0.44110    0.000
 6570.00    0.56481   0.44432    0.000
 6571.00    0.55472   0.44668    0.000
 6572.00    0.54497   0.44863    0.000
 6573.00    0.52532   0.45063    0.000
 6574.00    0.50135   0.45267    0.000
 6575.00    0.48577   0.45468    0.000
 6576.00    0.47330   0.45644    0.000
 6577.00    0.49008   0.45808    0.000
 6578.00    0.51611   0.45977    0.000
 6579.00    0.52883   0.46127    0.000
 6580.00    0.53801   0.46258    0.000
 6581.00    0.57637   0.46384    0.000
 6582.00    0.62103   0.46527    0.000
 6583.00    0.64258   0.46646    0.000
 6584.00    0.66016   0.46715    0.000
 6585.00    0.66274   0.46740    0.000
 6586.00    0.66338   0.46736    0.000
 6587.00    0.64310   0.46658    0.000
 6588.00    0.62091   0.46502    0.000
 6589.00    0.60537   0.46363    0.000
 6590.00    0.59020   0.46253    0.000
 6591.00    0.56705   0.46135    0.000
 6592.00    0.54404   0.46063    0.000
 6593.00    0.55025   0.46086    0.000
 6594.00    0.55634   0.46168    0.000
 6595.00    0.55979   0.46277    0.000
 6596.00    0.56154   0.46406    0.000
 6597.00    0.54165   0.46525    0.000
 6598.00    0.52264   0.46624    0.000
 6599.00    0.51108   0.46696    0.000
 6600.00    0.50357   0.46709    0.000
 6601.00    0.52181   0.46669    0.000
 6602.00    0.53272   0.46609    0.000
 6603.00    0.50710   0.46522    0.000
 6604.00    0.48640   0.46415    0.000
 6605.00    0.48557   0.46351    0.000
 6606.00    0.48954   0.46349    0.000
 6607.00    0.50964   0.46368    0.000
 6608.00    0.52417   0.46406    0.000
 6609.00    0.52299   0.46508    0.021
 6610.00    0.51616   0.46652    0.021
 6611.00    0.49565   0.46767    0.021
 6612.00    0.49205   0.46851    0.022
 6613.00    0.52372   0.46938    0.022
 6614.00    0.54962   0.47015    0.022
 6615.00    0.56505   0.47040    0.022
 6616.00    0.57639   0.47021    0.022
 6617.00    0.58125   0.46985    0.022
 6618.00    0.59442   0.46920    0.023
 6619.00    0.61919   0.46812    0.023
 6620.00    0.61263   0.46684    0.023
 6621.00    0.56770   0.46576    0.023
 6622.00    0.53460   0.46468    0.022
 6623.00    0.51430   0.46355    0.022
 6624.00    0.51242   0.46273    0.022
 6625.00    0.52808   0.46224    0.022
 6626.00    0.53384   0.46171    0.022
 6627.00    0.53128   0.46115    0.022
 6628.00    0.53294   0.46064    0.022
 6629.00    0.53773   0.46015    0.022
 6630.00    0.53799   0.45989    0.021
 6631.00    0.53532   0.45979    0.021
 6632.00    0.52723   0.45979    0.021
 6633.00    0.51606   0.46012    0.022
 6634.00    0.52500   0.46063    0.022
 6635.00    0.54390   0.46098    0.022
 6636.00    0.53354   0.46137    0.022
 6637.00    0.51066   0.46172    0.022
 6638.00    0.50313   0.46152    0.022
 6639.00    0.50123   0.46115    0.022
 6640.00    0.50907   0.46118    0.023
 6641.00    0.51995   0.46107    0.023
 6642.00    0.51116   0.46054    0.023
 6643.00    0.49730   0.46039    0.023
 6644.00    0.48725   0.46067    0.022
 6645.00    0.47801   0.46064    0.022
 6646.00    0.47533   0.46034    0.022
 6647.00    0.47375   0.46024    0.023
 6648.00    0.45616   0.46015    0.022
 6649.00    0.43656   0.45976    0.021
 6650.00    0.46220   0.45934    0.021
 6651.00    0.49178   0.45900    0.022
 6652.00    0.50103   0.45861    0.022
 6653.00    0.50923   0.45822    0.022
 6654.00    0.49069   0.45775    0.022
 6655.00    0.47183   0.45704    0.022
 6656.00    0.46485   0.45630    0.022
 6657.00    0.45979   0.45553    0.022
 6658.00    0.49496   0.45440    0.022
 6659.00    0.52714   0.45333    0.022
 6660.00    0.52313   0.45269    0.022
 6661.00    0.51929   0.45212    0.022
 6662.00    0.51689   0.45168    0.022
 6663.00    0.51279   0.45195    0.023
 6664.00    0.49817   0.45274    0.023
 6665.00    0.48120   0.45354    0.022
 6666.00    0.45277   0.45447    0.023
 6667.00    0.42686   0.45548    0.023
 6668.00    0.41088   0.45616    0.023
 6669.00    0.40933   0.45612    0.023
 6670.00    0.45516   0.45547    0.022
 6671.00    0.49459   0.45429    0.022
 6672.00    0.51626   0.45228    0.022
 6673.00    0.53664   0.44967    0.022
 6674.00    0.55395   0.44746    0.022
 6675.00    0.56770   0.44586    0.022
 6676.00    0.57411   0.44433    0.022
 6677.00    0.56888   0.44360    0.022
 6678.00    0.54285   0.44434    0.022
 6679.00    0.51255   0.44571    0.022
 6680.00    0.47558   0.44695    0.022
 6681.00    0.45375   0.44843    0.022
 6682.00    0.45271   0.45009    0.022
 6683.00    0.45535   0.45125    0.022
 6684.00    0.46247   0.45202    0.022
 6685.00    0.46333   0.45267    0.023
 6686.00    0.45754   0.45304    0.023
 6687.00    0.46956   0.45312    0.023
 6688.00    0.49828   0.45309    0.023
 6689.00    0.51450   0.45296    0.023
 6690.00    0.52037   0.45262    0.023
 6691.00    0.53028   0.45210    0.023
 6692.00    0.54314   0.45166    0.023
 6693.00    0.53772   0.45135    0.023
 6694.00    0.52059   0.45104    0.023
 6695.00    0.50181   0.45089    0.022
 6696.00    0.48211   0.45106    0.000
 6697.00    0.47871   0.45133    0.000
 6698.00    0.48324   0.45155    0.000
 6699.00    0.49386   0.45182    0.000
 6700.00    0.50705   0.45204    0.000
 6701.00    0.49455   0.45215    0.000
 6702.00    0.47281   0.45212    0.000
 6703.00    0.47581   0.45204    0.000
 6704.00    0.48635   0.45200    0.000
 6705.00    0.50078   0.45173    0.000
 6706.00    0.51620   0.45123    0.000
 6707.00    0.51070   0.45066    0.000
 6708.00    0.50089   0.44974    0.000
 6709.00    0.47596   0.44832    0.000
 6710.00    0.44858   0.44681    0.000
 6711.00    0.45540   0.44528    0.000
 6712.00    0.46637   0.44344    0.000
 6713.00    0.47382   0.44174    0.000
 6714.00    0.48098   0.44064    0.000
 6715.00    0.47570   0.43996    0.000
 6716.00    0.46982   0.43954    0.000
 6717.00    0.49831   0.43972    0.000
 6718.00    0.52666   0.44054    0.000
 6719.00    0.51977   0.44143    0.000
 6720.00    0.51164   0.44225    0.000
 6721.00    0.47946   0.44316    0.000
 6722.00    0.45023   0.44411    0.000
 6723.00    0.45489   0.44491    0.000
 6724.00    0.45957   0.44546    0.000
 6725.00    0.46435   0.44599    0.000
 6726.00    0.46793   0.44656    0.000
 6727.00    0.46426   0.44696    0.000
 6728.00    0.46380   0.44718    0.000
 6729.00    0.47849   0.44736    0.000
 6730.00    0.49208   0.44736    0.000
 6731.00    0.50143   0.44717    0.000
 6732.00    0.51152   0.44688    0.000
 6733.00    0.52399   0.44647    0.000
 6734.00    0.53041   0.44588    0.000
 6735.00    0.52028   0.44524    0.000
 6736.00    0.51087   0.44470    0.000
 6737.00    0.50312   0.44408    0.000
 6738.00    0.49488   0.44331    0.000
 6739.00    0.48566   0.44280    0.000
 6740.00    0.47715   0.44250    0.000
 6741.00    0.46991   0.44190    0.000
 6742.00    0.46135   0.44124    0.000
 6743.00    0.45077   0.44096    0.000
 6744.00    0.44206   0.44052    0.000
 6745.00    0.43587   0.43979    0.000
 6746.00    0.45257   0.43942    0.000
 6747.00    0.49652   0.43929    0.000
 6748.00    0.52685   0.43903    0.000
 6749.00    0.54289   0.43915    0.000
 6750.00    0.51882   0.43991    0.000
 6751.00    0.45761   0.44072    0.000
 6752.00    0.43304   0.44167    0.000
 6753.00    0.43839   0.44317    0.026
 6754.00    0.44376   0.44456    0.027
 6755.00    0.44915   0.44571    0.027
 6756.00    0.44199   0.44682    0.027
 6757.00    0.42693   0.44754    0.028
 6758.00    0.41384   0.44779    0.028
 6759.00    0.40183   0.44778    0.027
 6760.00    0.43350   0.44745    0.027
 6761.00    0.48610   0.44676    0.028
 6762.00    0.53440   0.44594    0.028
 6763.00    0.58093   0.44513    0.029
 6764.00    0.59453   0.44446    0.029
 6765.00    0.59649   0.44391    0.028
 6766.00    0.59094   0.44356    0.027
 6767.00    0.58316   0.44374    0.027
 6768.00    0.53961   0.44438    0.027
 6769.00    0.48721   0.44510    0.026
 6770.00    0.49670   0.44603    0.026
 6771.00    0.51862   0.44727    0.026
 6772.00    0.54261   0.44836    0.026
 6773.00    0.56693   0.44909    0.026
 6774.00    0.51788   0.44957    0.025
 6775.00    0.46027   0.44957    0.025
 6776.00    0.50715   0.44894    0.026
 6777.00    0.56226   0.44785    0.027
 6778.00    0.56326   0.44636    0.027
 6779.00    0.56190   0.44455    0.027
 6780.00    0.52214   0.44275    0.027
 6781.00    0.48300   0.44113    0.027
 6782.00    0.49182   0.43975    0.027
 6783.00    0.50125   0.43893    0.027
 6784.00    0.52164   0.43862    0.027
 6785.00    0.53850   0.43851    0.026
 6786.00    0.51680   0.43873    0.026
 6787.00    0.49732   0.43921    0.025
 6788.00    0.49493   0.43951    0.025
 6789.00    0.49282   0.43973    0.026
 6790.00    0.49232   0.44014    0.026
 6791.00    0.48376   0.44048    0.026
 6792.00    0.43791   0.44069    0.025
 6793.00    0.41317   0.44112    0.025
 6794.00    0.46830   0.44165    0.025
 6795.00    0.50537   0.44214    0.026
 6796.00    0.48545   0.44270    0.026
 6797.00    0.46511   0.44324    0.026
 6798.00    0.44368   0.44368    0.026
 6799.00    0.44522   0.44399    0.026
 6800.00    0.49953   0.44419    0.027
 6801.00    0.51981   0.44430    0.028
 6802.00    0.47239   0.44418    0.027
 6803.00    0.45468   0.44397    0.027
 6804.00    0.48845   0.44389    0.027
 6805.00    0.50914   0.44362    0.027
 6806.00    0.50999   0.44327    0.026
 6807.00    0.49367   0.44313    0.026
 6808.00    0.45445   0.44292    0.025
 6809.00    0.42861   0.44265    0.025
 6810.00    0.41847   0.44249    0.025
 6811.00    0.44193   0.44235    0.025
 6812.00    0.50016   0.44234    0.026
 6813.00    0.50879   0.44240    0.027
 6814.00    0.47212   0.44244    0.027
 6815.00    0.45235   0.44273    0.027
 6816.00    0.44617   0.44313    0.026
 6817.00    0.45649   0.44349    0.026
 6818.00    0.47850   0.44390    0.026
 6819.00    0.49253   0.44427    0.026
 6820.00    0.50160   0.44456    0.025
 6821.00    0.51755   0.44478    0.026
 6822.00    0.53723   0.44480    0.027
 6823.00    0.52805   0.44459    0.027
 6824.00    0.50525   0.44427    0.027
 6825.00    0.50334   0.44399    0.027
 6826.00    0.50992   0.44368    0.027
 6827.00    0.49694   0.44339    0.027
 6828.00    0.47717   0.44323    0.027
 6829.00    0.46109   0.44327    0.027
 6830.00    0.44608   0.44339    0.027
 6831.00    0.44360   0.44329    0.026
 6832.00    0.44415   0.44304    0.026
 6833.00    0.46744   0.44279    0.026
 6834.00    0.49519   0.44218    0.026
 6835.00    0.53300   0.44128    0.026
 6836.00    0.57235   0.44037    0.026
 6837.00    0.55632   0.43949    0.027
 6838.00    0.53408   0.43874    0.028
 6839.00    0.50831   0.43835    0.028
 6840.00    0.48228   0.43831    0.028
 6841.00    0.46602   0.43857    0.028
 6842.00    0.45015   0.43910    0.028
 6843.00    0.41829   0.43977    0.027
 6844.00    0.38870   0.44037    0.027
 6845.00    0.45347   0.44074    0.027
 6846.00    0.51114   0.44090    0.027
 6847.00    0.44874   0.44084    0.027
 6848.00    0.39443   0.44050    0.027
 6849.00    0.42479   0.43995    0.027
 6850.00    0.44795   0.43918    0.027
 6851.00    0.41765   0.43839    0.026
 6852.00    0.39759   0.43774    0.026
 6853.00    0.43555   0.43696    0.026
 6854.00    0.46084   0.43623    0.026
 6855.00    0.42886   0.43600    0.026
 6856.00    0.40521   0.43583    0.026
 6857.00    0.41236   0.43562    0.026
 6858.00    0.41679   0.43589    0.025
 6859.00    0.41279   0.43634    0.026
 6860.00    0.41272   0.43654    0.026
 6861.00    0.42301   0.43688    0.026
 6862.00    0.43326   0.43738    0.027
 6863.00    0.44340   0.43753    0.027
 6864.00    0.43273   0.43738    0.028
 6865.00    0.38131   0.43741    0.028
 6866.00    0.36517   0.43736    0.029
 6867.00    0.40923   0.43703    0.029
 6868.00    0.43588   0.43706    0.030
 6869.00    0.43650   0.43750    0.029
 6870.00    0.43436   0.43775    0.029
 6871.00    0.42859   0.43816    0.028
 6872.00    0.42357   0.43902    0.028
 6873.00    0.41942   0.43980    0.027
 6874.00    0.43140   0.44032    0.026
 6875.00    0.45985   0.44081    0.026
 6876.00    0.46928   0.44114    0.026
 6877.00    0.46160   0.44113    0.026
 6878.00    0.45991   0.44086    0.027
 6879.00    0.46297   0.44061    0.026
 6880.00    0.45909   0.44049    0.026
 6881.00    0.45037   0.44042    0.027
 6882.00    0.48713   0.44057    0.027
 6883.00    0.55172   0.44124    0.027
 6884.00    0.55792   0.44209    0.028
 6885.00    0.53294   0.44280    0.028
 6886.00    0.51675   0.44377    0.028
 6887.00    0.50465   0.44475    0.029
 6888.00    0.47437   0.44524    0.029
 6889.00    0.43683   0.44564    0.029
 6890.00    0.41709   0.44599    0.029
 6891.00    0.40343   0.44594    0.029
 6892.00    0.41951   0.44574    0.029
 6893.00    0.44412   0.44565    0.029
 6894.00    0.45712   0.44553    0.028
 6895.00    0.46737   0.44533    0.028
 6896.00    0.47634   0.44525    0.028
 6897.00    0.48508   0.44546    0.028
 6898.00    0.47593   0.44574    0.028
 6899.00    0.46414   0.44596    0.028
 6900.00    0.49288   0.44644    0.028
 6901.00    0.52599   0.44709    0.028
 6902.00    0.50225   0.44763    0.028
 6903.00    0.47450   0.44806    0.028
 6904.00    0.44419   0.44842    0.028
 6905.00    0.41379   0.44868    0.028
 6906.00    0.46587   0.44860    0.028
 6907.00    0.51648   0.44822    0.028
 6908.00    0.50707   0.44782    0.029
 6909.00    0.49944   0.44716    0.030
 6910.00    0.52012   0.44635    0.030
 6911.00    0.53726   0.44586    0.030
 6912.00    0.51899   0.44537    0.030
 6913.00    0.50244   0.44490    0.029
 6914.00    0.49834   0.44494    0.030
 6915.00    0.50275   0.44498    0.030
 6916.00    0.55413   0.44489    0.029
 6917.00    0.58596   0.44500    0.029
 6918.00    0.53163   0.44496    0.029
 6919.00    0.48154   0.44469    0.029
 6920.00    0.44682   0.44440    0.028
 6921.00    0.43075   0.44413    0.028
 6922.00    0.47137   0.44389    0.028
 6923.00    0.49921   0.44376    0.028
 6924.00    0.49397   0.44385    0.028
 6925.00    0.49778   0.44410    0.028
 6926.00    0.52169   0.44448    0.028
 6927.00    0.52360   0.44494    0.028
 6928.00    0.48311   0.44532    0.029
 6929.00    0.46404   0.44562    0.029
 6930.00    0.48096   0.44603    0.030
 6931.00    0.48707   0.44639    0.030
 6932.00    0.47724   0.44657    0.030
 6933.00    0.47921   0.44699    0.031
 6934.00    0.49643   0.44743    0.031
 6935.00    0.48462   0.44764    0.031
 6936.00    0.43968   0.44788    0.031
 6937.00    0.44171   0.44799    0.030
 6938.00    0.49099   0.44787    0.030
 6939.00    0.49627   0.44772    0.030
 6940.00    0.46250   0.44741    0.029
 6941.00    0.44851   0.44700    0.029
 6942.00    0.44999   0.44687    0.030
 6943.00    0.44980   0.44678    0.029
 6944.00    0.44846   0.44659    0.028
 6945.00    0.43846   0.44677    0.028
 6946.00    0.42324   0.44695    0.028
 6947.00    0.44558   0.44681    0.028
 6948.00    0.48768   0.44685    0.028
 6949.00    0.47323   0.44688    0.029
 6950.00    0.43296   0.44669    0.029
 6951.00    0.43512   0.44682    0.030
 6952.00    0.45393   0.44719    0.030
 6953.00    0.47475   0.44751    0.030
 6954.00    0.49624   0.44811    0.030
 6955.00    0.50727   0.44890    0.031
 6956.00    0.51535   0.44959    0.031
 6957.00    0.52137   0.45026    0.031
 6958.00    0.52690   0.45085    0.031
 6959.00    0.51813   0.45135    0.031
 6960.00    0.50669   0.45181    0.031
 6961.00    0.48535   0.45207    0.030
 6962.00    0.46260   0.45228    0.030
 6963.00    0.47422   0.45256    0.029
 6964.00    0.48939   0.45264    0.029
 6965.00    0.48334   0.45260    0.029
 6966.00    0.47586   0.45254    0.029
 6967.00    0.45179   0.45223    0.029
 6968.00    0.42718   0.45167    0.028
 6969.00    0.40295   0.45092    0.028
 6970.00    0.38028   0.44973    0.028
 6971.00    0.40518   0.44826    0.029
 6972.00    0.42969   0.44684    0.030
 6973.00    0.44853   0.44528    0.030
 6974.00    0.46696   0.44364    0.030
 6975.00    0.48149   0.44273    0.031
 6976.00    0.49151   0.44258    0.031
 6977.00    0.47011   0.44262    0.031
 6978.00    0.45342   0.44343    0.031
 6979.00    0.46195   0.44513    0.031
 6980.00    0.46186   0.44667    0.031
 6981.00    0.42469   0.44812    0.030
 6982.00    0.38929   0.44957    0.030
 6983.00    0.36024   0.45048    0.030
 6984.00    0.34356   0.45092    0.029
 6985.00    0.36384   0.45109    0.029
 6986.00    0.39196   0.45100    0.029
 6987.00    0.44003   0.45079    0.029
 6988.00    0.46641   0.45059    0.029
 6989.00    0.44536   0.45042    0.029
 6990.00    0.43507   0.45029    0.029
 6991.00    0.44517   0.45024    0.030
 6992.00    0.44220   0.45011    0.030
 6993.00    0.41758   0.44983    0.030
 6994.00    0.41348   0.44962    0.030
 6995.00    0.43916   0.44928    0.030
 6996.00    0.45211   0.44883    0.030
 6997.00    0.44881   0.44854    0.030
 6998.00    0.46200   0.44826    0.031
 6999.00    0.49375   0.44796    0.031
 7000.00    0.49355   0.44780    0.031
 7001.00    0.46165   0.44783    0.031
 7002.00    0.44116   0.44793    0.031
 7003.00    0.43065   0.44795    0.030
 7004.00    0.42342   0.44812    0.030
 7005.00    0.41873   0.44846    0.030
 7006.00    0.40850   0.44858    0.030
 7007.00    0.39453   0.44851    0.030
 7008.00    0.39986   0.44849    0.030
 7009.00    0.41666   0.44821    0.029
 7010.00    0.43830   0.44766    0.029
 7011.00    0.46245   0.44715    0.030
 7012.00    0.45424   0.44660    0.030
 7013.00    0.43151   0.44633    0.029
 7014.00    0.42562   0.44637    0.030
 7015.00    0.42623   0.44637    0.030
 7016.00    0.42900   0.44677    0.031
 7017.00    0.43247   0.44746    0.031
 7018.00    0.42854   0.44777    0.031
 7019.00    0.42257   0.44794    0.031
 7020.00    0.42185   0.44819    0.031
 7021.00    0.42232   0.44830    0.032
 7022.00    0.42981   0.44834    0.032
 7023.00    0.43858   0.44849    0.032
 7024.00    0.44068   0.44892    0.032
 7025.00    0.44184   0.44954    0.031
 7026.00    0.43467   0.45015    0.030
 7027.00    0.42666   0.45082    0.030
 7028.00    0.39690   0.45150    0.029
 7029.00    0.36579   0.45204    0.029
 7030.00    0.41221   0.45237    0.029
 7031.00    0.46045   0.45251    0.029
 7032.00    0.40744   0.45274    0.030
 7033.00    0.35846   0.45298    0.031
 7034.00    0.42035   0.45308    0.030
 7035.00    0.47775   0.45372    0.030
 7036.00    0.47223   0.45484    0.031
 7037.00    0.46578   0.45573    0.031
 7038.00    0.45084   0.45703    0.032
 7039.00    0.43576   0.45883    0.032
 7040.00    0.41973   0.46010    0.032
 7041.00    0.40189   0.46107    0.032
 7042.00    0.37458   0.46208    0.031
 7043.00    0.35891   0.46245    0.031
 7044.00    0.39219   0.46214    0.031
 7045.00    0.42608   0.46141    0.031
 7046.00    0.46211   0.45998    0.031
 7047.00    0.47675   0.45783    0.031
 7048.00    0.42881   0.45503    0.031
 7049.00    0.40236   0.45179    0.030
 7050.00    0.42959   0.44837   -2.000
 7051.00    0.45350   0.44479   -2.000
 7052.00    0.47029   0.44151   -2.000
 7053.00    0.47228   0.43870   -2.000
 7054.00    0.44661   0.43623   -2.000
 7055.00    0.44746   0.43427   -2.000
 7056.00    0.49157   0.43273   -2.000
 7057.00    0.49375   0.43157   -2.000
 7058.00    0.43599   0.43058   -2.000
 7059.00    0.40971   0.42968   -2.000
 7060.00    0.42306   0.42921   -2.000
 7061.00    0.43445   0.42874   -2.000
 7062.00    0.44366   0.42821   -2.000
 7063.00    0.48090   0.42829   -2.000
 7064.00    0.54557   0.42842   -2.000
 7065.00    0.53423   0.42862   -2.000
 7066.00    0.45734   0.42957   -2.000
 7067.00    0.41106   0.43061   -2.000
 7068.00    0.38803   0.43167   -2.000
 7069.00    0.37555   0.43317   -2.000
 7070.00    0.37013   0.43456   -2.000
 7071.00    0.41273   0.43557   -2.000
 7072.00    0.48340   0.43656   -2.000
 7073.00    0.51380   0.43726   -2.000
 7074.00    0.52366   0.43747   -2.000
 7075.00    0.48754   0.43735   -2.000
 7076.00    0.43113   0.43688   -2.000
 7077.00    0.39925   0.43582   -2.000
 7078.00    0.37667   0.43427   -2.000
 7079.00    0.38319   0.43237   -2.000
 7080.00    0.39908   0.42983   -2.000
 7081.00    0.45287   0.42702   -2.000
 7082.00    0.51687   0.42436   -2.000
 7083.00    0.52748   0.42133   -2.000
 7084.00    0.52629   0.41851   -2.000
 7085.00    0.47017   0.41648   -2.000
 7086.00    0.40440   0.41442   -2.000
 7087.00    0.40472   0.41280   -2.000
 7088.00    0.41390   0.41202   -2.000
 7089.00    0.44905   0.41136   -2.000
 7090.00    0.48667   0.41109   -2.000
 7091.00    0.49683   0.41130   -2.000
 7092.00    0.50539   0.41163   -2.000
 7093.00    0.46749   0.41214   -2.000
 7094.00    0.42872   0.41280   -2.000
 7095.00    0.42815   0.41363   -2.000
 7096.00    0.42517   0.41434   -2.000
 7097.00    0.36239   0.41499   -2.000
 7098.00    0.30392   0.41579   -2.000
 7099.00    0.30262   0.41627   -2.000
 7100.00    0.29957   0.41669   -2.000
 7101.00    0.28095   0.41724   -2.000
 7102.00    0.26939   0.41749   -2.000
 7103.00    0.30394   0.41763   -2.000
 7104.00    0.33509   0.41789   -2.000
 7105.00    0.34888   0.41796   -2.000
 7106.00    0.35010   0.41789   -2.000
 7107.00    0.29952   0.41791   -2.000
 7108.00    0.27942   0.41806   -2.000
 7109.00    0.36322   0.41832   -2.000
 7110.00    0.43071   0.41866   -2.000
 7111.00    0.45134   0.41919   -2.000
 7112.00    0.46891   0.41996   -2.000
 7113.00    0.47899   0.42062   -2.000
 7114.00    0.47746   0.42111   -2.000
 7115.00    0.45136   0.42150   -2.000
 7116.00    0.42896   0.42164   -2.000
 7117.00    0.41336   0.42140   -2.000
 7118.00    0.39483   0.42063   -2.000
 7119.00    0.37160   0.41963   -2.000
 7120.00    0.39339   0.41841   -2.000
 7121.00    0.47864   0.41655   -2.000
 7122.00    0.50240   0.41460   -2.000
 7123.00    0.44988   0.41281   -2.000
 7124.00    0.38906   0.41082   -2.000
 7125.00    0.31917   0.40903   -2.000
 7126.00    0.35786   0.40771   -2.000
 7127.00    0.50129   0.40679   -2.000
 7128.00    0.50595   0.40633   -2.000
 7129.00    0.39260   0.40625   -2.000
 7130.00    0.35036   0.40670   -2.000
 7131.00    0.36135   0.40744   -2.000
 7132.00    0.32987   0.40815   -2.000
 7133.00    0.27044   0.40917   -2.000
 7134.00    0.29872   0.41010   -2.000
 7135.00    0.37752   0.41070   -2.000
 7136.00    0.42460   0.41155   -2.000
 7137.00    0.45576   0.41223   -2.000
 7138.00    0.43764   0.41248   -2.000
 7139.00    0.39811   0.41296   -2.000
 7140.00    0.34724   0.41331   -2.000
 7141.00    0.29213   0.41312   -2.000
 7142.00    0.29695   0.41319   -2.000
 7143.00    0.32069   0.41323   -2.000
 7144.00    0.35217   0.41284   -2.000
 7145.00    0.38568   0.41309   -2.000
 7146.00    0.38531   0.41368   -2.000
 7147.00    0.37762   0.41407   -2.000
 7148.00    0.36649   0.41518   -2.000
 7149.00    0.35477   0.41674   -2.000
 7150.00    0.34507   0.41803   -2.000
 7151.00    0.33564   0.41936   -2.000
 7152.00    0.31082   0.42080   -2.000
 7153.00    0.28460   0.42176   -2.000
 7154.00    0.27117   0.42213   -2.000
 7155.00    0.25844   0.42234   -2.000
 7156.00    0.39093   0.42191   -2.000
 7157.00    0.52563   0.42097   -2.000
 7158.00    0.58401   0.41997   -2.000
 7159.00    0.62988   0.41837   -2.000
 7160.00    0.39179   0.41688   -2.000
 7161.00    0.16559   0.41575   -2.000
 7162.00    0.08903   0.41451   -2.000
 7163.00    0.02627   0.41389   -2.000
 7164.00    0.08111   0.41384   -2.000
 7165.00    0.18505   0.41399   -2.000
 7166.00    0.60015   0.41459   -2.000
 7167.00    0.88390   0.41540   -2.000
 7168.00    0.51549   0.41618   -2.000
 7169.00    0.23073   0.41684   -2.000
 7170.00    0.28270   0.41737   -2.000
 7171.00    0.32076   0.41767   -2.000
 7172.00    0.31233   0.41756   -2.000
 7173.00    0.32290   0.41730   -2.000
 7174.00    0.38706   0.41699   -2.000
 7175.00    0.44312   0.41640   -2.000
 7176.00    0.47964   0.41586   -2.000
 7177.00    0.49193   0.41543   -2.000
 7178.00    0.45379   0.41497   -2.000
 7179.00    0.41179   0.41471   -2.000
 7180.00    0.36280   0.41429   -2.000
 7181.00    0.31956   0.41385   -2.000
 7182.00    0.28542   0.41356   -2.000
 7183.00    0.30107   0.41283   -2.000
 7184.00    0.38589   0.41223   -2.000
 7185.00    0.42738   0.41188   -2.000
 7186.00    0.41589   0.41139   -2.000
 7187.00    0.41013   0.41141   -2.000
 7188.00    0.41056   0.41170   -2.000
 7189.00    0.37056   0.41200   -2.000
 7190.00    0.29214   0.41263   -2.000
 7191.00    0.32193   0.41326   -2.000
 7192.00    0.44244   0.41368   -2.000
 7193.00    0.48452   0.41396   -2.000
 7194.00    0.46869   0.41420   -2.000
 7195.00    0.44312   0.41425   -2.000
 7196.00    0.41123   0.41408   -2.000
 7197.00    0.40798   0.41392   -2.000
 7198.00    0.42096   0.41370   -2.000
 7199.00    0.33054   0.41341   -2.000
 7200.00    0.18905   0.41293   -2.000
 7201.00    0.04804   0.41250   -2.000
 7202.00   -0.09276   0.41206   -2.000
 7203.00    0.00600   0.41140   -2.000
 7204.00    0.19240   0.41119   -2.000
 7205.00    0.31051   0.41109   -2.000
 7206.00    0.40745   0.41096   -2.000
 7207.00    0.43354   0.41162   -2.000
 7208.00    0.44135   0.41236   -2.000
 7209.00    0.46389   0.41301   -2.000
 7210.00    0.48953   0.41423   -2.000
 7211.00    0.37367   0.41536   -2.000
 7212.00    0.23431   0.41622   -2.000
 7213.00    0.28301   0.41732   -2.000
 7214.00    0.35520   0.41843   -2.000
 7215.00    0.38531   0.41922   -2.000
 7216.00    0.41177   0.42000   -2.000
 7217.00    0.49869   0.42091   -2.000
 7218.00    0.58867   0.42166   -2.000
