###################################################################
## OUTPUT of StarlightChains_v04.for    [Cid@UFSC - 01/Apr/2007] ##
###################################################################

## Some input info
KUG0210-078._41_31.txt                   [arq_obs]
Base.CB07.vall.4m                        [arq_base]
Masks.EmLines.NEW.gm                     [arq_masks]
StCv04.C11.config                        [arq_config]
   66                                    [N_base]
    0                                    [N_YAV_components = # of components with extra extinction!]
    0                                    [i_FitPowerLaw (1/0 = Yes/No)]
-9.99                                    [alpha_PowerLaw]
CCM                                      [red_law_option]
 1.458241                                [q_norm = A(l_norm)/A(V)]

## (Re)Sampling Parameters
 3741.00                                 [l_ini (A)]
 7218.00                                 [l_fin (A)]
    1.00                                 [dl    (A)]     (OBS: dl_cushion =    50.00 A)

## Normalization info
 4020.00                                 [l_norm (A) - for base]
 4010.00                                 [llow_norm (A) - window for f_obs]
 4060.00                                 [lupp_norm (A) - window for f_obs]
1.069627E-17                             [fobs_norm (in input units)]

## S/N
 3691.00                                 [llow_SN (A) - window for S/N]
 7268.00                                 [lupp_SN (A) - window for S/N]
   4.096                                 [S/N in S/N window]
   3.324                                 [S/N in norm. window]
   0.017                                 [S/N_err in S/N window]
   0.014                                 [S/N_err in norm. window]
  1.0000                                 [fscale_chi2]

## etc...
    -2007744                             [idum_orig]
  2397                                   [NOl_eff]
  2385                                   [Nl_eff]
    12    NSIGMA                         [Ntot_cliped & clip_method]
  1060290                                [Nglobal_steps]
   7                                     [N_chains]
  42                                     [NEX0s_base = N_base in EX0s-fits]
 0   0   1       12   2.0   1.539E+03    [Clip-Bug, RC-Crash & Burn-In warning-flags, n_censored_weights, wei_nsig_threshold & wei_limit]
    46     45.089     43.991      1.097  [idt_all, wdt_TotTime, wdt_UsrTime & wdt_SysTime (sec)]

## Synthesis Results - Best model ##

 1.90810E-05                             [chi2/Nl_eff]
    22.99793                             [adev (%)]

   130.00000                             [sum-of-x (%)]
 3.87056E-18                             [Flux_tot (units of input spectrum!)]
 4.31124E-13                             [Mini_tot (???)]
 2.16696E-13                             [Mcor_tot (???)]

-171.57                                  [v0_min  (km/s)]
 357.20                                  [vd_min  (km/s)]
-0.9522                                  [AV_min  (mag)]
 0.0000                                  [YAV_min (mag)]

# j     x_j(%)      Mini_j(%)     Mcor_j(%)     age_j(yr)     Z_j      (L/M)_j    YAV?  Mstars   component_j        a/Fe...       SSP_chi2r SSP_adev(%)   SSP_AV   SSP_x(%)
  1      0.0000     0.0000E+00    0.0000E+00    1.000000E+06  0.00400  1.094E-02    0   1.0000   age020_m42            0.0000     3.0985E-05    34.2756   3.3038   107.2136
  2      0.0000     0.0000E+00    0.0000E+00    3.160000E+06  0.00400  4.007E-02    0   0.9999   age045_m42            0.0000     2.8543E-05    32.5660   2.5410   116.2624
  3      0.0000     0.0000E+00    0.0000E+00    5.010000E+06  0.00400  2.539E-02    0   0.9488   age055_m42            0.0000     2.9759E-05    33.4796   2.8781   112.6670
  4      0.0000     0.0000E+00    0.0000E+00    6.610000E+06  0.00400  2.620E-02    0   0.9220   age061_m42            0.0000     2.8783E-05    32.6438   2.4679   116.5167
  5      0.0000     0.0000E+00    0.0000E+00    1.000000E+07  0.00400  1.322E-02    0   0.8862   age070_m42            0.0000     3.1056E-05    34.7261   2.2217   117.4389
  6      0.0000     0.0000E+00    0.0000E+00    1.445000E+07  0.00400  7.883E-03    0   0.8571   age078_m42            0.0000     3.1427E-05    35.0151   2.5520   114.2793
  7      0.0000     0.0000E+00    0.0000E+00    2.512000E+07  0.00400  5.251E-03    0   0.8174   age090_m42            0.0000     3.1371E-05    35.0316   2.0961   117.9388
  8      0.0347     6.5754E-05    1.0271E-04    4.000000E+07  0.00400  3.649E-03    0   0.7851   age104_m42            0.0000     3.0580E-05    34.4723   1.8595   119.3731
  9      0.0000     0.0000E+00    0.0000E+00    5.500000E+07  0.00400  3.098E-03    0   0.7629   age110_m42            0.0000     2.9288E-05    33.1065   1.9897   120.4446
 10      0.0000     0.0000E+00    0.0000E+00    1.015200E+08  0.00400  2.228E-03    0   0.7207   age116_m42            0.0000     2.8600E-05    32.1201   1.9942   121.3810
 11      0.2372     1.4986E-03    1.9821E-03    2.861200E+08  0.00400  1.093E-03    0   0.6648   age125_m42            0.0000     2.8903E-05    32.2451   1.4242   124.8902
 12      0.0000     0.0000E+00    0.0000E+00    5.088000E+08  0.00400  6.597E-04    0   0.6365   age130_m42            0.0000     2.7545E-05    30.6283   1.3895   127.1183
 13      0.0000     0.0000E+00    0.0000E+00    1.434000E+09  0.00400  2.132E-04    0   0.5798   age139_m42            0.0000     2.5044E-05    29.5589   0.4089   130.1709
 14      0.0000     0.0000E+00    0.0000E+00    4.250000E+09  0.00400  5.895E-05    0   0.5377   age158_m42            0.0000     2.3035E-05    28.9806  -0.0409   125.4412
 15      5.1421     1.0117E+00    1.0491E+00    7.500000E+09  0.00400  3.510E-05    0   0.5212   age171_m42            0.0000     2.2264E-05    28.2823  -0.2384   124.9936
 16      0.5944     2.0474E-01    2.0506E-01    1.300000E+10  0.00400  2.005E-05    0   0.5034   age193_m42            0.0000     2.1686E-05    27.6437  -0.4136   124.7046
 17      0.0000     0.0000E+00    0.0000E+00    1.800000E+10  0.00400  1.525E-05    0   0.4967   age213_m42            0.0000     2.1893E-05    27.9026  -0.4312   123.9217
 18      0.0000     0.0000E+00    0.0000E+00    1.000000E+06  0.00800  1.238E-02    0   1.0000   age020_m52            0.0000     3.1051E-05    34.3115   3.3016   107.3788
 19      0.0000     0.0000E+00    0.0000E+00    3.160000E+06  0.00800  3.074E-02    0   0.9966   age045_m52            0.0000     3.0876E-05    34.2124   3.2213   108.5065
 20      0.0000     0.0000E+00    0.0000E+00    5.010000E+06  0.00800  2.668E-02    0   0.9443   age055_m52            0.0000     3.0183E-05    33.8586   2.9681   111.3674
 21      0.0000     0.0000E+00    0.0000E+00    6.610000E+06  0.00800  2.136E-02    0   0.9177   age061_m52            0.0000     3.0048E-05    34.6217   1.7274   118.5514
 22      0.0000     0.0000E+00    0.0000E+00    1.000000E+07  0.00800  1.215E-02    0   0.8827   age070_m52            0.0000     3.2195E-05    35.6866   2.4140   116.5516
 23      0.0000     0.0000E+00    0.0000E+00    1.445000E+07  0.00800  8.717E-03    0   0.8552   age078_m52            0.0000     3.1295E-05    34.9722   2.5159   115.9636
 24      0.0000     0.0000E+00    0.0000E+00    2.512000E+07  0.00800  5.592E-03    0   0.8162   age090_m52            0.0000     3.1410E-05    35.1063   2.1573   119.4386
 25      0.0000     0.0000E+00    0.0000E+00    4.000000E+07  0.00800  3.896E-03    0   0.7841   age104_m52            0.0000     3.0393E-05    34.2764   2.0540   121.0633
 26      0.0000     0.0000E+00    0.0000E+00    1.015200E+08  0.00800  2.148E-03    0   0.7226   age116_m52            0.0000     2.8973E-05    32.8199   1.9696   121.9350
 27      0.0000     0.0000E+00    0.0000E+00    2.861200E+08  0.00800  9.925E-04    0   0.6683   age125_m52            0.0000     2.7519E-05    30.6491   1.4544   128.3517
 28      0.0000     0.0000E+00    0.0000E+00    9.047900E+08  0.00800  3.141E-04    0   0.6138   age135_m52            0.0000     2.3996E-05    28.3699   0.6176   135.5656
 29      0.0000     0.0000E+00    0.0000E+00    1.434000E+09  0.00800  1.719E-04    0   0.5853   age139_m52            0.0000     2.3282E-05    28.8670   0.0482   132.1235
 30      0.0000     0.0000E+00    0.0000E+00    2.500000E+09  0.00800  7.872E-05    0   0.5600   age150_m52            0.0000     2.1539E-05    27.3957  -0.2392   129.4876
 31      3.7016     5.8956E-01    6.3644E-01    4.250000E+09  0.00800  4.336E-05    0   0.5426   age158_m52            0.0000     2.1476E-05    27.4056  -0.2540   128.2228
 32     23.6253     5.1648E+00    5.4656E+00    6.250000E+09  0.00800  3.159E-05    0   0.5319   age166_m52            0.0000     2.0553E-05    26.1624  -0.4760   129.1098
 33      0.0967     4.9071E-02    4.9527E-02    1.300000E+10  0.00800  1.361E-05    0   0.5073   age193_m52            0.0000     1.9678E-05    24.5981  -0.9706   129.4257
 34      0.0000     0.0000E+00    0.0000E+00    1.800000E+10  0.00800  9.886E-06    0   0.4990   age213_m52            0.0000     1.9284E-05    24.0961  -1.0000   126.3835
 35      0.0000     0.0000E+00    0.0000E+00    1.000000E+06  0.02000  1.544E-02    0   1.0000   age020_m62            0.0000     3.1198E-05    34.3858   3.2993   107.5641
 36      0.0000     0.0000E+00    0.0000E+00    3.160000E+06  0.02000  3.762E-02    0   0.9858   age045_m62            0.0000     3.1164E-05    34.3268   3.2337   108.6915
 37      0.0000     0.0000E+00    0.0000E+00    5.010000E+06  0.02000  3.296E-02    0   0.9342   age055_m62            0.0000     2.9165E-05    32.9042   2.8256   114.6443
 38      0.0000     0.0000E+00    0.0000E+00    8.710000E+06  0.02000  1.154E-02    0   0.8861   age067_m62            0.0000     3.9178E-05    40.5273   1.9349   116.4771
 39      0.0000     0.0000E+00    0.0000E+00    1.445000E+07  0.02000  7.663E-03    0   0.8472   age078_m62            0.0000     3.3634E-05    36.9982   2.0783   118.3211
 40      0.0000     0.0000E+00    0.0000E+00    2.512000E+07  0.02000  4.532E-03    0   0.8099   age090_m62            0.0000     3.3967E-05    37.1126   2.0673   118.0896
 41      0.0000     0.0000E+00    0.0000E+00    5.500000E+07  0.02000  2.733E-03    0   0.7595   age110_m62            0.0000     3.0543E-05    34.3874   2.0413   120.0028
 42      2.9729     1.4997E-02    2.0841E-02    1.609000E+08  0.02000  1.369E-03    0   0.6985   age120_m62            0.0000     2.8727E-05    31.8684   1.8381   125.3099
 43      0.0000     0.0000E+00    0.0000E+00    2.861200E+08  0.02000  9.013E-04    0   0.6714   age125_m62            0.0000     2.7737E-05    30.2323   1.5639   130.1372
 44      0.0476     6.5347E-04    8.3843E-04    5.088000E+08  0.02000  5.028E-04    0   0.6449   age130_m62            0.0000     2.5099E-05    27.9435   1.1478   135.4998
 45      0.0000     0.0000E+00    0.0000E+00    9.047900E+08  0.02000  2.428E-04    0   0.6179   age135_m62            0.0000     2.2683E-05    27.6538   0.5516   135.0642
 46      0.0000     0.0000E+00    0.0000E+00    1.434000E+09  0.02000  1.263E-04    0   0.5908   age139_m62            0.0000     2.1858E-05    27.6504   0.1104   132.8636
 47      0.0000     0.0000E+00    0.0000E+00    2.500000E+09  0.02000  5.985E-05    0   0.5673   age150_m62            0.0000     2.0628E-05    26.2951  -0.2764   131.9306
 48      0.4285     9.0464E-02    9.8414E-02    4.250000E+09  0.02000  3.271E-05    0   0.5468   age158_m62            0.0000     1.9572E-05    24.4621  -0.6111   132.1392
 49     16.0741     8.1624E+00    8.3909E+00    1.000000E+10  0.02000  1.360E-05    0   0.5167   age181_m62            0.0000     1.8780E-05    22.4631  -1.0000   133.4182
 50     36.8374     3.5710E+01    3.5616E+01    1.800000E+10  0.02000  7.124E-06    0   0.5013   age213_m62            0.0000     1.9582E-05    22.9465  -1.0000   125.2250
 51      0.0000     0.0000E+00    0.0000E+00    1.000000E+06  0.05000  2.592E-02    0   0.9998   age020_m72            0.0000     3.1713E-05    34.7002   3.2956   107.3700
 52      0.0000     0.0000E+00    0.0000E+00    3.160000E+06  0.05000  4.845E-02    0   0.9577   age045_m72            0.0000     3.0225E-05    33.6941   3.1007   110.8330
 53      0.2306     5.1835E-05    9.4330E-05    5.010000E+06  0.05000  3.072E-02    0   0.9147   age055_m72            0.0000     3.2691E-05    35.9929   2.6489   114.3334
 54      0.0000     0.0000E+00    0.0000E+00    6.610000E+06  0.05000  1.455E-02    0   0.8877   age061_m72            0.0000     4.3583E-05    42.5373   1.9851   116.5081
 55      0.0000     0.0000E+00    0.0000E+00    1.000000E+07  0.05000  9.074E-03    0   0.8524   age070_m72            0.0000     3.3234E-05    36.0082   2.8174   114.2041
 56      0.0000     0.0000E+00    0.0000E+00    2.512000E+07  0.05000  4.250E-03    0   0.7902   age090_m72            0.0000     3.2145E-05    35.4094   2.5114   116.9938
 57      0.0000     0.0000E+00    0.0000E+00    4.000000E+07  0.05000  3.087E-03    0   0.7618   age104_m72            0.0000     3.2276E-05    35.3686   2.2816   119.0832
 58      3.8732     1.5734E-02    2.2213E-02    1.015200E+08  0.05000  1.700E-03    0   0.7096   age116_m72            0.0000     2.9838E-05    32.8913   1.9942   124.1094
 59      0.0000     0.0000E+00    0.0000E+00    2.861200E+08  0.05000  7.384E-04    0   0.6633   age125_m72            0.0000     2.6393E-05    29.0027   1.4118   132.9241
 60      0.0000     0.0000E+00    0.0000E+00    5.088000E+08  0.05000  3.819E-04    0   0.6372   age130_m72            0.0000     2.3589E-05    27.6336   0.8903   136.5134
 61      0.0000     0.0000E+00    0.0000E+00    9.047900E+08  0.05000  1.676E-04    0   0.6110   age135_m72            0.0000     2.0995E-05    26.2939   0.1719   135.0595
 62      0.0000     0.0000E+00    0.0000E+00    1.434000E+09  0.05000  8.837E-05    0   0.5874   age139_m72            0.0000     2.0594E-05    25.9994  -0.2871   134.3634
 63      0.0000     0.0000E+00    0.0000E+00    2.500000E+09  0.05000  4.233E-05    0   0.5598   age150_m72            0.0000     1.9147E-05    23.8086  -0.6269   134.0225
 64      0.0000     0.0000E+00    0.0000E+00    6.250000E+09  0.05000  1.435E-05    0   0.5249   age166_m72            0.0000     1.8732E-05    22.7226  -1.0000   129.6259
 65     13.0981     1.3888E+01    1.3915E+01    1.300000E+10  0.05000  6.513E-06    0   0.5036   age193_m72            0.0000     2.1668E-05    24.2364  -1.0000   120.7843
 66     23.0056     3.5095E+01    3.4528E+01    1.800000E+10  0.05000  4.527E-06    0   0.4945   age213_m72            0.0000     2.4960E-05    25.5634  -1.0000   114.5074


## Synthesis Results - Average & Chains ##

# j      x_j: min, <> & last-chain-values for 1 ...  7 chains
  1      0.0000      1.6822      0.6482      1.2875      3.8393      0.0000      0.7157      0.0000      1.9342
  2      0.0000      1.0630      0.5266      0.0000      0.0000      0.0000      1.4955      2.6959      1.8719
  3      0.0000      1.7576      0.7160      0.0000      0.0000      1.3754      1.6002      2.8351      3.2104
  4      0.0000      1.3389      8.1115      3.9180      1.0962      0.0000      0.0000      0.3159      0.7384
  5      0.0000      1.0679      2.5687      1.0255      0.0000      0.0456      3.2480      0.0000      0.1167
  6      0.0000      1.1410      0.3065      1.9343      1.5093      3.4898      0.7295      3.3634      1.2885
  7      0.0000      1.1318      2.9151      1.0164      0.5922      1.0164      0.0000      1.9635      0.6941
  8      0.0347      1.4067      0.8416      0.2327      0.8966      1.1967      3.0012      0.0000      0.0000
  9      0.0000      1.5380      1.1505      1.6209      0.0000      0.0000      0.1336      3.1158      0.8846
 10      0.0000      1.2660      0.0879      0.0000      2.2082      4.2729      0.0000      0.0000      2.0634
 11      0.2372      1.5416      0.0000      2.1445      1.0822      2.1407      1.0185      3.8206      1.7286
 12      0.0000      1.1185      0.1934      0.0000      0.6875      0.0000      4.9878      0.0000      0.0000
 13      0.0000      1.6179      0.9697      1.8040      3.8090      0.6560      0.0000      1.7716      0.0000
 14      0.0000      1.4485      3.7069      8.2179      1.9868      1.6945      0.8218      1.5245      3.1505
 15      5.1421      1.5723      1.5842      2.5185      1.5778      3.4445     10.1805      0.5282      0.0000
 16      0.5944      1.4501      1.7929      2.5989      2.1254      3.1909      3.2941      2.1749      0.0000
 17      0.0000      0.9150      0.0000      0.9515      0.8752      2.7474      0.3233      0.6480      0.1186
 18      0.0000      1.2862      0.1015      5.5677      2.5671      0.1184      0.0000      1.1943      0.0239
 19      0.0000      1.5772      2.7183      1.2793      1.3630      4.9587      2.8696      0.0000      1.8856
 20      0.0000      1.3731      0.0000      2.6072      0.3949      3.3770      1.6720      5.4206      2.6944
 21      0.0000      1.3548      0.0000      0.0000      1.6542      2.7755      1.0216      1.2954      0.0000
 22      0.0000      1.6771      0.6813      2.9191      1.3461      0.0000      0.8260      0.9060      1.8062
 23      0.0000      1.7784      3.1321      0.0000      0.9313      0.3635      1.8178      3.4815      1.7586
 24      0.0000      1.6800      1.3924      2.5962      0.0000      0.0000      1.5092      0.2989      2.0894
 25      0.0000      1.4388      0.7617      3.2670      5.0556      0.8725      1.1831      0.3561      5.0023
 26      0.0000      1.6225      0.0000      0.5551      1.2829      1.1614      0.0000      0.4432      1.3270
 27      0.0000      1.1928      1.4946      0.6742      1.4499      1.7141      1.6099      0.0000      3.1134
 28      0.0000      0.9540      4.0611      0.3573      0.0000      3.3481      2.2320      2.1527      0.3495
 29      0.0000      1.1540      0.3554      0.0000      0.8489      0.0000      1.7614      2.9081      0.0000
 30      0.0000      1.5117      1.7147      2.5576      0.0000      0.2804      0.0000      0.0000      0.5430
 31      3.7016      1.4015      0.0000      0.0000      0.7578      6.8816      2.0684      0.6605      0.0000
 32     23.6253      1.4187      0.0000      1.2923      0.8521      2.6396      0.7359      0.0000      1.6071
 33      0.0967      1.5953      6.7801      0.0000      0.0000      1.3973      0.9328      4.9500      1.8619
 34      0.0000      1.6038      1.5519      3.5672      0.0355      6.0817      2.9498      1.9511      5.2458
 35      0.0000      1.1640      2.6709      1.4224      1.4688      3.2853      0.0000      0.0000      0.0000
 36      0.0000      2.5993      0.5276      2.3204      2.5562      2.0667      0.0000      3.0966      0.0000
 37      0.0000      1.9550      9.6920      0.0000      0.8746      1.9885      1.4241      0.0000      2.7241
 38      0.0000      4.7394      3.7604      5.6614      5.0391      4.7917      6.7463      2.2420      3.5073
 39      0.0000      1.6360      0.8822      1.2964      0.7134      0.0854      2.7392      0.0000      7.0039
 40      0.0000      1.3094      2.8170      0.4469      0.4013      0.0000      0.0877      0.0000      0.2533
 41      0.0000      1.5429      3.0534      0.1917      2.4783      0.7878      1.7598      0.0000      0.5612
 42      2.9729      1.4429      1.4619      0.0000      3.3260      1.1101      2.4820      4.3879      0.0000
 43      0.0000      1.9072      0.0000      0.0000      1.7184      0.4245      0.0000      1.3811      2.5042
 44      0.0476      1.2615      0.0000      0.1336      3.5769      1.7728      2.5197      4.6687      1.5498
 45      0.0000      1.0998      0.0000      0.7637      2.0983      0.0000      2.5380      0.0000      1.6892
 46      0.0000      1.3111      2.6423      0.0000      0.0000      0.7481      3.8974      1.7153      0.7829
 47      0.0000      1.2194      0.0000      3.4871      1.2040      0.0407      1.3717      0.3328      0.9874
 48      0.4285      1.6741      0.8704      2.2727      0.7176      2.8476      0.0000      2.0522      5.2482
 49     16.0741      1.4352      0.0000      0.4302      2.4177      4.8163      2.7280      2.8267      2.8245
 50     36.8374      1.3442      4.6042      1.7944      4.1252      1.6142      0.1472      1.2724     10.7040
 51      0.0000      1.8034      0.7537      0.0000      0.9769      1.4074      0.5306      1.1879      1.8187
 52      0.0000      1.3585      0.0000      1.2859      0.8216      1.2037      0.7787      3.8584      0.0000
 53      0.2306      1.1769      0.1690      0.0000      2.4478      1.3699      0.0000      2.3534      0.4265
 54      0.0000      2.9097      2.5453      4.2350      5.6686      0.8124      4.2790      2.3235      0.0000
 55      0.0000      1.9327      0.4323      0.7492      3.2241      0.0000      1.7582      2.1519      0.5670
 56      0.0000      1.3973      0.0000      0.0000      0.0000      1.9405      0.2214      1.0282      0.0000
 57      0.0000      1.2681      0.0000      2.6469      1.3866      0.0000      0.7633      1.3593      1.3524
 58      3.8732      1.0656      4.7939      0.1924      0.0000      2.1099      0.0000      0.7482      1.5918
 59      0.0000      1.4436      0.0000      1.7148      3.6758      0.0000      1.6846      3.4420      0.8475
 60      0.0000      1.7441      0.3099      2.9475      0.0752      3.2905      2.5279      0.2922      0.0000
 61      0.0000      1.3013      0.7467      2.9018      3.3760      1.6513      0.2896      6.0960      0.0000
 62      0.0000      1.0900      0.3372      4.6481      0.4194      0.0000      0.0000      2.8416      0.1722
 63      0.0000      1.0952      4.4906      2.6069      1.4877      0.0000      0.0000      2.7087      7.1834
 64      0.0000      1.6078      4.3494      1.9119      4.1732      0.1554      2.4808      0.0000      0.0000
 65     13.0981      1.8091      7.7206      0.0000      3.8388      2.6378      5.1386      3.2127      0.0000
 66     23.0056     10.9074      0.8847      6.8731      7.3533      5.7374      5.9970      3.8489      6.3660

# j      m_j: min, <> & last-chain-values for 1 ...  7 chains
  1  0.0000E+00  7.9391E-03  3.4160E-03  7.5444E-03  1.8667E-02  0.0000E+00  3.6324E-03  0.0000E+00  8.1496E-03
  2  0.0000E+00  1.3695E-03  7.5757E-04  0.0000E+00  0.0000E+00  0.0000E+00  2.0722E-03  4.7535E-03  2.1531E-03
  3  0.0000E+00  3.3911E-03  1.5425E-03  0.0000E+00  0.0000E+00  2.6449E-03  3.3205E-03  7.4860E-03  5.5301E-03
  4  0.0000E+00  2.4326E-03  1.6457E-02  8.8385E-03  2.0520E-03  0.0000E+00  0.0000E+00  7.8557E-04  1.1977E-03
  5  0.0000E+00  3.6961E-03  9.9271E-03  4.4066E-03  0.0000E+00  1.5735E-04  1.2090E-02  0.0000E+00  3.6067E-04
  6  0.0000E+00  6.4048E-03  1.9212E-03  1.3482E-02  8.7288E-03  1.9526E-02  4.4042E-03  2.5839E-02  6.4575E-03
  7  0.0000E+00  9.0958E-03  2.6161E-02  1.0143E-02  4.9039E-03  8.1418E-03  0.0000E+00  2.1597E-02  4.9805E-03
  8  1.0271E-04  1.5626E-02  1.0439E-02  3.2095E-03  1.0261E-02  1.3250E-02  3.5855E-02  0.0000E+00  0.0000E+00
  9  0.0000E+00  1.9554E-02  1.6334E-02  2.5588E-02  0.0000E+00  0.0000E+00  1.8269E-03  5.4214E-02  1.0041E-02
 10  0.0000E+00  2.1143E-02  1.6401E-03  0.0000E+00  3.7995E-02  7.1126E-02  0.0000E+00  0.0000E+00  3.0767E-02
 11  1.9821E-03  4.8412E-02  0.0000E+00  8.3614E-02  3.5013E-02  6.7003E-02  3.4397E-02  1.6420E-01  4.8465E-02
 12  0.0000E+00  5.5718E-02  1.0756E-02  0.0000E+00  3.5284E-02  0.0000E+00  2.6722E-01  0.0000E+00  0.0000E+00
 13  0.0000E+00  2.2716E-01  1.5204E-01  3.1450E-01  5.5099E-01  9.1810E-02  0.0000E+00  3.4043E-01  0.0000E+00
 14  0.0000E+00  6.8216E-01  1.9493E+00  4.8051E+00  9.6395E-01  7.9534E-01  4.1621E-01  9.8253E-01  1.3246E+00
 15  1.0491E+00  1.2054E+00  1.3562E+00  2.3973E+00  1.2462E+00  2.6320E+00  8.3941E+00  5.5422E-01  0.0000E+00
 16  2.0506E-01  1.8798E+00  2.5952E+00  4.1828E+00  2.8384E+00  4.1227E+00  4.5924E+00  3.8584E+00  0.0000E+00
 17  0.0000E+00  1.5387E+00  0.0000E+00  1.9867E+00  1.5163E+00  4.6049E+00  5.8471E-01  1.4912E+00  1.7806E-01
 18  0.0000E+00  5.3638E-03  4.7269E-04  2.8830E-02  1.1030E-02  4.9215E-04  0.0000E+00  6.8163E-03  8.8896E-05
 19  0.0000E+00  2.6400E-03  5.0807E-03  2.6586E-03  2.3504E-03  8.2728E-03  5.1659E-03  0.0000E+00  2.8179E-03
 20  0.0000E+00  2.5090E-03  0.0000E+00  5.9153E-03  7.4345E-04  6.1507E-03  3.2861E-03  1.3556E-02  4.3957E-03
 21  0.0000E+00  3.0052E-03  0.0000E+00  0.0000E+00  3.7803E-03  6.1364E-03  2.4371E-03  3.9324E-03  0.0000E+00
 22  0.0000E+00  6.2906E-03  2.8535E-03  1.3595E-02  5.2019E-03  0.0000E+00  3.3320E-03  4.6510E-03  6.0485E-03
 23  0.0000E+00  9.0078E-03  1.7715E-02  0.0000E+00  4.8602E-03  1.8352E-03  9.9028E-03  2.4134E-02  7.9527E-03
 24  0.0000E+00  1.2660E-02  1.1716E-02  2.4291E-02  0.0000E+00  0.0000E+00  1.2231E-02  3.0825E-03  1.4057E-02
 25  0.0000E+00  1.4951E-02  8.8376E-03  4.2149E-02  5.4121E-02  9.0359E-03  1.3221E-02  5.0639E-03  4.6406E-02
 26  0.0000E+00  2.8181E-02  0.0000E+00  1.1970E-02  2.2956E-02  2.0106E-02  0.0000E+00  1.0534E-02  2.0577E-02
 27  0.0000E+00  4.1468E-02  5.8020E-02  2.9102E-02  5.1932E-02  5.9393E-02  6.0191E-02  0.0000E+00  9.6634E-02
 28  0.0000E+00  9.6252E-02  4.5753E-01  4.4761E-02  0.0000E+00  3.3668E-01  2.4219E-01  2.9723E-01  3.1481E-02
 29  0.0000E+00  2.0286E-01  6.9771E-02  0.0000E+00  1.5374E-01  0.0000E+00  3.3301E-01  6.9964E-01  0.0000E+00
 30  0.0000E+00  5.5523E-01  7.0325E-01  1.1663E+00  0.0000E+00  1.0264E-01  0.0000E+00  0.0000E+00  1.7805E-01
 31  6.3644E-01  9.0548E-01  0.0000E+00  0.0000E+00  5.0441E-01  4.4315E+00  1.4373E+00  5.8402E-01  0.0000E+00
 32  5.4656E+00  1.2333E+00  0.0000E+00  1.3949E+00  7.6314E-01  2.2871E+00  6.8806E-01  0.0000E+00  1.2473E+00
 33  4.9527E-02  3.0700E+00  1.4570E+01  0.0000E+00  0.0000E+00  2.6802E+00  1.9306E+00  1.3037E+01  3.1990E+00
 34  0.0000E+00  4.1796E+00  4.5159E+00  1.1542E+01  9.5202E-02  1.5797E+01  8.2675E+00  6.9586E+00  1.2205E+01
 35  0.0000E+00  3.8921E-03  9.9727E-03  5.9057E-03  5.0601E-03  1.0950E-02  0.0000E+00  0.0000E+00  0.0000E+00
 36  0.0000E+00  3.5166E-03  7.9709E-04  3.8978E-03  3.5629E-03  2.7868E-03  0.0000E+00  5.7335E-03  0.0000E+00
 37  0.0000E+00  2.8609E-03  1.5837E-02  0.0000E+00  1.3185E-03  2.9003E-03  2.2413E-03  0.0000E+00  3.5589E-03
 38  0.0000E+00  1.8789E-02  1.6646E-02  2.7866E-02  2.0581E-02  1.8934E-02  2.8764E-02  1.2164E-02  1.2414E-02
 39  0.0000E+00  9.3384E-03  5.6227E-03  9.1878E-03  4.1955E-03  4.8607E-04  1.6816E-02  0.0000E+00  3.5693E-02
 40  0.0000E+00  1.2081E-02  2.9023E-02  5.1194E-03  3.8143E-03  0.0000E+00  8.7045E-04  0.0000E+00  2.0864E-03
 41  0.0000E+00  2.2137E-02  4.8920E-02  3.4151E-03  3.6634E-02  1.1267E-02  2.7156E-02  0.0000E+00  7.1890E-03
 42  2.0841E-02  3.8010E-02  4.3003E-02  0.0000E+00  9.0267E-02  2.9147E-02  7.0317E-02  1.5819E-01  0.0000E+00
 43  0.0000E+00  7.3352E-02  0.0000E+00  0.0000E+00  6.8091E-02  1.6273E-02  0.0000E+00  7.2694E-02  8.5988E-02
 44  8.3843E-04  8.3538E-02  0.0000E+00  1.0987E-02  2.4403E-01  1.1701E-01  1.7945E-01  4.2312E-01  9.1625E-02
 45  0.0000E+00  1.4450E-01  0.0000E+00  1.2459E-01  2.8405E-01  0.0000E+00  3.5865E-01  0.0000E+00  1.9815E-01
 46  0.0000E+00  3.1664E-01  7.1257E-01  0.0000E+00  0.0000E+00  1.8008E-01  1.0123E+00  5.6696E-01  1.6881E-01
 47  0.0000E+00  5.9677E-01  0.0000E+00  2.1188E+00  6.0705E-01  1.9854E-02  7.2196E-01  2.2291E-01  4.3143E-01
 48  9.8414E-02  1.4449E+00  8.3883E-01  2.4354E+00  6.3809E-01  2.4496E+00  0.0000E+00  2.4240E+00  4.0440E+00
 49  8.3909E+00  2.8151E+00  0.0000E+00  1.0478E+00  4.8859E+00  9.4164E+00  5.7551E+00  7.5883E+00  4.9464E+00
 50  3.5616E+01  4.8836E+00  1.8678E+01  8.0941E+00  1.5441E+01  5.8452E+00  5.7499E-01  6.3265E+00  3.4719E+01
 51  0.0000E+00  3.5914E-03  1.6761E-03  0.0000E+00  2.0044E-03  2.7937E-03  1.1365E-03  3.2375E-03  3.2336E-03
 52  0.0000E+00  1.3865E-03  0.0000E+00  1.6294E-03  8.6385E-04  1.2244E-03  8.5474E-04  5.3889E-03  0.0000E+00
 53  9.4330E-05  1.8092E-03  2.9018E-04  0.0000E+00  3.8767E-03  2.0990E-03  0.0000E+00  4.9514E-03  5.8538E-04
 54  0.0000E+00  9.1655E-03  8.9525E-03  1.6563E-02  1.8396E-02  2.5507E-03  1.4496E-02  1.0016E-02  0.0000E+00
 55  0.0000E+00  9.3734E-03  2.3412E-03  4.5114E-03  1.6110E-02  0.0000E+00  9.1712E-03  1.4283E-02  2.4552E-03
 56  0.0000E+00  1.3413E-02  0.0000E+00  0.0000E+00  0.0000E+00  1.8567E-02  2.2862E-03  1.3508E-02  0.0000E+00
 57  0.0000E+00  1.6157E-02  0.0000E+00  4.1871E-02  1.8201E-02  0.0000E+00  1.0460E-02  2.3701E-02  1.5384E-02
 58  2.2213E-02  2.2965E-02  1.1536E-01  5.1477E-03  0.0000E+00  4.5322E-02  0.0000E+00  2.2068E-02  3.0627E-02
 59  0.0000E+00  6.6952E-02  0.0000E+00  9.8747E-02  1.7563E-01  0.0000E+00  8.4028E-02  2.1847E-01  3.5091E-02
 60  0.0000E+00  1.5025E-01  2.9814E-02  3.1525E-01  6.6776E-03  2.8253E-01  2.3420E-01  3.4453E-02  0.0000E+00
 61  0.0000E+00  2.4493E-01  1.5693E-01  6.7813E-01  6.5466E-01  3.0978E-01  5.8630E-02  1.5703E+00  0.0000E+00
 62  0.0000E+00  3.7408E-01  1.2920E-01  1.9805E+00  1.4829E-01  0.0000E+00  0.0000E+00  1.3346E+00  5.2775E-02
 63  0.0000E+00  7.4781E-01  3.4237E+00  2.2100E+00  1.0465E+00  0.0000E+00  0.0000E+00  2.5311E+00  4.3789E+00
 64  0.0000E+00  3.0363E+00  9.1720E+00  4.4832E+00  8.1196E+00  2.9254E-01  5.0387E+00  0.0000E+00  0.0000E+00
 65  1.3915E+01  7.2220E+00  3.4416E+01  0.0000E+00  1.5789E+01  1.0496E+01  2.2062E+01  1.7553E+01  0.0000E+00
 66  3.4528E+01  6.1514E+01  5.5711E+00  4.8127E+01  4.2725E+01  3.2251E+01  3.6374E+01  2.9707E+01  3.2054E+01

# AV, chi2 & Mass for <> & i_chain = 1 ...  7 solutions
AV      -0.9522      0.7686      0.7389      0.7887      0.7967      0.6616      0.7190      0.8776      0.6476
chi2 1.9081E-05  3.2013E-05  3.0377E-05  3.0835E-05  3.0494E-05  3.0068E-05  3.0536E-05  3.0248E-05  3.0866E-05
Mass 2.1670E-13  5.8167E-13  5.0054E-13  4.8130E-13  5.8630E-13  5.0547E-13  5.0594E-13  4.9201E-13  5.5378E-13
-171.57                                  [v0_min (km/s) before EX0s...]
 357.20                                  [vd_min (km/s) before EX0s...]


## Synthetic spectrum (Best Model) ##l_obs f_obs f_syn wei
 3478    [Nl_obs]
 3741.00   -1.71747   0.54535    0.000
 3742.00   -1.23503   0.53948    0.000
 3743.00   -0.74711   0.53483    0.000
 3744.00   -0.18000   0.53084    0.000
 3745.00    0.43325   0.53103    0.041
 3746.00    0.73236   0.53610    0.041
 3747.00    0.87195   0.54693    0.041
 3748.00    1.02656   0.56246    0.042
 3749.00    1.18777   0.58084    0.042
 3750.00    1.65159   0.60098    0.042
 3751.00    2.22964   0.61914    0.043
 3752.00    1.16115   0.63442    0.042
 3753.00   -0.43503   0.64404    0.000
 3754.00   -0.57186   0.64897    0.000
 3755.00   -0.31762   0.65124    0.000
 3756.00   -0.23130   0.65130    0.000
 3757.00   -0.18183   0.64958    0.000
 3758.00   -0.29352   0.64725    0.000
 3759.00   -0.43335   0.64500    0.000
 3760.00    0.50115   0.64430    0.043
 3761.00    1.57836   0.64654    0.051
 3762.00    1.08712   0.64980    0.043
 3763.00    0.44849   0.65617    0.037
 3764.00   -0.06290   0.66632    0.000
 3765.00   -0.56694   0.67943    0.000
 3766.00    0.35113   0.69356    0.036
 3767.00    1.29272   0.70978    0.036
 3768.00    0.99362   0.72734    0.035
 3769.00    0.68615   0.74518    0.034
 3770.00    0.17551   0.76305    0.033
 3771.00   -0.27323   0.77992    0.000
 3772.00    0.08910   0.79579    0.033
 3773.00    0.43838   0.81083    0.033
 3774.00    0.67308   0.82383    0.033
 3775.00    0.85671   0.83498    0.033
 3776.00    0.70922   0.84375    0.033
 3777.00    0.53282   0.84896    0.033
 3778.00    0.21009   0.85054    0.032
 3779.00   -0.08265   0.84759    0.000
 3780.00   -0.25266   0.84058    0.000
 3781.00   -0.38423   0.82851    0.000
 3782.00   -0.38538   0.81118    0.000
 3783.00   -0.32440   0.79181    0.000
 3784.00   -0.08574   0.76991    0.000
 3785.00    0.18773   0.74773    0.035
 3786.00    0.54624   0.72538    0.036
 3787.00    0.38428   0.70519    0.036
 3788.00   -0.87466   0.68611    0.000
 3789.00   -1.29161   0.66837    0.000
 3790.00   -0.16630   0.65337    0.000
 3791.00    0.39747   0.64042    0.034
 3792.00    0.06237   0.63219    0.034
 3793.00    0.04448   0.62656    0.034
 3794.00    0.47215   0.62488    0.033
 3795.00    0.68770   0.62810    0.033
 3796.00    0.64105   0.63663    0.033
 3797.00    0.55717   0.64915    0.033
 3798.00    0.43272   0.66381    0.032
 3799.00    0.28991   0.68132    0.032
 3800.00    0.12946   0.69839    0.032
 3801.00    0.05314   0.71486    0.032
 3802.00    0.04811   0.72841    0.033
 3803.00    0.12085   0.73855    0.033
 3804.00    0.25162   0.74650    0.032
 3805.00   -0.08839   0.75030    0.000
 3806.00   -0.73702   0.74983    0.000
 3807.00   -0.56036   0.74430    0.000
 3808.00    0.08990   0.73472    0.030
 3809.00    0.59375   0.72046    0.030
 3810.00    1.02444   0.70385    0.030
 3811.00    0.57152   0.68491    0.030
 3812.00   -0.26351   0.66469    0.000
 3813.00   -0.00505   0.64549    0.000
 3814.00    0.65893   0.62584    0.031
 3815.00    0.59126   0.60623    0.031
 3816.00    0.29359   0.58710    0.030
 3817.00   -0.06930   0.57052    0.000
 3818.00   -0.44930   0.55588    0.000
 3819.00   -0.07289   0.54213    0.000
 3820.00    0.46560   0.52856    0.031
 3821.00    0.54394   0.51633    0.031
 3822.00    0.54419   0.50564    0.031
 3823.00    0.06414   0.49609    0.031
 3824.00   -0.47754   0.48727    0.000
 3825.00   -0.32548   0.47930    0.000
 3826.00   -0.11115   0.47231    0.000
 3827.00    0.24259   0.46611    0.031
 3828.00    0.60382   0.46001    0.031
 3829.00    0.57142   0.45549    0.031
 3830.00    0.53010   0.45244    0.030
 3831.00    0.40150   0.45158    0.031
 3832.00    0.28428   0.45302    0.031
 3833.00    0.42006   0.45666    0.030
 3834.00    0.53684   0.46282    0.030
 3835.00    0.41735   0.47247    0.030
 3836.00    0.28555   0.48550    0.030
 3837.00    0.04965   0.50117    0.030
 3838.00   -0.14397   0.52027    0.000
 3839.00   -0.07161   0.53994    0.000
 3840.00    0.00806   0.56013    0.028
 3841.00    0.12379   0.57947    0.029
 3842.00    0.26474   0.59697    0.029
 3843.00    0.50665   0.61225    0.028
 3844.00    0.68563   0.62427    0.028
 3845.00    0.65541   0.63268    0.028
 3846.00    0.60747   0.63767    0.028
 3847.00    0.50978   0.64033    0.000
 3848.00    0.57089   0.64012    0.000
 3849.00    1.01346   0.63696    0.000
 3850.00    1.22650   0.63178    0.000
 3851.00    0.96355   0.62567    0.000
 3852.00    0.47691   0.61849    0.000
 3853.00   -0.41316   0.61203    0.000
 3854.00   -0.85578   0.60620    0.000
 3855.00   -0.59274   0.60179    0.000
 3856.00   -0.19236   0.60001    0.000
 3857.00    0.39816   0.60069    0.000
 3858.00    0.55628   0.60398    0.000
 3859.00    0.18755   0.60822    0.000
 3860.00    0.04242   0.61319    0.000
 3861.00    0.13748   0.61799    0.000
 3862.00    0.24869   0.62228    0.000
 3863.00    0.37520   0.62557    0.000
 3864.00    0.38896   0.62692    0.000
 3865.00    0.30854   0.62725    0.000
 3866.00    0.21803   0.62589    0.000
 3867.00    0.12012   0.62450    0.000
 3868.00    0.47415   0.62310    0.000
 3869.00    1.12010   0.62234    0.000
 3870.00    1.07269   0.62200    0.000
 3871.00    0.63344   0.62180    0.000
 3872.00    0.50939   0.62101    0.000
 3873.00    0.54039   0.62054    0.000
 3874.00    0.60196   0.61943    0.000
 3875.00    0.67653   0.61832    0.000
 3876.00    0.64670   0.61683    0.000
 3877.00    0.57886   0.61501    0.000
 3878.00    0.34165   0.61345    0.000
 3879.00    0.05224   0.61209    0.000
 3880.00   -0.03418   0.61190    0.000
 3881.00   -0.06849   0.61253    0.000
 3882.00    0.04764   0.61502    0.025
 3883.00    0.19522   0.62007    0.025
 3884.00    0.38901   0.62854    0.026
 3885.00    0.59043   0.63948    0.026
 3886.00    0.76930   0.65397    0.027
 3887.00    0.94537   0.67001    0.027
 3888.00    1.04100   0.68777    0.027
 3889.00    1.12975   0.70503    0.026
 3890.00    0.90080   0.72235    0.026
 3891.00    0.65602   0.73844    0.027
 3892.00    0.49819   0.75181    0.027
 3893.00    0.34643   0.76363    0.027
 3894.00    0.49494   0.77196    0.027
 3895.00    0.63267   0.77956    0.027
 3896.00    0.55022   0.78407    0.026
 3897.00    0.49353   0.78804    0.026
 3898.00    0.74150   0.79139    0.026
 3899.00    0.92304   0.79404    0.025
 3900.00    0.56335   0.79806    0.025
 3901.00    0.29274   0.80336    0.024
 3902.00    0.56626   0.81068    0.024
 3903.00    0.81343   0.81999    0.024
 3904.00    0.93379   0.83068    0.023
 3905.00    1.04273   0.84264    0.023
 3906.00    1.10699   0.85457    0.023
 3907.00    1.09865   0.86588    0.023
 3908.00    0.85368   0.87494    0.023
 3909.00    0.68096   0.88152    0.023
 3910.00    0.70748   0.88347    0.023
 3911.00    0.79226   0.88174    0.024
 3912.00    1.01466   0.87506    0.024
 3913.00    1.12747   0.86395    0.024
 3914.00    1.01664   0.84880    0.025
 3915.00    0.91039   0.83022    0.025
 3916.00    0.81232   0.80968    0.025
 3917.00    0.75884   0.78666    0.025
 3918.00    0.77465   0.76312    0.025
 3919.00    0.82952   0.73738    0.025
 3920.00    0.93770   0.71074    0.025
 3921.00    0.90513   0.68238    0.025
 3922.00    0.70349   0.65229    0.025
 3923.00    0.54942   0.62110    0.025
 3924.00    0.44574   0.58842    0.024
 3925.00    0.35539   0.55585    0.024
 3926.00    0.27750   0.52372    0.025
 3927.00    0.22932   0.49414    0.024
 3928.00    0.20560   0.46845    0.024
 3929.00    0.29529   0.44831    0.024
 3930.00    0.46720   0.43527    0.025
 3931.00    0.29482   0.42981    0.025
 3932.00   -0.09665   0.43257    0.000
 3933.00    0.22721   0.44290    0.025
 3934.00    0.94918   0.46028    0.026
 3935.00    1.09544   0.48290    0.026
 3936.00    0.96300   0.51009    0.025
 3937.00    0.87689   0.53998    0.025
 3938.00    0.81015   0.57145    0.025
 3939.00    0.64389   0.60419    0.025
 3940.00    0.44203   0.63701    0.025
 3941.00    0.50301   0.66884    0.025
 3942.00    0.64344   0.69940    0.025
 3943.00    0.75689   0.72907    0.025
 3944.00    0.86357   0.75694    0.025
 3945.00    0.74474   0.78276    0.025
 3946.00    0.57993   0.80537    0.025
 3947.00    0.92605   0.82484    0.025
 3948.00    1.35398   0.84083    0.025
 3949.00    1.21232   0.85195    0.025
 3950.00    1.00264   0.85766    0.025
 3951.00    0.88597   0.85804    0.025
 3952.00    0.77687   0.85256    0.025
 3953.00    0.77666   0.84079    0.025
 3954.00    0.78145   0.82255    0.024
 3955.00    1.05255   0.79799    0.024
 3956.00    1.31408   0.76800    0.024
 3957.00    0.89860   0.73343    0.024
 3958.00    0.48279   0.69502    0.024
 3959.00    0.06056   0.65434    0.024
 3960.00   -0.31723   0.61289    0.000
 3961.00   -0.19432   0.57295    0.000
 3962.00   -0.05735   0.53643    0.000
 3963.00    0.19004   0.50563    0.000
 3964.00    0.44672   0.48221    0.000
 3965.00    0.75843   0.46784    0.000
 3966.00    1.04919   0.46353    0.000
 3967.00    1.24158   0.46994    0.000
 3968.00    1.32524   0.48671    0.000
 3969.00    0.99223   0.51338    0.000
 3970.00    0.73486   0.54841    0.000
 3971.00    0.71924   0.59013    0.000
 3972.00    0.75415   0.63662    0.000
 3973.00    0.92586   0.68529    0.000
 3974.00    0.99160   0.73440    0.000
 3975.00    0.81127   0.78196    0.000
 3976.00    0.80587   0.82668    0.000
 3977.00    1.15187   0.86778    0.000
 3978.00    1.27742   0.90448    0.000
 3979.00    1.01741   0.93682    0.000
 3980.00    0.60961   0.96530    0.000
 3981.00   -0.02443   0.98953    0.000
 3982.00    0.01925   1.01071    0.024
 3983.00    0.97436   1.02905    0.025
 3984.00    1.42516   1.04504    0.026
 3985.00    1.27875   1.05905    0.026
 3986.00    0.89258   1.07071    0.025
 3987.00    0.25604   1.08099    0.025
 3988.00    0.23473   1.08907    0.025
 3989.00    0.78006   1.09617    0.024
 3990.00    1.13348   1.10162    0.024
 3991.00    1.33109   1.10710    0.023
 3992.00    1.37817   1.11171    0.023
 3993.00    1.31771   1.11617    0.023
 3994.00    1.18590   1.12074    0.023
 3995.00    1.00936   1.12526    0.023
 3996.00    0.80604   1.12967    0.023
 3997.00    0.58804   1.13312    0.022
 3998.00    0.66631   1.13675    0.022
 3999.00    0.88570   1.13965    0.022
 4000.00    1.14860   1.14234    0.022
 4001.00    1.42939   1.14456    0.022
 4002.00    1.35699   1.14708    0.022
 4003.00    1.16055   1.15050    0.022
 4004.00    1.20265   1.15485    0.022
 4005.00    1.31544   1.16121    0.022
 4006.00    1.38941   1.16859    0.022
 4007.00    1.45386   1.17788    0.022
 4008.00    1.19666   1.18767    0.022
 4009.00    0.87551   1.19818    0.022
 4010.00    0.76643   1.20821    0.022
 4011.00    0.69031   1.21790    0.022
 4012.00    1.04102   1.22613    0.022
 4013.00    1.44081   1.23317    0.023
 4014.00    1.18591   1.23837    0.023
 4015.00    0.88039   1.24226    0.023
 4016.00    0.87618   1.24435    0.023
 4017.00    0.88466   1.24520    0.023
 4018.00    0.84142   1.24450    0.023
 4019.00    0.80488   1.24244    0.023
 4020.00    1.08282   1.23848    0.023
 4021.00    1.33280   1.23290    0.023
 4022.00    1.08993   1.22548    0.023
 4023.00    0.85987   1.21606    0.023
 4024.00    0.76770   1.20518    0.023
 4025.00    0.70201   1.19285    0.023
 4026.00    0.83741   1.18047    0.023
 4027.00    0.94380   1.16830    0.023
 4028.00    0.88284   1.15819    0.023
 4029.00    0.85745   1.15039    0.023
 4030.00    0.99508   1.14644    0.023
 4031.00    1.02810   1.14590    0.023
 4032.00    0.66872   1.14907    0.022
 4033.00    0.43611   1.15425    0.022
 4034.00    0.60092   1.16036    0.022
 4035.00    0.76534   1.16562    0.022
 4036.00    0.92871   1.16885    0.022
 4037.00    1.03850   1.16916    0.022
 4038.00    1.02597   1.16605    0.022
 4039.00    1.12490   1.16021    0.022
 4040.00    1.44416   1.15244    0.023
 4041.00    1.51084   1.14465    0.023
 4042.00    1.14241   1.13780    0.022
 4043.00    0.99454   1.13367    0.022
 4044.00    1.17939   1.13250    0.022
 4045.00    1.19904   1.13451    0.022
 4046.00    0.99971   1.13896    0.022
 4047.00    0.93437   1.14464    0.022
 4048.00    1.02546   1.15053    0.022
 4049.00    1.24209   1.15484    0.022
 4050.00    1.58797   1.15708    0.022
 4051.00    1.72653   1.15609    0.022
 4052.00    1.67683   1.15250    0.022
 4053.00    1.50329   1.14612    0.022
 4054.00    1.23064   1.13780    0.021
 4055.00    1.00000   1.12818    0.021
 4056.00    0.79894   1.11805    0.021
 4057.00    0.91173   1.10845    0.021
 4058.00    1.21839   1.09960    0.021
 4059.00    1.38726   1.09268    0.021
 4060.00    1.48178   1.08751    0.021
 4061.00    1.43722   1.08498    0.021
 4062.00    1.32746   1.08437    0.021
 4063.00    1.38266   1.08610    0.022
 4064.00    1.50449   1.08909    0.022
 4065.00    1.59010   1.09335    0.022
 4066.00    1.66323   1.09766    0.022
 4067.00    1.42273   1.10210    0.022
 4068.00    1.09115   1.10572    0.021
 4069.00    0.92973   1.10907    0.021
 4070.00    0.80918   1.11186    0.021
 4071.00    0.95599   1.11504    0.021
 4072.00    1.15461   1.11888    0.022
 4073.00    1.30564   1.12429    0.022
 4074.00    1.44950   1.13159    0.022
 4075.00    1.59113   1.14127    0.022
 4076.00    1.73251   1.15326    0.022
 4077.00    1.20492   1.16742    0.022
 4078.00    0.62834   1.18320    0.022
 4079.00    0.86579   1.20005    0.022
 4080.00    1.13440   1.21714    0.022
 4081.00    1.02904   1.23379    0.022
 4082.00    0.92424   1.24910    0.022
 4083.00    0.91911   1.26246    0.022
 4084.00    0.93146   1.27298    0.022
 4085.00    1.23206   1.28010    0.022
 4086.00    1.50186   1.28315    0.022
 4087.00    1.45458   1.28168    0.022
 4088.00    1.39754   1.27553    0.022
 4089.00    1.26873   1.26455    0.022
 4090.00    1.18694   1.24939    0.022
 4091.00    1.36886   1.23037    0.022
 4092.00    1.49508   1.20894    0.000
 4093.00    1.37202   1.18590    0.000
 4094.00    1.24528   1.16314    0.000
 4095.00    1.10498   1.14169    0.000
 4096.00    1.03624   1.12332    0.000
 4097.00    1.18757   1.10883    0.000
 4098.00    1.25658   1.09931    0.000
 4099.00    1.11043   1.09485    0.000
 4100.00    0.94081   1.09555    0.000
 4101.00    0.71849   1.10071    0.000
 4102.00    0.50644   1.10956    0.000
 4103.00    0.31438   1.12094    0.000
 4104.00    0.35805   1.13376    0.000
 4105.00    0.80168   1.14699    0.000
 4106.00    1.11974   1.15974    0.000
 4107.00    1.25113   1.17152    0.000
 4108.00    1.24075   1.18184    0.000
 4109.00    1.04513   1.19063    0.000
 4110.00    0.97624   1.19777    0.000
 4111.00    1.05323   1.20327    0.000
 4112.00    1.16374   1.20727    0.000
 4113.00    1.30829   1.20971    0.021
 4114.00    1.54126   1.21097    0.021
 4115.00    1.85342   1.21092    0.021
 4116.00    1.88018   1.21005    0.021
 4117.00    1.68178   1.20825    0.021
 4118.00    1.49112   1.20582    0.021
 4119.00    1.30582   1.20273    0.020
 4120.00    1.20149   1.19878    0.030
 4121.00    1.14642   1.19422    0.115
 4122.00    1.05390   1.18837   -1.000
 4123.00    0.94149   1.18200   -1.000
 4124.00    0.99351   1.17431   -1.000
 4125.00    1.12134   1.16668   -1.000
 4126.00    1.13206   1.15855   -1.000
 4127.00    1.09627   1.15157   -1.000
 4128.00    1.03865   1.14543    0.054
 4129.00    0.97363   1.14137    0.023
 4130.00    1.01166   1.13903    0.020
 4131.00    1.07902   1.13866    0.020
 4132.00    1.11316   1.13964    0.020
 4133.00    1.13950   1.14117    0.020
 4134.00    1.21346   1.14266    0.020
 4135.00    1.29641   1.14296    0.020
 4136.00    1.37709   1.14186    0.021
 4137.00    1.45743   1.13882    0.021
 4138.00    1.45961   1.13423    0.021
 4139.00    1.45348   1.12844    0.021
 4140.00    1.26038   1.12212    0.021
 4141.00    1.05434   1.11607    0.021
 4142.00    1.41591   1.11073    0.021
 4143.00    1.79705   1.10675    0.022
 4144.00    1.65644   1.10391    0.022
 4145.00    1.51282   1.10265    0.022
 4146.00    1.30406   1.10222    0.022
 4147.00    1.11781   1.10308    0.022
 4148.00    1.27961   1.10448    0.022
 4149.00    1.40510   1.10713    0.022
 4150.00    1.17275   1.11049    0.021
 4151.00    1.00141   1.11535    0.021
 4152.00    1.26314   1.12133    0.022
 4153.00    1.47208   1.12882    0.022
 4154.00    1.39276   1.13740    0.022
 4155.00    1.30007   1.14672    0.022
 4156.00    1.14892   1.15628    0.021
 4157.00    1.05705   1.16515    0.021
 4158.00    1.17845   1.17284    0.021
 4159.00    1.27129   1.17835    0.021
 4160.00    1.27793   1.18142    0.021
 4161.00    1.23656   1.18152    0.021
 4162.00    1.07190   1.17870    0.021
 4163.00    1.06458   1.17306    0.021
 4164.00    1.40482   1.16496    0.021
 4165.00    1.52030   1.15506    0.022
 4166.00    1.20522   1.14382    0.021
 4167.00    1.11367   1.13222    0.021
 4168.00    1.39568   1.12070    0.021
 4169.00    1.41776   1.11027    0.021
 4170.00    1.05908   1.10121    0.021
 4171.00    0.87228   1.09434    0.021
 4172.00    0.90685   1.08966    0.021
 4173.00    0.95026   1.08755    0.021
 4174.00    1.00368   1.08770    0.021
 4175.00    0.92778   1.09008    0.021
 4176.00    0.72245   1.09409    0.021
 4177.00    0.80189   1.09949    0.021
 4178.00    1.13268   1.10556    0.021
 4179.00    1.26229   1.11211    0.021
 4180.00    1.23542   1.11847    0.021
 4181.00    1.17853   1.12459    0.021
 4182.00    1.10111   1.13003    0.021
 4183.00    0.97372   1.13477    0.021
 4184.00    0.81637   1.13857    0.021
 4185.00    0.85187   1.14134    0.021
 4186.00    0.98824   1.14290    0.021
 4187.00    1.18707   1.14303    0.021
 4188.00    1.41422   1.14160    0.020
 4189.00    1.39749   1.13847    0.020
 4190.00    1.28558   1.13365    0.020
 4191.00    1.21187   1.12744    0.020
 4192.00    1.15085   1.12013    0.020
 4193.00    1.12096   1.11261    0.020
 4194.00    1.09975   1.10544    0.020
 4195.00    1.03081   1.09980    0.020
 4196.00    0.95091   1.09626    0.020
 4197.00    0.94208   1.09572    0.020
 4198.00    0.94631   1.09833    0.020
 4199.00    1.01255   1.10428    0.020
 4200.00    1.08755   1.11312    0.020
 4201.00    1.03072   1.12424    0.020
 4202.00    0.96044   1.13680    0.020
 4203.00    1.14914   1.14976    0.020
 4204.00    1.35471   1.16231    0.020
 4205.00    1.27960   1.17352    0.020
 4206.00    1.19568   1.18312    0.020
 4207.00    0.99873   1.19059    0.020
 4208.00    0.80732   1.19632    0.020
 4209.00    0.77884   1.20022    0.020
 4210.00    0.75581   1.20296    0.020
 4211.00    0.81202   1.20442    0.020
 4212.00    0.85782   1.20501    0.020
 4213.00    0.80525   1.20428    0.020
 4214.00    0.77142   1.20188    0.020
 4215.00    0.86642   1.19729    0.019
 4216.00    0.96682   1.18970    0.019
 4217.00    1.09590   1.17913    0.020
 4218.00    1.18045   1.16510    0.020
 4219.00    1.07484   1.14884    0.020
 4220.00    1.05215   1.13085    0.020
 4221.00    1.32162   1.11330    0.020
 4222.00    1.46554   1.09737    0.020
 4223.00    1.23765   1.08510    0.020
 4224.00    1.06920   1.07749    0.020
 4225.00    1.05074   1.07518    0.020
 4226.00    1.02887   1.07820    0.020
 4227.00    0.99961   1.08575    0.019
 4228.00    1.05292   1.09693    0.019
 4229.00    1.26194   1.11032    0.019
 4230.00    1.33414   1.12497    0.019
 4231.00    1.18110   1.13985    0.019
 4232.00    1.15073   1.15453    0.019
 4233.00    1.29744   1.16880    0.019
 4234.00    1.33229   1.18249    0.020
 4235.00    1.22511   1.19590    0.020
 4236.00    1.12893   1.20857    0.019
 4237.00    1.04506   1.22064    0.019
 4238.00    1.11154   1.23122    0.019
 4239.00    1.32639   1.23997    0.019
 4240.00    1.36359   1.24601    0.019
 4241.00    1.24618   1.24880    0.019
 4242.00    1.24040   1.24815    0.019
 4243.00    1.32020   1.24380    0.020
 4244.00    1.27422   1.23649    0.020
 4245.00    1.14347   1.22663    0.020
 4246.00    1.30549   1.21548    0.020
 4247.00    1.64035   1.20389    0.021
 4248.00    1.74976   1.19306    0.021
 4249.00    1.74310   1.18381    0.022
 4250.00    1.74946   1.17676    0.022
 4251.00    1.76164   1.17240    0.022
 4252.00    1.55457   1.17070    0.022
 4253.00    1.26345   1.17186    0.021
 4254.00    1.11807   1.17531    0.021
 4255.00    1.02020   1.18112    0.020
 4256.00    1.02208   1.18829    0.020
 4257.00    1.05118   1.19666    0.020
 4258.00    1.08919   1.20497    0.020
 4259.00    1.12920   1.21260    0.021
 4260.00    1.21813   1.21827    0.021
 4261.00    1.31581   1.22101    0.021
 4262.00    1.52721   1.22021    0.021
 4263.00    1.75416   1.21508    0.021
 4264.00    1.30013   1.20620    0.021
 4265.00    0.77957   1.19365    0.021
 4266.00    0.86640   1.17930    0.021
 4267.00    0.99039   1.16404    0.021
 4268.00    0.98121   1.15019    0.021
 4269.00    0.96798   1.13887    0.020
 4270.00    0.86680   1.13159    0.020
 4271.00    0.76327   1.12885    0.020
 4272.00    0.59780   1.13057    0.020
 4273.00    0.43908   1.13624    0.020
 4274.00    0.37306   1.14447    0.020
 4275.00    0.36425   1.15415    0.020
 4276.00    0.87517   1.16334    0.020
 4277.00    1.32933   1.17129    0.021
 4278.00    1.40551   1.17633    0.021
 4279.00    1.44401   1.17850    0.021
 4280.00    1.28749   1.17706    0.021
 4281.00    1.14551   1.17260    0.021
 4282.00    1.06419   1.16550   -2.000
 4283.00    0.90322   1.15621   -2.000
 4284.00    0.46730   1.14603   -2.000
 4285.00    0.25124   1.13475   -2.000
 4286.00    0.67426   1.12387   -2.000
 4287.00    1.08285   1.11259   -2.000
 4288.00    1.45566   1.10178   -2.000
 4289.00    1.68019   1.09057   -2.000
 4290.00    1.58772   1.07878   -2.000
 4291.00    1.45045   1.06612   -2.000
 4292.00    1.22996   1.05168   -2.000
 4293.00    1.09293   1.03604   -2.000
 4294.00    1.09125   1.01839   -2.000
 4295.00    1.15631   0.99994   -2.000
 4296.00    1.31632   0.98060   -2.000
 4297.00    1.23497   0.96165   -2.000
 4298.00    0.85156   0.94382    0.020
 4299.00    0.80970   0.92801    0.020
 4300.00    1.14461   0.91555    0.021
 4301.00    1.34658   0.90683    0.021
 4302.00    1.41920   0.90341    0.020
 4303.00    1.28319   0.90537    0.020
 4304.00    0.96820   0.91407    0.020
 4305.00    0.91662   0.92950    0.020
 4306.00    1.06411   0.95200    0.020
 4307.00    1.09488   0.98150    0.020
 4308.00    1.04813   1.01666    0.020
 4309.00    1.01369   1.05715    0.020
 4310.00    0.98641   1.09980    0.020
 4311.00    0.99808   1.14393    0.020
 4312.00    1.02950   1.18552    0.019
 4313.00    1.10759   1.22366    0.019
 4314.00    1.20616   1.25518    0.020
 4315.00    1.13134   1.27946    0.019
 4316.00    0.99120   1.29566    0.019
 4317.00    1.04377   1.30375    0.019
 4318.00    1.15797   1.30583    0.019
 4319.00    1.28484   1.30236    0.019
 4320.00    1.41511   1.29738    0.020
 4321.00    1.50372   1.29118    0.020
 4322.00    1.58321   1.28775    0.020
 4323.00    1.31569   1.28668    0.020
 4324.00    0.98780   1.28994    0.019
 4325.00    0.89230   1.29638    0.019
 4326.00    0.82754   1.30525    0.019
 4327.00    1.05705   1.31523    0.020
 4328.00    1.31406   1.32391    0.020
 4329.00    1.47390   1.33045    0.020
 4330.00    1.62818   1.33271    0.000
 4331.00    1.54870   1.33086    0.000
 4332.00    1.46350   1.32461    0.000
 4333.00    1.34750   1.31481    0.000
 4334.00    1.23742   1.30321    0.000
 4335.00    1.26921   1.29092    0.000
 4336.00    1.29129   1.28054    0.000
 4337.00    1.18705   1.27269    0.000
 4338.00    1.10344   1.26920    0.000
 4339.00    1.20007   1.26984    0.000
 4340.00    1.29621   1.27475    0.000
 4341.00    1.38927   1.28301    0.000
 4342.00    1.49728   1.29331    0.000
 4343.00    1.68073   1.30473    0.000
 4344.00    1.75028   1.31551    0.000
 4345.00    1.35489   1.32545    0.000
 4346.00    1.04281   1.33341    0.000
 4347.00    1.01255   1.33999    0.000
 4348.00    1.04767   1.34499    0.000
 4349.00    1.26929   1.34957    0.000
 4350.00    1.41270   1.35404    0.000
 4351.00    1.36541   1.35949    0.020
 4352.00    1.30778   1.36597    0.020
 4353.00    1.22839   1.37412    0.020
 4354.00    1.22486   1.38358    0.024
 4355.00    1.36004   1.39416    0.064
 4356.00    1.44338   1.40523   -1.000
 4357.00    1.44389   1.41604   -1.000
 4358.00    1.41704   1.42602   -1.000
 4359.00    1.35184   1.43397   -1.000
 4360.00    1.30746   1.43990   -1.000
 4361.00    1.28877   1.44254   -1.000
 4362.00    1.32367   1.44248    0.083
 4363.00    1.41685   1.43883    0.027
 4364.00    1.45873   1.43250    0.020
 4365.00    1.45141   1.42322    0.020
 4366.00    1.51292   1.41190    0.021
 4367.00    1.63267   1.39887    0.021
 4368.00    1.61673   1.38472    0.021
 4369.00    1.49972   1.36999    0.020
 4370.00    1.42083   1.35476    0.020
 4371.00    1.36688   1.33946    0.021
 4372.00    1.27445   1.32382    0.021
 4373.00    1.15998   1.30802    0.020
 4374.00    1.34490   1.29140    0.020
 4375.00    1.67917   1.27454    0.021
 4376.00    1.81281   1.25692    0.021
 4377.00    1.85987   1.23978    0.021
 4378.00    1.67039   1.22304    0.021
 4379.00    1.39339   1.20845    0.021
 4380.00    1.28125   1.19629    0.021
 4381.00    1.22081   1.18782    0.021
 4382.00    1.29845   1.18374    0.021
 4383.00    1.41222   1.18426    0.021
 4384.00    1.49264   1.18988    0.021
 4385.00    1.56595   1.19936    0.021
 4386.00    1.18962   1.21277    0.021
 4387.00    0.73725   1.22822    0.020
 4388.00    1.11531   1.24549    0.021
 4389.00    1.59946   1.26282    0.021
 4390.00    1.65356   1.27944    0.021
 4391.00    1.66928   1.29388    0.021
 4392.00    1.61021   1.30581    0.021
 4393.00    1.54715   1.31451    0.021
 4394.00    1.59104   1.31952    0.021
 4395.00    1.63765   1.32099    0.021
 4396.00    1.73504   1.31886    0.021
 4397.00    1.82375   1.31421    0.021
 4398.00    1.72182   1.30736    0.021
 4399.00    1.60481   1.30017    0.021
 4400.00    1.30141   1.29315    0.021
 4401.00    1.06956   1.28784    0.021
 4402.00    1.43971   1.28483    0.021
 4403.00    1.73954   1.28503    0.021
 4404.00    1.59872   1.28836    0.021
 4405.00    1.46300   1.29525    0.021
 4406.00    1.35236   1.30455    0.021
 4407.00    1.25419   1.31595    0.021
 4408.00    1.20585   1.32820    0.021
 4409.00    1.27100   1.34085    0.021
 4410.00    1.71250   1.35283    0.021
 4411.00    1.98019   1.36379    0.021
 4412.00    1.76088   1.37344    0.021
 4413.00    1.61399   1.38178    0.021
 4414.00    1.64065   1.38900    0.021
 4415.00    1.67260   1.39468    0.021
 4416.00    1.71552   1.39926    0.021
 4417.00    1.68636   1.40264    0.021
 4418.00    1.52747   1.40525    0.021
 4419.00    1.44017   1.40623    0.021
 4420.00    1.46559   1.40676    0.021
 4421.00    1.45404   1.40616    0.021
 4422.00    1.39142   1.40491    0.021
 4423.00    1.37836   1.40233    0.021
 4424.00    1.42559   1.39971    0.021
 4425.00    1.52804   1.39668    0.021
 4426.00    1.68969   1.39396    0.022
 4427.00    1.75102   1.39131    0.022
 4428.00    1.71746   1.38934    0.021
 4429.00    1.76690   1.38797    0.021
 4430.00    1.88556   1.38754    0.021
 4431.00    1.73571   1.38835    0.021
 4432.00    1.38874   1.39059    0.021
 4433.00    1.31159   1.39417    0.021
 4434.00    1.40839   1.39915    0.021
 4435.00    1.51703   1.40519    0.021
 4436.00    1.63234   1.41171    0.021
 4437.00    1.45519   1.41922    0.021
 4438.00    1.13447   1.42650    0.022
 4439.00    1.18059   1.43395    0.022
 4440.00    1.38237   1.44082    0.021
 4441.00    1.26672   1.44693    0.021
 4442.00    1.03569   1.45159    0.021
 4443.00    1.17031   1.45446    0.021
 4444.00    1.41736   1.45495    0.021
 4445.00    1.47798   1.45278    0.021
 4446.00    1.49086   1.44751    0.021
 4447.00    1.59745   1.43938    0.021
 4448.00    1.72358   1.42822    0.021
 4449.00    1.67795   1.41513    0.021
 4450.00    1.60410   1.39978    0.021
 4451.00    1.66382   1.38431    0.021
 4452.00    1.74000   1.36888    0.021
 4453.00    1.51991   1.35456    0.021
 4454.00    1.27463   1.34311    0.020
 4455.00    1.29592   1.33415    0.020
 4456.00    1.33036   1.32903    0.020
 4457.00    1.31842   1.32719    0.020
 4458.00    1.30709   1.32952    0.020
 4459.00    1.38022   1.33511    0.020
 4460.00    1.45270   1.34338    0.020
 4461.00    1.51191   1.35484    0.000
 4462.00    1.58238   1.36783    0.000
 4463.00    1.78508   1.38317    0.000
 4464.00    1.92987   1.39877    0.000
 4465.00    1.60499   1.41554    0.000
 4466.00    1.32935   1.43200    0.000
 4467.00    1.35333   1.44847    0.000
 4468.00    1.37773   1.46472    0.000
 4469.00    1.40423   1.47953    0.000
 4470.00    1.44873   1.49312    0.000
 4471.00    1.56353   1.50360    0.000
 4472.00    1.65611   1.51302    0.000
 4473.00    1.67641   1.51936    0.000
 4474.00    1.64797   1.52480    0.000
 4475.00    1.48541   1.52766    0.000
 4476.00    1.32778   1.52930    0.000
 4477.00    1.18179   1.52959    0.000
 4478.00    1.16447   1.52875    0.000
 4479.00    1.40918   1.52728    0.000
 4480.00    1.61793   1.52491    0.000
 4481.00    1.76291   1.52277    0.000
 4482.00    1.80655   1.52055    0.020
 4483.00    1.69302   1.51851    0.020
 4484.00    1.66579   1.51589    0.020
 4485.00    1.75609   1.51183    0.020
 4486.00    1.77553   1.50831    0.020
 4487.00    1.71001   1.50476    0.020
 4488.00    1.66689   1.50255    0.020
 4489.00    1.64746   1.50146    0.020
 4490.00    1.55492   1.50175    0.020
 4491.00    1.39419   1.50427    0.020
 4492.00    1.38463   1.50781    0.020
 4493.00    1.49934   1.51514    0.020
 4494.00    1.69424   1.52469    0.020
 4495.00    1.94717   1.53698    0.021
 4496.00    1.95003   1.55082    0.021
 4497.00    1.79406   1.56578    0.021
 4498.00    1.70575   1.58121    0.021
 4499.00    1.65504   1.59567    0.020
 4500.00    1.54143   1.60934    0.020
 4501.00    1.39744   1.62099    0.020
 4502.00    1.42623   1.63096    0.020
 4503.00    1.52711   1.63760    0.020
 4504.00    1.59727   1.64148    0.020
 4505.00    1.65647   1.64214    0.020
 4506.00    1.75204   1.64014    0.020
 4507.00    1.85857   1.63617    0.020
 4508.00    1.62075   1.63010    0.020
 4509.00    1.29669   1.62310    0.019
 4510.00    1.36324   1.61545    0.019
 4511.00    1.50920   1.60652    0.020
 4512.00    1.53866   1.59849    0.020
 4513.00    1.54953   1.58920    0.019
 4514.00    1.38339   1.58030    0.019
 4515.00    1.19621   1.57060    0.019
 4516.00    1.40999   1.55955    0.020
 4517.00    1.65622   1.54785    0.020
 4518.00    1.58531   1.53365    0.020
 4519.00    1.49998   1.51880    0.020
 4520.00    1.53476   1.50171    0.020
 4521.00    1.56894   1.48520    0.020
 4522.00    1.49694   1.46701    0.020
 4523.00    1.42741   1.45137    0.020
 4524.00    1.40432   1.43511    0.020
 4525.00    1.38954   1.42269    0.020
 4526.00    1.46791   1.41195    0.020
 4527.00    1.54760   1.40480    0.020
 4528.00    1.63762   1.40235    0.020
 4529.00    1.69926   1.40256    0.020
 4530.00    1.59312   1.40873    0.020
 4531.00    1.52067   1.41538    0.019
 4532.00    1.60597   1.42563    0.020
 4533.00    1.69523   1.43591    0.020
 4534.00    1.79966   1.44817    0.020
 4535.00    1.86994   1.45964    0.020
 4536.00    1.83135   1.47047    0.020
 4537.00    1.76438   1.47987    0.020
 4538.00    1.62071   1.48608    0.020
 4539.00    1.51812   1.49226    0.020
 4540.00    1.51067   1.49473    0.020
 4541.00    1.48231   1.49734    0.020
 4542.00    1.41199   1.49713    0.020
 4543.00    1.43882   1.49662    0.020
 4544.00    1.63522   1.49636    0.020
 4545.00    1.72757   1.49439    0.020
 4546.00    1.66091   1.49448    0.020
 4547.00    1.61296   1.49444    0.020
 4548.00    1.59013   1.49704    0.020
 4549.00    1.62397   1.50028    0.020
 4550.00    1.72480   1.50651    0.000
 4551.00    1.72118   1.51300    0.000
 4552.00    1.60869   1.52103    0.000
 4553.00    1.56253   1.52951    0.000
 4554.00    1.57734   1.53777    0.000
 4555.00    1.54631   1.54698    0.000
 4556.00    1.47813   1.55359    0.000
 4557.00    1.47858   1.56011    0.000
 4558.00    1.52798   1.56502    0.000
 4559.00    1.64033   1.56957    0.000
 4560.00    1.79208   1.57377    0.000
 4561.00    1.65433   1.57688    0.000
 4562.00    1.35824   1.57839    0.000
 4563.00    1.33714   1.57980    0.000
 4564.00    1.44678   1.57958    0.000
 4565.00    1.57302   1.57946    0.000
 4566.00    1.70609   1.58099    0.000
 4567.00    1.67734   1.58068    0.000
 4568.00    1.59189   1.57964    0.000
 4569.00    1.46751   1.57825    0.000
 4570.00    1.33164   1.57598    0.000
 4571.00    1.47881   1.57272    0.000
 4572.00    1.69532   1.56752    0.000
 4573.00    1.78571   1.56128    0.000
 4574.00    1.85109   1.55443    0.000
 4575.00    1.66089   1.54824    0.000
 4576.00    1.43113   1.54158    0.000
 4577.00    1.60543   1.53565    0.000
 4578.00    1.82596   1.53073    0.000
 4579.00    1.83048   1.52563    0.000
 4580.00    1.81842   1.52392    0.000
 4581.00    1.86098   1.52264    0.000
 4582.00    1.90581   1.52308    0.000
 4583.00    1.89241   1.52329    0.000
 4584.00    1.87530   1.52344    0.000
 4585.00    1.72124   1.52385    0.000
 4586.00    1.57004   1.52424    0.000
 4587.00    1.46894   1.52431    0.000
 4588.00    1.37330   1.52245    0.000
 4589.00    1.33603   1.52081    0.000
 4590.00    1.33758   1.51843    0.000
 4591.00    1.63246   1.51554    0.000
 4592.00    1.86476   1.51448    0.000
 4593.00    1.73735   1.51144    0.000
 4594.00    1.58238   1.51037    0.000
 4595.00    1.30145   1.51052    0.000
 4596.00    1.13769   1.51128    0.000
 4597.00    1.41229   1.51528    0.000
 4598.00    1.63447   1.51884    0.000
 4599.00    1.69272   1.52620    0.000
 4600.00    1.73877   1.53372    0.000
 4601.00    1.75247   1.54454    0.000
 4602.00    1.79700   1.55519    0.000
 4603.00    1.91183   1.56640    0.000
 4604.00    1.97579   1.57709    0.000
 4605.00    1.93940   1.58714    0.000
 4606.00    1.88605   1.59746    0.000
 4607.00    1.80355   1.60599    0.000
 4608.00    1.68226   1.61537    0.000
 4609.00    1.50256   1.62120    0.000
 4610.00    1.44017   1.62808    0.000
 4611.00    1.53298   1.63255    0.000
 4612.00    1.55396   1.63608    0.000
 4613.00    1.49120   1.63872    0.000
 4614.00    1.52477   1.64077    0.000
 4615.00    1.65735   1.64124    0.000
 4616.00    1.71810   1.64176    0.000
 4617.00    1.71374   1.64220    0.000
 4618.00    1.65314   1.64103    0.000
 4619.00    1.54762   1.64067    0.000
 4620.00    1.47420   1.63869    0.000
 4621.00    1.42333   1.63671    0.000
 4622.00    1.45544   1.63353    0.000
 4623.00    1.53869   1.62968    0.000
 4624.00    1.52269   1.62568    0.000
 4625.00    1.45325   1.62101    0.000
 4626.00    1.51216   1.61466    0.000
 4627.00    1.63110   1.60764    0.000
 4628.00    1.73337   1.59964    0.000
 4629.00    1.82891   1.59121    0.000
 4630.00    1.66467   1.58133    0.000
 4631.00    1.41106   1.57141    0.000
 4632.00    1.67566   1.56119    0.000
 4633.00    2.09035   1.54950    0.000
 4634.00    1.90009   1.53979    0.000
 4635.00    1.56493   1.52955    0.000
 4636.00    1.57888   1.52021    0.000
 4637.00    1.66025   1.51014    0.000
 4638.00    1.47119   1.50118    0.000
 4639.00    1.24154   1.49238    0.000
 4640.00    1.33349   1.48489    0.000
 4641.00    1.46084   1.47873    0.000
 4642.00    1.46987   1.47396    0.000
 4643.00    1.47030   1.47252    0.000
 4644.00    1.41581   1.47215    0.000
 4645.00    1.35925   1.47427    0.000
 4646.00    1.44750   1.47858    0.000
 4647.00    1.53733   1.48236    0.000
 4648.00    1.65828   1.48852    0.000
 4649.00    1.77135   1.49491    0.000
 4650.00    1.75549   1.50205    0.000
 4651.00    1.74044   1.51033    0.000
 4652.00    1.73362   1.51845    0.000
 4653.00    1.71652   1.52657    0.000
 4654.00    1.62428   1.53138    0.000
 4655.00    1.56626   1.53460    0.000
 4656.00    1.69949   1.53347    0.000
 4657.00    1.79602   1.53086    0.000
 4658.00    1.72881   1.52524    0.000
 4659.00    1.67992   1.51720    0.000
 4660.00    1.69815   1.50871    0.000
 4661.00    1.68630   1.49848    0.000
 4662.00    1.58220   1.48940    0.000
 4663.00    1.56905   1.48110    0.000
 4664.00    1.79313   1.47548    0.000
 4665.00    1.88273   1.47064    0.000
 4666.00    1.67095   1.46816    0.000
 4667.00    1.53916   1.46773    0.000
 4668.00    1.56272   1.46905    0.000
 4669.00    1.53108   1.47342    0.000
 4670.00    1.40598   1.47723    0.000
 4671.00    1.39838   1.48213    0.000
 4672.00    1.56515   1.48682    0.000
 4673.00    1.67907   1.49130    0.000
 4674.00    1.72405   1.49472    0.000
 4675.00    1.77247   1.49658    0.000
 4676.00    1.82484   1.49833    0.000
 4677.00    1.85723   1.49840    0.000
 4678.00    1.86939   1.49966    0.000
 4679.00    1.79603   1.50035    0.000
 4680.00    1.64623   1.50056    0.000
 4681.00    1.61539   1.50120    0.000
 4682.00    1.67824   1.50073    0.000
 4683.00    1.69785   1.50094    0.000
 4684.00    1.68751   1.50148    0.000
 4685.00    1.67537   1.50238    0.000
 4686.00    1.66213   1.50262    0.000
 4687.00    1.66065   1.50321    0.000
 4688.00    1.66541   1.50382    0.000
 4689.00    1.55375   1.50262    0.000
 4690.00    1.38851   1.50192    0.000
 4691.00    1.31799   1.49934    0.000
 4692.00    1.28500   1.49581    0.000
 4693.00    1.34403   1.49100    0.000
 4694.00    1.43414   1.48559    0.000
 4695.00    1.73227   1.48097    0.000
 4696.00    2.08944   1.47490    0.000
 4697.00    1.84662   1.47050    0.000
 4698.00    1.46333   1.46473    0.000
 4699.00    1.70159   1.46174    0.000
 4700.00    2.05677   1.45860    0.000
 4701.00    2.07866   1.45633    0.000
 4702.00    2.05207   1.45490    0.000
 4703.00    1.79368   1.45519    0.000
 4704.00    1.51079   1.45903    0.000
 4705.00    1.46157   1.46282    0.000
 4706.00    1.42839   1.47044    0.000
 4707.00    1.41045   1.47669    0.000
 4708.00    1.39303   1.48519    0.000
 4709.00    1.45960   1.49398    0.000
 4710.00    1.52483   1.50354    0.000
 4711.00    1.54257   1.51554    0.000
 4712.00    1.54392   1.52681    0.000
 4713.00    1.29375   1.53793    0.000
 4714.00    1.08881   1.54812    0.000
 4715.00    1.32741   1.55724    0.000
 4716.00    1.54298   1.56389    0.000
 4717.00    1.59568   1.56753    0.000
 4718.00    1.63910   1.56972    0.000
 4719.00    1.63196   1.57041    0.000
 4720.00    1.64582   1.56849    0.000
 4721.00    1.75118   1.56435    0.000
 4722.00    1.83036   1.55542    0.000
 4723.00    1.81562   1.54648    0.000
 4724.00    1.77198   1.53826    0.000
 4725.00    1.64133   1.53051    0.000
 4726.00    1.55563   1.52367    0.000
 4727.00    1.58515   1.51832    0.000
 4728.00    1.63110   1.51593    0.000
 4729.00    1.71330   1.51323    0.000
 4730.00    1.72613   1.51423    0.000
 4731.00    1.60636   1.51492    0.000
 4732.00    1.55870   1.51740    0.000
 4733.00    1.63134   1.52457    0.000
 4734.00    1.60559   1.53149    0.000
 4735.00    1.43597   1.53797    0.000
 4736.00    1.36586   1.54424    0.000
 4737.00    1.42371   1.55165    0.000
 4738.00    1.51133   1.55815    0.000
 4739.00    1.63266   1.56430    0.000
 4740.00    1.73196   1.56871    0.000
 4741.00    1.80923   1.57360    0.000
 4742.00    1.82471   1.57793    0.000
 4743.00    1.78574   1.58021    0.000
 4744.00    1.76134   1.58096    0.000
 4745.00    1.74825   1.58059    0.000
 4746.00    1.77002   1.58010    0.000
 4747.00    1.81557   1.57601    0.000
 4748.00    1.84215   1.57287    0.000
 4749.00    1.85739   1.56694    0.000
 4750.00    1.92937   1.56156    0.000
 4751.00    2.03097   1.55540    0.000
 4752.00    1.81356   1.54800    0.000
 4753.00    1.45174   1.54134    0.000
 4754.00    1.40758   1.53319    0.000
 4755.00    1.48710   1.52719    0.000
 4756.00    1.58455   1.51877    0.000
 4757.00    1.68792   1.51067    0.000
 4758.00    1.63094   1.50450    0.000
 4759.00    1.52937   1.49874    0.000
 4760.00    1.50779   1.49440    0.000
 4761.00    1.50450   1.49044    0.019
 4762.00    1.42305   1.49066    0.018
 4763.00    1.32729   1.49217    0.018
 4764.00    1.48650   1.49512    0.019
 4765.00    1.68163   1.50094    0.019
 4766.00    1.55070   1.50479    0.019
 4767.00    1.38671   1.51150    0.018
 4768.00    1.50422   1.51899    0.018
 4769.00    1.63992   1.52809    0.018
 4770.00    1.72475   1.53661    0.018
 4771.00    1.80794   1.54211    0.018
 4772.00    1.83530   1.54904    0.018
 4773.00    1.86120   1.55286    0.019
 4774.00    1.84471   1.55441    0.018
 4775.00    1.82663   1.55451    0.018
 4776.00    1.78547   1.55334    0.018
 4777.00    1.73890   1.55116    0.019
 4778.00    1.64156   1.54637    0.018
 4779.00    1.59355   1.54282    0.018
 4780.00    1.88335   1.54022    0.018
 4781.00    2.08946   1.53515    0.018
 4782.00    1.85235   1.53309    0.018
 4783.00    1.62389   1.53280    0.018
 4784.00    1.43225   1.53177    0.018
 4785.00    1.32846   1.53358    0.018
 4786.00    1.53339   1.53654    0.018
 4787.00    1.72372   1.54113    0.018
 4788.00    1.87088   1.54656    0.018
 4789.00    1.99070   1.55376    0.018
 4790.00    2.04170   1.56072    0.017
 4791.00    2.04937   1.56500    0.017
 4792.00    1.96310   1.57001    0.018
 4793.00    1.90496   1.57235    0.018
 4794.00    1.89976   1.57412    0.018
 4795.00    1.85144   1.57533    0.018
 4796.00    1.73228   1.57644    0.018
 4797.00    1.64866   1.57741    0.018
 4798.00    1.61628   1.57618    0.018
 4799.00    1.63524   1.57455    0.018
 4800.00    1.71927   1.57016    0.017
 4801.00    1.71911   1.56808    0.018
 4802.00    1.62494   1.56534    0.018
 4803.00    1.64035   1.56336    0.018
 4804.00    1.76371   1.56364    0.018
 4805.00    1.90633   1.56426    0.018
 4806.00    2.06568   1.56549    0.018
 4807.00    2.07360   1.56663    0.018
 4808.00    1.96563   1.56856    0.018
 4809.00    1.82955   1.57105    0.018
 4810.00    1.67455   1.57407    0.017
 4811.00    1.66150   1.57716    0.017
 4812.00    1.73210   1.58073    0.018
 4813.00    1.66927   1.58314    0.018
 4814.00    1.53789   1.58590    0.018
 4815.00    1.59410   1.58609    0.018
 4816.00    1.73384   1.58489    0.018
 4817.00    1.85337   1.58327    0.018
 4818.00    1.96518   1.57860    0.018
 4819.00    1.96342   1.57454    0.018
 4820.00    1.92474   1.57038    0.018
 4821.00    1.86093   1.56663    0.018
 4822.00    1.79028   1.56224    0.018
 4823.00    1.78842   1.55700    0.018
 4824.00    1.80193   1.55195    0.018
 4825.00    1.63943   1.54788    0.018
 4826.00    1.44555   1.54366    0.018
 4827.00    1.35828   1.53948    0.018
 4828.00    1.28553   1.53748    0.018
 4829.00    1.29819   1.53590    0.018
 4830.00    1.31915   1.53479    0.018
 4831.00    1.41697   1.53190    0.018
 4832.00    1.51944   1.53085    0.018
 4833.00    1.41399   1.52926    0.018
 4834.00    1.30425   1.52671    0.018
 4835.00    1.41571   1.52539    0.018
 4836.00    1.52477   1.52352    0.018
 4837.00    1.57137   1.52298    0.018
 4838.00    1.61212   1.52111    0.018
 4839.00    1.57288   1.52015    0.018
 4840.00    1.53521   1.51952    0.018
 4841.00    1.51175   1.51769    0.018
 4842.00    1.48705   1.51566    0.017
 4843.00    1.45418   1.51079    0.018
 4844.00    1.46261   1.50603    0.018
 4845.00    1.68417   1.50153    0.018
 4846.00    1.85637   1.49442    0.018
 4847.00    1.82314   1.48642    0.018
 4848.00    1.77479   1.47580    0.000
 4849.00    1.67444   1.46196    0.000
 4850.00    1.59479   1.44619    0.000
 4851.00    1.57517   1.43039    0.000
 4852.00    1.56279   1.41592    0.000
 4853.00    1.56832   1.40085    0.000
 4854.00    1.59656   1.38574    0.000
 4855.00    1.67321   1.37117    0.000
 4856.00    1.67908   1.35573    0.000
 4857.00    1.55376   1.34539    0.000
 4858.00    1.47873   1.33931    0.000
 4859.00    1.48510   1.33459    0.000
 4860.00    1.47788   1.33485    0.000
 4861.00    1.45138   1.33548    0.000
 4862.00    1.46185   1.33858    0.000
 4863.00    1.51851   1.34193    0.000
 4864.00    1.54667   1.34883    0.000
 4865.00    1.54345   1.35734    0.000
 4866.00    1.53478   1.36296    0.000
 4867.00    1.52080   1.37277    0.000
 4868.00    1.45171   1.38160    0.000
 4869.00    1.33543   1.39097    0.000
 4870.00    1.28859   1.40011    0.000
 4871.00    1.29413   1.40916    0.000
 4872.00    1.31937   1.41816    0.000
 4873.00    1.35765   1.42371    0.000
 4874.00    1.40570   1.43209    0.000
 4875.00    1.45943   1.43833    0.019
 4876.00    1.51884   1.44200    0.019
 4877.00    1.58111   1.44550    0.019
 4878.00    1.53651   1.44674    0.018
 4879.00    1.44511   1.44638    0.018
 4880.00    1.28879   1.44483    0.018
 4881.00    1.10807   1.44294    0.019
 4882.00    1.16716   1.44270    0.019
 4883.00    1.30273   1.44214    0.019
 4884.00    1.65885   1.44350    0.019
 4885.00    2.07376   1.44723    0.019
 4886.00    1.83011   1.44934    0.019
 4887.00    1.44277   1.45703    0.019
 4888.00    1.42836   1.46564    0.019
 4889.00    1.47859   1.47759    0.018
 4890.00    1.45439   1.49151    0.018
 4891.00    1.42039   1.50339    0.018
 4892.00    1.39628   1.51594    0.018
 4893.00    1.37308   1.52523    0.019
 4894.00    1.69445   1.53503    0.019
 4895.00    2.03536   1.54340    0.019
 4896.00    1.90744   1.55040    0.019
 4897.00    1.76957   1.55445    0.018
 4898.00    1.71334   1.55507    0.019
 4899.00    1.65683   1.55438    0.019
 4900.00    1.59380   1.55185    0.019
 4901.00    1.54067   1.54930    0.018
 4902.00    1.61557   1.54494    0.018
 4903.00    1.67840   1.54064    0.019
 4904.00    1.63617   1.53431    0.018
 4905.00    1.60650   1.52633    0.018
 4906.00    1.65757   1.51927    0.018
 4907.00    1.70251   1.51170    0.019
 4908.00    1.71660   1.50394    0.018
 4909.00    1.69981   1.49520    0.018
 4910.00    1.55734   1.48658    0.018
 4911.00    1.44873   1.47748    0.018
 4912.00    1.45434   1.46874    0.018
 4913.00    1.48112   1.45943    0.018
 4914.00    1.56816   1.45060    0.018
 4915.00    1.61996   1.44257    0.018
 4916.00    1.58603   1.43756    0.018
 4917.00    1.54632   1.43708    0.017
 4918.00    1.49445   1.43801    0.018
 4919.00    1.47690   1.44216    0.018
 4920.00    1.52196   1.44602    0.018
 4921.00    1.53144   1.45207    0.017
 4922.00    1.48419   1.46004    0.017
 4923.00    1.46983   1.46924    0.017
 4924.00    1.50149   1.48118    0.018
 4925.00    1.46553   1.49029    0.017
 4926.00    1.34629   1.49802    0.017
 4927.00    1.31842   1.50273    0.017
 4928.00    1.38972   1.50410    0.017
 4929.00    1.45037   1.50561    0.017
 4930.00    1.50081   1.50637    0.017
 4931.00    1.56937   1.50734    0.017
 4932.00    1.65321   1.50729    0.017
 4933.00    1.74715   1.50561    0.018
 4934.00    1.84858   1.50494    0.018
 4935.00    1.81233   1.50462    0.018
 4936.00    1.68615   1.50723    0.017
 4937.00    1.63659   1.51408    0.017
 4938.00    1.63082   1.52200    0.017
 4939.00    1.64149   1.52886    0.017
 4940.00    1.66034   1.53443    0.000
 4941.00    1.73844   1.54145    0.000
 4942.00    1.84206   1.54869    0.000
 4943.00    1.79236   1.55479    0.000
 4944.00    1.68606   1.55993    0.000
 4945.00    1.59695   1.56199    0.000
 4946.00    1.51323   1.56235    0.000
 4947.00    1.55396   1.55633    0.000
 4948.00    1.62715   1.55037    0.000
 4949.00    1.71042   1.54617    0.000
 4950.00    1.79583   1.53853    0.000
 4951.00    1.87934   1.53095    0.000
 4952.00    1.96252   1.51883    0.000
 4953.00    1.82271   1.51043    0.000
 4954.00    1.65454   1.50180    0.000
 4955.00    1.74361   1.49319    0.000
 4956.00    1.85551   1.49123    0.000
 4957.00    1.64264   1.48754    0.000
 4958.00    1.41264   1.48486    0.000
 4959.00    1.53653   1.48097    0.000
 4960.00    1.66318   1.47873    0.000
 4961.00    1.47590   1.48140    0.000
 4962.00    1.29533   1.48240    0.000
 4963.00    1.26084   1.48295    0.000
 4964.00    1.22949   1.48543    0.000
 4965.00    1.23659   1.48579    0.000
 4966.00    1.27709   1.48649    0.000
 4967.00    1.59729   1.48648    0.000
 4968.00    1.85212   1.48472    0.000
 4969.00    1.69877   1.48517    0.000
 4970.00    1.56587   1.48162    0.000
 4971.00    1.53327   1.47764    0.000
 4972.00    1.55565   1.47131    0.000
 4973.00    1.79691   1.46173    0.000
 4974.00    1.94480   1.45480    0.000
 4975.00    1.78379   1.44495    0.000
 4976.00    1.68107   1.43605    0.000
 4977.00    1.74129   1.42839    0.000
 4978.00    1.70410   1.41931    0.000
 4979.00    1.43395   1.41229    0.000
 4980.00    1.31502   1.40612    0.000
 4981.00    1.50850   1.40334    0.000
 4982.00    1.61048   1.40542    0.000
 4983.00    1.54811   1.40626    0.000
 4984.00    1.54298   1.40783    0.000
 4985.00    1.62779   1.41140    0.000
 4986.00    1.71610   1.41436    0.000
 4987.00    1.80924   1.41943    0.000
 4988.00    1.87994   1.42216    0.000
 4989.00    1.92339   1.42463    0.000
 4990.00    1.93450   1.42622    0.000
 4991.00    1.91099   1.42284    0.000
 4992.00    1.82315   1.42116    0.000
 4993.00    1.67455   1.41757    0.000
 4994.00    1.56115   1.41176    0.000
 4995.00    1.47705   1.40520    0.000
 4996.00    1.49736   1.39426    0.000
 4997.00    1.59419   1.38580    0.000
 4998.00    1.61213   1.37918    0.000
 4999.00    1.57931   1.37050    0.000
 5000.00    1.68753   1.36308    0.000
 5001.00    1.87514   1.35433    0.000
 5002.00    1.89257   1.34501    0.000
 5003.00    1.82662   1.33845    0.000
 5004.00    1.66490   1.33250    0.000
 5005.00    1.46263   1.33041    0.000
 5006.00    1.61847   1.32767    0.000
 5007.00    1.90416   1.32149    0.000
 5008.00    1.81266   1.31753    0.000
 5009.00    1.60546   1.31378    0.000
 5010.00    1.67642   1.31381    0.000
 5011.00    1.81841   1.31442    0.000
 5012.00    1.62170   1.31314    0.000
 5013.00    1.35462   1.31592    0.000
 5014.00    1.34258   1.31732    0.000
 5015.00    1.37229   1.31934    0.000
 5016.00    1.36808   1.32556    0.000
 5017.00    1.35971   1.33013    0.000
 5018.00    1.53149   1.33784    0.000
 5019.00    1.71851   1.34458    0.000
 5020.00    1.67465   1.35049    0.000
 5021.00    1.61951   1.36114    0.000
 5022.00    1.69196   1.36806    0.000
 5023.00    1.76339   1.37644    0.000
 5024.00    1.65205   1.38257    0.000
 5025.00    1.54265   1.38618    0.000
 5026.00    1.47196   1.39280    0.000
 5027.00    1.40227   1.39609    0.000
 5028.00    1.34427   1.39803    0.000
 5029.00    1.30990   1.39796    0.017
 5030.00    1.46618   1.39479    0.017
 5031.00    1.62277   1.39065    0.017
 5032.00    1.78119   1.38612    0.017
 5033.00    1.90702   1.37955    0.017
 5034.00    1.87705   1.37672    0.017
 5035.00    1.82063   1.37437    0.017
 5036.00    1.66124   1.36882    0.017
 5037.00    1.52930   1.36575    0.017
 5038.00    1.48636   1.36149    0.017
 5039.00    1.48653   1.36454    0.017
 5040.00    1.60506   1.37111    0.017
 5041.00    1.70209   1.37358    0.017
 5042.00    1.74856   1.37864    0.017
 5043.00    1.73255   1.38293    0.017
 5044.00    1.58950   1.38939    0.017
 5045.00    1.46900   1.39744    0.017
 5046.00    1.38837   1.40315    0.017
 5047.00    1.42115   1.41122    0.017
 5048.00    1.62948   1.41907    0.017
 5049.00    1.66622   1.42433    0.017
 5050.00    1.46970   1.43061    0.017
 5051.00    1.43438   1.43688    0.017
 5052.00    1.59199   1.44346    0.017
 5053.00    1.61223   1.44910    0.017
 5054.00    1.48750   1.45075    0.017
 5055.00    1.41607   1.45369    0.017
 5056.00    1.39426   1.45513    0.017
 5057.00    1.43257   1.45347    0.017
 5058.00    1.52021   1.45288    0.017
 5059.00    1.52823   1.44832    0.017
 5060.00    1.47874   1.44365    0.018
 5061.00    1.57595   1.43668    0.018
 5062.00    1.76618   1.42784    0.018
 5063.00    1.61776   1.42434    0.018
 5064.00    1.28162   1.41701    0.018
 5065.00    1.23288   1.40930    0.017
 5066.00    1.32272   1.40188    0.017
 5067.00    1.46543   1.39480    0.017
 5068.00    1.63016   1.39101    0.018
 5069.00    1.53985   1.38286    0.017
 5070.00    1.35874   1.37673    0.017
 5071.00    1.34910   1.37174    0.017
 5072.00    1.39101   1.36629    0.018
 5073.00    1.41719   1.36204    0.017
 5074.00    1.43944   1.35666    0.017
 5075.00    1.49284   1.35425    0.018
 5076.00    1.55255   1.35053    0.018
 5077.00    1.45114   1.34812    0.018
 5078.00    1.32412   1.35008    0.017
 5079.00    1.30106   1.35350    0.017
 5080.00    1.29031   1.35726    0.017
 5081.00    1.41424   1.35979    0.017
 5082.00    1.54901   1.36533    0.017
 5083.00    1.40983   1.37307    0.017
 5084.00    1.25832   1.38003    0.017
 5085.00    1.38731   1.38605    0.016
 5086.00    1.51838   1.39109    0.016
 5087.00    1.58793   1.39607    0.016
 5088.00    1.64922   1.39868    0.016
 5089.00    1.55696   1.39941    0.016
 5090.00    1.46378   1.40010    0.016
 5091.00    1.36029   1.39828    0.016
 5092.00    1.27434   1.39560    0.016
 5093.00    1.32497   1.39174    0.016
 5094.00    1.35344   1.38661    0.017
 5095.00    1.25134   1.38194    0.017
 5096.00    1.17534   1.37566    0.017
 5097.00    1.22117   1.37159    0.017
 5098.00    1.28350   1.36936    0.016
 5099.00    1.40875   1.36551    0.017
 5100.00    1.51221   1.36122    0.017
 5101.00    1.54637   1.35840    0.016
 5102.00    1.55534   1.35764    0.016
 5103.00    1.49642   1.35974    0.016
 5104.00    1.41171   1.36101    0.016
 5105.00    1.26739   1.36077    0.016
 5106.00    1.17036   1.36433    0.016
 5107.00    1.16793   1.36673    0.016
 5108.00    1.19429   1.37072    0.016
 5109.00    1.27079   1.37633    0.016
 5110.00    1.34942   1.37784    0.016
 5111.00    1.43131   1.38144    0.016
 5112.00    1.44170   1.38279    0.016
 5113.00    1.35628   1.38193    0.016
 5114.00    1.42251   1.38321    0.016
 5115.00    1.66768   1.37939    0.016
 5116.00    1.74364   1.37460    0.017
 5117.00    1.64353   1.36984    0.017
 5118.00    1.53391   1.36211    0.017
 5119.00    1.41555   1.35626    0.017
 5120.00    1.46293   1.34860    0.017
 5121.00    1.64440   1.34038    0.017
 5122.00    1.77153   1.33598    0.017
 5123.00    1.85998   1.33157    0.017
 5124.00    1.85464   1.32760    0.016
 5125.00    1.79072   1.32515    0.016
 5126.00    1.74341   1.32218    0.016
 5127.00    1.70518   1.32356    0.017
 5128.00    1.66584   1.32574    0.017
 5129.00    1.62599   1.32452    0.017
 5130.00    1.54805   1.32578    0.017
 5131.00    1.45452   1.32436    0.017
 5132.00    1.41246   1.32584    0.017
 5133.00    1.38838   1.32756    0.017
 5134.00    1.45207   1.32206    0.017
 5135.00    1.54164   1.32027    0.017
 5136.00    1.44809   1.31695    0.017
 5137.00    1.30981   1.31498    0.017
 5138.00    1.29670   1.31469    0.017
 5139.00    1.30833   1.30680    0.017
 5140.00    1.33646   1.30300    0.017
 5141.00    1.36714   1.30299    0.017
 5142.00    1.35793   1.30129    0.017
 5143.00    1.34418   1.30097    0.017
 5144.00    1.25722   1.29802    0.017
 5145.00    1.16469   1.29757    0.017
 5146.00    1.25990   1.30197    0.017
 5147.00    1.36283   1.30425    0.017
 5148.00    1.37689   1.30567    0.017
 5149.00    1.39056   1.30740    0.017
 5150.00    1.41843   1.31011    0.017
 5151.00    1.44733   1.31240    0.017
 5152.00    1.49415   1.31333    0.017
 5153.00    1.52934   1.31205    0.017
 5154.00    1.44072   1.30689    0.017
 5155.00    1.35294   1.30163    0.017
 5156.00    1.27152   1.29219    0.017
 5157.00    1.21766   1.27974    0.017
 5158.00    1.32168   1.26500    0.017
 5159.00    1.42820   1.24316    0.017
 5160.00    1.54605   1.22426    0.017
 5161.00    1.63280   1.20641    0.017
 5162.00    1.60346   1.18623    0.017
 5163.00    1.57456   1.16496    0.017
 5164.00    1.54701   1.13982    0.017
 5165.00    1.47890   1.12378    0.017
 5166.00    1.30337   1.11794    0.016
 5167.00    1.15280   1.11323    0.016
 5168.00    1.05900   1.10538    0.016
 5169.00    1.06319   1.09544    0.016
 5170.00    1.26033   1.09458    0.016
 5171.00    1.35780   1.10514    0.017
 5172.00    1.28422   1.11712    0.016
 5173.00    1.27456   1.12145    0.016
 5174.00    1.36098   1.12252    0.016
 5175.00    1.38259   1.12605    0.016
 5176.00    1.31860   1.13611    0.016
 5177.00    1.24440   1.15009    0.016
 5178.00    1.15835   1.15662    0.016
 5179.00    1.12159   1.16036    0.016
 5180.00    1.13540   1.16271    0.016
 5181.00    1.19853   1.16976    0.016
 5182.00    1.30629   1.18643    0.016
 5183.00    1.25273   1.19691    0.016
 5184.00    1.07053   1.20357    0.016
 5185.00    1.07879   1.21041    0.016
 5186.00    1.22068   1.22067    0.016
 5187.00    1.35807   1.23754    0.016
 5188.00    1.49267   1.24804    0.016
 5189.00    1.45978   1.25355    0.016
 5190.00    1.33686   1.26164    0.000
 5191.00    1.23484   1.27142    0.000
 5192.00    1.14258   1.27893    0.000
 5193.00    1.17539   1.28265    0.000
 5194.00    1.25851   1.28390    0.000
 5195.00    1.29001   1.28550    0.000
 5196.00    1.30379   1.28772    0.000
 5197.00    1.32621   1.28441    0.000
 5198.00    1.35114   1.28077    0.000
 5199.00    1.27693   1.27895    0.000
 5200.00    1.17903   1.27437    0.000
 5201.00    1.10652   1.27146    0.000
 5202.00    1.03888   1.26653    0.000
 5203.00    1.14836   1.26430    0.000
 5204.00    1.28431   1.26848    0.000
 5205.00    1.39145   1.26903    0.000
 5206.00    1.49544   1.27250    0.000
 5207.00    1.49566   1.27683    0.000
 5208.00    1.48839   1.28310    0.000
 5209.00    1.51331   1.29541    0.000
 5210.00    1.53943   1.30397    0.000
 5211.00    1.61841   1.31244    0.017
 5212.00    1.69018   1.31902    0.017
 5213.00    1.49020   1.32490    0.017
 5214.00    1.30931   1.33249    0.017
 5215.00    1.43794   1.33815    0.017
 5216.00    1.55291   1.34108    0.017
 5217.00    1.52887   1.33941    0.017
 5218.00    1.50675   1.33803    0.017
 5219.00    1.49856   1.33547    0.017
 5220.00    1.47905   1.33580    0.017
 5221.00    1.39651   1.33579    0.017
 5222.00    1.33178   1.33112    0.016
 5223.00    1.34628   1.33112    0.017
 5224.00    1.32801   1.32893    0.017
 5225.00    1.18998   1.33225    0.017
 5226.00    1.11330   1.34009    0.017
 5227.00    1.22436   1.34214    0.017
 5228.00    1.33687   1.35075    0.017
 5229.00    1.45315   1.35687    0.017
 5230.00    1.51819   1.36357    0.017
 5231.00    1.46865   1.37667    0.017
 5232.00    1.42085   1.38384    0.016
 5233.00    1.37644   1.39377    0.016
 5234.00    1.35483   1.40089    0.016
 5235.00    1.37180   1.40444    0.016
 5236.00    1.42314   1.41218    0.016
 5237.00    1.52537   1.41532    0.016
 5238.00    1.58828   1.41705    0.016
 5239.00    1.59998   1.41550    0.016
 5240.00    1.51773   1.41327    0.016
 5241.00    1.32775   1.41360    0.015
 5242.00    1.28326   1.40861    0.015
 5243.00    1.38595   1.40351    0.016
 5244.00    1.46613   1.39703    0.016
 5245.00    1.52623   1.39372    0.016
 5246.00    1.49678   1.39312    0.016
 5247.00    1.39694   1.38459    0.016
 5248.00    1.42811   1.38018    0.016
 5249.00    1.54988   1.37774    0.016
 5250.00    1.45675   1.37518    0.016
 5251.00    1.23334   1.37364    0.016
 5252.00    1.14770   1.36283    0.016
 5253.00    1.13495   1.35597    0.016
 5254.00    1.28051   1.35246    0.016
 5255.00    1.49877   1.34342    0.016
 5256.00    1.48605   1.33210    0.016
 5257.00    1.38200   1.31517    0.016
 5258.00    1.39427   1.30076    0.016
 5259.00    1.44572   1.29216    0.016
 5260.00    1.40613   1.27973    0.016
 5261.00    1.34078   1.26320    0.016
 5262.00    1.20711   1.24797    0.017
 5263.00    1.05749   1.24039    0.017
 5264.00    1.06990   1.24138    0.017
 5265.00    1.11269   1.24159    0.017
 5266.00    1.10694   1.23749    0.017
 5267.00    1.09415   1.23636    0.017
 5268.00    1.29225   1.24781    0.017
 5269.00    1.51253   1.26667    0.018
 5270.00    1.26015   1.28037    0.018
 5271.00    0.97555   1.29094    0.018
 5272.00    1.24588   1.30146    0.018
 5273.00    1.53482   1.31955    0.018
 5274.00    1.49730   1.34310    0.018
 5275.00    1.46178   1.35781    0.018
 5276.00    1.50172   1.36950    0.018
 5277.00    1.53126   1.38225    0.017
 5278.00    1.40241   1.39574    0.017
 5279.00    1.30989   1.41164    0.017
 5280.00    1.57172   1.42117    0.017
 5281.00    1.78781   1.42772    0.017
 5282.00    1.68180   1.43818    0.017
 5283.00    1.59315   1.44718    0.017
 5284.00    1.59865   1.45283    0.017
 5285.00    1.59897   1.45410    0.017
 5286.00    1.57679   1.45509    0.017
 5287.00    1.57881   1.45920    0.017
 5288.00    1.66738   1.46028    0.017
 5289.00    1.70458   1.45591    0.017
 5290.00    1.58750   1.44904    0.017
 5291.00    1.51583   1.44722    0.017
 5292.00    1.56027   1.44763    0.016
 5293.00    1.58303   1.44387    0.016
 5294.00    1.55810   1.43827    0.016
 5295.00    1.52462   1.43440    0.016
 5296.00    1.47481   1.43916    0.016
 5297.00    1.47227   1.44582    0.016
 5298.00    1.54843   1.44706    0.016
 5299.00    1.56638   1.44879    0.016
 5300.00    1.49940   1.45428    0.016
 5301.00    1.48472   1.46550    0.016
 5302.00    1.53717   1.47580    0.016
 5303.00    1.57454   1.48003    0.016
 5304.00    1.59484   1.48337    0.016
 5305.00    1.60356   1.48844    0.016
 5306.00    1.60072   1.49503    0.016
 5307.00    1.55484   1.49869    0.016
 5308.00    1.47110   1.49677    0.015
 5309.00    1.43179   1.49382    0.015
 5310.00    1.42690   1.49066    0.015
 5311.00    1.38055   1.48636    0.015
 5312.00    1.30595   1.48080    0.015
 5313.00    1.36449   1.47118    0.015
 5314.00    1.50254   1.46123    0.016
 5315.00    1.59967   1.45109    0.016
 5316.00    1.67549   1.43804    0.016
 5317.00    1.63809   1.42697    0.016
 5318.00    1.54954   1.41634    0.016
 5319.00    1.45048   1.40411    0.016
 5320.00    1.34732   1.39062    0.016
 5321.00    1.44998   1.37845    0.016
 5322.00    1.62067   1.37252    0.016
 5323.00    1.52170   1.37024    0.016
 5324.00    1.34796   1.36425    0.016
 5325.00    1.29376   1.35517    0.016
 5326.00    1.26681   1.35517    0.016
 5327.00    1.31765   1.36250    0.016
 5328.00    1.38269   1.36928    0.016
 5329.00    1.39438   1.37154    0.016
 5330.00    1.39859   1.37124    0.016
 5331.00    1.54222   1.38009    0.016
 5332.00    1.69992   1.38965    0.017
 5333.00    1.57220   1.39515    0.016
 5334.00    1.42616   1.39974    0.016
 5335.00    1.36756   1.40254    0.016
 5336.00    1.31188   1.40957    0.016
 5337.00    1.38888   1.41150    0.016
 5338.00    1.45999   1.41221    0.016
 5339.00    1.36308   1.41962    0.016
 5340.00    1.28428   1.42298    0.016
 5341.00    1.46521   1.42741    0.016
 5342.00    1.64610   1.42996    0.016
 5343.00    1.82668   1.43287    0.016
 5344.00    1.94716   1.44482    0.016
 5345.00    1.65779   1.45102    0.016
 5346.00    1.40407   1.45609    0.016
 5347.00    1.33853   1.46490    0.015
 5348.00    1.29014   1.47239    0.015
 5349.00    1.31457   1.48295    0.015
 5350.00    1.35775   1.48862    0.015
 5351.00    1.46663   1.49216    0.015
 5352.00    1.55207   1.49946    0.015
 5353.00    1.56843   1.50259    0.015
 5354.00    1.59425   1.50300    0.015
 5355.00    1.64382   1.50185    0.015
 5356.00    1.65349   1.49811    0.015
 5357.00    1.57681   1.49500    0.015
 5358.00    1.51596   1.48857    0.015
 5359.00    1.48486   1.47853    0.015
 5360.00    1.48145   1.47133    0.015
 5361.00    1.52344   1.46309    0.015
 5362.00    1.56346   1.45349    0.015
 5363.00    1.60066   1.44514    0.015
 5364.00    1.61580   1.43679    0.015
 5365.00    1.60304   1.43323    0.015
 5366.00    1.54483   1.43015    0.015
 5367.00    1.43593   1.42588    0.015
 5368.00    1.36382   1.42396   -2.000
 5369.00    1.32788   1.42498   -2.000
 5370.00    1.32130   1.43098   -2.000
 5371.00    1.34018   1.43511   -2.000
 5372.00    1.45545   1.43744   -2.000
 5373.00    1.64436   1.44057   -2.000
 5374.00    1.66919   1.44420   -2.000
 5375.00    1.58386   1.45022   -2.000
 5376.00    1.58461   1.45407   -2.000
 5377.00    1.63600   1.45468   -2.000
 5378.00    1.58563   1.45430   -2.000
 5379.00    1.48306   1.45338   -2.000
 5380.00    1.47976   1.45068   -2.000
 5381.00    1.52056   1.44716   -2.000
 5382.00    1.48383   1.44339   -2.000
 5383.00    1.41750   1.43660    0.016
 5384.00    1.39556   1.42995    0.016
 5385.00    1.38801   1.42228    0.016
 5386.00    1.46967   1.41265    0.016
 5387.00    1.57556   1.40648    0.016
 5388.00    1.56748   1.39813    0.015
 5389.00    1.53402   1.38771    0.015
 5390.00    1.40830   1.38105    0.015
 5391.00    1.26619   1.37332    0.015
 5392.00    1.20445   1.36742    0.015
 5393.00    1.15361   1.36087    0.015
 5394.00    1.23161   1.35063    0.015
 5395.00    1.32205   1.34749    0.015
 5396.00    1.38954   1.34633    0.015
 5397.00    1.45565   1.34139    0.015
 5398.00    1.48284   1.33659    0.015
 5399.00    1.50837   1.33307    0.015
 5400.00    1.42558   1.33465    0.015
 5401.00    1.34802   1.33665    0.015
 5402.00    1.40525   1.33475    0.015
 5403.00    1.46538   1.33601    0.015
 5404.00    1.56477   1.34265    0.015
 5405.00    1.64918   1.35106    0.014
 5406.00    1.59879   1.35656    0.014
 5407.00    1.53705   1.36007    0.014
 5408.00    1.40031   1.36937    0.014
 5409.00    1.29200   1.38157    0.014
 5410.00    1.32992   1.39164    0.014
 5411.00    1.36699   1.39976    0.014
 5412.00    1.40056   1.40447    0.014
 5413.00    1.42741   1.41145    0.014
 5414.00    1.43122   1.42096    0.014
 5415.00    1.44375   1.42517    0.014
 5416.00    1.48154   1.42726    0.015
 5417.00    1.47308   1.42806    0.015
 5418.00    1.35043   1.42551    0.014
 5419.00    1.31420   1.42781    0.014
 5420.00    1.46197   1.42774    0.014
 5421.00    1.58237   1.41947    0.015
 5422.00    1.65213   1.41632    0.015
 5423.00    1.65614   1.41277    0.015
 5424.00    1.55395   1.40973    0.015
 5425.00    1.50295   1.40926    0.015
 5426.00    1.52454   1.39879    0.015
 5427.00    1.54761   1.39576    0.015
 5428.00    1.57253   1.40079    0.015
 5429.00    1.50827   1.39934    0.015
 5430.00    1.34599   1.40013    0.015
 5431.00    1.36638   1.39866    0.015
 5432.00    1.56389   1.40066    0.015
 5433.00    1.57528   1.40922    0.015
 5434.00    1.42755   1.41177    0.015
 5435.00    1.39099   1.41379    0.015
 5436.00    1.43814   1.41672    0.015
 5437.00    1.43335   1.42057    0.015
 5438.00    1.39419   1.42311    0.015
 5439.00    1.46987   1.42205    0.015
 5440.00    1.61206   1.42250    0.015
 5441.00    1.57856   1.42127    0.015
 5442.00    1.45637   1.42018    0.014
 5443.00    1.41105   1.41631    0.014
 5444.00    1.39933   1.40867    0.014
 5445.00    1.46603   1.40810    0.014
 5446.00    1.56213   1.40697    0.015
 5447.00    1.52614   1.40212    0.015
 5448.00    1.44813   1.39864    0.015
 5449.00    1.39761   1.39311    0.014
 5450.00    1.35439   1.39301    0.014
 5451.00    1.33632   1.39450    0.014
 5452.00    1.32372   1.38864    0.014
 5453.00    1.35735   1.38827    0.014
 5454.00    1.39897   1.39072    0.014
 5455.00    1.40100   1.38991    0.014
 5456.00    1.39784   1.39138    0.014
 5457.00    1.36513   1.38846    0.014
 5458.00    1.32969   1.38819    0.014
 5459.00    1.33705   1.39147    0.014
 5460.00    1.34682   1.38869    0.014
 5461.00    1.49873   1.38913    0.014
 5462.00    1.65306   1.38842    0.014
 5463.00    1.72806   1.38530    0.014
 5464.00    1.79679   1.38498    0.014
 5465.00    1.71819   1.37945    0.014
 5466.00    1.65165   1.37608    0.014
 5467.00    1.73996   1.37478    0.014
 5468.00    1.80446   1.37019    0.014
 5469.00    1.66279   1.36820    0.014
 5470.00    1.53185   1.36202    0.014
 5471.00    1.46971   1.35773    0.014
 5472.00    1.42160   1.35884    0.014
 5473.00    1.44375   1.35507    0.015
 5474.00    1.47514   1.35385    0.015
 5475.00    1.54408   1.35455    0.015
 5476.00    1.58104   1.35484    0.015
 5477.00    1.51040   1.35879    0.014
 5478.00    1.45564   1.35884   -2.000
 5479.00    1.44603   1.35969   -2.000
 5480.00    1.47494   1.36654   -2.000
 5481.00    1.59735   1.37115   -2.000
 5482.00    1.63118   1.37393   -2.000
 5483.00    1.47942   1.37700   -2.000
 5484.00    1.31364   1.37942   -2.000
 5485.00    1.12230   1.38363   -2.000
 5486.00    1.07271   1.38678   -2.000
 5487.00    1.24876   1.38740   -2.000
 5488.00    1.47229   1.39098   -2.000
 5489.00    1.76214   1.39285   -2.000
 5490.00    1.92711   1.39086   -2.000
 5491.00    1.93854   1.39094   -2.000
 5492.00    1.83793   1.39106   -2.000
 5493.00    1.61591   1.39153   -2.000
 5494.00    1.57417   1.39051   -2.000
 5495.00    1.70475   1.38523   -2.000
 5496.00    1.74487   1.38451   -2.000
 5497.00    1.70875   1.38513   -2.000
 5498.00    1.67497   1.38033   -2.000
 5499.00    1.64294   1.37713   -2.000
 5500.00    1.60846   1.37402   -2.000
 5501.00    1.57239   1.37187   -2.000
 5502.00    1.58970   1.37228    0.014
 5503.00    1.63749   1.36649    0.014
 5504.00    1.63861   1.36425    0.014
 5505.00    1.61655   1.36687    0.014
 5506.00    1.63410   1.36402    0.014
 5507.00    1.66867   1.36520    0.013
 5508.00    1.62685   1.36614    0.013
 5509.00    1.55689   1.36511    0.014
 5510.00    1.46319   1.37035    0.014
 5511.00    1.36209   1.37216    0.013
 5512.00    1.36993   1.37472    0.014
 5513.00    1.40612   1.38028    0.014
 5514.00    1.36840   1.38082    0.014
 5515.00    1.31500   1.38515    0.014
 5516.00    1.39016   1.38916    0.014
 5517.00    1.48692   1.38892    0.014
 5518.00    1.45106   1.39211    0.014
 5519.00    1.39840   1.39351    0.014
 5520.00    1.48847   1.39411    0.014
 5521.00    1.59113   1.39504    0.014
 5522.00    1.56619   1.39246    0.014
 5523.00    1.53458   1.39259    0.014
 5524.00    1.47449   1.39291    0.014
 5525.00    1.41269   1.39095    0.014
 5526.00    1.26178   1.39125    0.014
 5527.00    1.12578   1.39185    0.014
 5528.00    1.31043   1.39301    0.014
 5529.00    1.48431   1.39327    0.014
 5530.00    1.52680   1.39410    0.014
 5531.00    1.56107   1.39730    0.014
 5532.00    1.52687   1.39858    0.014
 5533.00    1.50357   1.40201    0.014
 5534.00    1.54801   1.40586    0.014
 5535.00    1.57850   1.40759    0.014
 5536.00    1.54082   1.41179    0.014
 5537.00    1.50245   1.41420    0.014
 5538.00    1.46140   1.41724    0.014
 5539.00    1.45757   1.42192    0.014
 5540.00    1.57660   1.42219    0.014
 5541.00    1.63143   1.42484    0.014
 5542.00    1.50721   1.42933    0.014
 5543.00    1.43729   1.42925    0.013
 5544.00    1.49697   1.43030    0.013
 5545.00    1.55265   1.43211    0.013
 5546.00    1.60011   1.43170    0.013
 5547.00    1.61575   1.43195    0.013
 5548.00    1.57436   1.43025    0.013
 5549.00    1.52788   1.42804    0.014
 5550.00    1.47346   1.42823    0.014
 5551.00    1.43706   1.42450    0.014
 5552.00    1.42550   1.42006    0.013
 5553.00    1.45642   1.41896    0.013
 5554.00    1.53881   1.41460    0.013
 5555.00    1.49608   1.40965    0.013
 5556.00    1.31965   1.40591    0.013
 5557.00    1.26370   1.40142    0.013
 5558.00    1.32129   1.39843    0.013
 5559.00    1.36519   1.39374    0.014
 5560.00    1.39770   1.38940    0.014
 5561.00    1.42386   1.38737    0.014
 5562.00    1.44537   1.38419    0.014
 5563.00    1.41463   1.38149    0.014
 5564.00    1.35033   1.37909    0.013
 5565.00    1.32533   1.37900    0.013
 5566.00    1.32241   1.37853    0.014
 5567.00    1.35869   1.37524    0.013
 5568.00    1.41413   1.37751    0.013
 5569.00    1.43909   1.37848    0.013
 5570.00    1.45117   1.37530    0.014
 5571.00    1.38306   1.37743    0.014
 5572.00    1.28595   1.37686    0.014
 5573.00    1.24458   1.37440    0.014
 5574.00    1.22029   1.37522    0.013
 5575.00    1.24635   1.37019    0.013
 5576.00    1.28523   1.36656    0.014
 5577.00    1.35877   1.36605    0.014
 5578.00    1.43948   1.35838    0.014
 5579.00    1.46861   1.35363    0.014
 5580.00    1.48933   1.34975    0.014
 5581.00    1.42237   1.34104    0.014
 5582.00    1.34470   1.33805    0.013
 5583.00    1.33548   1.33253    0.013
 5584.00    1.33201   1.32537    0.013
 5585.00    1.28559   1.32536    0.013
 5586.00    1.23709   1.32166    0.013
 5587.00    1.23273   1.31911    0.013
 5588.00    1.22987   1.31943    0.014
 5589.00    1.27647   1.31742    0.013
 5590.00    1.31932   1.32170    0.013
 5591.00    1.28765   1.32364    0.013
 5592.00    1.26095   1.32272    0.013
 5593.00    1.29190   1.32987    0.013
 5594.00    1.31844   1.33410    0.013
 5595.00    1.30957   1.33623    0.013
 5596.00    1.30905   1.34173    0.013
 5597.00    1.35901   1.34550    0.014
 5598.00    1.39868   1.35270    0.014
 5599.00    1.38930   1.35912    0.014
 5600.00    1.35892   1.36133    0.014
 5601.00    1.24697   1.36713    0.014
 5602.00    1.17880   1.37290    0.014
 5603.00    1.25226   1.37585    0.014
 5604.00    1.33270   1.37799    0.014
 5605.00    1.43224   1.37965    0.014
 5606.00    1.46531   1.38142    0.014
 5607.00    1.34242   1.38230    0.014
 5608.00    1.27164   1.38115    0.014
 5609.00    1.30657   1.37645    0.014
 5610.00    1.36469   1.37375    0.014
 5611.00    1.46379   1.37330    0.014
 5612.00    1.46549   1.36799    0.014
 5613.00    1.31673   1.36324    0.014
 5614.00    1.22291   1.36134    0.014
 5615.00    1.20367   1.35913    0.014
 5616.00    1.19143   1.35755    0.014
 5617.00    1.18758   1.35446    0.014
 5618.00    1.19413   1.35192    0.013
 5619.00    1.21164   1.35338    0.013
 5620.00    1.22125   1.35499    0.013
 5621.00    1.22352   1.35434    0.013
 5622.00    1.30054   1.35520    0.013
 5623.00    1.43880   1.35876    0.013
 5624.00    1.46212   1.36096    0.013
 5625.00    1.40256   1.36228    0.013
 5626.00    1.34469   1.36360    0.013
 5627.00    1.28788   1.36434    0.013
 5628.00    1.31855   1.36639    0.013
 5629.00    1.39762   1.36709    0.013
 5630.00    1.41844   1.36580    0.013
 5631.00    1.41123   1.36611    0.012
 5632.00    1.41306   1.36579    0.013
 5633.00    1.41866   1.36508    0.013
 5634.00    1.39567   1.36457    0.013
 5635.00    1.36253   1.36184    0.013
 5636.00    1.32714   1.36141    0.013
 5637.00    1.29107   1.36201    0.013
 5638.00    1.28676   1.35991    0.013
 5639.00    1.29035   1.36018    0.013
 5640.00    1.30022   1.36014    0.013
 5641.00    1.31136   1.35937    0.013
 5642.00    1.34284   1.36139    0.013
 5643.00    1.37753   1.36009    0.013
 5644.00    1.37338   1.35825    0.013
 5645.00    1.36465   1.35982    0.013
 5646.00    1.41023   1.35885    0.013
 5647.00    1.46015   1.35756    0.013
 5648.00    1.37273   1.35592    0.013
 5649.00    1.27920   1.35195    0.013
 5650.00    1.37119   1.35231    0.013
 5651.00    1.46244   1.35135    0.013
 5652.00    1.41473   1.34398    0.013
 5653.00    1.36619   1.34236    0.013
 5654.00    1.30229   1.34459    0.013
 5655.00    1.24012   1.34127    0.013
 5656.00    1.19717   1.33858    0.013
 5657.00    1.16114   1.33938    0.013
 5658.00    1.17884   1.34138    0.013
 5659.00    1.19744   1.34389    0.013
 5660.00    1.22125   1.34421    0.013
 5661.00    1.24650   1.34603    0.013
 5662.00    1.27842   1.35227    0.013
 5663.00    1.30923   1.35640    0.013
 5664.00    1.33584   1.35865    0.013
 5665.00    1.35021   1.36368    0.013
 5666.00    1.32573   1.36937    0.013
 5667.00    1.30111   1.37417    0.013
 5668.00    1.27612   1.37762    0.013
 5669.00    1.23864   1.37970    0.013
 5670.00    1.17236   1.38344    0.012
 5671.00    1.13850   1.38707    0.012
 5672.00    1.16935   1.38713    0.012
 5673.00    1.19906   1.38655    0.013
 5674.00    1.22678   1.38779    0.013
 5675.00    1.25860   1.38842    0.013
 5676.00    1.29666   1.38570    0.013
 5677.00    1.30241   1.38296    0.013
 5678.00    1.26493   1.38312    0.013
 5679.00    1.25080   1.38225    0.013
 5680.00    1.26417   1.37907    0.013
 5681.00    1.26749   1.37675    0.013
 5682.00    1.26036   1.37621    0.013
 5683.00    1.26863   1.37608    0.013
 5684.00    1.29102   1.37455    0.013
 5685.00    1.30303   1.37320    0.013
 5686.00    1.30664   1.37427    0.013
 5687.00    1.30689   1.37423    0.013
 5688.00    1.30474   1.37226    0.013
 5689.00    1.30600   1.37069    0.013
 5690.00    1.30938   1.37050    0.013
 5691.00    1.30579   1.36926    0.013
 5692.00    1.29840   1.36402    0.013
 5693.00    1.30144   1.36116    0.013
 5694.00    1.30941   1.35926    0.013
 5695.00    1.31123   1.35267    0.013
 5696.00    1.31052   1.34808    0.013
 5697.00    1.33059   1.34355    0.013
 5698.00    1.35791   1.33852    0.013
 5699.00    1.32747   1.33545    0.013
 5700.00    1.28006   1.32792    0.013
 5701.00    1.31036   1.32488    0.013
 5702.00    1.35959   1.32463    0.013
 5703.00    1.38450   1.31808    0.013
 5704.00    1.40463   1.31970    0.013
 5705.00    1.38186   1.32236    0.013
 5706.00    1.35250   1.31979    0.013
 5707.00    1.32340   1.32662    0.012
 5708.00    1.29433   1.33161    0.012
 5709.00    1.38407   1.33408    0.012
 5710.00    1.48281   1.34381    0.012
 5711.00    1.46795   1.34912    0.012
 5712.00    1.44847   1.35533    0.012
 5713.00    1.40277   1.36600    0.012
 5714.00    1.35688   1.37081    0.013
 5715.00    1.31151   1.37808    0.012
 5716.00    1.26920   1.38756    0.012
 5717.00    1.27943   1.39113    0.012
 5718.00    1.29194   1.39610    0.012
 5719.00    1.32855   1.40225    0.012
 5720.00    1.35700   1.40446    0.013
 5721.00    1.32422   1.40609    0.013
 5722.00    1.29667   1.40810    0.013
 5723.00    1.29898   1.41017    0.013
 5724.00    1.30990   1.41182    0.013
 5725.00    1.35993   1.41027    0.013
 5726.00    1.40201   1.40973    0.013
 5727.00    1.41454   1.41196    0.013
 5728.00    1.41359   1.41128    0.013
 5729.00    1.37066   1.41015    0.013
 5730.00    1.34132   1.41059    0.013
 5731.00    1.34791   1.41002    0.013
 5732.00    1.35159   1.41014    0.013
 5733.00    1.34867   1.40951    0.013
 5734.00    1.34420   1.40866    0.013
 5735.00    1.33669   1.40999    0.013
 5736.00    1.35018   1.40862    0.013
 5737.00    1.39965   1.40657    0.013
 5738.00    1.41116   1.40734    0.013
 5739.00    1.36575   1.40608    0.013
 5740.00    1.36126   1.40488    0.000
 5741.00    1.41073   1.40420    0.000
 5742.00    1.39910   1.40041    0.000
 5743.00    1.31651   1.39935    0.000
 5744.00    1.29744   1.39934    0.000
 5745.00    1.34342   1.39562    0.000
 5746.00    1.38420   1.39406    0.000
 5747.00    1.42030   1.39306    0.000
 5748.00    1.39230   1.38952    0.000
 5749.00    1.31328   1.38922    0.000
 5750.00    1.31273   1.38904    0.000
 5751.00    1.36713   1.38688    0.000
 5752.00    1.44129   1.38763    0.000
 5753.00    1.52759   1.38691    0.000
 5754.00    1.51034   1.38528    0.000
 5755.00    1.43755   1.38765    0.000
 5756.00    1.39319   1.38781    0.000
 5757.00    1.36206   1.38690    0.000
 5758.00    1.31566   1.39077    0.000
 5759.00    1.26312   1.39230    0.000
 5760.00    1.27971   1.39207    0.000
 5761.00    1.31998   1.39535    0.000
 5762.00    1.34832   1.39655    0.000
 5763.00    1.37323   1.39607    0.000
 5764.00    1.36215   1.39769    0.000
 5765.00    1.34249   1.39691    0.000
 5766.00    1.31469   1.39530    0.000
 5767.00    1.28533   1.39561    0.000
 5768.00    1.32137   1.39206    0.000
 5769.00    1.36716   1.38838    0.000
 5770.00    1.41109   1.38710    0.000
 5771.00    1.45481   1.38131    0.000
 5772.00    1.47683   1.37528    0.000
 5773.00    1.49729   1.37158    0.000
 5774.00    1.46878   1.36509    0.000
 5775.00    1.43846   1.35883    0.000
 5776.00    1.48366   1.35347    0.000
 5777.00    1.52573   1.34916    0.000
 5778.00    1.44485   1.34662    0.000
 5779.00    1.36393   1.34144    0.000
 5780.00    1.28236   1.33989    0.000
 5781.00    1.20883   1.34136    0.000
 5782.00    1.21675   1.33946    0.000
 5783.00    1.22751   1.34204    0.000
 5784.00    1.25883   1.34542    0.000
 5785.00    1.29608   1.34661    0.000
 5786.00    1.36623   1.35273    0.000
 5787.00    1.42566   1.35741    0.000
 5788.00    1.43757   1.36145    0.000
 5789.00    1.43240   1.36885    0.000
 5790.00    1.36505   1.37376    0.000
 5791.00    1.30800   1.37853   -2.000
 5792.00    1.28239   1.38372   -2.000
 5793.00    1.26749   1.38855   -2.000
 5794.00    1.28038   1.39396   -2.000
 5795.00    1.29427   1.39635   -2.000
 5796.00    1.31035   1.39917   -2.000
 5797.00    1.35249   1.40284   -2.000
 5798.00    1.44500   1.40397   -2.000
 5799.00    1.45498   1.40556   -2.000
 5800.00    1.32571   1.40657   -2.000
 5801.00    1.26712   1.40759   -2.000
 5802.00    1.31300   1.40883   -2.000
 5803.00    1.35851   1.40736   -2.000
 5804.00    1.40355   1.40816   -2.000
 5805.00    1.37864   1.41001   -2.000
 5806.00    1.27365   1.40838   -2.000
 5807.00    1.20382   1.40834   -2.000
 5808.00    1.16949   1.40984   -2.000
 5809.00    1.20408   1.40971   -2.000
 5810.00    1.30004   1.40971   -2.000
 5811.00    1.32525   1.41095    0.000
 5812.00    1.29495   1.41292    0.000
 5813.00    1.28496   1.41408    0.000
 5814.00    1.28900   1.41496    0.000
 5815.00    1.27706   1.41695    0.000
 5816.00    1.25544   1.41887    0.000
 5817.00    1.24733   1.42017    0.000
 5818.00    1.24634   1.42146    0.000
 5819.00    1.26370   1.42308    0.000
 5820.00    1.28947   1.42481    0.000
 5821.00    1.26480   1.42551    0.000
 5822.00    1.22023   1.42579    0.000
 5823.00    1.19726   1.42723    0.000
 5824.00    1.18154   1.42825    0.000
 5825.00    1.24055   1.42731    0.000
 5826.00    1.32065   1.42677    0.000
 5827.00    1.40596   1.42775    0.000
 5828.00    1.49248   1.42694    0.000
 5829.00    1.45087   1.42488    0.000
 5830.00    1.38533   1.42524    0.000
 5831.00    1.34095   1.42516    0.000
 5832.00    1.29963   1.42293    0.000
 5833.00    1.31347   1.42192    0.000
 5834.00    1.33307   1.42144    0.000
 5835.00    1.37934   1.41962    0.000
 5836.00    1.42742   1.41770    0.000
 5837.00    1.47095   1.41551    0.000
 5838.00    1.51433   1.41286    0.000
 5839.00    1.46274   1.41024    0.000
 5840.00    1.41029   1.40633    0.000
 5841.00    1.33208   1.40217    0.000
 5842.00    1.26029   1.39884    0.000
 5843.00    1.28557   1.39372    0.000
 5844.00    1.31207   1.38757    0.000
 5845.00    1.35041   1.38302    0.000
 5846.00    1.38649   1.37827    0.000
 5847.00    1.40664   1.37203    0.000
 5848.00    1.41044   1.36614    0.000
 5849.00    1.32588   1.36174    0.000
 5850.00    1.26088   1.35740    0.000
 5851.00    1.28056   1.35252    0.000
 5852.00    1.30108   1.34961    0.000
 5853.00    1.32454   1.34724    0.000
 5854.00    1.33077   1.34451    0.000
 5855.00    1.28536   1.34423    0.000
 5856.00    1.26485   1.34422    0.000
 5857.00    1.30783   1.34338    0.000
 5858.00    1.33378   1.34449    0.000
 5859.00    1.32232   1.34636    0.000
 5860.00    1.28640   1.34794    0.000
 5861.00    1.20389   1.35013    0.000
 5862.00    1.14635   1.35211    0.000
 5863.00    1.13030   1.35396    0.000
 5864.00    1.15436   1.35567    0.000
 5865.00    1.23683   1.35715    0.000
 5866.00    1.27066   1.35845    0.000
 5867.00    1.24217   1.35818    0.000
 5868.00    1.24790   1.35687    0.000
 5869.00    1.29224   1.35550    0.000
 5870.00    1.31670   1.35333    0.000
 5871.00    1.32135   1.34839    0.000
 5872.00    1.32078   1.34229    0.000
 5873.00    1.31560   1.33741    0.000
 5874.00    1.32287   1.32904    0.000
 5875.00    1.33976   1.31766    0.000
 5876.00    1.35662   1.30891    0.000
 5877.00    1.37346   1.29653    0.000
 5878.00    1.38240   1.28037    0.000
 5879.00    1.38665   1.26904    0.000
 5880.00    1.40092   1.25217    0.000
 5881.00    1.42041   1.23118    0.000
 5882.00    1.39354   1.22106    0.000
 5883.00    1.34578   1.20559    0.000
 5884.00    1.26362   1.18544    0.000
 5885.00    1.16813   1.17919    0.000
 5886.00    1.11391   1.16629    0.000
 5887.00    1.07331   1.15012    0.000
 5888.00    1.10126   1.15176    0.000
 5889.00    1.14816   1.14783    0.000
 5890.00    1.11127   1.14157    0.000
 5891.00    1.05532   1.15003    0.000
 5892.00    1.01204   1.15378    0.000
 5893.00    0.97107   1.15880    0.000
 5894.00    1.05718   1.17277    0.000
 5895.00    1.16105   1.18091    0.000
 5896.00    1.23540   1.19398    0.000
 5897.00    1.30678   1.21153    0.000
 5898.00    1.24346   1.22151    0.000
 5899.00    1.17156   1.23652    0.000
 5900.00    1.21187   1.25272    0.000
 5901.00    1.25551   1.26042    0.012
 5902.00    1.31278   1.27269    0.012
 5903.00    1.36704   1.28648    0.013
 5904.00    1.33633   1.29166    0.012
 5905.00    1.30535   1.29843    0.012
 5906.00    1.27041   1.30748    0.012
 5907.00    1.23834   1.31027    0.013
 5908.00    1.23308   1.31392    0.012
 5909.00    1.22697   1.31905    0.012
 5910.00    1.21516   1.31962    0.012
 5911.00    1.20066   1.32217    0.012
 5912.00    1.17200   1.32490    0.012
 5913.00    1.15636   1.32432    0.012
 5914.00    1.19589   1.32700    0.012
 5915.00    1.21688   1.32838    0.012
 5916.00    1.17298   1.32772    0.012
 5917.00    1.13130   1.33082    0.012
 5918.00    1.09612   1.33106    0.011
 5919.00    1.09161   1.33071    0.011
 5920.00    1.16401   1.33347    0.012
 5921.00    1.22363   1.33278    0.012
 5922.00    1.25567   1.33307    0.012
 5923.00    1.28277   1.33517    0.012
 5924.00    1.30063   1.33452    0.011
 5925.00    1.29458   1.33467    0.011
 5926.00    1.24937   1.33507    0.011
 5927.00    1.18982   1.33536    0.012
 5928.00    1.10966   1.33578    0.012
 5929.00    1.05608   1.33480    0.012
 5930.00    1.03606   1.33594    0.012
 5931.00    1.04021   1.33649    0.012
 5932.00    1.07126   1.33484    0.012
 5933.00    1.09906   1.33625    0.012
 5934.00    1.12369   1.33658    0.012
 5935.00    1.11313   1.33544    0.012
 5936.00    1.07211   1.33667    0.012
 5937.00    1.09507   1.33597    0.012
 5938.00    1.16682   1.33568    0.012
 5939.00    1.27900   1.33667    0.012
 5940.00    1.41827   1.33441    0.012
 5941.00    1.44589   1.33424    0.012
 5942.00    1.40795   1.33572    0.012
 5943.00    1.34064   1.33318    0.012
 5944.00    1.25831   1.33217    0.012
 5945.00    1.19287   1.33353    0.012
 5946.00    1.13491   1.33203    0.012
 5947.00    1.13605   1.33101    0.012
 5948.00    1.15968   1.33201    0.012
 5949.00    1.11381   1.33192    0.012
 5950.00    1.04544   1.33191    0.012
 5951.00    1.00503   1.33291    0.012
 5952.00    0.97220   1.33422    0.011
 5953.00    1.00666   1.33546    0.011
 5954.00    1.05607   1.33646    0.011
 5955.00    1.07444   1.33875    0.011
 5956.00    1.08730   1.34109    0.011
 5957.00    1.09640   1.34232    0.011
 5958.00    1.10499   1.34481    0.011
 5959.00    1.12667   1.34723    0.012
 5960.00    1.14960   1.34858    0.012
 5961.00    1.11347   1.35062    0.012
 5962.00    1.07382   1.35195    0.012
 5963.00    1.11015   1.35257    0.012
 5964.00    1.14815   1.35363    0.012
 5965.00    1.14259   1.35354    0.012
 5966.00    1.13696   1.35290    0.012
 5967.00    1.12963   1.35261    0.012
 5968.00    1.12654   1.35137    0.012
 5969.00    1.18051   1.34941    0.012
 5970.00    1.23275   1.34800    0.012
 5971.00    1.26945   1.34591    0.012
 5972.00    1.29635   1.34256    0.012
 5973.00    1.25872   1.34080    0.012
 5974.00    1.22481   1.33914    0.012
 5975.00    1.20994   1.33543    0.012
 5976.00    1.19040   1.33389    0.012
 5977.00    1.15151   1.33303    0.011
 5978.00    1.12762   1.33024    0.011
 5979.00    1.15514   1.32939    0.011
 5980.00    1.17291   1.32907    0.011
 5981.00    1.16259   1.32794    0.011
 5982.00    1.15522   1.32822    0.011
 5983.00    1.15512   1.32839    0.011
 5984.00    1.15467   1.32846    0.011
 5985.00    1.15349   1.32907    0.011
 5986.00    1.17726   1.32948    0.011
 5987.00    1.24711   1.33001    0.011
 5988.00    1.30889   1.33033    0.011
 5989.00    1.35764   1.33094    0.011
 5990.00    1.37947   1.33063    0.011
 5991.00    1.36323   1.32960    0.011
 5992.00    1.34288   1.33032    0.011
 5993.00    1.31741   1.32875    0.011
 5994.00    1.27821   1.32666    0.012
 5995.00    1.22393   1.32737    0.011
 5996.00    1.19492   1.32424    0.012
 5997.00    1.19035   1.32160    0.012
 5998.00    1.24348   1.32225    0.012
 5999.00    1.34585   1.31853    0.012
 6000.00    1.38201   1.31633    0.012
 6001.00    1.36840   1.31602    0.012
 6002.00    1.35529   1.31225    0.012
 6003.00    1.34252   1.31176    0.012
 6004.00    1.33954   1.31064    0.012
 6005.00    1.34221   1.30693    0.012
 6006.00    1.34070   1.30792    0.012
 6007.00    1.33708   1.30661    0.011
 6008.00    1.28590   1.30377    0.011
 6009.00    1.21399   1.30549    0.011
 6010.00    1.18574   1.30447    0.011
 6011.00    1.17383   1.30314    0.011
 6012.00    1.17996   1.30486    0.011
 6013.00    1.19182   1.30484    0.011
 6014.00    1.17716   1.30570    0.011
 6015.00    1.15546   1.30732    0.011
 6016.00    1.18462   1.30846    0.011
 6017.00    1.22480   1.31145    0.011
 6018.00    1.24725   1.31363    0.011
 6019.00    1.26665   1.31622    0.012
 6020.00    1.24219   1.32056    0.011
 6021.00    1.21201   1.32327    0.011
 6022.00    1.25278   1.32690    0.011
 6023.00    1.30007   1.33181    0.011
 6024.00    1.32136   1.33505    0.011
 6025.00    1.34120   1.33904    0.012
 6026.00    1.30664   1.34343    0.012
 6027.00    1.27125   1.34652    0.012
 6028.00    1.27145   1.35036    0.012
 6029.00    1.27041   1.35382    0.012
 6030.00    1.24079   1.35599    0.012
 6031.00    1.21532   1.35926    0.012
 6032.00    1.24292   1.36190    0.012
 6033.00    1.27531   1.36292    0.012
 6034.00    1.34898   1.36532    0.012
 6035.00    1.41203   1.36734    0.012
 6036.00    1.40733   1.36750    0.012
 6037.00    1.39946   1.36909    0.012
 6038.00    1.37573   1.37041    0.011
 6039.00    1.34812   1.36998    0.011
 6040.00    1.30482   1.37090    0.011
 6041.00    1.26104   1.37127    0.011
 6042.00    1.21562   1.37039    0.011
 6043.00    1.18817   1.37064    0.011
 6044.00    1.21162   1.36985    0.011
 6045.00    1.23246   1.36848    0.011
 6046.00    1.24699   1.36810    0.011
 6047.00    1.26783   1.36612    0.011
 6048.00    1.30186   1.36428    0.011
 6049.00    1.33041   1.36351    0.011
 6050.00    1.34899   1.36072    0.011
 6051.00    1.35255   1.35882    0.011
 6052.00    1.33222   1.35820    0.011
 6053.00    1.31308   1.35537    0.011
 6054.00    1.29557   1.35401    0.011
 6055.00    1.30130   1.35390    0.012
 6056.00    1.33554   1.35170    0.012
 6057.00    1.34820   1.35149    0.012
 6058.00    1.33752   1.35218    0.012
 6059.00    1.33224   1.35105    0.012
 6060.00    1.33213   1.35211    0.012
 6061.00    1.32684   1.35332    0.012
 6062.00    1.31720   1.35326    0.012
 6063.00    1.29977   1.35507    0.012
 6064.00    1.27657   1.35597    0.012
 6065.00    1.26713   1.35644    0.012
 6066.00    1.26665   1.35796    0.011
 6067.00    1.26606   1.35765    0.011
 6068.00    1.26540   1.35780    0.011
 6069.00    1.25774   1.35789    0.011
 6070.00    1.24661   1.35593    0.011
 6071.00    1.19752   1.35521    0.011
 6072.00    1.13217   1.35326    0.011
 6073.00    1.08379   1.34998    0.011
 6074.00    1.04165   1.34853    0.011
 6075.00    1.05167   1.34484    0.011
 6076.00    1.07792   1.34127    0.011
 6077.00    1.14100   1.33977    0.011
 6078.00    1.21363   1.33516    0.011
 6079.00    1.26023   1.33232    0.011
 6080.00    1.30133   1.33148    0.011
 6081.00    1.29205   1.32677    0.011
 6082.00    1.27435   1.32517    0.011
 6083.00    1.26693   1.32539    0.011
 6084.00    1.26081   1.32109    0.011
 6085.00    1.30168   1.32059    0.011
 6086.00    1.34666   1.32174    0.011
 6087.00    1.34309   1.31793    0.011
 6088.00    1.33700   1.31814    0.012
 6089.00    1.29066   1.31973    0.012
 6090.00    1.24404   1.31603    0.012
 6091.00    1.23125   1.31659    0.012
 6092.00    1.21892   1.31833    0.012
 6093.00    1.21607   1.31452    0.011
 6094.00    1.21299   1.31538    0.011
 6095.00    1.20720   1.31708    0.011
 6096.00    1.20336   1.31329    0.011
 6097.00    1.21561   1.31487    0.011
 6098.00    1.22608   1.31653    0.011
 6099.00    1.22551   1.31311    0.011
 6100.00    1.22329   1.31578    0.011
 6101.00    1.21305   1.31724    0.011
 6102.00    1.20397   1.31448    0.011
 6103.00    1.19950   1.31809    0.011
 6104.00    1.20211   1.31883    0.011
 6105.00    1.22803   1.31672    0.011
 6106.00    1.25223   1.32046    0.011
 6107.00    1.27166   1.31960    0.011
 6108.00    1.29058   1.31789    0.011
 6109.00    1.30825   1.32080    0.011
 6110.00    1.31205   1.31779    0.011
 6111.00    1.28732   1.31631    0.011
 6112.00    1.24947   1.31790    0.011
 6113.00    1.18813   1.31297    0.011
 6114.00    1.16247   1.31189    0.011
 6115.00    1.19270   1.31228    0.012
 6116.00    1.22220   1.30641    0.013
 6117.00    1.25071   1.30614    0.014
 6118.00    1.22373   1.30577    0.015
 6119.00    1.12961   1.29990    0.015
 6120.00    1.08747   1.30054    0.015
 6121.00    1.10075   1.29983    0.015
 6122.00    1.11744   1.29442    0.014
 6123.00    1.13734   1.29554    0.012
 6124.00    1.16446   1.29458    0.011
 6125.00    1.19757   1.28969    0.011
 6126.00    1.21961   1.29078    0.011
 6127.00    1.23357   1.28958    0.011
 6128.00    1.25466   1.28535    0.011
 6129.00    1.28033   1.28633    0.011
 6130.00    1.27636   1.28528    0.011
 6131.00    1.25576   1.28223    0.011
 6132.00    1.21320   1.28350    0.011
 6133.00    1.15993   1.28317    0.011
 6134.00    1.14013   1.28188    0.011
 6135.00    1.13444   1.28383    0.011
 6136.00    1.13457   1.28439    0.011
 6137.00    1.13679   1.28476    0.011
 6138.00    1.10865   1.28715    0.011
 6139.00    1.07125   1.28801    0.011
 6140.00    1.08705   1.28898    0.011
 6141.00    1.11635   1.29081    0.011
 6142.00    1.14017   1.29070    0.011
 6143.00    1.16285   1.29078    0.011
 6144.00    1.18466   1.29095    0.011
 6145.00    1.20632   1.28868    0.011
 6146.00    1.21263   1.28664    0.011
 6147.00    1.21709   1.28454    0.011
 6148.00    1.22029   1.27952    0.011
 6149.00    1.22340   1.27506    0.011
 6150.00    1.31465   1.27091    0.011
 6151.00    1.41012   1.26352    0.011
 6152.00    1.41221   1.25738    0.011
 6153.00    1.41132   1.25228    0.011
 6154.00    1.31684   1.24383    0.011
 6155.00    1.22565   1.23754    0.011
 6156.00    1.19905   1.23305    0.011
 6157.00    1.17331   1.22532    0.011
 6158.00    1.15754   1.22065    0.011
 6159.00    1.14276   1.21833    0.011
 6160.00    1.13588   1.21291    0.011
 6161.00    1.12864   1.21112    0.011
 6162.00    1.11922   1.21175    0.011
 6163.00    1.11168   1.20950    0.011
 6164.00    1.11305   1.21069    0.011
 6165.00    1.11147   1.21398    0.011
 6166.00    1.09848   1.21472    0.011
 6167.00    1.08456   1.21796    0.011
 6168.00    1.06766   1.22271    0.011
 6169.00    1.06377   1.22546    0.011
 6170.00    1.09544   1.22918    0.011
 6171.00    1.13007   1.23385    0.011
 6172.00    1.17165   1.23731    0.011
 6173.00    1.20749   1.23997    0.011
 6174.00    1.23169   1.24324    0.011
 6175.00    1.23566   1.24628    0.011
 6176.00    1.20397   1.24683    0.011
 6177.00    1.17732   1.24813    0.011
 6178.00    1.15842   1.25009    0.011
 6179.00    1.14631   1.24837    0.011
 6180.00    1.14340   1.24805    0.011
 6181.00    1.14310   1.24897    0.011
 6182.00    1.14594   1.24572    0.011
 6183.00    1.14997   1.24489    0.011
 6184.00    1.15527   1.24541    0.011
 6185.00    1.16556   1.24186    0.011
 6186.00    1.18049   1.24178    0.011
 6187.00    1.20432   1.24264    0.011
 6188.00    1.23542   1.24000    0.011
 6189.00    1.23321   1.24132    0.011
 6190.00    1.20703   1.24288    0.011
 6191.00    1.18388   1.24168    0.011
 6192.00    1.16265   1.24410    0.011
 6193.00    1.18248   1.24606    0.011
 6194.00    1.22499   1.24601    0.011
 6195.00    1.19014   1.24844    0.012
 6196.00    1.11815   1.25007   -2.000
 6197.00    1.20780   1.25025   -2.000
 6198.00    1.36445   1.25136   -2.000
 6199.00    1.50634   1.25190   -2.000
 6200.00    1.64300   1.25127   -2.000
 6201.00    1.62023   1.25009   -2.000
 6202.00    1.54976   1.24911   -2.000
 6203.00    1.22274   1.24700   -2.000
 6204.00    0.83200   1.24335   -2.000
 6205.00    0.86765   1.24099   -2.000
 6206.00    0.98915   1.23746   -2.000
 6207.00    1.12056   1.23207   -2.000
 6208.00    1.25353   1.22904    0.012
 6209.00    1.22644   1.22479    0.011
 6210.00    1.18059   1.21907    0.011
 6211.00    1.17983   1.21625    0.011
 6212.00    1.18265   1.21216    0.011
 6213.00    1.20785   1.20754    0.011
 6214.00    1.23403   1.20553    0.010
 6215.00    1.26609   1.20213    0.010
 6216.00    1.29591   1.19946    0.010
 6217.00    1.21625   1.19831    0.010
 6218.00    1.13830   1.19551    0.011
 6219.00    1.09143   1.19487    0.011
 6220.00    1.05490   1.19430    0.011
 6221.00    1.13231   1.19168    0.011
 6222.00    1.20276   1.19260    0.011
 6223.00    1.21945   1.19242    0.011
 6224.00    1.22703   1.18956    0.011
 6225.00    1.18132   1.19132    0.011
 6226.00    1.14445   1.19160    0.011
 6227.00    1.14863   1.18831    0.011
 6228.00    1.16102   1.19010    0.011
 6229.00    1.20458   1.19104    0.011
 6230.00    1.22896   1.18729    0.012
 6231.00    1.19266   1.18832    0.011
 6232.00    1.15646   1.19005    0.011
 6233.00    1.12053   1.18593    0.011
 6234.00    1.09487   1.18557    0.011
 6235.00    1.09288   1.18807    0.011
 6236.00    1.08275   1.18376    0.011
 6237.00    1.05642   1.18179    0.011
 6238.00    1.04838   1.18486    0.010
 6239.00    1.07211   1.18068    0.011
 6240.00    1.09789   1.17730    0.011
 6241.00    1.12679   1.18059    0.010
 6242.00    1.14208   1.17687    0.010
 6243.00    1.13920   1.17252    0.010
 6244.00    1.14220   1.17569    0.010
 6245.00    1.15211   1.17278    0.010
 6246.00    1.17628   1.16807    0.011
 6247.00    1.21524   1.17106    0.011
 6248.00    1.22980   1.16943    0.011
 6249.00    1.22206   1.16511    0.011
 6250.00    1.19344   1.16823    0.011
 6251.00    1.14799   1.16850    0.011
 6252.00    1.11335   1.16533    0.011
 6253.00    1.08638   1.16901    0.011
 6254.00    1.07521   1.17163    0.011
 6255.00    1.07388   1.17007    0.011
 6256.00    1.06814   1.17435    0.011
 6257.00    1.05998   1.17917    0.011
 6258.00    1.08900   1.17916    0.011
 6259.00    1.13558   1.18352    0.012
 6260.00    1.19035   1.18967    0.012
 6261.00    1.24846   1.19072    0.013
 6262.00    1.26059   1.19435    0.013
 6263.00    1.25672   1.20068    0.014
 6264.00    1.26086   1.20213    0.013
 6265.00    1.26736   1.20453    0.013
 6266.00    1.23500   1.21014    0.012
 6267.00    1.19320   1.21147    0.012
 6268.00    1.17644   1.21268    0.011
 6269.00    1.16459   1.21721    0.011
 6270.00    1.13707   1.21824    0.011
 6271.00    1.10714   1.21872    0.010
 6272.00    1.10786   1.22227    0.010
 6273.00    1.11204   1.22307    0.011
 6274.00    1.13614   1.22336    0.011
 6275.00    1.16174   1.22618    0.011
 6276.00    1.12605   1.22688    0.011
 6277.00    1.08790   1.22729    0.011
 6278.00    1.05367   1.22941    0.011
 6279.00    1.02037   1.23003    0.011
 6280.00    1.02391   1.23043    0.000
 6281.00    1.02818   1.23159    0.000
 6282.00    1.04484   1.23193    0.000
 6283.00    1.06159   1.23192    0.000
 6284.00    1.07937   1.23177    0.000
 6285.00    1.10102   1.23161    0.000
 6286.00    1.15154   1.23083    0.000
 6287.00    1.19325   1.22934    0.000
 6288.00    1.18488   1.22872    0.000
 6289.00    1.17216   1.22725    0.000
 6290.00    1.13972   1.22485    0.000
 6291.00    1.11497   1.22421    0.000
 6292.00    1.11869   1.22257    0.000
 6293.00    1.11823   1.21998    0.000
 6294.00    1.10473   1.21991    0.000
 6295.00    1.09797   1.21878    0.000
 6296.00    1.10896   1.21648    0.000
 6297.00    1.12581   1.21734    0.000
 6298.00    1.15594   1.21714    0.000
 6299.00    1.18556   1.21505    0.000
 6300.00    1.21419   1.21657    0.000
 6301.00    1.22666   1.21734    0.000
 6302.00    1.21151   1.21494    0.000
 6303.00    1.18751   1.21638    0.000
 6304.00    1.15025   1.21797    0.000
 6305.00    1.14054   1.21490    0.000
 6306.00    1.16709   1.21550    0.000
 6307.00    1.19041   1.21783    0.000
 6308.00    1.20997   1.21439    0.000
 6309.00    1.21897   1.21392    0.000
 6310.00    1.21717   1.21709    0.000
 6311.00    1.19615   1.21421    0.000
 6312.00    1.15781   1.21305    0.000
 6313.00    1.10864   1.21711    0.000
 6314.00    1.05088   1.21574    0.000
 6315.00    1.04913   1.21456    0.000
 6316.00    1.08652   1.21920    0.000
 6317.00    1.13953   1.21955    0.000
 6318.00    1.20213   1.21879    0.000
 6319.00    1.19518   1.22333    0.000
 6320.00    1.15100   1.22465    0.000
 6321.00    1.11779   1.22427    0.010
 6322.00    1.08968   1.22795    0.010
 6323.00    1.10101   1.22906    0.010
 6324.00    1.12813   1.22869    0.010
 6325.00    1.08570   1.23109    0.010
 6326.00    1.01952   1.23109    0.010
 6327.00    0.96910   1.23047    0.010
 6328.00    0.92322   1.23171    0.010
 6329.00    0.97198   1.23052    0.010
 6330.00    1.04323   1.22972    0.010
 6331.00    1.08097   1.23029    0.011
 6332.00    1.11230   1.22849    0.011
 6333.00    1.10083   1.22782    0.011
 6334.00    1.08300   1.22824    0.011
 6335.00    1.11373   1.22656    0.011
 6336.00    1.14973   1.22625    0.011
 6337.00    1.20305   1.22669    0.011
 6338.00    1.25761   1.22550    0.010
 6339.00    1.27659   1.22542    0.011
 6340.00    1.29427   1.22566    0.011
 6341.00    1.23797   1.22476    0.010
 6342.00    1.18188   1.22435    0.010
 6343.00    1.14286   1.22389    0.010
 6344.00    1.10559   1.22284    0.010
 6345.00    1.09612   1.22146    0.010
 6346.00    1.08808   1.21985    0.010
 6347.00    1.09447   1.21844    0.010
 6348.00    1.10294   1.21591    0.010
 6349.00    1.12638   1.21312    0.010
 6350.00    1.14702   1.21161    0.010
 6351.00    1.15212   1.20862    0.010
 6352.00    1.15834   1.20533    0.010
 6353.00    1.16951   1.20440    0.011
 6354.00    1.17448   1.20224    0.011
 6355.00    1.15691   1.19968    0.011
 6356.00    1.14255   1.20007    0.011
 6357.00    1.13795   1.19994    0.011
 6358.00    1.12875   1.19927    0.011
 6359.00    1.10763   1.20131    0.011
 6360.00    1.09394   1.20352    0.011
 6361.00    1.09679   1.20521    0.011
 6362.00    1.10522   1.20852    0.011
 6363.00    1.12443   1.21241    0.011
 6364.00    1.12905   1.21589    0.011
 6365.00    1.10907   1.21953    0.011
 6366.00    1.11535   1.22379    0.011
 6367.00    1.16035   1.22801    0.011
 6368.00    1.19462   1.23087    0.011
 6369.00    1.21497   1.23425    0.011
 6370.00    1.21423   1.23825    0.010
 6371.00    1.18940   1.23968    0.010
 6372.00    1.16774   1.24140    0.010
 6373.00    1.14927   1.24473    0.010
 6374.00    1.14832   1.24471    0.010
 6375.00    1.16295   1.24461    0.010
 6376.00    1.13957   1.24723    0.010
 6377.00    1.08642   1.24619    0.010
 6378.00    1.04283   1.24451    0.010
 6379.00    1.00583   1.24660    0.010
 6380.00    0.99780   1.24503    0.011
 6381.00    1.00726   1.24208    0.011
 6382.00    1.05969   1.24392    0.011
 6383.00    1.13475   1.24223    0.011
 6384.00    1.19556   1.23824    0.011
 6385.00    1.24986   1.24008    0.011
 6386.00    1.26541   1.23876    0.011
 6387.00    1.26572   1.23395    0.010
 6388.00    1.23967   1.23595    0.010
 6389.00    1.20478   1.23555    0.010
 6390.00    1.20001   1.23036    0.010
 6391.00    1.20373   1.23244    0.010
 6392.00    1.21184   1.23324    0.010
 6393.00    1.22096   1.22843    0.010
 6394.00    1.21047   1.23039    0.010
 6395.00    1.19632   1.23201    0.010
 6396.00    1.18436   1.22824    0.010
 6397.00    1.17272   1.23003    0.011
 6398.00    1.15759   1.23155    0.010
 6399.00    1.14210   1.22895    0.010
 6400.00    1.08931   1.23082    0.010
 6401.00    1.03400   1.23140    0.011
 6402.00    1.04214   1.22940    0.011
 6403.00    1.05235   1.23171    0.011
 6404.00    1.01727   1.23137    0.011
 6405.00    0.98287   1.22914    0.011
 6406.00    0.97027   1.23193    0.011
 6407.00    0.96218   1.23145    0.011
 6408.00    1.02173   1.22855    0.011
 6409.00    1.08177   1.23147    0.011
 6410.00    1.14644   1.23193    0.011
 6411.00    1.20777   1.22856    0.011
 6412.00    1.24576   1.23088    0.011
 6413.00    1.26494   1.23289    0.011
 6414.00    1.18285   1.22983    0.010
 6415.00    1.10787   1.23103    0.010
 6416.00    1.06365   1.23432    0.010
 6417.00    1.03749   1.23221    0.010
 6418.00    1.07563   1.23218    0.010
 6419.00    1.10451   1.23591    0.010
 6420.00    1.10567   1.23490    0.010
 6421.00    1.09611   1.23400    0.010
 6422.00    1.05924   1.23734    0.010
 6423.00    1.04066   1.23712    0.010
 6424.00    1.06214   1.23598    0.010
 6425.00    1.08352   1.23853    0.010
 6426.00    1.10472   1.23867    0.010
 6427.00    1.13420   1.23786    0.010
 6428.00    1.17743   1.23969    0.011
 6429.00    1.20256   1.23979    0.011
 6430.00    1.20135   1.23951    0.011
 6431.00    1.19686   1.24097    0.011
 6432.00    1.18816   1.24102    0.011
 6433.00    1.20146   1.24078    0.011
 6434.00    1.23953   1.24180    0.011
 6435.00    1.25709   1.24213    0.011
 6436.00    1.25426   1.24144    0.011
 6437.00    1.23492   1.24167    0.011
 6438.00    1.20110   1.24253    0.010
 6439.00    1.18287   1.24096    0.010
 6440.00    1.17668   1.23963    0.010
 6441.00    1.16427   1.24125    0.010
 6442.00    1.14764   1.23954    0.010
 6443.00    1.09730   1.23639    0.010
 6444.00    1.02690   1.23855    0.010
 6445.00    1.01089   1.23788    0.010
 6446.00    1.02309   1.23322    0.010
 6447.00    1.05224   1.23524    0.010
 6448.00    1.08900   1.23684    0.010
 6449.00    1.09106   1.23182    0.010
 6450.00    1.07972   1.23290    0.011
 6451.00    1.08023   1.23698    0.011
 6452.00    1.08464   1.23274    0.011
 6453.00    1.07013   1.23225    0.011
 6454.00    1.05040   1.23808    0.010
 6455.00    1.05499   1.23537    0.011
 6456.00    1.06509   1.23301    0.011
 6457.00    1.08159   1.23942    0.011
 6458.00    1.09925   1.23862    0.011
 6459.00    1.09911   1.23458    0.011
 6460.00    1.09649   1.24030    0.011
 6461.00    1.09411   1.24146    0.010
 6462.00    1.09175   1.23637    0.010
 6463.00    1.16077   1.24028    0.010
 6464.00    1.23430   1.24302    0.010
 6465.00    1.25993   1.23772    0.010
 6466.00    1.28399   1.23915    0.010
 6467.00    1.24953   1.24266    0.010
 6468.00    1.21492   1.23781    0.010
 6469.00    1.17638   1.23656    0.010
 6470.00    1.14018   1.23977    0.010
 6471.00    1.13691   1.23585    0.010
 6472.00    1.13355   1.23240    0.010
 6473.00    1.12932   1.23437    0.010
 6474.00    1.12206   1.23118    0.011
 6475.00    1.09435   1.22603    0.011
 6476.00    1.07564   1.22617    0.011
 6477.00    1.10413   1.22324    0.011
 6478.00    1.12836   1.21678    0.011
 6479.00    1.13461   1.21498    0.011
 6480.00    1.14042   1.21189    0.011
 6481.00    1.14468   1.20430    0.011
 6482.00    1.15928   1.20066    0.011
 6483.00    1.20425   1.19725    0.011
 6484.00    1.23035   1.18960    0.011
 6485.00    1.20926   1.18532    0.010
 6486.00    1.17014   1.18175    0.010
 6487.00    1.09217   1.17497    0.010
 6488.00    1.03783   1.17149    0.010
 6489.00    1.02771   1.16886    0.010
 6490.00    1.02864   1.16431    0.010
 6491.00    1.04760   1.16289    0.010
 6492.00    1.04538   1.16228    0.010
 6493.00    1.01280   1.16093    0.010
 6494.00    0.98172   1.16238    0.010
 6495.00    0.95251   1.16415    0.010
 6496.00    0.94327   1.16571    0.010
 6497.00    0.95621   1.16981    0.010
 6498.00    0.97772   1.17368    0.010
 6499.00    1.00763   1.17672    0.010
 6500.00    1.04564   1.18214    0.010
 6501.00    1.09067   1.18721    0.011
 6502.00    1.10334   1.19007    0.010
 6503.00    1.09138   1.19502    0.010
 6504.00    1.06027   1.20029    0.010
 6505.00    1.01634   1.20198    0.010
 6506.00    1.00196   1.20514    0.010
 6507.00    1.00490   1.20991    0.010
 6508.00    1.02829   1.21055    0.010
 6509.00    1.06212   1.21168    0.010
 6510.00    1.09458   1.21543    0.010
 6511.00    1.12643   1.21566    0.010
 6512.00    1.11598   1.21556    0.010
 6513.00    1.08945   1.21800    0.010
 6514.00    1.07193   1.21815    0.010
 6515.00    1.05732   1.21788    0.010
 6516.00    1.07596   1.21931    0.010
 6517.00    1.10359   1.21943    0.010
 6518.00    1.10872   1.21947    0.010
 6519.00    1.10886   1.22040    0.010
 6520.00    1.11489   1.22051    0.010
 6521.00    1.12195   1.22084    0.010
 6522.00    1.15748   1.22151    0.010
 6523.00    1.19684   1.22145    0.010
 6524.00    1.20563   1.22169    0.010
 6525.00    1.21150   1.22249    0.010
 6526.00    1.16969   1.22249    0.010
 6527.00    1.12506   1.22208    0.010
 6528.00    1.10254   1.22256    0.000
 6529.00    1.08112   1.22259    0.000
 6530.00    1.13729   1.22150    0.000
 6531.00    1.19113   1.22140    0.000
 6532.00    1.18622   1.22104    0.000
 6533.00    1.18095   1.21873    0.000
 6534.00    1.17086   1.21780    0.000
 6535.00    1.15970   1.21696    0.000
 6536.00    1.13901   1.21317    0.000
 6537.00    1.11617   1.21086    0.000
 6538.00    1.07918   1.20935    0.000
 6539.00    1.04800   1.20461    0.000
 6540.00    1.04652   1.20064    0.000
 6541.00    1.04676   1.19777    0.000
 6542.00    1.05406   1.19212    0.000
 6543.00    1.06418   1.18632    0.000
 6544.00    1.08390   1.18222    0.000
 6545.00    1.10485   1.17621    0.000
 6546.00    1.12933   1.16805    0.000
 6547.00    1.15313   1.16272    0.000
 6548.00    1.17523   1.15806    0.000
 6549.00    1.19009   1.14770    0.000
 6550.00    1.18957   1.14025    0.000
 6551.00    1.17756   1.13867    0.000
 6552.00    1.14438   1.12754    0.000
 6553.00    1.11715   1.11644    0.000
 6554.00    1.09951   1.11911    0.000
 6555.00    1.08319   1.11284    0.000
 6556.00    1.06875   1.10049    0.000
 6557.00    1.08348   1.10507    0.000
 6558.00    1.13445   1.10508    0.000
 6559.00    1.19429   1.09415    0.000
 6560.00    1.26384   1.09919    0.000
 6561.00    1.31723   1.10574    0.000
 6562.00    1.35501   1.09892    0.000
 6563.00    1.36844   1.10315    0.000
 6564.00    1.36113   1.11385    0.000
 6565.00    1.30810   1.11207    0.000
 6566.00    1.22079   1.11547    0.000
 6567.00    1.12504   1.12727    0.000
 6568.00    1.02374   1.12950    0.000
 6569.00    0.96932   1.13229    0.000
 6570.00    0.94196   1.14235    0.000
 6571.00    0.96410   1.14641    0.000
 6572.00    1.01114   1.14904    0.000
 6573.00    1.02509   1.15624    0.000
 6574.00    1.02466   1.16040    0.000
 6575.00    0.99336   1.16296    0.000
 6576.00    0.95054   1.16698    0.000
 6577.00    0.99569   1.16999    0.000
 6578.00    1.06869   1.17265    0.000
 6579.00    1.18397   1.17408    0.000
 6580.00    1.31044   1.17505    0.000
 6581.00    1.37233   1.17770    0.000
 6582.00    1.42027   1.17774    0.000
 6583.00    1.38795   1.17601    0.000
 6584.00    1.34187   1.17813    0.000
 6585.00    1.31398   1.17857    0.000
 6586.00    1.28845   1.17518    0.000
 6587.00    1.25123   1.17630    0.000
 6588.00    1.21295   1.17771    0.000
 6589.00    1.17709   1.17416    0.000
 6590.00    1.14137   1.17442    0.000
 6591.00    1.13335   1.17658    0.000
 6592.00    1.12537   1.17375    0.000
 6593.00    1.06445   1.17336    0.000
 6594.00    1.00669   1.17606    0.000
 6595.00    1.02155   1.17456    0.000
 6596.00    1.03588   1.17355    0.000
 6597.00    1.04359   1.17614    0.000
 6598.00    1.05203   1.17613    0.000
 6599.00    1.06661   1.17472    0.000
 6600.00    1.07456   1.17681    0.000
 6601.00    1.04024   1.17828    0.000
 6602.00    1.00684   1.17715    0.000
 6603.00    0.97798   1.17828    0.000
 6604.00    0.95234   1.18042    0.000
 6605.00    0.93963   1.18056    0.000
 6606.00    0.93732   1.18107    0.000
 6607.00    0.96984   1.18248    0.000
 6608.00    0.99909   1.18353    0.000
 6609.00    1.01909   1.18421    0.010
 6610.00    1.02401   1.18479    0.010
 6611.00    0.99251   1.18551    0.010
 6612.00    0.96783   1.18606    0.010
 6613.00    0.95740   1.18622    0.010
 6614.00    0.96804   1.18581    0.010
 6615.00    1.01690   1.18553    0.010
 6616.00    1.05142   1.18556    0.010
 6617.00    1.06320   1.18377    0.010
 6618.00    1.05254   1.18214    0.010
 6619.00    1.01065   1.18232    0.010
 6620.00    0.98429   1.17991    0.010
 6621.00    0.97693   1.17721    0.010
 6622.00    0.98873   1.17726    0.010
 6623.00    1.02120   1.17458    0.010
 6624.00    1.04419   1.17130    0.010
 6625.00    1.05813   1.17165    0.010
 6626.00    1.06073   1.16948    0.010
 6627.00    1.05378   1.16574    0.010
 6628.00    1.03820   1.16663    0.009
 6629.00    1.01622   1.16610    0.009
 6630.00    1.00502   1.16233    0.009
 6631.00    1.00081   1.16331    0.010
 6632.00    1.01427   1.16441    0.010
 6633.00    1.03778   1.16060    0.010
 6634.00    1.07537   1.16114    0.010
 6635.00    1.11992   1.16421    0.010
 6636.00    1.11773   1.16108    0.010
 6637.00    1.09553   1.15991    0.010
 6638.00    1.04688   1.16376    0.010
 6639.00    0.98852   1.16289    0.010
 6640.00    0.99201   1.16044    0.010
 6641.00    1.01472   1.16295    0.010
 6642.00    1.01211   1.16388    0.010
 6643.00    1.00294   1.16122    0.010
 6644.00    1.02068   1.16177    0.010
 6645.00    1.04410   1.16359    0.010
 6646.00    1.08570   1.16121    0.010
 6647.00    1.13033   1.15979    0.010
 6648.00    1.15017   1.16183    0.010
 6649.00    1.16689   1.16026    0.010
 6650.00    1.13506   1.15703    0.010
 6651.00    1.09899   1.15832    0.010
 6652.00    1.09032   1.15799    0.010
 6653.00    1.08306   1.15381    0.010
 6654.00    1.07814   1.15377    0.010
 6655.00    1.07317   1.15471    0.010
 6656.00    1.06151   1.15056    0.010
 6657.00    1.05050   1.14913    0.010
 6658.00    1.05315   1.15100    0.010
 6659.00    1.05046   1.14861    0.010
 6660.00    0.98349   1.14652    0.010
 6661.00    0.92054   1.14763    0.010
 6662.00    0.89079   1.14698    0.010
 6663.00    0.87232   1.14584    0.010
 6664.00    0.92343   1.14601    0.010
 6665.00    0.97375   1.14579    0.010
 6666.00    1.02018   1.14588    0.010
 6667.00    1.05897   1.14546    0.010
 6668.00    1.06759   1.14458    0.010
 6669.00    1.06916   1.14609    0.010
 6670.00    1.04760   1.14594    0.010
 6671.00    1.02588   1.14294    0.010
 6672.00    1.00370   1.14475    0.010
 6673.00    1.00273   1.14688    0.010
 6674.00    1.05216   1.14372    0.010
 6675.00    1.08732   1.14405    0.010
 6676.00    1.09318   1.14700    0.010
 6677.00    1.08889   1.14510    0.010
 6678.00    1.06646   1.14418    0.010
 6679.00    1.07252   1.14691    0.010
 6680.00    1.12313   1.14647    0.010
 6681.00    1.12077   1.14474    0.010
 6682.00    1.04575   1.14645    0.010
 6683.00    0.99471   1.14703    0.010
 6684.00    0.97264   1.14551    0.010
 6685.00    0.95969   1.14583    0.010
 6686.00    0.95645   1.14613    0.010
 6687.00    0.95975   1.14528    0.010
 6688.00    0.96919   1.14473    0.010
 6689.00    0.98908   1.14393    0.010
 6690.00    1.01762   1.14353    0.010
 6691.00    1.02447   1.14281    0.010
 6692.00    1.01552   1.14146    0.010
 6693.00    1.01273   1.14123    0.010
 6694.00    1.01389   1.14035    0.010
 6695.00    1.00065   1.13886    0.010
 6696.00    0.97936   1.13826    0.000
 6697.00    0.97677   1.13678    0.000
 6698.00    0.98329   1.13545    0.000
 6699.00    1.01583   1.13503    0.000
 6700.00    1.05932   1.13312    0.000
 6701.00    1.08843   1.13155    0.000
 6702.00    1.11236   1.13120    0.000
 6703.00    1.10356   1.12888    0.000
 6704.00    1.08478   1.12679    0.000
 6705.00    1.04132   1.12657    0.000
 6706.00    0.99161   1.12456    0.000
 6707.00    0.99422   1.12191    0.000
 6708.00    1.00760   1.12150    0.000
 6709.00    1.03495   1.12073    0.000
 6710.00    1.06456   1.11803    0.000
 6711.00    1.06238   1.11716    0.000
 6712.00    1.05636   1.11800    0.000
 6713.00    1.07910   1.11666    0.000
 6714.00    1.10424   1.11579    0.000
 6715.00    1.10866   1.11689    0.000
 6716.00    1.11210   1.11702    0.000
 6717.00    1.14031   1.11726    0.000
 6718.00    1.16837   1.11817    0.000
 6719.00    1.16811   1.11848    0.000
 6720.00    1.16671   1.11960    0.000
 6721.00    1.14290   1.12082    0.000
 6722.00    1.12742   1.12105    0.000
 6723.00    1.20759   1.12203    0.000
 6724.00    1.27740   1.12330    0.000
 6725.00    1.26468   1.12333    0.000
 6726.00    1.24871   1.12337    0.000
 6727.00    1.21326   1.12423    0.000
 6728.00    1.17358   1.12414    0.000
 6729.00    1.11386   1.12332    0.000
 6730.00    1.06346   1.12343    0.000
 6731.00    1.04908   1.12316    0.000
 6732.00    1.04243   1.12138    0.000
 6733.00    1.06068   1.12049    0.000
 6734.00    1.06877   1.12099    0.000
 6735.00    1.04917   1.11911    0.000
 6736.00    1.03082   1.11661    0.000
 6737.00    1.01543   1.11755    0.000
 6738.00    1.00905   1.11722    0.000
 6739.00    1.02087   1.11400    0.000
 6740.00    1.01717   1.11409    0.000
 6741.00    0.98620   1.11559    0.000
 6742.00    0.96640   1.11324    0.000
 6743.00    0.96381   1.11197    0.000
 6744.00    0.96204   1.11492    0.000
 6745.00    0.96138   1.11461    0.000
 6746.00    0.97312   1.11231    0.000
 6747.00    0.99961   1.11562    0.000
 6748.00    1.02481   1.11722    0.000
 6749.00    1.04866   1.11513    0.000
 6750.00    1.04955   1.11789    0.000
 6751.00    1.02917   1.12054    0.000
 6752.00    0.99953   1.11930    0.000
 6753.00    0.96233   1.12081    0.011
 6754.00    0.98507   1.12348    0.011
 6755.00    1.05086   1.12316    0.011
 6756.00    1.11109   1.12361    0.011
 6757.00    1.16780   1.12539    0.011
 6758.00    1.11883   1.12557    0.011
 6759.00    1.01161   1.12572    0.011
 6760.00    0.94274   1.12635    0.011
 6761.00    0.89226   1.12626    0.011
 6762.00    0.93123   1.12697    0.012
 6763.00    1.00721   1.12714    0.012
 6764.00    1.07539   1.12609    0.012
 6765.00    1.14082   1.12710    0.012
 6766.00    1.16336   1.12789    0.012
 6767.00    1.17310   1.12639    0.012
 6768.00    1.11906   1.12681    0.012
 6769.00    1.04922   1.12811    0.011
 6770.00    1.06210   1.12657    0.011
 6771.00    1.09159   1.12617    0.011
 6772.00    1.07889   1.12757    0.011
 6773.00    1.05955   1.12589    0.011
 6774.00    1.03907   1.12470    0.011
 6775.00    1.01846   1.12588    0.010
 6776.00    0.99509   1.12399    0.010
 6777.00    0.97150   1.12204    0.010
 6778.00    1.04525   1.12307    0.010
 6779.00    1.12324   1.12144    0.011
 6780.00    1.14639   1.11906    0.011
 6781.00    1.16819   1.12023    0.011
 6782.00    1.15353   1.11936    0.011
 6783.00    1.13967   1.11671    0.011
 6784.00    1.14036   1.11793    0.011
 6785.00    1.13700   1.11838    0.011
 6786.00    1.08940   1.11546    0.011
 6787.00    1.03942   1.11595    0.011
 6788.00    0.97109   1.11800    0.011
 6789.00    0.92196   1.11580    0.011
 6790.00    0.98478   1.11525    0.011
 6791.00    1.04218   1.11798    0.011
 6792.00    1.07452   1.11724    0.011
 6793.00    1.10374   1.11594    0.011
 6794.00    1.12113   1.11815    0.011
 6795.00    1.12430   1.11906    0.011
 6796.00    1.08258   1.11750    0.011
 6797.00    1.04667   1.11810    0.010
 6798.00    1.02637   1.12018    0.010
 6799.00    1.02217   1.11917    0.010
 6800.00    1.05498   1.11797    0.010
 6801.00    1.08206   1.12029    0.010
 6802.00    1.09778   1.12051    0.010
 6803.00    1.10578   1.11844    0.011
 6804.00    1.10043   1.11986    0.011
 6805.00    1.09020   1.12109    0.011
 6806.00    1.07254   1.11977    0.011
 6807.00    1.05741   1.11992    0.011
 6808.00    1.04565   1.12102    0.011
 6809.00    1.03486   1.12113    0.011
 6810.00    1.02522   1.12085    0.011
 6811.00    1.02950   1.12128    0.011
 6812.00    1.04819   1.12208    0.011
 6813.00    1.06920   1.12206    0.011
 6814.00    1.09234   1.12243    0.012
 6815.00    1.11787   1.12318    0.011
 6816.00    1.14534   1.12314    0.011
 6817.00    1.10012   1.12335    0.011
 6818.00    1.00345   1.12378    0.010
 6819.00    0.98619   1.12409    0.010
 6820.00    1.01827   1.12412    0.010
 6821.00    1.03942   1.12346    0.010
 6822.00    1.05466   1.12334    0.010
 6823.00    1.07665   1.12341    0.010
 6824.00    1.10184   1.12241    0.010
 6825.00    1.11379   1.12135    0.010
 6826.00    1.12035   1.12082    0.010
 6827.00    1.08894   1.12037    0.010
 6828.00    1.04435   1.11922    0.010
 6829.00    1.02533   1.11747    0.011
 6830.00    1.01379   1.11668    0.011
 6831.00    1.02938   1.11593    0.011
 6832.00    1.05155   1.11392    0.011
 6833.00    1.05909   1.11271    0.011
 6834.00    1.06378   1.11195    0.011
 6835.00    1.07633   1.11009    0.011
 6836.00    1.09007   1.10912    0.011
 6837.00    1.12601   1.10870    0.011
 6838.00    1.16444   1.10721    0.011
 6839.00    1.16030   1.10643    0.011
 6840.00    1.15299   1.10664    0.011
 6841.00    1.07303   1.10574    0.011
 6842.00    0.99018   1.10491    0.011
 6843.00    0.94291   1.10517    0.010
 6844.00    0.89936   1.10397    0.010
 6845.00    0.99446   1.10265    0.010
 6846.00    1.08433   1.10376    0.010
 6847.00    1.08592   1.10271    0.010
 6848.00    1.08715   1.09997    0.010
 6849.00    1.08456   1.10157    0.011
 6850.00    1.07362   1.10165    0.011
 6851.00    1.00069   1.09729    0.011
 6852.00    0.93935   1.09806    0.011
 6853.00    0.94373   1.10030    0.011
 6854.00    0.95912   1.09617    0.011
 6855.00    1.02421   1.09479    0.011
 6856.00    1.07691   1.09824    0.011
 6857.00    1.08375   1.09609    0.011
 6858.00    1.07451   1.09248    0.011
 6859.00    1.01548   1.09582    0.010
 6860.00    0.98676   1.09715    0.010
 6861.00    1.03778   1.09286    0.010
 6862.00    1.07589   1.09396    0.010
 6863.00    1.08483   1.09748    0.010
 6864.00    1.08730   1.09461    0.010
 6865.00    1.07710   1.09328    0.010
 6866.00    1.07332   1.09744    0.010
 6867.00    1.08049   1.09800    0.010
 6868.00    1.08816   1.09523    0.011
 6869.00    1.09660   1.09693    0.011
 6870.00    1.06866   1.10050    0.011
 6871.00    0.99295   1.09955    0.011
 6872.00    0.97403   1.09854    0.011
 6873.00    1.02082   1.10211    0.011
 6874.00    1.03686   1.10405    0.011
 6875.00    1.02151   1.10225    0.010
 6876.00    1.02069   1.10388    0.010
 6877.00    1.03295   1.10803    0.010
 6878.00    1.02506   1.10738    0.010
 6879.00    1.00120   1.10624    0.010
 6880.00    0.99138   1.11104    0.010
 6881.00    0.99136   1.11370    0.010
 6882.00    0.99310   1.11114    0.010
 6883.00    0.99590   1.11358    0.010
 6884.00    1.00130   1.11851    0.010
 6885.00    1.00808   1.11724    0.010
 6886.00    1.03373   1.11679    0.010
 6887.00    1.06813   1.12158    0.010
 6888.00    1.06339   1.12238    0.010
 6889.00    1.04299   1.12030    0.010
 6890.00    1.03539   1.12343    0.010
 6891.00    1.03214   1.12605    0.010
 6892.00    1.00730   1.12421    0.011
 6893.00    0.97627   1.12476    0.011
 6894.00    0.97166   1.12773    0.011
 6895.00    0.97332   1.12769    0.011
 6896.00    0.99093   1.12640    0.011
 6897.00    1.01158   1.12754    0.011
 6898.00    0.97142   1.12886    0.010
 6899.00    0.92227   1.12802    0.010
 6900.00    0.89622   1.12732    0.010
 6901.00    0.87266   1.12785    0.010
 6902.00    0.90414   1.12802    0.010
 6903.00    0.93950   1.12700    0.010
 6904.00    0.96140   1.12627    0.010
 6905.00    0.98281   1.12686    0.010
 6906.00    0.95441   1.12607    0.010
 6907.00    0.92680   1.12381    0.010
 6908.00    0.93209   1.12416    0.010
 6909.00    0.93567   1.12435    0.010
 6910.00    0.91207   1.12132    0.010
 6911.00    0.89135   1.12064    0.010
 6912.00    0.89955   1.12171    0.010
 6913.00    0.90900   1.11984    0.011
 6914.00    0.92739   1.11832    0.011
 6915.00    0.94970   1.11898    0.011
 6916.00    0.99363   1.11841    0.011
 6917.00    1.03234   1.11671    0.011
 6918.00    1.04797   1.11684    0.011
 6919.00    1.06946   1.11674    0.010
 6920.00    1.11223   1.11517    0.010
 6921.00    1.13212   1.11508    0.010
 6922.00    1.08251   1.11526    0.010
 6923.00    1.03232   1.11486    0.010
 6924.00    0.98066   1.11527    0.010
 6925.00    0.94708   1.11527    0.010
 6926.00    0.95371   1.11478    0.010
 6927.00    0.96317   1.11533    0.010
 6928.00    0.97810   1.11568    0.010
 6929.00    1.00309   1.11467    0.010
 6930.00    1.04499   1.11474    0.011
 6931.00    1.08843   1.11548    0.011
 6932.00    1.13411   1.11512    0.011
 6933.00    1.11561   1.11521    0.011
 6934.00    1.01399   1.11525    0.011
 6935.00    0.96776   1.11507    0.011
 6936.00    0.98474   1.11536    0.011
 6937.00    0.95833   1.11489    0.011
 6938.00    0.88826   1.11412    0.011
 6939.00    0.90672   1.11453    0.011
 6940.00    1.00376   1.11420    0.011
 6941.00    1.05122   1.11263    0.010
 6942.00    1.05991   1.11362    0.010
 6943.00    1.07350   1.11497    0.010
 6944.00    1.09045   1.11311    0.010
 6945.00    1.05913   1.11352    0.010
 6946.00    0.99871   1.11572    0.010
 6947.00    0.99891   1.11444    0.010
 6948.00    1.03099   1.11389    0.010
 6949.00    1.02264   1.11647    0.011
 6950.00    0.99585   1.11699    0.011
 6951.00    0.95433   1.11599    0.011
 6952.00    0.90703   1.11797    0.010
 6953.00    0.93688   1.12023    0.011
 6954.00    0.99253   1.11967    0.011
 6955.00    1.03274   1.12034    0.011
 6956.00    1.06862   1.12241    0.011
 6957.00    0.98433   1.12234    0.011
 6958.00    0.87223   1.12191    0.011
 6959.00    0.91804   1.12348    0.011
 6960.00    0.99317   1.12423    0.011
 6961.00    0.97116   1.12265    0.011
 6962.00    0.93525   1.12242    0.010
 6963.00    0.90105   1.12360    0.010
 6964.00    0.86702   1.12168    0.010
 6965.00    0.95252   1.11982    0.010
 6966.00    1.04598   1.12115    0.010
 6967.00    1.07414   1.11943    0.010
 6968.00    1.10017   1.11622    0.010
 6969.00    0.97824   1.11778    0.010
 6970.00    0.86161   1.11799    0.010
 6971.00    0.90708   1.11369    0.011
 6972.00    0.94816   1.11322    0.011
 6973.00    0.92382   1.11595    0.011
 6974.00    0.90256   1.11303    0.011
 6975.00    0.91085   1.11026    0.011
 6976.00    0.90893   1.11423    0.011
 6977.00    0.83604   1.11532    0.011
 6978.00    0.78667   1.11286    0.011
 6979.00    0.86357   1.11524    0.011
 6980.00    0.92405   1.11792    0.011
 6981.00    0.91377   1.11646    0.010
 6982.00    0.90571   1.11655    0.010
 6983.00    0.90551   1.11959    0.010
 6984.00    0.90796   1.12010    0.010
 6985.00    0.91833   1.11847    0.010
 6986.00    0.92229   1.11957    0.010
 6987.00    0.90999   1.12156    0.010
 6988.00    0.88675   1.12146    0.010
 6989.00    0.83961   1.12091    0.011
 6990.00    0.81802   1.12071    0.011
 6991.00    0.84490   1.12060    0.011
 6992.00    0.88083   1.11966    0.011
 6993.00    0.93173   1.11852    0.011
 6994.00    0.96712   1.11864    0.011
 6995.00    0.98000   1.11768    0.011
 6996.00    1.01002   1.11526    0.011
 6997.00    1.06190   1.11464    0.011
 6998.00    1.07145   1.11526    0.011
 6999.00    1.03341   1.11400    0.011
 7000.00    0.99271   1.11191    0.011
 7001.00    0.94937   1.11143    0.010
 7002.00    0.93312   1.11030    0.010
 7003.00    0.94057   1.10882    0.010
 7004.00    0.96233   1.10911    0.010
 7005.00    0.99512   1.10858    0.011
 7006.00    0.97608   1.10692    0.011
 7007.00    0.92192   1.10698    0.011
 7008.00    0.96577   1.10725    0.011
 7009.00    1.06780   1.10572    0.011
 7010.00    1.04450   1.10565    0.011
 7011.00    0.95628   1.10659    0.011
 7012.00    0.91264   1.10436    0.011
 7013.00    0.88901   1.10342    0.011
 7014.00    0.90631   1.10650    0.011
 7015.00    0.93941   1.10722    0.011
 7016.00    0.94666   1.10562    0.011
 7017.00    0.94544   1.10690    0.011
 7018.00    0.98581   1.10891    0.011
 7019.00    1.03763   1.10823    0.011
 7020.00    1.07110   1.10788    0.011
 7021.00    1.10043   1.11003    0.011
 7022.00    1.03495   1.11207    0.011
 7023.00    0.95234   1.11213    0.011
 7024.00    0.92298   1.11255    0.011
 7025.00    0.90099   1.11546    0.010
 7026.00    0.96904   1.11806    0.011
 7027.00    1.04602   1.11754    0.011
 7028.00    0.98073   1.11846    0.011
 7029.00    0.90652   1.12267    0.011
 7030.00    0.87435   1.12347    0.011
 7031.00    0.84351   1.12190    0.011
 7032.00    0.84647   1.12623    0.011
 7033.00    0.84829   1.13007    0.012
 7034.00    0.81862   1.12680    0.011
 7035.00    0.79469   1.12706    0.011
 7036.00    0.85134   1.13274    0.011
 7037.00    0.89375   1.13264    0.012
 7038.00    0.80488   1.12948    0.011
 7039.00    0.73757   1.13163    0.011
 7040.00    0.81560   1.13277    0.011
 7041.00    0.89440   1.12793    0.011
 7042.00    0.97723   1.12627    0.011
 7043.00    1.05039   1.12780    0.011
 7044.00    1.08281   1.12429    0.012
 7045.00    1.11780   1.11900    0.012
 7046.00    1.16174   1.11741    0.013
 7047.00    1.20057   1.11570    0.014
 7048.00    1.22447   1.10954    0.014
 7049.00    1.20330   1.10383    0.013
 7050.00    1.06964   1.10174   -2.000
 7051.00    0.97988   1.09740   -2.000
 7052.00    0.98455   1.09132   -2.000
 7053.00    1.01801   1.08858   -2.000
 7054.00    1.10523   1.08633   -2.000
 7055.00    1.12246   1.08079   -2.000
 7056.00    1.02555   1.07631   -2.000
 7057.00    0.99079   1.07528   -2.000
 7058.00    1.04495   1.07244   -2.000
 7059.00    1.05768   1.06860   -2.000
 7060.00    1.01826   1.06838   -2.000
 7061.00    0.95480   1.06763   -2.000
 7062.00    0.86467   1.06492   -2.000
 7063.00    0.82592   1.06454   -2.000
 7064.00    0.83742   1.06448   -2.000
 7065.00    0.91757   1.06271   -2.000
 7066.00    1.05692   1.06269   -2.000
 7067.00    1.08078   1.06400   -2.000
 7068.00    1.01689   1.06293   -2.000
 7069.00    1.03674   1.06168   -2.000
 7070.00    1.11251   1.06215   -2.000
 7071.00    1.15726   1.06126   -2.000
 7072.00    1.18387   1.05920   -2.000
 7073.00    1.19361   1.05778   -2.000
 7074.00    1.19474   1.05628   -2.000
 7075.00    1.07941   1.05415   -2.000
 7076.00    0.91267   1.05166   -2.000
 7077.00    0.92814   1.04927   -2.000
 7078.00    1.01270   1.04688   -2.000
 7079.00    1.05848   1.04335   -2.000
 7080.00    1.09178   1.03893   -2.000
 7081.00    1.08259   1.03584   -2.000
 7082.00    1.06195   1.03385   -2.000
 7083.00    1.02731   1.03014   -2.000
 7084.00    0.98959   1.02659   -2.000
 7085.00    0.92141   1.02522   -2.000
 7086.00    0.84788   1.02234   -2.000
 7087.00    0.94900   1.01928   -2.000
 7088.00    1.07352   1.01890   -2.000
 7089.00    1.02873   1.01735   -2.000
 7090.00    0.96786   1.01516   -2.000
 7091.00    1.05711   1.01480   -2.000
 7092.00    1.15516   1.01501   -2.000
 7093.00    1.05303   1.01402   -2.000
 7094.00    0.94723   1.01395   -2.000
 7095.00    1.01473   1.01566   -2.000
 7096.00    1.07973   1.01473   -2.000
 7097.00    1.08276   1.01434   -2.000
 7098.00    1.07610   1.01632   -2.000
 7099.00    0.94076   1.01623   -2.000
 7100.00    0.81424   1.01539   -2.000
 7101.00    0.76583   1.01683   -2.000
 7102.00    0.72980   1.01832   -2.000
 7103.00    0.77459   1.01709   -2.000
 7104.00    0.83171   1.01656   -2.000
 7105.00    0.95168   1.01873   -2.000
 7106.00    1.03316   1.01852   -2.000
 7107.00    0.95622   1.01657   -2.000
 7108.00    0.89294   1.01675   -2.000
 7109.00    0.87618   1.01784   -2.000
 7110.00    0.87746   1.01701   -2.000
 7111.00    0.93060   1.01508   -2.000
 7112.00    0.94894   1.01548   -2.000
 7113.00    0.88193   1.01583   -2.000
 7114.00    0.85960   1.01353   -2.000
 7115.00    0.93185   1.01172   -2.000
 7116.00    0.95712   1.01192   -2.000
 7117.00    0.89603   1.01143   -2.000
 7118.00    0.87407   1.00832   -2.000
 7119.00    0.91499   1.00705   -2.000
 7120.00    0.92375   1.00799   -2.000
 7121.00    0.88716   1.00598   -2.000
 7122.00    0.90091   1.00324   -2.000
 7123.00    0.97712   1.00372   -2.000
 7124.00    1.08916   1.00403   -2.000
 7125.00    1.24037   1.00158   -2.000
 7126.00    1.29608   1.00078   -2.000
 7127.00    1.25969   1.00189   -2.000
 7128.00    1.26658   1.00082   -2.000
 7129.00    1.31029   0.99984   -2.000
 7130.00    1.22873   1.00173   -2.000
 7131.00    1.05337   1.00221   -2.000
 7132.00    1.12016   1.00106   -2.000
 7133.00    1.34628   1.00232   -2.000
 7134.00    1.19536   1.00335   -2.000
 7135.00    0.82726   1.00298   -2.000
 7136.00    0.73373   1.00371   -2.000
 7137.00    0.77799   1.00436   -2.000
 7138.00    0.81010   1.00467   -2.000
 7139.00    0.83693   1.00603   -2.000
 7140.00    0.88422   1.00679   -2.000
 7141.00    0.93913   1.00632   -2.000
 7142.00    0.98515   1.00814   -2.000
 7143.00    1.02838   1.00976   -2.000
 7144.00    1.00526   1.00741   -2.000
 7145.00    0.96466   1.00817   -2.000
 7146.00    0.96663   1.01200   -2.000
 7147.00    0.97778   1.01093   -2.000
 7148.00    0.99243   1.00975   -2.000
 7149.00    1.00768   1.01320   -2.000
 7150.00    0.90489   1.01436   -2.000
 7151.00    0.78681   1.01180   -2.000
 7152.00    1.01568   1.01332   -2.000
 7153.00    1.27605   1.01635   -2.000
 7154.00    1.17152   1.01424   -2.000
 7155.00    1.04702   1.01376   -2.000
 7156.00    1.00515   1.01687   -2.000
 7157.00    0.96542   1.01736   -2.000
 7158.00    0.96279   1.01625   -2.000
 7159.00    0.96880   1.01740   -2.000
 7160.00    1.17094   1.01861   -2.000
 7161.00    1.36010   1.01759   -2.000
 7162.00    1.38576   1.01779   -2.000
 7163.00    1.39138   1.01959   -2.000
 7164.00    1.22602   1.02021   -2.000
 7165.00    1.07302   1.01951   -2.000
 7166.00    0.99832   1.01940   -2.000
 7167.00    0.96966   1.02083   -2.000
 7168.00    1.16955   1.02120   -2.000
 7169.00    1.30095   1.01968   -2.000
 7170.00    1.15664   1.01917   -2.000
 7171.00    1.05717   1.02001   -2.000
 7172.00    1.10751   1.01931   -2.000
 7173.00    1.10966   1.01781   -2.000
 7174.00    0.97586   1.01865   -2.000
 7175.00    0.87723   1.01867   -2.000
 7176.00    0.86342   1.01536   -2.000
 7177.00    0.90324   1.01379   -2.000
 7178.00    1.05473   1.01458   -2.000
 7179.00    1.13232   1.01356   -2.000
 7180.00    1.07608   1.01211   -2.000
 7181.00    1.04590   1.01238   -2.000
 7182.00    1.05694   1.01165   -2.000
 7183.00    1.03299   1.00928   -2.000
 7184.00    0.96041   1.00947   -2.000
 7185.00    0.94637   1.01012   -2.000
 7186.00    1.00390   1.00830   -2.000
 7187.00    0.95068   1.00865   -2.000
 7188.00    0.77806   1.00999   -2.000
 7189.00    0.73629   1.00875   -2.000
 7190.00    0.81894   1.00829   -2.000
 7191.00    0.86556   1.01012   -2.000
 7192.00    0.88197   1.01026   -2.000
 7193.00    0.89276   1.00910   -2.000
 7194.00    0.89940   1.01105   -2.000
 7195.00    0.92878   1.01216   -2.000
 7196.00    0.97289   1.01012   -2.000
 7197.00    0.96731   1.01107   -2.000
 7198.00    0.93354   1.01292   -2.000
 7199.00    1.03571   1.01237   -2.000
 7200.00    1.20502   1.01332   -2.000
 7201.00    1.18507   1.01538   -2.000
 7202.00    1.08429   1.01491   -2.000
 7203.00    0.98791   1.01399   -2.000
 7204.00    0.89312   1.01625   -2.000
 7205.00    0.80383   1.01703   -2.000
 7206.00    0.71623   1.01680   -2.000
 7207.00    0.76094   1.02012   -2.000
 7208.00    0.83980   1.02175   -2.000
 7209.00    0.81083   1.02105   -2.000
 7210.00    0.75918   1.02288   -2.000
 7211.00    0.79994   1.02568   -2.000
 7212.00    0.85606   1.02566   -2.000
 7213.00    0.86100   1.02690   -2.000
 7214.00    0.85955   1.03123   -2.000
 7215.00    0.84723   1.03225   -2.000
 7216.00    0.83396   1.03293   -2.000
 7217.00    0.89227   1.03634   -2.000
 7218.00    0.95421   1.03783   -2.000
