###################################################################
## OUTPUT of StarlightChains_v04.for    [Cid@UFSC - 01/Apr/2007] ##
###################################################################

## Some input info
KUG0210-078._36_27.txt                   [arq_obs]
Base.CB07.vall.4m                        [arq_base]
Masks.EmLines.NEW.gm                     [arq_masks]
StCv04.C11.config                        [arq_config]
   66                                    [N_base]
    0                                    [N_YAV_components = # of components with extra extinction!]
    0                                    [i_FitPowerLaw (1/0 = Yes/No)]
-9.99                                    [alpha_PowerLaw]
CCM                                      [red_law_option]
 1.458241                                [q_norm = A(l_norm)/A(V)]

## (Re)Sampling Parameters
 3741.00                                 [l_ini (A)]
 7218.00                                 [l_fin (A)]
    1.00                                 [dl    (A)]     (OBS: dl_cushion =    50.00 A)

## Normalization info
 4020.00                                 [l_norm (A) - for base]
 4010.00                                 [llow_norm (A) - window for f_obs]
 4060.00                                 [lupp_norm (A) - window for f_obs]
1.153133E-17                             [fobs_norm (in input units)]

## S/N
 3691.00                                 [llow_SN (A) - window for S/N]
 7268.00                                 [lupp_SN (A) - window for S/N]
   4.439                                 [S/N in S/N window]
   3.745                                 [S/N in norm. window]
   0.016                                 [S/N_err in S/N window]
   0.013                                 [S/N_err in norm. window]
  1.0000                                 [fscale_chi2]

## etc...
    -2007591                             [idum_orig]
  2368                                   [NOl_eff]
  2349                                   [Nl_eff]
    19    NSIGMA                         [Ntot_cliped & clip_method]
  1155980                                [Nglobal_steps]
   7                                     [N_chains]
   7                                     [NEX0s_base = N_base in EX0s-fits]
 0   0   1       19   2.0   2.117E+03    [Clip-Bug, RC-Crash & Burn-In warning-flags, n_censored_weights, wei_nsig_threshold & wei_limit]
    17     17.243     16.763      0.480  [idt_all, wdt_TotTime, wdt_UsrTime & wdt_SysTime (sec)]

## Synthesis Results - Best model ##

 1.55527E-05                             [chi2/Nl_eff]
    28.15344                             [adev (%)]

   116.45184                             [sum-of-x (%)]
 3.62224E-18                             [Flux_tot (units of input spectrum!)]
 4.27483E-13                             [Mini_tot (???)]
 2.15113E-13                             [Mcor_tot (???)]

  97.77                                  [v0_min  (km/s)]
 150.00                                  [vd_min  (km/s)]
-0.9756                                  [AV_min  (mag)]
 0.0000                                  [YAV_min (mag)]

# j     x_j(%)      Mini_j(%)     Mcor_j(%)     age_j(yr)     Z_j      (L/M)_j    YAV?  Mstars   component_j        a/Fe...       SSP_chi2r SSP_adev(%)   SSP_AV   SSP_x(%)
  1      0.0000     0.0000E+00    0.0000E+00    1.000000E+06  0.00400  1.094E-02    0   1.0000   age020_m42            0.0000     2.6192E-05    48.1450   3.4760    94.5401
  2      0.0000     0.0000E+00    0.0000E+00    3.160000E+06  0.00400  4.007E-02    0   0.9999   age045_m42            0.0000     2.3968E-05    46.3247   2.7457   101.0468
  3      0.0000     0.0000E+00    0.0000E+00    5.010000E+06  0.00400  2.539E-02    0   0.9488   age055_m42            0.0000     2.5283E-05    47.6485   3.0729    98.3148
  4      0.0000     0.0000E+00    0.0000E+00    6.610000E+06  0.00400  2.620E-02    0   0.9220   age061_m42            0.0000     2.4282E-05    46.9590   2.6785   100.9257
  5      0.0000     0.0000E+00    0.0000E+00    1.000000E+07  0.00400  1.322E-02    0   0.8862   age070_m42            0.0000     2.6153E-05    49.5372   2.4213   101.8168
  6      0.0000     0.0000E+00    0.0000E+00    1.445000E+07  0.00400  7.883E-03    0   0.8571   age078_m42            0.0000     2.6733E-05    49.8297   2.7480    99.3252
  7      0.0000     0.0000E+00    0.0000E+00    2.512000E+07  0.00400  5.251E-03    0   0.8174   age090_m42            0.0000     2.6410E-05    49.8176   2.2957   102.1574
  8      0.0000     0.0000E+00    0.0000E+00    4.000000E+07  0.00400  3.649E-03    0   0.7851   age104_m42            0.0000     2.5656E-05    49.0496   2.0628   103.2764
  9      0.0000     0.0000E+00    0.0000E+00    5.500000E+07  0.00400  3.098E-03    0   0.7629   age110_m42            0.0000     2.4565E-05    47.5355   2.2048   103.8345
 10      0.0000     0.0000E+00    0.0000E+00    1.015200E+08  0.00400  2.228E-03    0   0.7207   age116_m42            0.0000     2.3828E-05    46.6004   2.2172   104.3638
 11      0.0000     0.0000E+00    0.0000E+00    2.861200E+08  0.00400  1.093E-03    0   0.6648   age125_m42            0.0000     2.3603E-05    46.7550   1.6444   107.2888
 12      0.0000     0.0000E+00    0.0000E+00    5.088000E+08  0.00400  6.597E-04    0   0.6365   age130_m42            0.0000     2.2138E-05    44.5944   1.6187   109.0363
 13      0.0000     0.0000E+00    0.0000E+00    1.434000E+09  0.00400  2.132E-04    0   0.5798   age139_m42            0.0000     1.9891E-05    41.7390   0.6309   112.2314
 14      0.0000     0.0000E+00    0.0000E+00    4.250000E+09  0.00400  5.895E-05    0   0.5377   age158_m42            0.0000     1.8716E-05    39.8326   0.1669   109.2481
 15      0.0000     0.0000E+00    0.0000E+00    7.500000E+09  0.00400  3.510E-05    0   0.5212   age171_m42            0.0000     1.8139E-05    38.3539  -0.0344   109.1430
 16      0.1837     6.6649E-02    6.6674E-02    1.300000E+10  0.00400  2.005E-05    0   0.5034   age193_m42            0.0000     1.7702E-05    37.1953  -0.2147   109.1963
 17      0.0000     0.0000E+00    0.0000E+00    1.800000E+10  0.00400  1.525E-05    0   0.4967   age213_m42            0.0000     1.7927E-05    37.6668  -0.2349   108.5864
 18      0.0000     0.0000E+00    0.0000E+00    1.000000E+06  0.00800  1.238E-02    0   1.0000   age020_m52            0.0000     2.6245E-05    48.2084   3.4715    94.7467
 19      0.0000     0.0000E+00    0.0000E+00    3.160000E+06  0.00800  3.074E-02    0   0.9966   age045_m52            0.0000     2.6241E-05    48.1889   3.3984    95.4890
 20      0.0000     0.0000E+00    0.0000E+00    5.010000E+06  0.00800  2.668E-02    0   0.9443   age055_m52            0.0000     2.5784E-05    48.1391   3.1580    97.3550
 21      0.0000     0.0000E+00    0.0000E+00    6.610000E+06  0.00800  2.136E-02    0   0.9177   age061_m52            0.0000     2.4997E-05    48.5757   1.9106   103.6753
 22      0.0000     0.0000E+00    0.0000E+00    1.000000E+07  0.00800  1.215E-02    0   0.8827   age070_m52            0.0000     2.7223E-05    50.7971   2.6054   101.2861
 23      0.0000     0.0000E+00    0.0000E+00    1.445000E+07  0.00800  8.717E-03    0   0.8552   age078_m52            0.0000     2.6583E-05    49.8253   2.7132   100.6924
 24      0.0000     0.0000E+00    0.0000E+00    2.512000E+07  0.00800  5.592E-03    0   0.8162   age090_m52            0.0000     2.6504E-05    50.0036   2.3592   103.3216
 25      0.0000     0.0000E+00    0.0000E+00    4.000000E+07  0.00800  3.896E-03    0   0.7841   age104_m52            0.0000     2.5623E-05    48.9407   2.2632   104.4520
 26      0.0000     0.0000E+00    0.0000E+00    1.015200E+08  0.00800  2.148E-03    0   0.7226   age116_m52            0.0000     2.4206E-05    47.3318   2.1907   104.8482
 27      0.0000     0.0000E+00    0.0000E+00    2.861200E+08  0.00800  9.925E-04    0   0.6683   age125_m52            0.0000     2.2226E-05    44.6963   1.6873   109.8802
 28      0.0000     0.0000E+00    0.0000E+00    9.047900E+08  0.00800  3.141E-04    0   0.6138   age135_m52            0.0000     1.9152E-05    39.9137   0.8404   116.8561
 29      0.0000     0.0000E+00    0.0000E+00    1.434000E+09  0.00800  1.719E-04    0   0.5853   age139_m52            0.0000     1.8973E-05    40.0456   0.2611   114.4936
 30      0.0000     0.0000E+00    0.0000E+00    2.500000E+09  0.00800  7.872E-05    0   0.5600   age150_m52            0.0000     1.7714E-05    37.4675  -0.0301   112.7873
 31      0.0000     0.0000E+00    0.0000E+00    4.250000E+09  0.00800  4.336E-05    0   0.5426   age158_m52            0.0000     1.7746E-05    37.3655  -0.0467   111.8366
 32      0.0000     0.0000E+00    0.0000E+00    6.250000E+09  0.00800  3.159E-05    0   0.5319   age166_m52            0.0000     1.6963E-05    35.3402  -0.2689   112.7493
 33      0.0000     0.0000E+00    0.0000E+00    1.300000E+10  0.00800  1.361E-05    0   0.5073   age193_m52            0.0000     1.6199E-05    32.5137  -0.7627   113.2099
 34     29.6640     2.1833E+01    2.1651E+01    1.800000E+10  0.00800  9.886E-06    0   0.4990   age213_m52            0.0000     1.5715E-05    30.4084  -0.8928   113.6713
 35      0.0000     0.0000E+00    0.0000E+00    1.000000E+06  0.02000  1.544E-02    0   1.0000   age020_m62            0.0000     2.6372E-05    48.3198   3.4701    94.9070
 36      0.0000     0.0000E+00    0.0000E+00    3.160000E+06  0.02000  3.762E-02    0   0.9858   age045_m62            0.0000     2.6556E-05    48.4950   3.4094    95.7425
 37      0.0000     0.0000E+00    0.0000E+00    5.010000E+06  0.02000  3.296E-02    0   0.9342   age055_m62            0.0000     2.4840E-05    47.3309   3.0303    99.6261
 38      0.0000     0.0000E+00    0.0000E+00    8.710000E+06  0.02000  1.154E-02    0   0.8861   age067_m62            0.0000     3.2647E-05    56.4642   2.0924   102.0515
 39      0.0000     0.0000E+00    0.0000E+00    1.445000E+07  0.02000  7.663E-03    0   0.8472   age078_m62            0.0000     2.8346E-05    52.0442   2.2573   103.1318
 40      0.0000     0.0000E+00    0.0000E+00    2.512000E+07  0.02000  4.532E-03    0   0.8099   age090_m62            0.0000     2.8766E-05    52.4591   2.2550   102.4804
 41      0.0000     0.0000E+00    0.0000E+00    5.500000E+07  0.02000  2.733E-03    0   0.7595   age110_m62            0.0000     2.5823E-05    49.3068   2.2514   103.5159
 42      0.0000     0.0000E+00    0.0000E+00    1.609000E+08  0.02000  1.369E-03    0   0.6985   age120_m62            0.0000     2.3720E-05    46.6429   2.0696   107.2586
 43      0.0000     0.0000E+00    0.0000E+00    2.861200E+08  0.02000  9.013E-04    0   0.6714   age125_m62            0.0000     2.2293E-05    44.2766   1.8033   111.1350
 44      0.0000     0.0000E+00    0.0000E+00    5.088000E+08  0.02000  5.028E-04    0   0.6449   age130_m62            0.0000     1.9820E-05    40.0413   1.3844   116.1793
 45      0.0000     0.0000E+00    0.0000E+00    9.047900E+08  0.02000  2.428E-04    0   0.6179   age135_m62            0.0000     1.8390E-05    38.5793   0.7751   116.6755
 46      0.0000     0.0000E+00    0.0000E+00    1.434000E+09  0.02000  1.263E-04    0   0.5908   age139_m62            0.0000     1.8069E-05    38.0989   0.3252   115.3490
 47      0.0000     0.0000E+00    0.0000E+00    2.500000E+09  0.02000  5.985E-05    0   0.5673   age150_m62            0.0000     1.7231E-05    35.8289  -0.0636   114.9570
 48      0.0000     0.0000E+00    0.0000E+00    4.250000E+09  0.02000  3.271E-05    0   0.5468   age158_m62            0.0000     1.6211E-05    32.7635  -0.3990   115.4083
 49      0.0000     0.0000E+00    0.0000E+00    1.000000E+10  0.02000  1.360E-05    0   0.5167   age181_m62            0.0000     1.5683E-05    29.2020  -0.7871   116.7059
 50     66.4692     6.7890E+01    6.7633E+01    1.800000E+10  0.02000  7.124E-06    0   0.5013   age213_m62            0.0000     1.5624E-05    26.9188  -1.0000   116.3533
 51      0.0000     0.0000E+00    0.0000E+00    1.000000E+06  0.05000  2.592E-02    0   0.9998   age020_m72            0.0000     2.6756E-05    48.5903   3.4619    94.9096
 52      0.0000     0.0000E+00    0.0000E+00    3.160000E+06  0.05000  4.845E-02    0   0.9577   age045_m72            0.0000     2.5961E-05    48.0717   3.2920    96.9571
 53      0.0000     0.0000E+00    0.0000E+00    5.010000E+06  0.05000  3.072E-02    0   0.9147   age055_m72            0.0000     2.7976E-05    51.1721   2.8256    99.9746
 54      0.0000     0.0000E+00    0.0000E+00    6.610000E+06  0.05000  1.455E-02    0   0.8877   age061_m72            0.0000     3.6498E-05    59.7739   2.1258   102.2531
 55      0.0000     0.0000E+00    0.0000E+00    1.000000E+07  0.05000  9.074E-03    0   0.8524   age070_m72            0.0000     2.8742E-05    51.5606   2.9919    99.7818
 56      0.0000     0.0000E+00    0.0000E+00    2.512000E+07  0.05000  4.250E-03    0   0.7902   age090_m72            0.0000     2.7640E-05    50.8235   2.7073   101.2741
 57      0.0000     0.0000E+00    0.0000E+00    4.000000E+07  0.05000  3.087E-03    0   0.7618   age104_m72            0.0000     2.7555E-05    50.9725   2.4826   102.7437
 58      0.0000     0.0000E+00    0.0000E+00    1.015200E+08  0.05000  1.700E-03    0   0.7096   age116_m72            0.0000     2.4727E-05    47.8016   2.2195   106.2954
 59      0.0000     0.0000E+00    0.0000E+00    2.861200E+08  0.05000  7.384E-04    0   0.6633   age125_m72            0.0000     2.1005E-05    42.1919   1.6484   113.7576
 60      0.0000     0.0000E+00    0.0000E+00    5.088000E+08  0.05000  3.819E-04    0   0.6372   age130_m72            0.0000     1.8891E-05    39.1734   1.1227   117.4583
 61      0.0000     0.0000E+00    0.0000E+00    9.047900E+08  0.05000  1.676E-04    0   0.6110   age135_m72            0.0000     1.7436E-05    36.4403   0.3932   117.2228
 62      0.0000     0.0000E+00    0.0000E+00    1.434000E+09  0.05000  8.837E-05    0   0.5874   age139_m72            0.0000     1.7220E-05    35.3805  -0.0751   117.0877
 63      0.0000     0.0000E+00    0.0000E+00    2.500000E+09  0.05000  4.233E-05    0   0.5598   age150_m72            0.0000     1.6048E-05    31.7525  -0.4160   117.1474
 64     20.1350     1.0210E+01    1.0650E+01    6.250000E+09  0.05000  1.435E-05    0   0.5249   age166_m72            0.0000     1.5591E-05    28.5755  -0.8974   116.8453
 65      0.0000     0.0000E+00    0.0000E+00    1.300000E+10  0.05000  6.513E-06    0   0.5036   age193_m72            0.0000     1.6469E-05    26.6419  -1.0000   113.0842
 66      0.0000     0.0000E+00    0.0000E+00    1.800000E+10  0.05000  4.527E-06    0   0.4945   age213_m72            0.0000     1.8506E-05    26.9232  -1.0000   107.9701


## Synthesis Results - Average & Chains ##

# j      x_j: min, <> & last-chain-values for 1 ...  7 chains
  1      0.0000      0.7332      0.0000      0.0000      0.0493      0.0084      0.0000      0.0195      0.0000
  2      0.0000      0.9509      0.0000      0.0173      0.0165      0.0145      0.0977      0.0028      0.0000
  3      0.0000      1.1268      0.0000      0.0000      0.0058      0.0060      0.0000      0.0224      0.0000
  4      0.0000      1.0365      0.0000      0.0046      0.0000      0.0026      0.0046      0.0112      0.0000
  5      0.0000      0.8358      0.0000      0.0334      0.0470      0.0000      0.0384      0.0193      0.0000
  6      0.0000      0.8423      0.0000      0.0093      0.0466      0.0000      0.0000      0.0269      0.0000
  7      0.0000      1.0907      0.0000      0.0141      0.0000      0.0029      0.0000      0.0306      0.0000
  8      0.0000      1.1687      0.0000      0.0135      0.0232      0.0705      0.0337      0.0104      0.0000
  9      0.0000      1.3785      0.0000      0.0108      0.0000      0.0288      0.0174      0.0192      0.0000
 10      0.0000      0.9970      0.0000      0.0232      0.0000      0.0169      0.0325      0.0394      0.0000
 11      0.0000      0.9276      0.0002      0.0287      0.0058      0.0503      0.0284      0.0199      0.0000
 12      0.0000      0.7282      0.0000      0.0721      0.0026      0.0000      0.0000      0.0185      0.0000
 13      0.0000      1.4641      0.0000      0.0181      0.0067      0.0000      0.0076      0.0015      0.0000
 14      0.0000      1.0755      0.0000      0.0225      0.0009      0.0174      0.0344      0.0553      0.0003
 15      0.0000      0.6652      0.0000      0.0083      0.0080      0.0000      0.0380      0.0422      0.0000
 16      0.1837     19.6478     26.1009     44.9501     45.9585     45.3149     43.5863     42.5033     43.7249
 17      0.0000      1.0511      0.0000      0.0135      0.0262      0.0130      0.0180      0.0423      0.0000
 18      0.0000      1.3463      0.0000      0.0096      0.0000      0.0127      0.0809      0.0000      0.0000
 19      0.0000      1.0367      0.0000      0.0044      0.0035      0.0114      0.0000      0.0000      0.0000
 20      0.0000      1.2118      0.0000      0.0000      0.0000      0.0160      0.0000      0.0066      0.0000
 21      0.0000      1.0558      0.0000      0.0093      0.0066      0.0010      0.1032      0.0000      0.0000
 22      0.0000      1.0931      0.0000      0.0096      0.0127      0.0546      0.0300      0.0000      0.0000
 23      0.0000      0.7839      0.0000      0.0000      0.0078      0.0000      0.0000      0.0000      0.0000
 24      0.0000      0.9985      0.0000      0.0057      0.0072      0.0000      0.0374      0.0079      0.0000
 25      0.0000      1.1116      0.0000      0.0200      0.0064      0.0258      0.0388      0.0446      0.0000
 26      0.0000      0.8283      0.0000      0.0158      0.0315      0.0095      0.0495      0.0000      0.0000
 27      0.0000      1.3873      0.0000      0.0000      0.0360      0.0252      0.0428      0.0185      0.0000
 28      0.0000      1.5527      0.0000      0.0000      0.0379      0.0000      0.0000      0.0228      0.0000
 29      0.0000      1.3749      0.0000      0.0281      0.0092      0.0289      0.0143      0.0342      0.0000
 30      0.0000      1.0368      0.0000      0.0618      0.0000      0.0000      0.0502      0.0152      0.0000
 31      0.0000      1.4611      0.0000      0.0000      0.0113      0.0085      0.0217      0.0463      0.0000
 32      0.0000      1.0515      0.0000      0.0008      0.0110      0.0204      0.0447      0.0000      0.0000
 33      0.0000      1.1841      0.0000      0.0526      0.0206      0.0081      0.0008      0.0762      0.0022
 34     29.6640     33.3460     93.3218     70.4610     69.7143     70.1149     70.8250     72.4794     70.8001
 35      0.0000      1.0715      0.0000      0.0086      0.0040      0.0128      0.0949      0.0155      0.0000
 36      0.0000      0.7030      0.0000      0.0000      0.0195      0.0208      0.0000      0.0175      0.0000
 37      0.0000      1.0741      0.0000      0.0151      0.0105      0.0000      0.0000      0.0180      0.0000
 38      0.0000      0.6288      0.0000      0.0115      0.0119      0.0102      0.0120      0.0051      0.0000
 39      0.0000      0.7432      0.0000      0.0322      0.0142      0.0029      0.0000      0.0109      0.0000
 40      0.0000      0.8063      0.0000      0.0167      0.0073      0.0157      0.0000      0.0308      0.0000
 41      0.0000      1.2041      0.0000      0.0092      0.0357      0.0000      0.0583      0.0318      0.0000
 42      0.0000      1.1518      0.0000      0.0000      0.0064      0.0000      0.0000      0.0525      0.0000
 43      0.0000      1.0876      0.0000      0.0000      0.0304      0.0000      0.0168      0.0178      0.0000
 44      0.0000      0.8650      0.0000      0.0133      0.0164      0.0287      0.0606      0.0044      0.0000
 45      0.0000      0.7054      0.0000      0.0314      0.0055      0.0000      0.0049      0.0201      0.0000
 46      0.0000      0.8752      0.0000      0.0000      0.0160      0.0233      0.0000      0.0562      0.0000
 47      0.0000      1.0907      0.0000      0.0670      0.0122      0.0000      0.0550      0.0119      0.0000
 48      0.0000      0.8979      0.0000      0.0000      0.0137      0.0352      0.0377      0.0000      0.0000
 49      0.0000      0.7798      0.0023      0.0402      0.0360      0.0158      0.0955      0.0000      0.0000
 50     66.4692      1.1905      0.0844      1.0206      1.0163      0.9590      0.8416      1.4568      1.0403
 51      0.0000      0.8351      0.0000      0.0304      0.0015      0.0190      0.0209      0.0118      0.0000
 52      0.0000      1.0155      0.0000      0.0020      0.0000      0.0000      0.0000      0.0045      0.0000
 53      0.0000      1.1507      0.0000      0.0000      0.0120      0.0552      0.0000      0.0000      0.0000
 54      0.0000      1.0105      0.0000      0.0009      0.0241      0.0308      0.0335      0.0071      0.0000
 55      0.0000      0.8386      0.0000      0.0102      0.0000      0.0000      0.0123      0.0171      0.0000
 56      0.0000      1.3598      0.0000      0.0032      0.0068      0.0280      0.1062      0.0558      0.0000
 57      0.0000      0.9279      0.0000      0.0315      0.0078      0.0207      0.0259      0.0344      0.0000
 58      0.0000      0.8372      0.0000      0.0179      0.0070      0.0029      0.0899      0.0389      0.0000
 59      0.0000      0.9622      0.0000      0.0000      0.0299      0.0711      0.0000      0.0254      0.0000
 60      0.0000      1.2862      0.0000      0.0650      0.0215      0.0330      0.1091      0.0576      0.0000
 61      0.0000      1.0573      0.0000      0.0185      0.0186      0.0000      0.0000      0.0141      0.0000
 62      0.0000      1.1266      0.0000      0.0001      0.0528      0.0969      0.2962      0.0000      0.0000
 63      0.0000      0.9128      0.0000      0.0156      0.0217      0.0039      0.0666      0.0255      0.0000
 64     20.1350      0.7330      0.0001      0.0298      0.0034      0.0586      0.0377      0.0032      0.0000
 65      0.0000      0.9810      0.0000      0.0153      0.0000      0.0203      0.2450      0.0218      0.0000
 66      0.0000      1.9259      1.1797      1.7281      1.4791      1.6792      1.6173      1.5074      4.0114

# j      m_j: min, <> & last-chain-values for 1 ...  7 chains
  1  0.0000E+00  2.3743E-03  0.0000E+00  0.0000E+00  9.1718E-05  1.5631E-05  0.0000E+00  3.5656E-05  0.0000E+00
  2  0.0000E+00  8.4068E-04  0.0000E+00  8.7373E-06  8.4085E-06  7.3407E-06  4.9363E-05  1.3856E-06  0.0000E+00
  3  0.0000E+00  1.4918E-03  0.0000E+00  0.0000E+00  4.4380E-06  4.5384E-06  0.0000E+00  1.6698E-05  0.0000E+00
  4  0.0000E+00  1.2922E-03  0.0000E+00  3.2946E-06  0.0000E+00  1.8493E-06  3.2827E-06  7.8873E-06  0.0000E+00
  5  0.0000E+00  1.9848E-03  0.0000E+00  4.5134E-05  6.4142E-05  0.0000E+00  5.2173E-05  2.5839E-05  0.0000E+00
  6  0.0000E+00  3.2446E-03  0.0000E+00  2.0512E-05  1.0319E-04  0.0000E+00  0.0000E+00  5.8513E-05  0.0000E+00
  7  0.0000E+00  6.0153E-03  0.0000E+00  4.4396E-05  0.0000E+00  9.2292E-06  0.0000E+00  9.5265E-05  0.0000E+00
  8  0.0000E+00  8.9085E-03  0.0000E+00  5.8846E-05  1.0176E-04  3.0717E-04  1.4694E-04  4.4627E-05  0.0000E+00
  9  0.0000E+00  1.2026E-02  0.0000E+00  5.3440E-05  0.0000E+00  1.4352E-04  8.6938E-05  9.4595E-05  0.0000E+00
 10  0.0000E+00  1.1425E-02  0.0000E+00  1.5150E-04  0.0000E+00  1.1069E-04  2.1264E-04  2.5477E-04  0.0000E+00
 11  0.0000E+00  1.9989E-02  1.8935E-06  3.5274E-04  7.2401E-05  6.2051E-04  3.4977E-04  2.4203E-04  0.0000E+00
 12  0.0000E+00  2.4890E-02  0.0000E+00  1.4034E-03  5.1170E-05  0.0000E+00  0.0000E+00  3.5663E-04  0.0000E+00
 13  0.0000E+00  1.4106E-01  0.0000E+00  9.9578E-04  3.6918E-04  0.0000E+00  4.2033E-04  8.3395E-05  0.0000E+00
 14  0.0000E+00  3.4755E-01  0.0000E+00  4.1510E-03  1.7385E-04  3.2109E-03  6.3511E-03  1.0081E-02  5.7395E-05
 15  0.0000E+00  3.4997E-01  0.0000E+00  2.4784E-03  2.4043E-03  0.0000E+00  1.1416E-02  1.2524E-02  0.0000E+00
 16  6.6674E-02  1.7477E+01  1.1913E+01  2.2781E+01  2.3497E+01  2.3054E+01  2.2168E+01  2.1335E+01  2.1181E+01
 17  0.0000E+00  1.2129E+00  0.0000E+00  8.8741E-03  1.7406E-02  8.5582E-03  1.1850E-02  2.7513E-02  0.0000E+00
 18  0.0000E+00  3.8527E-03  0.0000E+00  1.5586E-05  0.0000E+00  2.0776E-05  1.3245E-04  0.0000E+00  0.0000E+00
 19  0.0000E+00  1.1908E-03  0.0000E+00  2.9019E-06  2.3336E-06  7.5036E-06  0.0000E+00  0.0000E+00  0.0000E+00
 20  0.0000E+00  1.5195E-03  0.0000E+00  0.0000E+00  0.0000E+00  1.1492E-05  0.0000E+00  4.6408E-06  0.0000E+00
 21  0.0000E+00  1.6070E-03  0.0000E+00  8.0488E-06  5.8077E-06  8.3783E-07  8.9828E-05  0.0000E+00  0.0000E+00
 22  0.0000E+00  2.8134E-03  0.0000E+00  1.4017E-05  1.8757E-05  8.0364E-05  4.4201E-05  0.0000E+00  0.0000E+00
 23  0.0000E+00  2.7245E-03  0.0000E+00  0.0000E+00  1.5578E-05  0.0000E+00  0.0000E+00  0.0000E+00  0.0000E+00
 24  0.0000E+00  5.1631E-03  0.0000E+00  1.6840E-05  2.1260E-05  0.0000E+00  1.1057E-04  2.3106E-05  0.0000E+00
 25  0.0000E+00  7.9258E-03  0.0000E+00  8.1196E-05  2.6184E-05  1.0537E-04  1.5835E-04  1.7964E-04  0.0000E+00
 26  0.0000E+00  9.8724E-03  0.0000E+00  1.0713E-04  2.1553E-04  6.4609E-05  3.3746E-04  0.0000E+00  0.0000E+00
 27  0.0000E+00  3.3096E-02  0.0000E+00  0.0000E+00  4.9377E-04  3.4355E-04  5.8372E-04  2.4903E-04  0.0000E+00
 28  0.0000E+00  1.0750E-01  8.8781E-07  0.0000E+00  1.5098E-03  0.0000E+00  0.0000E+00  8.9184E-04  0.0000E+00
 29  0.0000E+00  1.6585E-01  0.0000E+00  1.9291E-03  6.3561E-04  1.9957E-03  9.8620E-04  2.3304E-03  0.0000E+00
 30  0.0000E+00  2.6131E-01  0.0000E+00  8.8671E-03  0.0000E+00  0.0000E+00  7.2382E-03  2.1620E-03  0.0000E+00
 31  0.0000E+00  6.4775E-01  0.0000E+00  0.0000E+00  2.8760E-03  2.1474E-03  5.5107E-03  1.1573E-02  0.0000E+00
 32  0.0000E+00  6.2723E-01  0.0000E+00  2.6666E-04  3.7691E-03  6.9564E-03  1.5254E-02  0.0000E+00  0.0000E+00
 33  0.0000E+00  1.5636E+00  0.0000E+00  3.9609E-02  1.5625E-02  6.1018E-03  6.0151E-04  5.6812E-02  1.5918E-03
 34  2.1651E+01  5.9631E+01  8.5634E+01  7.1790E+01  7.1655E+01  7.1712E+01  7.2418E+01  7.3141E+01  6.8950E+01
 35  0.0000E+00  2.4587E-03  0.0000E+00  1.1281E-05  5.3126E-06  1.6807E-05  1.2446E-04  2.0069E-05  0.0000E+00
 36  0.0000E+00  6.5263E-04  0.0000E+00  0.0000E+00  1.0406E-05  1.1064E-05  0.0000E+00  9.1690E-06  0.0000E+00
 37  0.0000E+00  1.0786E-03  0.0000E+00  8.6654E-06  6.0759E-06  0.0000E+00  0.0000E+00  1.0211E-05  0.0000E+00
 38  0.0000E+00  1.7106E-03  0.0000E+00  1.7889E-05  1.8626E-05  1.5915E-05  1.8595E-05  7.8981E-06  0.0000E+00
 39  0.0000E+00  2.9108E-03  0.0000E+00  7.1929E-05  3.2041E-05  6.5191E-06  0.0000E+00  2.4191E-05  0.0000E+00
 40  0.0000E+00  5.1051E-03  0.0000E+00  6.0396E-05  2.6720E-05  5.6957E-05  0.0000E+00  1.0989E-04  0.0000E+00
 41  0.0000E+00  1.1855E-02  0.0000E+00  5.1742E-05  2.0197E-04  0.0000E+00  3.2801E-04  1.7674E-04  0.0000E+00
 42  0.0000E+00  2.0821E-02  0.0000E+00  0.0000E+00  6.6850E-05  0.0000E+00  0.0000E+00  5.3546E-04  0.0000E+00
 43  0.0000E+00  2.8703E-02  0.0000E+00  0.0000E+00  4.6045E-04  0.0000E+00  2.5317E-04  2.6466E-04  0.0000E+00
 44  0.0000E+00  3.9304E-02  0.0000E+00  3.4544E-04  4.2790E-04  7.4545E-04  1.5732E-03  1.1269E-04  0.0000E+00
 45  0.0000E+00  6.3602E-02  0.0000E+00  1.6147E-03  2.8376E-04  0.0000E+00  2.5289E-04  1.0224E-03  0.0000E+00
 46  0.0000E+00  1.4505E-01  0.0000E+00  0.0000E+00  1.5273E-03  2.2099E-03  0.0000E+00  5.2528E-03  0.0000E+00
 47  0.0000E+00  3.6627E-01  0.0000E+00  1.2823E-02  2.3495E-03  0.0000E+00  1.0560E-02  2.2504E-03  0.0000E+00
 48  0.0000E+00  5.3177E-01  0.0000E+00  0.0000E+00  4.6692E-03  1.1925E-02  1.2762E-02  0.0000E+00  0.0000E+00
 49  0.0000E+00  1.0496E+00  1.5689E-03  3.0857E-02  2.7888E-02  1.2180E-02  7.3507E-02  0.0000E+00  0.0000E+00
 50  6.7633E+01  2.9680E+00  1.0796E-01  1.4497E+00  1.4563E+00  1.3674E+00  1.1996E+00  2.0494E+00  1.4124E+00
 51  0.0000E+00  1.1412E-03  0.0000E+00  2.3688E-05  1.1543E-06  1.4817E-05  1.6342E-05  9.0687E-06  0.0000E+00
 52  0.0000E+00  7.1119E-04  0.0000E+00  7.9814E-07  0.0000E+00  0.0000E+00  0.0000E+00  1.7919E-06  0.0000E+00
 53  0.0000E+00  1.2139E-03  0.0000E+00  0.0000E+00  7.2713E-06  3.3280E-05  0.0000E+00  0.0000E+00  0.0000E+00
 54  0.0000E+00  2.1842E-03  0.0000E+00  1.1016E-06  2.9956E-05  3.8053E-05  4.1436E-05  8.6438E-06  0.0000E+00
 55  0.0000E+00  2.7909E-03  0.0000E+00  1.9347E-05  0.0000E+00  0.0000E+00  2.3316E-05  3.2100E-05  0.0000E+00
 56  0.0000E+00  8.9570E-03  0.0000E+00  1.1853E-05  2.5688E-05  1.0562E-04  3.9997E-04  2.0757E-04  0.0000E+00
 57  0.0000E+00  8.1127E-03  0.0000E+00  1.5688E-04  3.9398E-05  1.0328E-04  1.2944E-04  1.6958E-04  0.0000E+00
 58  0.0000E+00  1.2381E-02  0.0000E+00  1.5077E-04  5.9786E-05  2.4163E-05  7.6021E-04  3.2461E-04  0.0000E+00
 59  0.0000E+00  3.0621E-02  0.0000E+00  0.0000E+00  5.4703E-04  1.2935E-03  0.0000E+00  4.5676E-04  0.0000E+00
 60  0.0000E+00  7.6033E-02  0.0000E+00  2.1898E-03  7.3099E-04  1.1166E-03  3.6888E-03  1.9200E-03  0.0000E+00
 61  0.0000E+00  1.3656E-01  0.0000E+00  1.3631E-03  1.3839E-03  0.0000E+00  0.0000E+00  1.0246E-03  0.0000E+00
 62  0.0000E+00  2.6530E-01  0.0000E+00  9.3446E-06  7.1494E-03  1.3052E-02  3.9879E-02  0.0000E+00  0.0000E+00
 63  0.0000E+00  4.2765E-01  0.0000E+00  4.1620E-03  5.8349E-03  1.0452E-03  1.7832E-02  6.7408E-03  0.0000E+00
 64  1.0650E+01  9.4984E-01  8.5998E-05  2.2029E-02  2.5269E-03  4.3422E-02  2.7934E-02  2.3718E-03  0.0000E+00
 65  0.0000E+00  2.6874E+00  0.0000E+00  2.3825E-02  0.0000E+00  3.1851E-02  3.8382E-01  3.3661E-02  0.0000E+00
 66  0.0000E+00  7.4532E+00  2.3427E+00  3.8104E+00  3.2900E+00  3.7166E+00  3.5787E+00  3.2920E+00  8.4542E+00

# AV, chi2 & Mass for <> & i_chain = 1 ...  7 solutions
AV      -0.9756     -0.8060     -0.9214     -0.7937     -0.7864     -0.7902     -0.7892     -0.8025     -0.8281
chi2 1.5553E-05  3.5709E-05  1.6709E-05  1.6857E-05  1.6873E-05  1.6871E-05  1.6881E-05  1.6826E-05  1.6817E-05
Mass 2.1511E-13  1.1026E-13  1.8400E-13  1.9674E-13  1.9694E-13  1.9690E-13  1.9722E-13  1.9630E-13  1.9653E-13
  97.77                                  [v0_min (km/s) before EX0s...]
 150.00                                  [vd_min (km/s) before EX0s...]


## Synthetic spectrum (Best Model) ##l_obs f_obs f_syn wei
 3478    [Nl_obs]
 3741.00   -0.44077   0.54397    0.000
 3742.00   -0.02359   0.56368    0.000
 3743.00   -0.14773   0.55089    0.000
 3744.00   -0.30603   0.51264    0.000
 3745.00   -0.48424   0.46441    0.000
 3746.00   -0.67021   0.41987    0.000
 3747.00   -0.86012   0.38384    0.000
 3748.00   -1.58574   0.36026    0.000
 3749.00   -2.54694   0.35445    0.000
 3750.00   -1.86549   0.36993    0.000
 3751.00   -0.56388   0.41062    0.000
 3752.00   -0.42603   0.47471    0.000
 3753.00   -0.66115   0.54914    0.000
 3754.00   -0.29861   0.61510    0.000
 3755.00    0.22409   0.65756   -1.000
 3756.00   -0.21086   0.66698    0.000
 3757.00   -0.85601   0.64115    0.000
 3758.00   -0.50312   0.59148    0.000
 3759.00    0.02400   0.54006   -1.000
 3760.00   -0.21700   0.50874    0.000
 3761.00   -0.56004   0.50436    0.000
 3762.00   -0.63019   0.51476    0.000
 3763.00   -0.67469   0.52578    0.000
 3764.00   -0.26177   0.53156    0.000
 3765.00    0.17754   0.53168   -1.000
 3766.00    0.80173   0.53262   -1.000
 3767.00    1.42284   0.54041   -1.000
 3768.00    1.13911   0.55468   -1.000
 3769.00    0.83267   0.57834   -1.000
 3770.00   -0.02539   0.61389    0.000
 3771.00   -0.77255   0.65298    0.000
 3772.00   -0.06644   0.68624    0.000
 3773.00    0.61876   0.71215    0.036
 3774.00    1.12035   0.72913    0.036
 3775.00    1.42265   0.73512    0.037
 3776.00    0.43279   0.73320    0.036
 3777.00   -0.42200   0.73058    0.000
 3778.00   -0.59314   0.73376    0.000
 3779.00   -0.63076   0.74376    0.000
 3780.00   -0.12187   0.75828    0.000
 3781.00    0.21234   0.77553    0.037
 3782.00   -0.04590   0.79044    0.000
 3783.00   -0.30501   0.79634    0.000
 3784.00   -0.56665   0.78873    0.000
 3785.00   -0.73835   0.76469    0.000
 3786.00   -0.69029   0.72349    0.000
 3787.00   -0.49926   0.66836    0.000
 3788.00   -0.00687   0.61204    0.000
 3789.00    0.33645   0.57143    0.037
 3790.00    0.40673   0.55255    0.037
 3791.00    0.12110   0.55060    0.036
 3792.00   -0.73425   0.55714    0.000
 3793.00   -0.96907   0.56176    0.000
 3794.00   -0.33228   0.55555    0.000
 3795.00    0.24271   0.53947    0.035
 3796.00    0.74131   0.52019    0.034
 3797.00    0.85497   0.50337    0.034
 3798.00    0.54923   0.49359    0.034
 3799.00    0.42561   0.49360    0.035
 3800.00    0.47699   0.50787    0.035
 3801.00    0.22450   0.54077    0.035
 3802.00   -0.28548   0.58754    0.000
 3803.00   -0.43063   0.63432    0.000
 3804.00   -0.30352   0.66921    0.000
 3805.00    0.13583   0.68580    0.035
 3806.00    0.77987   0.68341    0.035
 3807.00    0.71222   0.67024    0.035
 3808.00    0.23617   0.65758    0.035
 3809.00    0.07674   0.65442    0.034
 3810.00    0.07554   0.66149    0.034
 3811.00    0.02958   0.66684    0.036
 3812.00   -0.03575   0.65729    0.000
 3813.00    0.18467   0.62864    0.037
 3814.00    0.51107   0.58471    0.036
 3815.00    0.33544   0.53698    0.035
 3816.00    0.00200   0.49863    0.034
 3817.00   -0.34180   0.47317    0.000
 3818.00   -0.68833   0.45703    0.000
 3819.00   -0.19644   0.44443    0.000
 3820.00    0.47510   0.42951    0.035
 3821.00   -0.03795   0.41289    0.000
 3822.00   -0.75204   0.40055    0.000
 3823.00   -0.77732   0.39461    0.000
 3824.00   -0.71422   0.38887    0.000
 3825.00   -0.26509   0.37613    0.000
 3826.00    0.21870   0.35835    0.034
 3827.00    0.28388   0.34517    0.034
 3828.00    0.32657   0.34299    0.033
 3829.00    0.16930   0.35033    0.034
 3830.00    0.00961   0.36020    0.034
 3831.00   -0.01637   0.36589    0.000
 3832.00   -0.03747   0.36462    0.000
 3833.00    0.05011   0.35785    0.033
 3834.00    0.10445   0.35182    0.032
 3835.00   -0.25440   0.35269    0.000
 3836.00   -0.55136   0.35945    0.000
 3837.00   -0.32528   0.36637    0.000
 3838.00   -0.09025   0.36778    0.000
 3839.00    0.20100   0.36324    0.034
 3840.00    0.40026   0.36186    0.034
 3841.00    0.14561   0.37440    0.033
 3842.00   -0.00920   0.40303    0.000
 3843.00    0.23562   0.44348    0.033
 3844.00    0.42687   0.48621    0.033
 3845.00    0.44000   0.51944    0.034
 3846.00    0.44502   0.53851    0.034
 3847.00    0.42726   0.54444    0.000
 3848.00    0.50784   0.53985    0.000
 3849.00    0.82458   0.52971    0.000
 3850.00    0.86911   0.51822    0.000
 3851.00    0.34911   0.50830    0.000
 3852.00    0.10875   0.50368    0.000
 3853.00    0.37279   0.50408    0.000
 3854.00    0.64018   0.50170    0.000
 3855.00    0.91286   0.49057    0.000
 3856.00    1.15041   0.47243    0.000
 3857.00    1.33931   0.44992    0.000
 3858.00    1.15049   0.42561    0.000
 3859.00    0.50140   0.40537    0.000
 3860.00    0.33682   0.39533    0.000
 3861.00    0.69266   0.40112    0.000
 3862.00    0.99742   0.42494    0.000
 3863.00    1.25376   0.46033    0.000
 3864.00    1.01332   0.49427    0.000
 3865.00    0.35786   0.51525    0.000
 3866.00   -0.04810   0.52042    0.000
 3867.00   -0.27056   0.51434    0.000
 3868.00   -0.24535   0.50211    0.000
 3869.00   -0.06017   0.48551    0.000
 3870.00    0.25831   0.46575    0.000
 3871.00    0.65211   0.44713    0.000
 3872.00    0.67612   0.43708    0.000
 3873.00    0.51823   0.44261    0.000
 3874.00    0.26109   0.46409    0.000
 3875.00   -0.03825   0.49330    0.000
 3876.00    0.14759   0.51676    0.000
 3877.00    0.51016   0.52323    0.000
 3878.00    0.61515   0.51245    0.000
 3879.00    0.64073   0.49312    0.000
 3880.00    0.49842   0.47611    0.000
 3881.00    0.31302   0.47009    0.029
 3882.00    0.25418   0.47576    0.030
 3883.00    0.22179   0.48710    0.030
 3884.00    0.04516   0.49890    0.030
 3885.00   -0.15525   0.50852    0.000
 3886.00    0.10918   0.51116    0.031
 3887.00    0.43117   0.50514    0.031
 3888.00    0.06119   0.50236    0.032
 3889.00   -0.36801   0.51771    0.000
 3890.00   -0.47927   0.55257    0.000
 3891.00   -0.57467   0.59907    0.000
 3892.00   -0.37690   0.64732    0.000
 3893.00   -0.17868   0.68572    0.000
 3894.00   -0.26235   0.70637    0.000
 3895.00   -0.31209   0.71054    0.000
 3896.00    0.33230   0.70499    0.032
 3897.00    0.92243   0.69630    0.032
 3898.00    0.87091   0.69023    0.030
 3899.00    0.79728   0.68759    0.029
 3900.00    0.54347   0.68495    0.028
 3901.00    0.34018   0.68177    0.028
 3902.00    0.44540   0.67968    0.027
 3903.00    0.55039   0.67635    0.026
 3904.00    0.65422   0.66612    0.026
 3905.00    0.75808   0.65278    0.026
 3906.00    0.86205   0.64655    0.026
 3907.00    0.90059   0.65236    0.026
 3908.00    0.72591   0.67292    0.026
 3909.00    0.51308   0.70694    0.026
 3910.00    0.19508   0.74513    0.026
 3911.00    0.05038   0.77751    0.027
 3912.00    0.31494   0.79961    0.028
 3913.00    0.50098   0.81200    0.028
 3914.00    0.52679   0.81492    0.028
 3915.00    0.55871   0.80747    0.029
 3916.00    0.60146   0.79133    0.029
 3917.00    0.78168   0.76810    0.029
 3918.00    1.17548   0.73736    0.030
 3919.00    1.13423   0.70066    0.030
 3920.00    0.49936   0.66148    0.031
 3921.00    0.06853   0.62426    0.031
 3922.00   -0.11723   0.59527    0.000
 3923.00    0.05858   0.57925    0.031
 3924.00    0.61733   0.57316    0.031
 3925.00    0.87298   0.56756    0.031
 3926.00    0.84547   0.55256    0.031
 3927.00    0.98055   0.52181    0.032
 3928.00    1.24952   0.47634    0.032
 3929.00    0.88882   0.42242    0.032
 3930.00    0.07167   0.36731    0.031
 3931.00   -0.05680   0.31733    0.000
 3932.00    0.25302   0.27623    0.031
 3933.00    0.56396   0.24610    0.031
 3934.00    0.87552   0.22903    0.032
 3935.00    0.61208   0.22736    0.032
 3936.00    0.07027   0.24235    0.031
 3937.00    0.14244   0.27345    0.031
 3938.00    0.47130   0.31749    0.031
 3939.00    0.65415   0.36791    0.031
 3940.00    0.78477   0.41675    0.030
 3941.00    0.68789   0.45733    0.030
 3942.00    0.52224   0.48585    0.030
 3943.00    0.49300   0.50494    0.030
 3944.00    0.49802   0.52311    0.030
 3945.00    0.50871   0.54718    0.030
 3946.00    0.52055   0.57946    0.030
 3947.00    0.57461   0.61908    0.030
 3948.00    0.63544   0.66030    0.030
 3949.00    0.80415   0.69591    0.030
 3950.00    0.98575   0.72430    0.030
 3951.00    0.97295   0.74794    0.030
 3952.00    0.94433   0.76775    0.030
 3953.00    0.91062   0.78159    0.029
 3954.00    0.87668   0.78774    0.029
 3955.00    0.69488   0.78903    0.029
 3956.00    0.51138   0.78742    0.028
 3957.00    0.33695   0.77922    0.029
 3958.00    0.18132   0.76207    0.029
 3959.00    0.38205   0.73691    0.029
 3960.00    0.58138   0.70197    0.000
 3961.00    0.76495   0.65419    0.000
 3962.00    0.90234   0.59458    0.000
 3963.00    0.67675   0.53058    0.000
 3964.00    0.50290   0.47195    0.000
 3965.00    0.63602   0.42184    0.000
 3966.00    0.77526   0.37599    0.000
 3967.00    0.94322   0.33170    0.000
 3968.00    1.09873   0.29307    0.000
 3969.00    1.20649   0.26815    0.000
 3970.00    1.20768   0.26365    0.000
 3971.00    0.86823   0.28169    0.000
 3972.00    0.53329   0.31989    0.000
 3973.00    0.21055   0.37318    0.000
 3974.00   -0.06340   0.43567    0.000
 3975.00   -0.22404   0.50232    0.000
 3976.00   -0.37099   0.57043    0.000
 3977.00   -0.49046   0.63820    0.000
 3978.00   -0.30001   0.70293    0.000
 3979.00    0.43257   0.76157    0.000
 3980.00    1.10737   0.81047    0.000
 3981.00    1.69372   0.84590    0.032
 3982.00    1.70776   0.86667    0.032
 3983.00    0.95212   0.87601    0.031
 3984.00    0.46439   0.88131    0.030
 3985.00    0.29396   0.89031    0.030
 3986.00    0.57040   0.90655    0.030
 3987.00    1.31348   0.92784    0.029
 3988.00    1.44330   0.94818    0.029
 3989.00    1.00828   0.96415    0.029
 3990.00    0.94907   0.97597    0.029
 3991.00    1.19498   0.98358    0.029
 3992.00    1.28352   0.98867    0.028
 3993.00    1.25963   0.99362    0.027
 3994.00    1.33469   0.99607    0.027
 3995.00    1.47180   0.99147    0.028
 3996.00    1.62535   0.97996    0.028
 3997.00    1.78791   0.96846    0.028
 3998.00    1.69119   0.96567    0.028
 3999.00    1.47096   0.97623    0.027
 4000.00    1.04881   1.00010    0.027
 4001.00    0.54367   1.03167    0.027
 4002.00    0.43377   1.05782    0.027
 4003.00    0.46269   1.06515    0.027
 4004.00    0.81098   1.05098    0.027
 4005.00    1.25391   1.02273    0.027
 4006.00    1.33261   0.99148    0.028
 4007.00    1.32183   0.97101    0.028
 4008.00    1.35642   0.97356    0.028
 4009.00    1.40002   0.99847    0.027
 4010.00    1.35404   1.03184    0.028
 4011.00    1.29414   1.06065    0.028
 4012.00    1.49744   1.08131    0.028
 4013.00    1.73101   1.09609    0.028
 4014.00    1.28226   1.10776    0.028
 4015.00    0.78076   1.11685    0.029
 4016.00    0.80372   1.12281    0.029
 4017.00    0.84877   1.12643    0.030
 4018.00    1.03268   1.12833    0.030
 4019.00    1.21126   1.12838    0.029
 4020.00    1.10041   1.12858    0.029
 4021.00    0.99815   1.12937    0.029
 4022.00    1.04757   1.12650    0.029
 4023.00    1.09542   1.11833    0.029
 4024.00    1.12640   1.11014    0.029
 4025.00    1.13775   1.10771    0.029
 4026.00    1.00000   1.11286    0.029
 4027.00    0.87657   1.12356    0.029
 4028.00    0.83567   1.13161    0.029
 4029.00    0.82588   1.12399    0.029
 4030.00    0.95861   1.09247    0.029
 4031.00    1.00283   1.03916    0.028
 4032.00    0.71499   0.97668    0.028
 4033.00    0.57344   0.92595    0.027
 4034.00    0.89049   0.90555    0.027
 4035.00    1.08502   0.92078    0.027
 4036.00    0.95364   0.96565    0.026
 4037.00    0.85389   1.02771    0.026
 4038.00    0.82634   1.08977    0.027
 4039.00    0.79143   1.13566    0.027
 4040.00    0.74196   1.15682    0.027
 4041.00    0.69914   1.15299    0.027
 4042.00    0.66778   1.12719    0.027
 4043.00    0.61303   1.08205    0.027
 4044.00    0.52300   1.02180    0.027
 4045.00    0.63415   0.95581    0.027
 4046.00    1.01200   0.90058    0.027
 4047.00    1.18140   0.87667    0.027
 4048.00    1.10744   0.89738    0.027
 4049.00    0.95756   0.95620    0.026
 4050.00    0.72951   1.02734    0.026
 4051.00    0.77318   1.08375    0.026
 4052.00    1.06360   1.11337    0.027
 4053.00    1.12427   1.11692    0.027
 4054.00    1.00105   1.10046    0.027
 4055.00    1.19240   1.07275    0.028
 4056.00    1.60526   1.04232    0.027
 4057.00    1.78302   1.01620    0.028
 4058.00    1.81555   1.00010    0.028
 4059.00    1.40020   0.99494    0.028
 4060.00    0.74318   0.99507    0.028
 4061.00    0.72986   0.99217    0.027
 4062.00    1.01822   0.97850    0.027
 4063.00    1.06703   0.95207    0.027
 4064.00    1.01905   0.92066    0.027
 4065.00    0.89594   0.89930    0.027
 4066.00    0.74692   0.90260    0.027
 4067.00    1.07595   0.93273    0.027
 4068.00    1.54379   0.97424    0.027
 4069.00    1.36041   1.00718    0.027
 4070.00    1.02061   1.02371    0.027
 4071.00    0.92238   1.02620    0.027
 4072.00    0.87095   1.01865    0.027
 4073.00    1.21184   1.00703    0.028
 4074.00    1.61185   0.99885    0.028
 4075.00    1.09875   0.99501    0.028
 4076.00    0.48465   0.98702    0.027
 4077.00    0.63394   0.97042    0.027
 4078.00    0.83914   0.95650    0.028
 4079.00    0.88488   0.96244    0.027
 4080.00    0.92451   0.99527    0.027
 4081.00    0.71144   1.04562    0.027
 4082.00    0.51585   1.09422    0.027
 4083.00    1.03185   1.12567    0.027
 4084.00    1.49859   1.13698    0.027
 4085.00    1.15362   1.13776    0.027
 4086.00    0.84234   1.14352    0.027
 4087.00    0.87777   1.16359    0.027
 4088.00    0.91501   1.19509    0.027
 4089.00    0.96554   1.22774    0.026
 4090.00    1.01004   1.25037    0.026
 4091.00    1.02069   1.25633    0.026
 4092.00    1.05702   1.24675    0.000
 4093.00    1.20830   1.22677    0.000
 4094.00    1.32374   1.20041    0.000
 4095.00    1.30761   1.16944    0.000
 4096.00    1.21025   1.13520    0.000
 4097.00    0.86305   1.09830    0.000
 4098.00    0.67977   1.06045    0.000
 4099.00    0.92489   1.02555    0.000
 4100.00    1.24197   0.99481    0.000
 4101.00    1.72065   0.96817    0.000
 4102.00    1.90958   0.94924    0.000
 4103.00    1.53466   0.94553    0.000
 4104.00    1.24112   0.96376    0.000
 4105.00    1.08567   1.00226    0.000
 4106.00    1.07359   1.04833    0.000
 4107.00    1.27464   1.08745    0.000
 4108.00    1.36955   1.11180    0.000
 4109.00    1.32576   1.11920    0.000
 4110.00    1.26942   1.11261    0.000
 4111.00    1.19866   1.10126    0.000
 4112.00    1.22558   1.09479    0.000
 4113.00    1.35167   1.09862    0.025
 4114.00    1.40325   1.11267    0.025
 4115.00    1.38813   1.13128    0.025
 4116.00    1.22729   1.14565    0.025
 4117.00    0.95148   1.14831    0.025
 4118.00    0.83594   1.13865    0.025
 4119.00    0.83163   1.12171    0.025
 4120.00    0.94932   1.10345    0.037
 4121.00    1.14125   1.08989    0.143
 4122.00    1.14431   1.08636   -1.000
 4123.00    1.04704   1.09252   -1.000
 4124.00    1.06891   1.10190   -1.000
 4125.00    1.14571   1.10988   -1.000
 4126.00    1.40305   1.11436   -1.000
 4127.00    1.73206   1.11258   -1.000
 4128.00    1.45766   1.10144    0.068
 4129.00    0.97904   1.08041    0.029
 4130.00    0.80529   1.05268    0.026
 4131.00    0.71829   1.02230    0.026
 4132.00    1.06972   0.99340    0.026
 4133.00    1.52409   0.97191    0.025
 4134.00    1.65798   0.96511    0.026
 4135.00    1.73139   0.97769    0.026
 4136.00    1.38963   1.00908    0.026
 4137.00    0.98725   1.05019    0.025
 4138.00    0.95304   1.08916    0.025
 4139.00    0.95795   1.11474    0.025
 4140.00    1.00937   1.11821    0.026
 4141.00    1.06401   1.09804    0.026
 4142.00    1.05907   1.05771    0.025
 4143.00    1.05208   1.00720    0.025
 4144.00    1.22738   0.96222    0.025
 4145.00    1.39928   0.93740    0.025
 4146.00    1.44717   0.94065    0.025
 4147.00    1.49466   0.96686    0.024
 4148.00    1.53609   0.99856    0.024
 4149.00    1.58124   1.01893    0.024
 4150.00    1.66314   1.02351    0.025
 4151.00    1.73147   1.01708    0.025
 4152.00    1.70344   1.00591    0.025
 4153.00    1.64453   0.99541    0.024
 4154.00    1.41704   0.98776    0.024
 4155.00    1.21421   0.98286    0.024
 4156.00    1.11913   0.98296    0.023
 4157.00    1.05088   0.99107    0.023
 4158.00    1.07911   1.00872    0.023
 4159.00    1.05281   1.03410    0.023
 4160.00    0.86195   1.06405    0.023
 4161.00    0.75237   1.09422    0.022
 4162.00    0.85152   1.11829    0.022
 4163.00    0.96331   1.13239    0.023
 4164.00    1.10304   1.13557    0.023
 4165.00    1.18276   1.12796    0.023
 4166.00    1.14752   1.11082    0.024
 4167.00    1.16491   1.08944    0.024
 4168.00    1.27026   1.07127    0.023
 4169.00    1.30718   1.05841    0.023
 4170.00    1.24385   1.04677    0.024
 4171.00    1.20782   1.03175    0.024
 4172.00    1.20696   1.00990    0.023
 4173.00    1.09835   0.98204    0.023
 4174.00    0.86746   0.95556    0.023
 4175.00    0.74045   0.93918    0.023
 4176.00    0.71742   0.93749    0.023
 4177.00    0.93593   0.94749    0.024
 4178.00    1.36768   0.96167    0.024
 4179.00    1.42155   0.97483    0.024
 4180.00    1.18155   0.98580    0.024
 4181.00    1.06340   0.99582    0.024
 4182.00    1.02857   1.00627    0.024
 4183.00    1.01506   1.01744    0.023
 4184.00    1.01432   1.02862    0.023
 4185.00    0.88652   1.03821    0.023
 4186.00    0.69225   1.04377    0.024
 4187.00    0.75050   1.04308    0.023
 4188.00    0.92327   1.03723    0.023
 4189.00    0.97342   1.03106    0.023
 4190.00    0.97571   1.03210    0.024
 4191.00    1.21782   1.04449    0.024
 4192.00    1.53959   1.06231    0.024
 4193.00    1.47600   1.07527    0.024
 4194.00    1.30500   1.07716    0.024
 4195.00    1.32592   1.06589    0.024
 4196.00    1.39086   1.04051    0.024
 4197.00    1.15497   1.00426    0.024
 4198.00    0.86380   0.96712    0.024
 4199.00    0.77132   0.93898    0.023
 4200.00    0.70693   0.92391    0.023
 4201.00    0.91376   0.92126    0.023
 4202.00    1.14824   0.92895    0.023
 4203.00    1.20826   0.94539    0.023
 4204.00    1.25692   0.96963    0.023
 4205.00    1.14074   1.00177    0.023
 4206.00    1.01979   1.03981    0.023
 4207.00    1.08696   1.07684    0.023
 4208.00    1.14066   1.10629    0.023
 4209.00    0.79855   1.12581    0.023
 4210.00    0.49504   1.13514    0.023
 4211.00    0.75335   1.13521    0.023
 4212.00    0.99737   1.12712    0.024
 4213.00    1.10617   1.11169    0.023
 4214.00    1.21273   1.09153    0.023
 4215.00    1.30387   1.07156    0.023
 4216.00    1.37090   1.05911    0.023
 4217.00    1.30980   1.06348    0.022
 4218.00    1.23074   1.08921    0.022
 4219.00    1.07503   1.13071    0.022
 4220.00    0.94440   1.17171    0.022
 4221.00    0.90219   1.19285    0.022
 4222.00    0.86862   1.18200    0.022
 4223.00    0.86063   1.13637    0.022
 4224.00    0.88661   1.06009    0.021
 4225.00    0.99834   0.96573    0.022
 4226.00    1.08914   0.87538    0.022
 4227.00    1.13449   0.81332    0.022
 4228.00    1.18405   0.79706    0.021
 4229.00    1.24157   0.83098    0.021
 4230.00    1.20013   0.90217    0.021
 4231.00    0.99578   0.98485    0.021
 4232.00    0.88472   1.05146    0.020
 4233.00    0.90835   1.08621    0.020
 4234.00    0.95110   1.09057    0.020
 4235.00    1.01814   1.07649    0.020
 4236.00    1.00763   1.05750    0.020
 4237.00    0.91036   1.04442    0.020
 4238.00    0.92323   1.04235    0.020
 4239.00    1.04478   1.05224    0.020
 4240.00    1.05994   1.07349    0.020
 4241.00    0.98250   1.10328    0.020
 4242.00    0.96055   1.13791    0.020
 4243.00    0.98115   1.17363    0.020
 4244.00    1.00384   1.20521    0.020
 4245.00    1.02795   1.22541    0.021
 4246.00    1.19035   1.22803    0.021
 4247.00    1.43439   1.21031    0.022
 4248.00    1.65083   1.17323    0.022
 4249.00    1.85306   1.12480    0.022
 4250.00    1.68384   1.07840    0.022
 4251.00    1.34890   1.04431    0.022
 4252.00    1.13768   1.02538    0.022
 4253.00    0.97390   1.01923    0.022
 4254.00    0.96571   1.02271    0.022
 4255.00    1.00822   1.03287    0.022
 4256.00    1.17854   1.04576    0.022
 4257.00    1.38376   1.05790    0.022
 4258.00    1.52654   1.06559    0.022
 4259.00    1.65533   1.06473    0.022
 4260.00    1.39578   1.05573    0.022
 4261.00    1.06677   1.04761    0.022
 4262.00    1.07750   1.05497    0.022
 4263.00    1.13471   1.08704    0.022
 4264.00    1.21257   1.13867    0.022
 4265.00    1.29245   1.19289    0.022
 4266.00    1.19413   1.23069    0.022
 4267.00    1.08491   1.23947    0.022
 4268.00    1.05253   1.21604    0.022
 4269.00    1.02302   1.16443    0.022
 4270.00    1.15181   1.09350    0.022
 4271.00    1.26722   1.01604    0.022
 4272.00    1.02888   0.94644    0.022
 4273.00    0.80796   0.89794    0.021
 4274.00    0.82629   0.88016    0.021
 4275.00    0.84200   0.89641    0.022
 4276.00    0.83382   0.94183    0.022
 4277.00    0.88239   1.00262    0.022
 4278.00    1.30898   1.06234    0.022
 4279.00    1.62042   1.10881    0.023
 4280.00    1.33576   1.13433    0.023
 4281.00    1.11221   1.13867    0.022
 4282.00    1.14376   1.12996   -2.000
 4283.00    1.11401   1.11772   -2.000
 4284.00    0.87266   1.10759   -2.000
 4285.00    0.71372   1.09902   -2.000
 4286.00    0.79433   1.08637   -2.000
 4287.00    0.82961   1.06551   -2.000
 4288.00    0.75247   1.03685   -2.000
 4289.00    0.78641   1.00488   -2.000
 4290.00    1.05784   0.97749   -2.000
 4291.00    1.27998   0.96219   -2.000
 4292.00    1.41059   0.96289   -2.000
 4293.00    1.47470   0.97895   -2.000
 4294.00    1.43096   1.00274   -2.000
 4295.00    1.29189   1.02082   -2.000
 4296.00    1.01721   1.02123   -2.000
 4297.00    0.84763   0.99898   -2.000
 4298.00    0.80957   0.95728    0.022
 4299.00    0.78677   0.90510    0.021
 4300.00    0.78082   0.85208    0.022
 4301.00    0.69542   0.80823    0.022
 4302.00    0.53273   0.78121    0.021
 4303.00    0.49700   0.77110    0.021
 4304.00    0.57019   0.77143    0.021
 4305.00    0.74792   0.77185    0.021
 4306.00    1.00466   0.76389    0.021
 4307.00    0.91029   0.74732    0.021
 4308.00    0.58275   0.72840    0.020
 4309.00    0.60186   0.71640    0.020
 4310.00    0.82254   0.72167    0.020
 4311.00    0.93909   0.75048    0.020
 4312.00    1.00286   0.80312    0.020
 4313.00    1.06832   0.87620    0.019
 4314.00    1.13451   0.96436    0.019
 4315.00    1.07481   1.06179    0.020
 4316.00    0.96770   1.16221    0.020
 4317.00    0.97853   1.25651    0.020
 4318.00    1.02707   1.33248    0.020
 4319.00    0.99578   1.37982    0.020
 4320.00    0.94315   1.39269    0.020
 4321.00    1.12017   1.36965    0.020
 4322.00    1.34743   1.31584    0.020
 4323.00    1.34168   1.24011    0.020
 4324.00    1.29541   1.15418    0.020
 4325.00    1.08457   1.07584    0.020
 4326.00    0.85197   1.02630    0.020
 4327.00    0.91864   1.02068    0.020
 4328.00    1.01328   1.06131    0.020
 4329.00    1.00198   1.13464    0.020
 4330.00    0.98461   1.21715    0.000
 4331.00    0.98729   1.28786    0.000
 4332.00    0.99189   1.33679    0.000
 4333.00    1.16425   1.36575    0.000
 4334.00    1.32894   1.37985    0.000
 4335.00    1.30967   1.37936    0.000
 4336.00    1.27972   1.35858    0.000
 4337.00    1.11063   1.31194    0.000
 4338.00    0.96215   1.24300    0.000
 4339.00    0.99370   1.16623    0.000
 4340.00    1.02855   1.10099    0.000
 4341.00    1.08468   1.06431    0.000
 4342.00    1.16044   1.06517    0.000
 4343.00    1.33519   1.09881    0.000
 4344.00    1.45926   1.15090    0.000
 4345.00    1.37643   1.20775    0.000
 4346.00    1.33043   1.25949    0.000
 4347.00    1.40902   1.29997    0.000
 4348.00    1.41736   1.32677    0.000
 4349.00    1.22528   1.33725    0.000
 4350.00    1.06591   1.32729    0.000
 4351.00    0.98627   1.29738    0.020
 4352.00    0.95251   1.25632    0.020
 4353.00    1.01528   1.21859    0.020
 4354.00    1.10295   1.19826    0.020
 4355.00    1.23618   1.20234    0.020
 4356.00    1.30620   1.22678    0.025
 4357.00    1.27525   1.25854    0.069
 4358.00    1.23030   1.28458   -1.000
 4359.00    1.16570   1.30061   -1.000
 4360.00    1.17731   1.31125   -1.000
 4361.00    1.28296   1.32360   -1.000
 4362.00    1.36794   1.34214   -1.000
 4363.00    1.43046   1.36669   -1.000
 4364.00    1.35458   1.39178    0.078
 4365.00    1.14596   1.40886    0.026
 4366.00    1.13130   1.41121    0.020
 4367.00    1.28068   1.39779    0.020
 4368.00    1.28575   1.37327    0.020
 4369.00    1.18332   1.34481    0.020
 4370.00    1.01677   1.31854    0.020
 4371.00    0.80827   1.29690    0.020
 4372.00    0.86565   1.27747    0.020
 4373.00    1.07532   1.25539    0.020
 4374.00    1.05660   1.22940    0.021
 4375.00    0.92397   1.20536    0.021
 4376.00    0.93454   1.19271    0.021
 4377.00    1.00691   1.19699    0.020
 4378.00    1.00186   1.21508    0.020
 4379.00    0.96816   1.23431    0.021
 4380.00    0.97614   1.23698    0.021
 4381.00    0.99719   1.20929    0.020
 4382.00    1.03558   1.14961    0.020
 4383.00    1.07851   1.07097    0.020
 4384.00    1.16699   0.99662    0.020
 4385.00    1.26519   0.95014    0.020
 4386.00    1.10478   0.94434    0.020
 4387.00    0.90065   0.97569    0.020
 4388.00    0.96442   1.02775    0.020
 4389.00    1.06241   1.08064    0.020
 4390.00    0.94377   1.12094    0.020
 4391.00    0.80579   1.14657    0.020
 4392.00    0.75248   1.16376    0.020
 4393.00    0.70369   1.17968    0.020
 4394.00    0.79829   1.19802    0.020
 4395.00    0.89511   1.21983    0.020
 4396.00    0.94439   1.24478    0.020
 4397.00    0.99762   1.27015    0.019
 4398.00    1.13771   1.29059    0.020
 4399.00    1.25060   1.30031    0.020
 4400.00    1.02720   1.29547    0.020
 4401.00    0.83956   1.27557    0.020
 4402.00    0.95274   1.24348    0.020
 4403.00    1.02385   1.20364    0.020
 4404.00    0.83128   1.16003    0.020
 4405.00    0.70392   1.11817    0.020
 4406.00    0.89728   1.08707    0.020
 4407.00    1.08306   1.07596    0.020
 4408.00    1.23859   1.09007    0.020
 4409.00    1.30376   1.12902    0.020
 4410.00    1.06923   1.18530    0.019
 4411.00    0.90422   1.24518    0.019
 4412.00    0.93397   1.29365    0.020
 4413.00    1.00161   1.31984    0.020
 4414.00    1.16005   1.31964    0.020
 4415.00    1.29606   1.29858    0.020
 4416.00    1.38568   1.27235    0.020
 4417.00    1.41361   1.25874    0.019
 4418.00    1.33052   1.26685    0.019
 4419.00    1.36626   1.29273    0.020
 4420.00    1.58904   1.32341    0.020
 4421.00    1.61570   1.34432    0.020
 4422.00    1.37137   1.34754    0.019
 4423.00    1.25993   1.33602    0.019
 4424.00    1.31013   1.31953    0.019
 4425.00    1.39702   1.30704    0.020
 4426.00    1.52326   1.30245    0.020
 4427.00    1.56869   1.30424    0.020
 4428.00    1.53769   1.30847    0.019
 4429.00    1.53746   1.31126    0.019
 4430.00    1.56290   1.31020    0.019
 4431.00    1.53507   1.30488    0.020
 4432.00    1.46816   1.29528    0.020
 4433.00    1.53077   1.28119    0.020
 4434.00    1.67689   1.26380    0.020
 4435.00    1.66333   1.24833    0.020
 4436.00    1.55969   1.24371    0.020
 4437.00    1.50553   1.25634    0.020
 4438.00    1.47565   1.28520    0.020
 4439.00    1.31285   1.32046    0.020
 4440.00    1.09364   1.34742    0.019
 4441.00    1.10881   1.35541    0.019
 4442.00    1.20917   1.34480    0.019
 4443.00    1.24107   1.32692    0.019
 4444.00    1.25191   1.31683    0.019
 4445.00    1.17526   1.32422    0.019
 4446.00    1.07621   1.34816    0.019
 4447.00    1.07260   1.37921    0.019
 4448.00    1.08889   1.40631    0.019
 4449.00    1.08431   1.42231    0.019
 4450.00    1.07631   1.42496    0.019
 4451.00    1.14896   1.41498    0.019
 4452.00    1.23155   1.39395    0.019
 4453.00    1.21967   1.36325    0.019
 4454.00    1.19977   1.32410    0.019
 4455.00    1.19515   1.28037    0.019
 4456.00    1.19128   1.23919    0.018
 4457.00    1.25005   1.20664    0.018
 4458.00    1.30579   1.18480    0.018
 4459.00    1.10911   1.17223    0.018
 4460.00    0.93226   1.16666    0.018
 4461.00    1.15703   1.16732    0.000
 4462.00    1.36715   1.17576    0.000
 4463.00    1.40494   1.19437    0.000
 4464.00    1.41971   1.22278    0.000
 4465.00    1.24783   1.25562    0.000
 4466.00    1.09440   1.28494    0.000
 4467.00    1.05321   1.30533    0.000
 4468.00    1.04283   1.31605    0.000
 4469.00    1.18025   1.32049    0.000
 4470.00    1.33517   1.32520    0.000
 4471.00    1.55841   1.33673    0.000
 4472.00    1.68605   1.35807    0.000
 4473.00    1.50289   1.38803    0.000
 4474.00    1.31671   1.42234    0.000
 4475.00    1.12225   1.45563    0.000
 4476.00    1.02586   1.48275    0.000
 4477.00    1.16058   1.49951    0.000
 4478.00    1.28987   1.50229    0.000
 4479.00    1.40807   1.48847    0.000
 4480.00    1.43543   1.45954    0.000
 4481.00    1.30174   1.42355    0.000
 4482.00    1.22945   1.39355    0.018
 4483.00    1.25237   1.38167    0.018
 4484.00    1.27796   1.39271    0.018
 4485.00    1.30716   1.42079    0.018
 4486.00    1.30087   1.45201    0.018
 4487.00    1.25203   1.47170    0.018
 4488.00    1.22951   1.47191    0.018
 4489.00    1.23483   1.45462    0.018
 4490.00    1.26359   1.42937    0.018
 4491.00    1.31419   1.40679    0.018
 4492.00    1.29449   1.39217    0.018
 4493.00    1.21699   1.38364    0.018
 4494.00    1.10618   1.37611    0.018
 4495.00    0.97126   1.36759    0.018
 4496.00    1.01307   1.36179    0.018
 4497.00    1.16714   1.36510    0.018
 4498.00    1.23502   1.38104    0.018
 4499.00    1.25503   1.40744    0.018
 4500.00    1.18089   1.43824    0.018
 4501.00    1.06126   1.46809    0.018
 4502.00    1.15460   1.49591    0.018
 4503.00    1.33679   1.52373    0.018
 4504.00    1.53965   1.55223    0.018
 4505.00    1.74988   1.57826    0.019
 4506.00    1.66975   1.59643    0.019
 4507.00    1.50209   1.60360    0.019
 4508.00    1.53567   1.60112    0.018
 4509.00    1.61967   1.59309    0.018
 4510.00    1.60233   1.58310    0.018
 4511.00    1.56438   1.57177    0.018
 4512.00    1.38698   1.55732    0.018
 4513.00    1.18732   1.53838    0.018
 4514.00    1.15385   1.51641    0.018
 4515.00    1.14013   1.49537    0.018
 4516.00    1.24074   1.47949    0.018
 4517.00    1.35061   1.47118    0.018
 4518.00    1.38006   1.47073    0.019
 4519.00    1.40586   1.47686    0.019
 4520.00    1.38985   1.48687    0.019
 4521.00    1.37160   1.49623    0.018
 4522.00    1.26510   1.49894    0.018
 4523.00    1.17044   1.48972    0.018
 4524.00    1.29793   1.46634    0.018
 4525.00    1.41202   1.43011    0.018
 4526.00    1.37601   1.38491    0.018
 4527.00    1.34767   1.33654    0.018
 4528.00    1.37942   1.29203    0.018
 4529.00    1.39949   1.25857    0.018
 4530.00    1.35058   1.24088    0.018
 4531.00    1.31702   1.23889    0.018
 4532.00    1.35534   1.24806    0.018
 4533.00    1.39530   1.26176    0.017
 4534.00    1.44154   1.27545    0.018
 4535.00    1.42166   1.28978    0.018
 4536.00    1.19095   1.30943    0.018
 4537.00    1.05170   1.33789    0.018
 4538.00    1.15957   1.37296    0.018
 4539.00    1.22857   1.40649    0.019
 4540.00    1.20749   1.43013    0.018
 4541.00    1.22942   1.44073    0.018
 4542.00    1.33757   1.44131    0.018
 4543.00    1.36693   1.43720    0.018
 4544.00    1.25874   1.43183    0.018
 4545.00    1.22455   1.42589    0.018
 4546.00    1.30343   1.41894    0.018
 4547.00    1.33142   1.41096    0.018
 4548.00    1.29108   1.40274    0.018
 4549.00    1.26061   1.39530    0.018
 4550.00    1.24182   1.38946    0.000
 4551.00    1.27214   1.38552    0.000
 4552.00    1.35366   1.38285    0.000
 4553.00    1.40402   1.38062    0.000
 4554.00    1.42571   1.37946    0.000
 4555.00    1.43254   1.38263    0.000
 4556.00    1.42734   1.39459    0.000
 4557.00    1.37630   1.41762    0.000
 4558.00    1.29258   1.44926    0.000
 4559.00    1.38228   1.48277    0.000
 4560.00    1.58049   1.50993    0.000
 4561.00    1.53147   1.52451    0.000
 4562.00    1.34721   1.52415    0.000
 4563.00    1.31129   1.51057    0.000
 4564.00    1.34589   1.48932    0.000
 4565.00    1.31699   1.46871    0.000
 4566.00    1.26206   1.45723    0.000
 4567.00    1.31621   1.45927    0.000
 4568.00    1.40858   1.47240    0.000
 4569.00    1.30187   1.48869    0.000
 4570.00    1.13633   1.49966    0.000
 4571.00    1.20522   1.50187    0.000
 4572.00    1.33153   1.49862    0.000
 4573.00    1.35105   1.49639    0.000
 4574.00    1.34941   1.49939    0.000
 4575.00    1.29478   1.50653    0.000
 4576.00    1.23194   1.51234    0.000
 4577.00    1.26388   1.51062    0.000
 4578.00    1.30666   1.49786    0.000
 4579.00    1.30167   1.47476    0.000
 4580.00    1.29300   1.44605    0.000
 4581.00    1.22121   1.41873    0.000
 4582.00    1.14679   1.39912    0.000
 4583.00    1.15451   1.38996    0.000
 4584.00    1.16051   1.38997    0.000
 4585.00    1.06201   1.39626    0.000
 4586.00    0.97355   1.40719    0.000
 4587.00    1.06055   1.42284    0.000
 4588.00    1.14884   1.44273    0.000
 4589.00    1.25097   1.46348    0.000
 4590.00    1.35388   1.47888    0.000
 4591.00    1.46277   1.48318    0.000
 4592.00    1.54670   1.47457    0.000
 4593.00    1.48721   1.45630    0.000
 4594.00    1.43343   1.43465    0.000
 4595.00    1.40580   1.41569    0.000
 4596.00    1.39001   1.40305    0.000
 4597.00    1.41858   1.39753    0.000
 4598.00    1.41655   1.39783    0.000
 4599.00    1.31884   1.40142    0.000
 4600.00    1.24137   1.40579    0.000
 4601.00    1.21766   1.40940    0.000
 4602.00    1.22274   1.41215    0.000
 4603.00    1.29340   1.41499    0.000
 4604.00    1.35466   1.41942    0.000
 4605.00    1.39739   1.42740    0.000
 4606.00    1.43508   1.44131    0.000
 4607.00    1.46409   1.46287    0.000
 4608.00    1.43185   1.49119    0.000
 4609.00    1.30736   1.52144    0.000
 4610.00    1.31911   1.54634    0.000
 4611.00    1.51114   1.55989    0.000
 4612.00    1.53352   1.56095    0.000
 4613.00    1.35819   1.55382    0.000
 4614.00    1.30208   1.54542    0.000
 4615.00    1.36851   1.54111    0.000
 4616.00    1.40709   1.54239    0.000
 4617.00    1.42042   1.54711    0.000
 4618.00    1.37041   1.55200    0.000
 4619.00    1.26979   1.55502    0.000
 4620.00    1.29656   1.55629    0.000
 4621.00    1.41285   1.55702    0.000
 4622.00    1.48122   1.55805    0.000
 4623.00    1.52003   1.55889    0.000
 4624.00    1.50569   1.55834    0.000
 4625.00    1.46271   1.55562    0.000
 4626.00    1.49004   1.55111    0.000
 4627.00    1.55025   1.54610    0.000
 4628.00    1.58787   1.54192    0.000
 4629.00    1.61637   1.53934    0.000
 4630.00    1.59583   1.53823    0.000
 4631.00    1.55841   1.53735    0.000
 4632.00    1.55677   1.53459    0.000
 4633.00    1.56549   1.52784    0.000
 4634.00    1.59089   1.51614    0.000
 4635.00    1.62027   1.50008    0.000
 4636.00    1.57536   1.48137    0.000
 4637.00    1.51609   1.46190    0.000
 4638.00    1.33939   1.44356    0.000
 4639.00    1.14506   1.42858    0.000
 4640.00    1.30168   1.41942    0.000
 4641.00    1.49694   1.41717    0.000
 4642.00    1.61754   1.41982    0.000
 4643.00    1.73272   1.42203    0.000
 4644.00    1.51401   1.41750    0.000
 4645.00    1.28267   1.40261    0.000
 4646.00    1.26361   1.37910    0.000
 4647.00    1.24927   1.35401    0.000
 4648.00    1.36960   1.33662    0.000
 4649.00    1.47722   1.33394    0.000
 4650.00    1.37691   1.34736    0.000
 4651.00    1.28024   1.37207    0.000
 4652.00    1.22072   1.39935    0.000
 4653.00    1.16345   1.42072    0.000
 4654.00    1.12265   1.43177    0.000
 4655.00    1.11223   1.43409    0.000
 4656.00    1.27161   1.43437    0.000
 4657.00    1.38512   1.44079    0.000
 4658.00    1.29394   1.45810    0.000
 4659.00    1.21169   1.48431    0.000
 4660.00    1.16220   1.51111    0.000
 4661.00    1.15420   1.52795    0.000
 4662.00    1.27352   1.52733    0.000
 4663.00    1.34716   1.50777    0.000
 4664.00    1.30168   1.47290    0.000
 4665.00    1.29752   1.42864    0.000
 4666.00    1.38598   1.38120    0.000
 4667.00    1.42637   1.33734    0.000
 4668.00    1.37337   1.30493    0.000
 4669.00    1.31983   1.29126    0.000
 4670.00    1.26538   1.29943    0.000
 4671.00    1.25302   1.32560    0.000
 4672.00    1.30311   1.36033    0.000
 4673.00    1.35169   1.39363    0.000
 4674.00    1.39828   1.41952    0.000
 4675.00    1.34954   1.43717    0.000
 4676.00    1.19127   1.44812    0.000
 4677.00    1.10999   1.45309    0.000
 4678.00    1.10671   1.45108    0.000
 4679.00    1.13911   1.44135    0.000
 4680.00    1.20340   1.42585    0.000
 4681.00    1.30632   1.40962    0.000
 4682.00    1.43968   1.39869    0.000
 4683.00    1.46449   1.39682    0.000
 4684.00    1.41413   1.40362    0.000
 4685.00    1.41187   1.41501    0.000
 4686.00    1.43883   1.42562    0.000
 4687.00    1.43507   1.43161    0.000
 4688.00    1.41501   1.43202    0.000
 4689.00    1.37488   1.42843    0.000
 4690.00    1.32550   1.42354    0.000
 4691.00    1.36627   1.42003    0.000
 4692.00    1.44275   1.41997    0.000
 4693.00    1.44177   1.42455    0.000
 4694.00    1.41463   1.43351    0.000
 4695.00    1.36248   1.44438    0.000
 4696.00    1.30323   1.45260    0.000
 4697.00    1.29377   1.45322    0.000
 4698.00    1.29597   1.44341    0.000
 4699.00    1.29178   1.42438    0.000
 4700.00    1.28639   1.40077    0.000
 4701.00    1.30096   1.37841    0.000
 4702.00    1.31843   1.36164    0.000
 4703.00    1.41880   1.35232    0.000
 4704.00    1.52794   1.34998    0.000
 4705.00    1.37396   1.35249    0.000
 4706.00    1.20192   1.35673    0.000
 4707.00    1.33202   1.35994    0.000
 4708.00    1.47241   1.36140    0.000
 4709.00    1.38716   1.36300    0.000
 4710.00    1.30429   1.36771    0.000
 4711.00    1.31028   1.37692    0.000
 4712.00    1.32350   1.38894    0.000
 4713.00    1.44769   1.40037    0.000
 4714.00    1.54631   1.40921    0.000
 4715.00    1.39428   1.41703    0.000
 4716.00    1.27589   1.42804    0.000
 4717.00    1.39540   1.44577    0.000
 4718.00    1.49001   1.47014    0.000
 4719.00    1.44918   1.49732    0.000
 4720.00    1.43519   1.52190    0.000
 4721.00    1.53818   1.53965    0.000
 4722.00    1.59814   1.54912    0.000
 4723.00    1.50373   1.55121    0.000
 4724.00    1.43780   1.54718    0.000
 4725.00    1.45756   1.53681    0.000
 4726.00    1.45463   1.51816    0.000
 4727.00    1.39352   1.48983    0.000
 4728.00    1.33842   1.45380    0.000
 4729.00    1.29654   1.41658    0.000
 4730.00    1.28082   1.38679    0.000
 4731.00    1.31508   1.37110    0.000
 4732.00    1.30935   1.37112    0.000
 4733.00    1.23691   1.38332    0.000
 4734.00    1.25129   1.40133    0.000
 4735.00    1.39263   1.41913    0.000
 4736.00    1.51729   1.43329    0.000
 4737.00    1.62051   1.44347    0.000
 4738.00    1.59583   1.45133    0.000
 4739.00    1.42627   1.45855    0.000
 4740.00    1.36070   1.46561    0.000
 4741.00    1.39902   1.47206    0.000
 4742.00    1.41150   1.47768    0.000
 4743.00    1.40120   1.48308    0.000
 4744.00    1.44830   1.48924    0.000
 4745.00    1.53996   1.49676    0.000
 4746.00    1.63051   1.50548    0.000
 4747.00    1.72032   1.51458    0.000
 4748.00    1.68582   1.52270    0.000
 4749.00    1.57695   1.52816    0.000
 4750.00    1.55019   1.52928    0.000
 4751.00    1.56627   1.52494    0.000
 4752.00    1.52223   1.51504    0.000
 4753.00    1.45098   1.50078    0.000
 4754.00    1.46653   1.48458    0.000
 4755.00    1.51587   1.46950    0.000
 4756.00    1.51095   1.45834    0.000
 4757.00    1.48804   1.45261    0.000
 4758.00    1.46003   1.45186    0.000
 4759.00    1.43059   1.45366    0.000
 4760.00    1.43473   1.45417    0.000
 4761.00    1.44655   1.44949    0.016
 4762.00    1.37625   1.43730    0.016
 4763.00    1.29091   1.41806    0.016
 4764.00    1.28152   1.39511    0.016
 4765.00    1.28284   1.37359    0.016
 4766.00    1.28588   1.35888    0.015
 4767.00    1.28910   1.35495    0.015
 4768.00    1.30309   1.36300    0.015
 4769.00    1.31777   1.38074    0.015
 4770.00    1.38529   1.40323    0.015
 4771.00    1.45429   1.42506    0.016
 4772.00    1.46609   1.44320    0.015
 4773.00    1.47939   1.45791    0.015
 4774.00    1.53627   1.47146    0.016
 4775.00    1.58905   1.48553    0.016
 4776.00    1.58280   1.49965    0.016
 4777.00    1.56654   1.51162    0.015
 4778.00    1.45619   1.51894    0.015
 4779.00    1.36283   1.52007    0.015
 4780.00    1.38587   1.51463    0.015
 4781.00    1.41420   1.50322    0.015
 4782.00    1.47062   1.48730    0.015
 4783.00    1.50005   1.46909    0.015
 4784.00    1.41458   1.45110    0.015
 4785.00    1.34270   1.43548    0.015
 4786.00    1.31864   1.42348    0.015
 4787.00    1.31422   1.41545    0.015
 4788.00    1.36787   1.41132    0.015
 4789.00    1.37447   1.41131    0.015
 4790.00    1.26258   1.41620    0.015
 4791.00    1.22722   1.42711    0.015
 4792.00    1.35783   1.44474    0.015
 4793.00    1.44817   1.46827    0.015
 4794.00    1.46272   1.49458    0.015
 4795.00    1.44115   1.51831    0.015
 4796.00    1.36020   1.53361    0.015
 4797.00    1.35481   1.53668    0.015
 4798.00    1.45828   1.52795    0.015
 4799.00    1.49143   1.51237    0.015
 4800.00    1.43546   1.49726    0.015
 4801.00    1.43553   1.48886    0.015
 4802.00    1.49819   1.48907    0.015
 4803.00    1.52798   1.49481    0.015
 4804.00    1.52540   1.50006    0.015
 4805.00    1.49695   1.49955    0.015
 4806.00    1.44602   1.49166    0.015
 4807.00    1.38919   1.47890    0.015
 4808.00    1.32783   1.46606    0.015
 4809.00    1.40946   1.45760    0.015
 4810.00    1.58728   1.45572    0.015
 4811.00    1.60660   1.45990    0.015
 4812.00    1.53253   1.46792    0.015
 4813.00    1.46630   1.47743    0.015
 4814.00    1.40409   1.48720    0.015
 4815.00    1.39843   1.49740    0.015
 4816.00    1.41795   1.50871    0.015
 4817.00    1.46884   1.52123    0.015
 4818.00    1.53172   1.53370    0.015
 4819.00    1.62109   1.54353    0.016
 4820.00    1.71908   1.54755    0.016
 4821.00    1.69303   1.54322    0.016
 4822.00    1.63322   1.53009    0.015
 4823.00    1.54330   1.51071    0.015
 4824.00    1.44664   1.49019    0.015
 4825.00    1.35557   1.47403    0.015
 4826.00    1.26548   1.46543    0.015
 4827.00    1.40111   1.46368    0.015
 4828.00    1.56749   1.46507    0.015
 4829.00    1.62081   1.46550    0.015
 4830.00    1.66315   1.46278    0.016
 4831.00    1.51577   1.45744    0.015
 4832.00    1.35688   1.45190    0.015
 4833.00    1.49456   1.44903    0.015
 4834.00    1.63940   1.45053    0.016
 4835.00    1.65842   1.45589    0.016
 4836.00    1.67237   1.46241    0.016
 4837.00    1.55427   1.46635    0.016
 4838.00    1.44092   1.46492    0.015
 4839.00    1.39241   1.45769    0.015
 4840.00    1.34801   1.44676    0.015
 4841.00    1.34082   1.43575    0.015
 4842.00    1.34559   1.42826    0.015
 4843.00    1.42971   1.42662    0.015
 4844.00    1.49333   1.43113    0.015
 4845.00    1.45119   1.44013    0.015
 4846.00    1.40718   1.45043    0.015
 4847.00    1.35538   1.45851    0.015
 4848.00    1.34928   1.46213    0.000
 4849.00    1.50059   1.46138    0.000
 4850.00    1.59502   1.45822    0.000
 4851.00    1.52447   1.45436    0.000
 4852.00    1.45133   1.44949    0.000
 4853.00    1.37178   1.44134    0.000
 4854.00    1.34500   1.42763    0.000
 4855.00    1.43078   1.40800    0.000
 4856.00    1.43939   1.38419    0.000
 4857.00    1.30499   1.35813    0.000
 4858.00    1.24359   1.32984    0.000
 4859.00    1.30034   1.29780    0.000
 4860.00    1.33449   1.26171    0.000
 4861.00    1.33656   1.22574    0.000
 4862.00    1.32568   1.19839    0.000
 4863.00    1.29865   1.18837    0.000
 4864.00    1.28310   1.19941    0.000
 4865.00    1.28019   1.22798    0.000
 4866.00    1.35081   1.26498    0.000
 4867.00    1.49284   1.30000    0.000
 4868.00    1.52963   1.32486    0.000
 4869.00    1.47628   1.33535    0.000
 4870.00    1.37038   1.33163    0.000
 4871.00    1.22484   1.31807    0.000
 4872.00    1.17888   1.30221    0.000
 4873.00    1.19895   1.29216    0.000
 4874.00    1.23253   1.29348    0.000
 4875.00    1.27396   1.30721    0.016
 4876.00    1.28238   1.33016    0.015
 4877.00    1.27411   1.35739    0.015
 4878.00    1.27690   1.38427    0.015
 4879.00    1.28454   1.40713    0.015
 4880.00    1.30332   1.42315    0.015
 4881.00    1.32630   1.43041    0.015
 4882.00    1.38176   1.42842    0.015
 4883.00    1.44758   1.41835    0.015
 4884.00    1.40379   1.40246    0.015
 4885.00    1.33078   1.38323    0.015
 4886.00    1.35647   1.36296    0.015
 4887.00    1.40370   1.34355    0.015
 4888.00    1.44507   1.32647    0.015
 4889.00    1.48542   1.31272    0.016
 4890.00    1.52643   1.30368    0.016
 4891.00    1.56753   1.30232    0.016
 4892.00    1.55035   1.31311    0.016
 4893.00    1.52775   1.33960    0.016
 4894.00    1.47688   1.38111    0.016
 4895.00    1.42441   1.43120    0.016
 4896.00    1.42259   1.47966    0.016
 4897.00    1.42261   1.51682    0.016
 4898.00    1.49697   1.53710    0.015
 4899.00    1.56466   1.54034    0.015
 4900.00    1.47416   1.53068    0.015
 4901.00    1.39206   1.51431    0.015
 4902.00    1.41867   1.49730    0.015
 4903.00    1.44188   1.48423    0.015
 4904.00    1.43551   1.47750    0.015
 4905.00    1.42863   1.47695    0.015
 4906.00    1.41852   1.47974    0.015
 4907.00    1.41098   1.48110    0.015
 4908.00    1.41638   1.47629    0.015
 4909.00    1.40274   1.46345    0.015
 4910.00    1.31162   1.44523    0.015
 4911.00    1.26976   1.42782    0.015
 4912.00    1.39409   1.41777    0.015
 4913.00    1.46820   1.41832    0.015
 4914.00    1.39935   1.42747    0.015
 4915.00    1.35404   1.43839    0.015
 4916.00    1.36602   1.44195    0.015
 4917.00    1.41592   1.43033    0.015
 4918.00    1.54540   1.40062    0.015
 4919.00    1.60105   1.35707    0.015
 4920.00    1.52195   1.31033    0.015
 4921.00    1.45571   1.27342    0.015
 4922.00    1.40994   1.25613    0.015
 4923.00    1.39995   1.26109    0.015
 4924.00    1.44003   1.28426    0.015
 4925.00    1.46769   1.31842    0.015
 4926.00    1.48006   1.35723    0.015
 4927.00    1.48568   1.39669    0.015
 4928.00    1.48397   1.43424    0.015
 4929.00    1.43413   1.46709    0.015
 4930.00    1.33819   1.49164    0.015
 4931.00    1.35317   1.50442    0.015
 4932.00    1.46181   1.50370    0.015
 4933.00    1.50736   1.49056    0.015
 4934.00    1.50600   1.46876    0.015
 4935.00    1.45367   1.44305    0.015
 4936.00    1.36806   1.41726    0.015
 4937.00    1.36058   1.39359    0.015
 4938.00    1.39775   1.37384    0.015
 4939.00    1.41237   1.36118    0.015
 4940.00    1.41576   1.35977    0.000
 4941.00    1.45032   1.37233    0.000
 4942.00    1.49830   1.39752    0.000
 4943.00    1.43051   1.42950    0.000
 4944.00    1.31997   1.46074    0.000
 4945.00    1.35477   1.48554    0.000
 4946.00    1.43503   1.50229    0.000
 4947.00    1.49429   1.51292    0.000
 4948.00    1.54807   1.52080    0.000
 4949.00    1.61760   1.52823    0.000
 4950.00    1.69047   1.53520    0.000
 4951.00    1.68391   1.53962    0.000
 4952.00    1.66397   1.53844    0.000
 4953.00    1.63685   1.52878    0.000
 4954.00    1.60880   1.50875    0.000
 4955.00    1.61464   1.47824    0.000
 4956.00    1.62348   1.43988    0.000
 4957.00    1.55015   1.39986    0.000
 4958.00    1.47248   1.36722    0.000
 4959.00    1.51305   1.35061    0.000
 4960.00    1.55495   1.35413    0.000
 4961.00    1.52374   1.37425    0.000
 4962.00    1.49006   1.40147    0.000
 4963.00    1.40282   1.42470    0.000
 4964.00    1.32659   1.43631    0.000
 4965.00    1.38559   1.43452    0.000
 4966.00    1.43982   1.42276    0.000
 4967.00    1.45409   1.40725    0.000
 4968.00    1.46418   1.39434    0.000
 4969.00    1.44818   1.38845    0.000
 4970.00    1.43316   1.39129    0.000
 4971.00    1.42290   1.40205    0.000
 4972.00    1.42206   1.41821    0.000
 4973.00    1.45872   1.43626    0.000
 4974.00    1.47924   1.45224    0.000
 4975.00    1.44635   1.46243    0.000
 4976.00    1.44051   1.46400    0.000
 4977.00    1.51025   1.45559    0.000
 4978.00    1.54066   1.43757    0.000
 4979.00    1.47701   1.41156    0.000
 4980.00    1.41412   1.37988    0.000
 4981.00    1.35280   1.34519    0.000
 4982.00    1.29557   1.31083    0.000
 4983.00    1.24570   1.28123    0.000
 4984.00    1.24699   1.26156    0.000
 4985.00    1.32867   1.25611    0.000
 4986.00    1.36764   1.26609    0.000
 4987.00    1.34770   1.28837    0.000
 4988.00    1.38054   1.31650    0.000
 4989.00    1.47744   1.34328    0.000
 4990.00    1.46723   1.36357    0.000
 4991.00    1.34237   1.37591    0.000
 4992.00    1.29456   1.38200    0.000
 4993.00    1.31950   1.38491    0.000
 4994.00    1.38100   1.38710    0.000
 4995.00    1.47296   1.38933    0.000
 4996.00    1.52607   1.39056    0.000
 4997.00    1.55073   1.38867    0.000
 4998.00    1.55062   1.38153    0.000
 4999.00    1.53457   1.36814    0.000
 5000.00    1.48961   1.34946    0.000
 5001.00    1.42838   1.32815    0.000
 5002.00    1.44810   1.30724    0.000
 5003.00    1.50748   1.28879    0.000
 5004.00    1.46620   1.27338    0.000
 5005.00    1.38229   1.26114    0.000
 5006.00    1.33339   1.25298    0.000
 5007.00    1.29719   1.25069    0.000
 5008.00    1.34441   1.25537    0.000
 5009.00    1.41723   1.26524    0.000
 5010.00    1.45964   1.27525    0.000
 5011.00    1.49428   1.27914    0.000
 5012.00    1.40201   1.27302    0.000
 5013.00    1.28338   1.25772    0.000
 5014.00    1.32905   1.23851    0.000
 5015.00    1.40160   1.22216    0.000
 5016.00    1.40940   1.21358    0.000
 5017.00    1.40924   1.21397    0.000
 5018.00    1.36216   1.22125    0.000
 5019.00    1.31111   1.23194    0.000
 5020.00    1.25551   1.24307    0.000
 5021.00    1.19969   1.25313    0.000
 5022.00    1.31937   1.26205    0.000
 5023.00    1.43952   1.27055    0.000
 5024.00    1.42237   1.27936    0.000
 5025.00    1.40324   1.28853    0.000
 5026.00    1.34441   1.29747    0.000
 5027.00    1.30209   1.30576    0.000
 5028.00    1.45266   1.31413    0.000
 5029.00    1.58470   1.32448    0.014
 5030.00    1.56711   1.33859    0.014
 5031.00    1.55141   1.35648    0.014
 5032.00    1.54715   1.37544    0.014
 5033.00    1.55655   1.39074    0.014
 5034.00    1.63125   1.39730    0.015
 5035.00    1.65162   1.39175    0.015
 5036.00    1.46042   1.37374    0.015
 5037.00    1.31661   1.34571    0.014
 5038.00    1.32655   1.31165    0.014
 5039.00    1.32648   1.27593    0.014
 5040.00    1.29896   1.24333    0.014
 5041.00    1.31007   1.21960    0.014
 5042.00    1.41200   1.21096    0.014
 5043.00    1.45427   1.22168    0.014
 5044.00    1.37525   1.25088    0.014
 5045.00    1.32780   1.29126    0.014
 5046.00    1.33621   1.33129    0.014
 5047.00    1.36205   1.35984    0.014
 5048.00    1.41485   1.37062    0.014
 5049.00    1.40789   1.36442    0.014
 5050.00    1.31967   1.34798    0.014
 5051.00    1.31539   1.33064    0.014
 5052.00    1.41159   1.32051    0.014
 5053.00    1.48307   1.32182    0.014
 5054.00    1.52846   1.33430    0.014
 5055.00    1.50828   1.35442    0.014
 5056.00    1.42706   1.37740    0.014
 5057.00    1.42420   1.39913    0.014
 5058.00    1.48565   1.41721    0.014
 5059.00    1.51447   1.43089    0.014
 5060.00    1.51974   1.44004    0.014
 5061.00    1.50814   1.44404    0.014
 5062.00    1.48585   1.44135    0.014
 5063.00    1.42510   1.43033    0.014
 5064.00    1.34304   1.41085    0.014
 5065.00    1.30868   1.38542    0.014
 5066.00    1.29731   1.35901    0.014
 5067.00    1.30434   1.33701    0.014
 5068.00    1.31904   1.32301    0.014
 5069.00    1.38044   1.31751    0.014
 5070.00    1.45847   1.31832    0.014
 5071.00    1.38634   1.32218    0.014
 5072.00    1.26905   1.32629    0.014
 5073.00    1.26636   1.32915    0.014
 5074.00    1.29230   1.33031    0.014
 5075.00    1.24026   1.32951    0.014
 5076.00    1.17242   1.32580    0.014
 5077.00    1.29806   1.31747    0.014
 5078.00    1.45444   1.30306    0.014
 5079.00    1.41891   1.28291    0.014
 5080.00    1.36069   1.26006    0.014
 5081.00    1.29197   1.23984    0.014
 5082.00    1.22240   1.22768    0.014
 5083.00    1.25741   1.22692    0.014
 5084.00    1.29712   1.23739    0.014
 5085.00    1.32432   1.25602    0.014
 5086.00    1.35048   1.27851    0.014
 5087.00    1.33236   1.30105    0.013
 5088.00    1.31533   1.32127    0.013
 5089.00    1.31855   1.33841    0.013
 5090.00    1.32286   1.35286    0.013
 5091.00    1.33938   1.36535    0.013
 5092.00    1.35568   1.37604    0.013
 5093.00    1.37035   1.38392    0.014
 5094.00    1.38583   1.38684    0.014
 5095.00    1.40613   1.38233    0.014
 5096.00    1.42140   1.36899    0.014
 5097.00    1.41322   1.34779    0.014
 5098.00    1.39635   1.32256    0.014
 5099.00    1.34639   1.29916    0.014
 5100.00    1.29703   1.28322    0.014
 5101.00    1.24956   1.27782    0.013
 5102.00    1.23666   1.28197    0.013
 5103.00    1.31695   1.29110    0.013
 5104.00    1.36720   1.29942    0.014
 5105.00    1.34800   1.30250    0.014
 5106.00    1.35746   1.29887    0.014
 5107.00    1.42423   1.28996    0.014
 5108.00    1.46059   1.27898    0.014
 5109.00    1.44392   1.26959    0.014
 5110.00    1.42822   1.26491    0.014
 5111.00    1.41400   1.26691    0.014
 5112.00    1.40576   1.27602    0.014
 5113.00    1.40556   1.29118    0.014
 5114.00    1.43981   1.31027    0.014
 5115.00    1.51473   1.33073    0.014
 5116.00    1.54930   1.35015    0.015
 5117.00    1.54191   1.36631    0.015
 5118.00    1.50135   1.37703    0.015
 5119.00    1.43036   1.38014    0.014
 5120.00    1.45144   1.37389    0.014
 5121.00    1.54698   1.35775    0.014
 5122.00    1.53386   1.33314    0.014
 5123.00    1.44337   1.30337    0.014
 5124.00    1.39746   1.27305    0.014
 5125.00    1.37940   1.24673    0.014
 5126.00    1.34702   1.22762    0.014
 5127.00    1.30683   1.21686    0.014
 5128.00    1.26852   1.21381    0.014
 5129.00    1.23112   1.21698    0.014
 5130.00    1.30711   1.22503    0.014
 5131.00    1.42952   1.23700    0.014
 5132.00    1.35464   1.25191    0.014
 5133.00    1.21078   1.26819    0.014
 5134.00    1.24140   1.28347    0.014
 5135.00    1.32345   1.29495    0.014
 5136.00    1.32415   1.30018    0.014
 5137.00    1.30499   1.29795    0.014
 5138.00    1.40037   1.28894    0.014
 5139.00    1.51839   1.27564    0.014
 5140.00    1.44768   1.26147    0.014
 5141.00    1.34786   1.24931    0.014
 5142.00    1.39468   1.24053    0.014
 5143.00    1.45820   1.23496    0.014
 5144.00    1.37792   1.23158    0.014
 5145.00    1.28666   1.22931    0.014
 5146.00    1.36095   1.22750    0.014
 5147.00    1.44205   1.22588    0.014
 5148.00    1.51257   1.22447    0.014
 5149.00    1.57770   1.22331    0.014
 5150.00    1.41975   1.22232    0.014
 5151.00    1.26858   1.22129    0.014
 5152.00    1.23497   1.22049    0.014
 5153.00    1.20472   1.22114    0.014
 5154.00    1.21022   1.22538    0.014
 5155.00    1.21879   1.23524    0.014
 5156.00    1.25045   1.25143    0.014
 5157.00    1.28855   1.27250    0.014
 5158.00    1.36361   1.29500    0.014
 5159.00    1.43266   1.31452    0.014
 5160.00    1.47436   1.32683    0.014
 5161.00    1.48297   1.32874    0.014
 5162.00    1.36809   1.31811    0.014
 5163.00    1.29146   1.29372    0.014
 5164.00    1.33420   1.25523    0.014
 5165.00    1.32458   1.20394    0.014
 5166.00    1.17631   1.14359    0.014
 5167.00    1.07552   1.08086    0.014
 5168.00    1.08267   1.02392    0.014
 5169.00    1.09284   0.97961    0.013
 5170.00    1.10897   0.95089    0.013
 5171.00    1.11106   0.93661    0.014
 5172.00    1.08908   0.93399    0.014
 5173.00    1.13400   0.94189    0.014
 5174.00    1.27949   0.96183    0.014
 5175.00    1.36662   0.99558    0.014
 5176.00    1.37666   1.04126    0.014
 5177.00    1.37287   1.09179    0.014
 5178.00    1.35299   1.13653    0.014
 5179.00    1.32503   1.16532    0.014
 5180.00    1.28878   1.17173    0.014
 5181.00    1.25269   1.15499    0.014
 5182.00    1.21674   1.12029    0.014
 5183.00    1.17107   1.07827    0.014
 5184.00    1.11764   1.04269    0.013
 5185.00    1.10255   1.02626    0.013
 5186.00    1.11437   1.03592    0.013
 5187.00    1.13887   1.06945    0.014
 5188.00    1.17119   1.11669    0.014
 5189.00    1.24742   1.16384    0.014
 5190.00    1.34725   1.19926    0.000
 5191.00    1.31043   1.21745    0.000
 5192.00    1.20981   1.21973    0.000
 5193.00    1.19683   1.21247    0.000
 5194.00    1.21911   1.20385    0.000
 5195.00    1.22285   1.20071    0.000
 5196.00    1.22023   1.20659    0.000
 5197.00    1.31681   1.22120    0.000
 5198.00    1.44204   1.24147    0.000
 5199.00    1.48246   1.26295    0.000
 5200.00    1.50262   1.28093    0.000
 5201.00    1.49736   1.29115    0.000
 5202.00    1.48721   1.29047    0.000
 5203.00    1.38636   1.27737    0.000
 5204.00    1.27195   1.25261    0.000
 5205.00    1.20866   1.21941    0.000
 5206.00    1.15096   1.18314    0.000
 5207.00    1.15600   1.15041    0.000
 5208.00    1.16558   1.12754    0.000
 5209.00    1.21058   1.11928    0.000
 5210.00    1.25691   1.12757    0.000
 5211.00    1.24854   1.15088    0.014
 5212.00    1.24079   1.18448    0.014
 5213.00    1.26437   1.22134    0.014
 5214.00    1.29167   1.25431    0.014
 5215.00    1.37925   1.27865    0.014
 5216.00    1.45982   1.29362    0.014
 5217.00    1.46909   1.30228    0.014
 5218.00    1.46071   1.30933    0.014
 5219.00    1.32386   1.31807    0.014
 5220.00    1.22399   1.32841    0.014
 5221.00    1.33008   1.33684    0.014
 5222.00    1.42206   1.33813    0.014
 5223.00    1.45119   1.32799    0.014
 5224.00    1.47861   1.30521    0.014
 5225.00    1.49982   1.27292    0.014
 5226.00    1.50243   1.23817    0.014
 5227.00    1.44815   1.20993    0.014
 5228.00    1.40049   1.19583    0.014
 5229.00    1.37007   1.19904    0.014
 5230.00    1.33390   1.21677    0.014
 5231.00    1.28488   1.24166    0.014
 5232.00    1.27859   1.26552    0.014
 5233.00    1.35514   1.28324    0.014
 5234.00    1.40584   1.29464    0.014
 5235.00    1.41284   1.30348    0.014
 5236.00    1.39099   1.31429    0.014
 5237.00    1.32641   1.32942    0.014
 5238.00    1.31930   1.34799    0.014
 5239.00    1.38701   1.36688    0.014
 5240.00    1.44063   1.38275    0.014
 5241.00    1.47809   1.39372    0.013
 5242.00    1.52802   1.39956    0.014
 5243.00    1.59056   1.40085    0.014
 5244.00    1.55579   1.39785    0.014
 5245.00    1.43420   1.39011    0.014
 5246.00    1.39936   1.37696    0.014
 5247.00    1.43274   1.35859    0.014
 5248.00    1.43094   1.33680    0.014
 5249.00    1.40483   1.31486    0.014
 5250.00    1.37534   1.29641    0.014
 5251.00    1.34380   1.28423    0.014
 5252.00    1.37872   1.27937    0.014
 5253.00    1.44880   1.28133    0.014
 5254.00    1.41604   1.28905    0.014
 5255.00    1.33603   1.30145    0.014
 5256.00    1.38531   1.31755    0.014
 5257.00    1.48570   1.33583    0.014
 5258.00    1.54809   1.35342    0.015
 5259.00    1.59769   1.36561    0.015
 5260.00    1.48255   1.36676    0.015
 5261.00    1.32077   1.35252    0.014
 5262.00    1.31075   1.32189    0.014
 5263.00    1.33616   1.27808    0.014
 5264.00    1.32392   1.22756    0.014
 5265.00    1.30462   1.17796    0.015
 5266.00    1.28752   1.13556    0.015
 5267.00    1.27074   1.10382    0.015
 5268.00    1.22996   1.08329    0.015
 5269.00    1.18665   1.07307    0.014
 5270.00    1.16418   1.07255    0.014
 5271.00    1.14313   1.08219    0.014
 5272.00    1.17422   1.10255    0.014
 5273.00    1.20705   1.13271    0.014
 5274.00    1.35111   1.16971    0.014
 5275.00    1.48873   1.20909    0.014
 5276.00    1.41595   1.24712    0.014
 5277.00    1.35034   1.28171    0.014
 5278.00    1.39379   1.31130    0.014
 5279.00    1.42867   1.33387    0.014
 5280.00    1.37994   1.34733    0.014
 5281.00    1.35064   1.35090    0.014
 5282.00    1.45810   1.34641    0.014
 5283.00    1.54316   1.33886    0.014
 5284.00    1.50673   1.33478    0.014
 5285.00    1.48077   1.33939    0.014
 5286.00    1.50031   1.35456    0.014
 5287.00    1.50987   1.37809    0.014
 5288.00    1.48377   1.40495    0.014
 5289.00    1.46320   1.42957    0.014
 5290.00    1.45923   1.44789    0.014
 5291.00    1.46127   1.45810    0.014
 5292.00    1.47864   1.45989    0.014
 5293.00    1.46826   1.45337    0.014
 5294.00    1.39686   1.43874    0.014
 5295.00    1.35071   1.41653    0.013
 5296.00    1.35274   1.38825    0.014
 5297.00    1.33906   1.35703    0.014
 5298.00    1.29923   1.32769    0.014
 5299.00    1.32169   1.30569    0.014
 5300.00    1.43506   1.29534    0.014
 5301.00    1.48975   1.29838    0.014
 5302.00    1.46914   1.31350    0.014
 5303.00    1.44937   1.33725    0.014
 5304.00    1.43055   1.36534    0.014
 5305.00    1.46176   1.39366    0.014
 5306.00    1.54283   1.41873    0.014
 5307.00    1.53395   1.43853    0.014
 5308.00    1.44593   1.45266    0.014
 5309.00    1.43206   1.46184    0.014
 5310.00    1.47564   1.46715    0.014
 5311.00    1.50621   1.46943    0.014
 5312.00    1.52792   1.46889    0.014
 5313.00    1.50715   1.46531    0.014
 5314.00    1.46100   1.45866    0.014
 5315.00    1.44316   1.44948    0.013
 5316.00    1.44005   1.43890    0.014
 5317.00    1.48848   1.42838    0.014
 5318.00    1.56018   1.41900    0.014
 5319.00    1.50662   1.41101    0.014
 5320.00    1.40438   1.40366    0.014
 5321.00    1.40271   1.39536    0.013
 5322.00    1.43430   1.38417    0.013
 5323.00    1.47406   1.36850    0.013
 5324.00    1.51609   1.34732    0.014
 5325.00    1.46538   1.32054    0.014
 5326.00    1.39352   1.28950    0.014
 5327.00    1.37625   1.25711    0.013
 5328.00    1.36895   1.22799    0.013
 5329.00    1.33439   1.20774    0.013
 5330.00    1.29601   1.20186    0.014
 5331.00    1.31078   1.21301    0.014
 5332.00    1.33092   1.23939    0.013
 5333.00    1.38693   1.27520    0.013
 5334.00    1.44525   1.31322    0.013
 5335.00    1.40611   1.34685    0.013
 5336.00    1.36424   1.37099    0.013
 5337.00    1.39107   1.38336    0.013
 5338.00    1.41780   1.38451    0.013
 5339.00    1.44159   1.37670    0.013
 5340.00    1.46726   1.36344    0.013
 5341.00    1.51997   1.34916    0.013
 5342.00    1.56367   1.33850    0.013
 5343.00    1.52302   1.33433    0.013
 5344.00    1.48614   1.33654    0.013
 5345.00    1.47493   1.34232    0.013
 5346.00    1.45965   1.34830    0.013
 5347.00    1.42291   1.35215    0.013
 5348.00    1.39195   1.35348    0.013
 5349.00    1.38554   1.35421    0.013
 5350.00    1.38058   1.35764    0.013
 5351.00    1.38068   1.36645    0.013
 5352.00    1.39016   1.38157    0.013
 5353.00    1.42727   1.40190    0.013
 5354.00    1.45115   1.42508    0.013
 5355.00    1.44176   1.44843    0.013
 5356.00    1.47231   1.46927    0.013
 5357.00    1.58931   1.48530    0.013
 5358.00    1.63251   1.49519    0.013
 5359.00    1.53705   1.49844    0.013
 5360.00    1.49418   1.49486    0.013
 5361.00    1.53755   1.48480    0.013
 5362.00    1.53214   1.46951    0.013
 5363.00    1.45657   1.45087    0.013
 5364.00    1.41183   1.43077    0.013
 5365.00    1.40608   1.41069    0.013
 5366.00    1.38410   1.39124    0.013
 5367.00    1.34402   1.37217    0.013
 5368.00    1.31391   1.35279   -2.000
 5369.00    1.29362   1.33271   -2.000
 5370.00    1.30995   1.31326   -2.000
 5371.00    1.35804   1.29785   -2.000
 5372.00    1.35711   1.29076   -2.000
 5373.00    1.31875   1.29541   -2.000
 5374.00    1.37664   1.31241   -2.000
 5375.00    1.49915   1.33870   -2.000
 5376.00    1.51932   1.36857   -2.000
 5377.00    1.47929   1.39571   -2.000
 5378.00    1.46607   1.41529   -2.000
 5379.00    1.46660   1.42549   -2.000
 5380.00    1.44276   1.42780   -2.000
 5381.00    1.40809   1.42490   -2.000
 5382.00    1.41941   1.41937   -2.000
 5383.00    1.44830   1.41335    0.013
 5384.00    1.45609   1.40811    0.013
 5385.00    1.45703   1.40422    0.013
 5386.00    1.42753   1.40154    0.013
 5387.00    1.38976   1.39872    0.013
 5388.00    1.37352   1.39382    0.013
 5389.00    1.36208   1.38556    0.013
 5390.00    1.35348   1.37357    0.013
 5391.00    1.34538   1.35864    0.013
 5392.00    1.35331   1.34258    0.013
 5393.00    1.36342   1.32694    0.013
 5394.00    1.44870   1.31241    0.013
 5395.00    1.54124   1.29930    0.013
 5396.00    1.57937   1.28796    0.013
 5397.00    1.61422   1.27918    0.013
 5398.00    1.51380   1.27433    0.013
 5399.00    1.41009   1.27457    0.013
 5400.00    1.34268   1.27951    0.013
 5401.00    1.27647   1.28633    0.012
 5402.00    1.24116   1.29113    0.013
 5403.00    1.21412   1.29024    0.013
 5404.00    1.29917   1.28093    0.013
 5405.00    1.37466   1.26432    0.013
 5406.00    1.36406   1.24554    0.013
 5407.00    1.35201   1.23020    0.013
 5408.00    1.33038   1.22234    0.013
 5409.00    1.32615   1.22420    0.013
 5410.00    1.41135   1.23574    0.013
 5411.00    1.47249   1.25464    0.013
 5412.00    1.43375   1.27775    0.013
 5413.00    1.40549   1.30230    0.013
 5414.00    1.41322   1.32671    0.013
 5415.00    1.42677   1.34995    0.013
 5416.00    1.45720   1.37031    0.013
 5417.00    1.48890   1.38576    0.013
 5418.00    1.52375   1.39554    0.013
 5419.00    1.52874   1.40008    0.013
 5420.00    1.47015   1.40008    0.013
 5421.00    1.45070   1.39627    0.013
 5422.00    1.50362   1.38979    0.013
 5423.00    1.48217   1.38255    0.013
 5424.00    1.34055   1.37651    0.013
 5425.00    1.27589   1.37249    0.013
 5426.00    1.32030   1.36993    0.013
 5427.00    1.35232   1.36688    0.013
 5428.00    1.36888   1.36119    0.013
 5429.00    1.37831   1.35190    0.013
 5430.00    1.37990   1.33892    0.013
 5431.00    1.41707   1.32302    0.013
 5432.00    1.48874   1.30653    0.013
 5433.00    1.49253   1.29265    0.013
 5434.00    1.43828   1.28440    0.013
 5435.00    1.41440   1.28330    0.013
 5436.00    1.41338   1.28911    0.013
 5437.00    1.41819   1.30202    0.013
 5438.00    1.42685   1.32284    0.013
 5439.00    1.41866   1.35010    0.013
 5440.00    1.40071   1.37951    0.013
 5441.00    1.44123   1.40548    0.012
 5442.00    1.51126   1.42287    0.012
 5443.00    1.52522   1.42823    0.012
 5444.00    1.51469   1.42072    0.013
 5445.00    1.48320   1.40243    0.013
 5446.00    1.44387   1.37794    0.013
 5447.00    1.40948   1.35314    0.012
 5448.00    1.37667   1.33377    0.012
 5449.00    1.39651   1.32375    0.012
 5450.00    1.43035   1.32369    0.012
 5451.00    1.44839   1.33054    0.012
 5452.00    1.46300   1.33864    0.012
 5453.00    1.42713   1.34184    0.012
 5454.00    1.38253   1.33748    0.012
 5455.00    1.37617   1.32789    0.012
 5456.00    1.37484   1.31809    0.012
 5457.00    1.37193   1.31272    0.012
 5458.00    1.36888   1.31405    0.012
 5459.00    1.45319   1.32138    0.013
 5460.00    1.54241   1.33174    0.013
 5461.00    1.48814   1.34065    0.013
 5462.00    1.43138   1.34418    0.012
 5463.00    1.44837   1.34211    0.013
 5464.00    1.46453   1.33762    0.013
 5465.00    1.46095   1.33458    0.013
 5466.00    1.45601   1.33498    0.013
 5467.00    1.43369   1.33870    0.013
 5468.00    1.41650   1.34411    0.013
 5469.00    1.44370   1.34824    0.013
 5470.00    1.45992   1.34849    0.013
 5471.00    1.40577   1.34442    0.013
 5472.00    1.36167   1.33645    0.012
 5473.00    1.36798   1.32484    0.013
 5474.00    1.37004   1.31062    0.013
 5475.00    1.35484   1.29563    0.013
 5476.00    1.34201   1.28142    0.013
 5477.00    1.33716   1.26948    0.013
 5478.00    1.32983   1.26203   -2.000
 5479.00    1.31546   1.26002   -2.000
 5480.00    1.31527   1.26280   -2.000
 5481.00    1.34947   1.27006   -2.000
 5482.00    1.36596   1.28067   -2.000
 5483.00    1.34536   1.29190   -2.000
 5484.00    1.26179   1.30232   -2.000
 5485.00    1.06354   1.31271   -2.000
 5486.00    1.01998   1.32332   -2.000
 5487.00    1.22267   1.33221   -2.000
 5488.00    0.91333   1.33740   -2.000
 5489.00   -0.11128   1.33890   -2.000
 5490.00   -0.16451   1.33814   -2.000
 5491.00    0.97646   1.33739   -2.000
 5492.00    1.74377   1.33846   -2.000
 5493.00    2.10614   1.34081   -2.000
 5494.00    2.07660   1.34266   -2.000
 5495.00    1.67245   1.34358   -2.000
 5496.00    1.53149   1.34359   -2.000
 5497.00    1.61238   1.34283   -2.000
 5498.00    1.58364   1.34227   -2.000
 5499.00    1.47355   1.34204   -2.000
 5500.00    1.38671   1.34088   -2.000
 5501.00    1.31503   1.33826   -2.000
 5502.00    1.29493   1.33466    0.012
 5503.00    1.30426   1.32955    0.012
 5504.00    1.34204   1.32230    0.012
 5505.00    1.39397   1.31466    0.012
 5506.00    1.43118   1.30910    0.012
 5507.00    1.46207   1.30602    0.012
 5508.00    1.41672   1.30445    0.012
 5509.00    1.34329   1.30327    0.012
 5510.00    1.36514   1.30167    0.012
 5511.00    1.41672   1.29945    0.012
 5512.00    1.42312   1.29567    0.012
 5513.00    1.41777   1.28986    0.012
 5514.00    1.42929   1.28464    0.012
 5515.00    1.44439   1.28335    0.012
 5516.00    1.45835   1.28810    0.012
 5517.00    1.47213   1.29966    0.012
 5518.00    1.46512   1.31623    0.012
 5519.00    1.45549   1.33455    0.012
 5520.00    1.50900   1.35152    0.012
 5521.00    1.56807   1.36486    0.012
 5522.00    1.54089   1.37308    0.012
 5523.00    1.50919   1.37511    0.012
 5524.00    1.45234   1.37122    0.012
 5525.00    1.39554   1.36280    0.012
 5526.00    1.37755   1.35116    0.012
 5527.00    1.36070   1.33781    0.012
 5528.00    1.36838   1.32484    0.012
 5529.00    1.38037   1.31471    0.012
 5530.00    1.44489   1.30946    0.012
 5531.00    1.50720   1.30975    0.012
 5532.00    1.55121   1.31481    0.012
 5533.00    1.58986   1.32257    0.012
 5534.00    1.59518   1.32953    0.012
 5535.00    1.60002   1.33355    0.012
 5536.00    1.60251   1.33560    0.012
 5537.00    1.59572   1.33775    0.012
 5538.00    1.55208   1.34126    0.012
 5539.00    1.51180   1.34664    0.012
 5540.00    1.48262   1.35352    0.012
 5541.00    1.45983   1.36022    0.012
 5542.00    1.45488   1.36537    0.012
 5543.00    1.45835   1.36848    0.012
 5544.00    1.48193   1.36927    0.012
 5545.00    1.50270   1.36831    0.012
 5546.00    1.51769   1.36739    0.012
 5547.00    1.50186   1.36868    0.012
 5548.00    1.43075   1.37311    0.012
 5549.00    1.39615   1.37957    0.012
 5550.00    1.41879   1.38633    0.012
 5551.00    1.42534   1.39189    0.012
 5552.00    1.40973   1.39437    0.012
 5553.00    1.40028   1.39268    0.012
 5554.00    1.39830   1.38760    0.012
 5555.00    1.39977   1.38076    0.012
 5556.00    1.40492   1.37367    0.012
 5557.00    1.38248   1.36769    0.012
 5558.00    1.33405   1.36360    0.012
 5559.00    1.35186   1.36084    0.012
 5560.00    1.42471   1.35793    0.012
 5561.00    1.46560   1.35386    0.012
 5562.00    1.48311   1.34856    0.012
 5563.00    1.48451   1.34199    0.012
 5564.00    1.47556   1.33426    0.012
 5565.00    1.44494   1.32616    0.012
 5566.00    1.40215   1.31874    0.012
 5567.00    1.38751   1.31290    0.012
 5568.00    1.38665   1.30879    0.012
 5569.00    1.38905   1.30608    0.012
 5570.00    1.39282   1.30508    0.012
 5571.00    1.33085   1.30584    0.012
 5572.00    1.24509   1.30769    0.012
 5573.00    1.20846   1.31054    0.012
 5574.00    1.18685   1.31471    0.012
 5575.00    1.21690   1.31953    0.012
 5576.00    1.26010   1.32488    0.012
 5577.00    1.32073   1.33163    0.012
 5578.00    1.38497   1.33868    0.012
 5579.00    1.41803   1.34393    0.012
 5580.00    1.44601   1.34706    0.012
 5581.00    1.43130   1.34785    0.012
 5582.00    1.41138   1.34526    0.012
 5583.00    1.36284   1.33865    0.012
 5584.00    1.31189   1.32735    0.012
 5585.00    1.30890   1.31110    0.012
 5586.00    1.30824   1.29115    0.012
 5587.00    1.27503   1.26934    0.012
 5588.00    1.24208   1.24799    0.012
 5589.00    1.25369   1.23040    0.012
 5590.00    1.26572   1.21986    0.012
 5591.00    1.28622   1.21825    0.012
 5592.00    1.30359   1.22486    0.012
 5593.00    1.28471   1.23699    0.012
 5594.00    1.27056   1.25134    0.012
 5595.00    1.29438   1.26494    0.012
 5596.00    1.31438   1.27602    0.013
 5597.00    1.31125   1.28374    0.012
 5598.00    1.31871   1.28766    0.012
 5599.00    1.37664   1.28724    0.013
 5600.00    1.42587   1.28191    0.013
 5601.00    1.44133   1.27382    0.013
 5602.00    1.44228   1.26798    0.013
 5603.00    1.39630   1.26802    0.012
 5604.00    1.36591   1.27494    0.012
 5605.00    1.37821   1.28884    0.012
 5606.00    1.39774   1.30872    0.012
 5607.00    1.43424   1.33172    0.012
 5608.00    1.44089   1.35340    0.012
 5609.00    1.38698   1.36989    0.012
 5610.00    1.36356   1.37949    0.012
 5611.00    1.39397   1.38202    0.012
 5612.00    1.43494   1.37784    0.012
 5613.00    1.49225   1.36740    0.012
 5614.00    1.50452   1.35164    0.012
 5615.00    1.45566   1.33222    0.012
 5616.00    1.42492   1.31153    0.012
 5617.00    1.41580   1.29270    0.012
 5618.00    1.40645   1.27971    0.012
 5619.00    1.39685   1.27604    0.012
 5620.00    1.39232   1.28031    0.012
 5621.00    1.39251   1.28675    0.011
 5622.00    1.39519   1.29113    0.011
 5623.00    1.39992   1.29272    0.011
 5624.00    1.37016   1.29198    0.011
 5625.00    1.31553   1.28944    0.011
 5626.00    1.29999   1.28640    0.011
 5627.00    1.30918   1.28578    0.011
 5628.00    1.34562   1.29104    0.011
 5629.00    1.39714   1.30267    0.011
 5630.00    1.37607   1.31710    0.011
 5631.00    1.32006   1.33057    0.011
 5632.00    1.32753   1.34100    0.011
 5633.00    1.36137   1.34658    0.012
 5634.00    1.37582   1.34632    0.012
 5635.00    1.38339   1.34085    0.012
 5636.00    1.41534   1.33184    0.012
 5637.00    1.45461   1.32126    0.012
 5638.00    1.46526   1.31098    0.012
 5639.00    1.46879   1.30222    0.012
 5640.00    1.46203   1.29584    0.012
 5641.00    1.45320   1.29245    0.012
 5642.00    1.46670   1.29163    0.012
 5643.00    1.48374   1.29222    0.012
 5644.00    1.42726   1.29404    0.012
 5645.00    1.36212   1.29793    0.012
 5646.00    1.39094   1.30352    0.012
 5647.00    1.42727   1.30938    0.012
 5648.00    1.37661   1.31487    0.012
 5649.00    1.32207   1.31963    0.012
 5650.00    1.38616   1.32336    0.012
 5651.00    1.45006   1.32582    0.012
 5652.00    1.43937   1.32679    0.012
 5653.00    1.42578   1.32622    0.012
 5654.00    1.35863   1.32363    0.011
 5655.00    1.29712   1.31770    0.011
 5656.00    1.29788   1.30753    0.011
 5657.00    1.30212   1.29387    0.011
 5658.00    1.33337   1.27951    0.011
 5659.00    1.34996   1.26699    0.011
 5660.00    1.28045   1.25663    0.011
 5661.00    1.22812   1.24979    0.011
 5662.00    1.25576   1.25009    0.011
 5663.00    1.28839   1.25699    0.011
 5664.00    1.34000   1.26573    0.011
 5665.00    1.38107   1.27422    0.011
 5666.00    1.38865   1.28329    0.011
 5667.00    1.38237   1.29229    0.011
 5668.00    1.33879   1.29932    0.011
 5669.00    1.32442   1.30395    0.011
 5670.00    1.37744   1.30784    0.011
 5671.00    1.40591   1.31343    0.011
 5672.00    1.38534   1.32160    0.011
 5673.00    1.34793   1.33148    0.011
 5674.00    1.28123   1.34195    0.011
 5675.00    1.28129   1.35202    0.012
 5676.00    1.38297   1.35992    0.012
 5677.00    1.42629   1.36381    0.012
 5678.00    1.39154   1.36371    0.012
 5679.00    1.34594   1.36082    0.012
 5680.00    1.28755   1.35528    0.012
 5681.00    1.26420   1.34672    0.012
 5682.00    1.27725   1.33649    0.012
 5683.00    1.30573   1.32634    0.012
 5684.00    1.34836   1.31662    0.011
 5685.00    1.37285   1.30780    0.011
 5686.00    1.38269   1.30176    0.011
 5687.00    1.41079   1.29927    0.011
 5688.00    1.45186   1.29906    0.012
 5689.00    1.44316   1.30043    0.012
 5690.00    1.40343   1.30444    0.012
 5691.00    1.35844   1.31211    0.012
 5692.00    1.31057   1.32254    0.011
 5693.00    1.30505   1.33328    0.011
 5694.00    1.31958   1.34182    0.011
 5695.00    1.32199   1.34686    0.011
 5696.00    1.31945   1.34731    0.011
 5697.00    1.29664   1.34304    0.011
 5698.00    1.26675   1.33529    0.011
 5699.00    1.28050   1.32520    0.011
 5700.00    1.30708   1.31321    0.011
 5701.00    1.31924   1.30060    0.011
 5702.00    1.32788   1.28981    0.011
 5703.00    1.39109   1.28116    0.011
 5704.00    1.46505   1.27359    0.011
 5705.00    1.43106   1.26721    0.011
 5706.00    1.38049   1.26126    0.011
 5707.00    1.34284   1.25367    0.011
 5708.00    1.30666   1.24354    0.011
 5709.00    1.28177   1.23262    0.011
 5710.00    1.25774   1.22426    0.011
 5711.00    1.30035   1.22066    0.011
 5712.00    1.34567   1.22337    0.011
 5713.00    1.33339   1.23330    0.011
 5714.00    1.32101   1.24840    0.011
 5715.00    1.32265   1.26699    0.011
 5716.00    1.32510   1.28781    0.011
 5717.00    1.34134   1.30740    0.011
 5718.00    1.35727   1.32385    0.011
 5719.00    1.36992   1.33769    0.011
 5720.00    1.38303   1.34914    0.011
 5721.00    1.39964   1.35875    0.011
 5722.00    1.41014   1.36693    0.011
 5723.00    1.38584   1.37291    0.011
 5724.00    1.36083   1.37625    0.011
 5725.00    1.33262   1.37680    0.011
 5726.00    1.31092   1.37411    0.011
 5727.00    1.31345   1.36873    0.011
 5728.00    1.32625   1.36198    0.011
 5729.00    1.37104   1.35504    0.011
 5730.00    1.40813   1.34969    0.011
 5731.00    1.42485   1.34769    0.011
 5732.00    1.43471   1.34808    0.011
 5733.00    1.42898   1.34881    0.011
 5734.00    1.41835   1.35016    0.011
 5735.00    1.39804   1.35363    0.011
 5736.00    1.36862   1.35838    0.011
 5737.00    1.32358   1.36184    0.011
 5738.00    1.30482   1.36298    0.011
 5739.00    1.32549   1.36230    0.011
 5740.00    1.35075   1.36071    0.000
 5741.00    1.38206   1.35913    0.000
 5742.00    1.39169   1.35795    0.000
 5743.00    1.37614   1.35723    0.000
 5744.00    1.38836   1.35694    0.000
 5745.00    1.42902   1.35686    0.000
 5746.00    1.45158   1.35708    0.000
 5747.00    1.45780   1.35741    0.000
 5748.00    1.43267   1.35649    0.000
 5749.00    1.38259   1.35292    0.000
 5750.00    1.34359   1.34694    0.000
 5751.00    1.31235   1.34064    0.000
 5752.00    1.31272   1.33564    0.000
 5753.00    1.33250   1.33108    0.000
 5754.00    1.33803   1.32604    0.000
 5755.00    1.33590   1.32180    0.000
 5756.00    1.33290   1.32070    0.000
 5757.00    1.32949   1.32391    0.000
 5758.00    1.33841   1.32996    0.000
 5759.00    1.35228   1.33502    0.000
 5760.00    1.40562   1.33612    0.000
 5761.00    1.47247   1.33316    0.000
 5762.00    1.47682   1.32791    0.000
 5763.00    1.46316   1.32323    0.000
 5764.00    1.43797   1.32200    0.000
 5765.00    1.41003   1.32598    0.000
 5766.00    1.41555   1.33542    0.000
 5767.00    1.42750   1.34798    0.000
 5768.00    1.46290   1.35928    0.000
 5769.00    1.50179   1.36680    0.000
 5770.00    1.46558   1.37041    0.000
 5771.00    1.42120   1.37037    0.000
 5772.00    1.44481   1.36750    0.000
 5773.00    1.47331   1.36308    0.000
 5774.00    1.44907   1.35812    0.000
 5775.00    1.42289   1.35330    0.000
 5776.00    1.37497   1.34875    0.000
 5777.00    1.32874   1.34350    0.000
 5778.00    1.34611   1.33675    0.000
 5779.00    1.35950   1.32755    0.000
 5780.00    1.30895   1.31458    0.000
 5781.00    1.26319   1.29785    0.000
 5782.00    1.26594   1.27891    0.000
 5783.00    1.27431   1.26051    0.000
 5784.00    1.32348   1.24662    0.000
 5785.00    1.36164   1.24016    0.000
 5786.00    1.33859   1.24041    0.000
 5787.00    1.31195   1.24542    0.000
 5788.00    1.26939   1.25489    0.000
 5789.00    1.23912   1.26848    0.000
 5790.00    1.25362   1.28338    0.000
 5791.00    1.26906   1.29673   -2.000
 5792.00    1.28733   1.30763   -2.000
 5793.00    1.28966   1.31618   -2.000
 5794.00    1.25060   1.32383   -2.000
 5795.00    1.22374   1.33158   -2.000
 5796.00    1.22411   1.33846   -2.000
 5797.00    1.23800   1.34381   -2.000
 5798.00    1.27804   1.34774   -2.000
 5799.00    1.33532   1.35043   -2.000
 5800.00    1.42171   1.35312   -2.000
 5801.00    1.44849   1.35764   -2.000
 5802.00    1.38715   1.36329   -2.000
 5803.00    1.35264   1.36694   -2.000
 5804.00    1.35302   1.36685   -2.000
 5805.00    1.37155   1.36335   -2.000
 5806.00    1.41085   1.35759   -2.000
 5807.00    1.42131   1.35188   -2.000
 5808.00    1.40263   1.34863   -2.000
 5809.00    1.38467   1.34829   -2.000
 5810.00    1.36736   1.34980   -2.000
 5811.00    1.34423   1.35195    0.000
 5812.00    1.31655   1.35382    0.000
 5813.00    1.31788   1.35471    0.000
 5814.00    1.33922   1.35400    0.000
 5815.00    1.34643   1.35184    0.000
 5816.00    1.34508   1.34920    0.000
 5817.00    1.33565   1.34718    0.000
 5818.00    1.32194   1.34719    0.000
 5819.00    1.32737   1.35068    0.000
 5820.00    1.34155   1.35760    0.000
 5821.00    1.35639   1.36560    0.000
 5822.00    1.37149   1.37224    0.000
 5823.00    1.38441   1.37674    0.000
 5824.00    1.39661   1.37924    0.000
 5825.00    1.39820   1.38021    0.000
 5826.00    1.39681   1.38057    0.000
 5827.00    1.39667   1.38102    0.000
 5828.00    1.39682   1.38154    0.000
 5829.00    1.38842   1.38175    0.000
 5830.00    1.37842   1.38161    0.000
 5831.00    1.40675   1.38119    0.000
 5832.00    1.44060   1.38008    0.000
 5833.00    1.43711   1.37774    0.000
 5834.00    1.42972   1.37442    0.000
 5835.00    1.37875   1.37081    0.000
 5836.00    1.32483   1.36728    0.000
 5837.00    1.37761   1.36459    0.000
 5838.00    1.43392   1.36389    0.000
 5839.00    1.39912   1.36508    0.000
 5840.00    1.36595   1.36703    0.000
 5841.00    1.38630   1.36975    0.000
 5842.00    1.40396   1.37344    0.000
 5843.00    1.38115   1.37671    0.000
 5844.00    1.35660   1.37780    0.000
 5845.00    1.31529   1.37604    0.000
 5846.00    1.28286   1.37151    0.000
 5847.00    1.31279   1.36470    0.000
 5848.00    1.34618   1.35635    0.000
 5849.00    1.39828   1.34729    0.000
 5850.00    1.43500   1.33851    0.000
 5851.00    1.40504   1.33050    0.000
 5852.00    1.37706   1.32256    0.000
 5853.00    1.35617   1.31361    0.000
 5854.00    1.33697   1.30328    0.000
 5855.00    1.32284   1.29249    0.000
 5856.00    1.31775   1.28311    0.000
 5857.00    1.33568   1.27617    0.000
 5858.00    1.35442   1.27076    0.000
 5859.00    1.37497   1.26658    0.000
 5860.00    1.37105   1.26566    0.000
 5861.00    1.32055   1.26960    0.000
 5862.00    1.28305   1.27691    0.000
 5863.00    1.26713   1.28471    0.000
 5864.00    1.25766   1.29123    0.000
 5865.00    1.25758   1.29649    0.000
 5866.00    1.27411   1.30148    0.000
 5867.00    1.31193   1.30614    0.000
 5868.00    1.33104   1.30986    0.000
 5869.00    1.32904   1.31349    0.000
 5870.00    1.31927   1.31857    0.000
 5871.00    1.30178   1.32465    0.000
 5872.00    1.29197   1.32983    0.000
 5873.00    1.28892   1.33296    0.000
 5874.00    1.29726   1.33379    0.000
 5875.00    1.31442   1.33262    0.000
 5876.00    1.34014   1.33011    0.000
 5877.00    1.37169   1.32642    0.000
 5878.00    1.37408   1.32095    0.000
 5879.00    1.35909   1.31382    0.000
 5880.00    1.31461   1.30593    0.000
 5881.00    1.25480   1.29790    0.000
 5882.00    1.22219   1.29005    0.000
 5883.00    1.20185   1.28278    0.000
 5884.00    1.18364   1.27485    0.000
 5885.00    1.16627   1.26251    0.000
 5886.00    1.15987   1.24297    0.000
 5887.00    1.15708   1.21636    0.000
 5888.00    1.13761   1.18318    0.000
 5889.00    1.11352   1.14403    0.000
 5890.00    1.12961   1.10103    0.000
 5891.00    1.15484   1.05837    0.000
 5892.00    1.16634   1.02430    0.000
 5893.00    1.17534   1.00765    0.000
 5894.00    1.20128   1.00710    0.000
 5895.00    1.22959   1.01412    0.000
 5896.00    1.20816   1.02368    0.000
 5897.00    1.18174   1.03483    0.000
 5898.00    1.18138   1.05088    0.000
 5899.00    1.18268   1.07770    0.000
 5900.00    1.24802   1.11352    0.000
 5901.00    1.31500   1.15019    0.011
 5902.00    1.29828   1.18365    0.011
 5903.00    1.28144   1.21318    0.011
 5904.00    1.26108   1.23717    0.011
 5905.00    1.24082   1.25497    0.011
 5906.00    1.22195   1.26743    0.011
 5907.00    1.20585   1.27556    0.011
 5908.00    1.21560   1.28090    0.011
 5909.00    1.22221   1.28515    0.011
 5910.00    1.20756   1.28838    0.010
 5911.00    1.19479   1.28965    0.010
 5912.00    1.19192   1.28874    0.010
 5913.00    1.19215   1.28617    0.010
 5914.00    1.20555   1.28206    0.010
 5915.00    1.22405   1.27629    0.010
 5916.00    1.26033   1.27037    0.010
 5917.00    1.29260   1.26688    0.010
 5918.00    1.31307   1.26690    0.010
 5919.00    1.31388   1.27010    0.010
 5920.00    1.26539   1.27530    0.010
 5921.00    1.23222   1.28101    0.010
 5922.00    1.23212   1.28650    0.010
 5923.00    1.23220   1.29098    0.010
 5924.00    1.23260   1.29389    0.010
 5925.00    1.23773   1.29578    0.010
 5926.00    1.25057   1.29690    0.010
 5927.00    1.27590   1.29693    0.011
 5928.00    1.31915   1.29588    0.011
 5929.00    1.32540   1.29358    0.011
 5930.00    1.28492   1.29006    0.011
 5931.00    1.26037   1.28622    0.011
 5932.00    1.25353   1.28351    0.011
 5933.00    1.26971   1.28317    0.011
 5934.00    1.30847   1.28457    0.011
 5935.00    1.31410   1.28582    0.011
 5936.00    1.29107   1.28619    0.011
 5937.00    1.26297   1.28700    0.011
 5938.00    1.23102   1.28939    0.010
 5939.00    1.22702   1.29205    0.010
 5940.00    1.24175   1.29361    0.010
 5941.00    1.23559   1.29413    0.010
 5942.00    1.21717   1.29345    0.010
 5943.00    1.21757   1.29192    0.010
 5944.00    1.22760   1.29110    0.010
 5945.00    1.25554   1.29163    0.010
 5946.00    1.29141   1.29274    0.010
 5947.00    1.27861   1.29356    0.010
 5948.00    1.24726   1.29306    0.010
 5949.00    1.24180   1.29040    0.010
 5950.00    1.24471   1.28593    0.010
 5951.00    1.28592   1.28137    0.010
 5952.00    1.33751   1.27846    0.010
 5953.00    1.33312   1.27659    0.010
 5954.00    1.31629   1.27406    0.010
 5955.00    1.30722   1.27160    0.010
 5956.00    1.29952   1.27146    0.010
 5957.00    1.30982   1.27324    0.010
 5958.00    1.32254   1.27516    0.010
 5959.00    1.36418   1.27767    0.010
 5960.00    1.40860   1.28223    0.011
 5961.00    1.36968   1.28873    0.011
 5962.00    1.32578   1.29579    0.011
 5963.00    1.31105   1.30201    0.011
 5964.00    1.29692   1.30653    0.011
 5965.00    1.26100   1.30926    0.011
 5966.00    1.22575   1.31084    0.011
 5967.00    1.20736   1.31168    0.011
 5968.00    1.19154   1.31270    0.011
 5969.00    1.21025   1.31511    0.010
 5970.00    1.22789   1.31831    0.010
 5971.00    1.23583   1.32097    0.010
 5972.00    1.24356   1.32238    0.010
 5973.00    1.24989   1.32187    0.010
 5974.00    1.25992   1.31886    0.010
 5975.00    1.28894   1.31355    0.010
 5976.00    1.31399   1.30645    0.010
 5977.00    1.32267   1.29831    0.010
 5978.00    1.32487   1.29061    0.010
 5979.00    1.30493   1.28486    0.010
 5980.00    1.28346   1.28127    0.010
 5981.00    1.25758   1.27936    0.010
 5982.00    1.23928   1.27830    0.010
 5983.00    1.23965   1.27651    0.010
 5984.00    1.24526   1.27320    0.010
 5985.00    1.26201   1.26879    0.010
 5986.00    1.27945   1.26508    0.010
 5987.00    1.29818   1.26466    0.010
 5988.00    1.28894   1.26781    0.010
 5989.00    1.23458   1.27248    0.010
 5990.00    1.19330   1.27792    0.010
 5991.00    1.17053   1.28403    0.010
 5992.00    1.18703   1.28973    0.010
 5993.00    1.25242   1.29374    0.010
 5994.00    1.29809   1.29638    0.010
 5995.00    1.32211   1.29846    0.010
 5996.00    1.31867   1.29912    0.011
 5997.00    1.28865   1.29739    0.011
 5998.00    1.27062   1.29335    0.010
 5999.00    1.26280   1.28802    0.010
 6000.00    1.28654   1.28339    0.010
 6001.00    1.33399   1.28051    0.010
 6002.00    1.39146   1.27865    0.010
 6003.00    1.45555   1.27650    0.010
 6004.00    1.46159   1.27290    0.010
 6005.00    1.43408   1.26876    0.010
 6006.00    1.38707   1.26586    0.010
 6007.00    1.33025   1.26343    0.010
 6008.00    1.32290   1.26014    0.010
 6009.00    1.33714   1.25644    0.010
 6010.00    1.32203   1.25399    0.010
 6011.00    1.29594   1.25507    0.010
 6012.00    1.26013   1.25861    0.010
 6013.00    1.22123   1.26071    0.010
 6014.00    1.23575   1.25994    0.010
 6015.00    1.26444   1.25787    0.010
 6016.00    1.28456   1.25636    0.010
 6017.00    1.30283   1.25516    0.010
 6018.00    1.30480   1.25267    0.010
 6019.00    1.30398   1.24982    0.010
 6020.00    1.30185   1.24822    0.010
 6021.00    1.29955   1.24732    0.010
 6022.00    1.27678   1.24698    0.010
 6023.00    1.25213   1.24853    0.010
 6024.00    1.25964   1.25237    0.010
 6025.00    1.26894   1.25796    0.010
 6026.00    1.26791   1.26465    0.010
 6027.00    1.26671   1.27242    0.010
 6028.00    1.27008   1.28036    0.010
 6029.00    1.27341   1.28764    0.010
 6030.00    1.27591   1.29500    0.010
 6031.00    1.28079   1.30207    0.010
 6032.00    1.31622   1.30777    0.010
 6033.00    1.35087   1.31219    0.010
 6034.00    1.37882   1.31616    0.010
 6035.00    1.39953   1.31942    0.010
 6036.00    1.37396   1.32141    0.010
 6037.00    1.34957   1.32207    0.010
 6038.00    1.33106   1.32181    0.010
 6039.00    1.31843   1.32100    0.010
 6040.00    1.32963   1.31980    0.010
 6041.00    1.33884   1.31826    0.010
 6042.00    1.34137   1.31714    0.010
 6043.00    1.33425   1.31730    0.010
 6044.00    1.29981   1.31876    0.010
 6045.00    1.26913   1.32165    0.010
 6046.00    1.24759   1.32531    0.010
 6047.00    1.24180   1.32862    0.010
 6048.00    1.26895   1.33122    0.010
 6049.00    1.28616   1.33279    0.010
 6050.00    1.28530   1.33280    0.010
 6051.00    1.28557   1.33133    0.010
 6052.00    1.28763   1.32876    0.010
 6053.00    1.28606   1.32477    0.010
 6054.00    1.27942   1.31924    0.010
 6055.00    1.28534   1.31307    0.010
 6056.00    1.30669   1.30753    0.010
 6057.00    1.32149   1.30325    0.010
 6058.00    1.32919   1.30007    0.010
 6059.00    1.33216   1.29846    0.010
 6060.00    1.33061   1.29821    0.010
 6061.00    1.31061   1.29825    0.010
 6062.00    1.27508   1.29718    0.010
 6063.00    1.24344   1.29460    0.010
 6064.00    1.21467   1.29106    0.010
 6065.00    1.19605   1.28762    0.010
 6066.00    1.18405   1.28534    0.010
 6067.00    1.18642   1.28533    0.010
 6068.00    1.19697   1.29019    0.010
 6069.00    1.20141   1.29989    0.010
 6070.00    1.20283   1.31073    0.010
 6071.00    1.23823   1.32037    0.010
 6072.00    1.28819   1.32826    0.010
 6073.00    1.33429   1.33405    0.010
 6074.00    1.37898   1.33702    0.010
 6075.00    1.35957   1.33647    0.010
 6076.00    1.32021   1.33263    0.010
 6077.00    1.27782   1.32624    0.010
 6078.00    1.23463   1.31772    0.010
 6079.00    1.22013   1.30755    0.010
 6080.00    1.21169   1.29677    0.010
 6081.00    1.23674   1.28747    0.010
 6082.00    1.26740   1.28067    0.010
 6083.00    1.30413   1.27485    0.010
 6084.00    1.34163   1.27009    0.010
 6085.00    1.31596   1.26823    0.010
 6086.00    1.28475   1.26829    0.010
 6087.00    1.29940   1.26817    0.010
 6088.00    1.31643   1.26797    0.010
 6089.00    1.27840   1.26825    0.010
 6090.00    1.23938   1.26830    0.010
 6091.00    1.20033   1.26710    0.010
 6092.00    1.16297   1.26538    0.010
 6093.00    1.16150   1.26542    0.010
 6094.00    1.16166   1.26741    0.010
 6095.00    1.18138   1.27032    0.010
 6096.00    1.20197   1.27454    0.010
 6097.00    1.22976   1.27929    0.010
 6098.00    1.25412   1.28154    0.010
 6099.00    1.25733   1.28005    0.010
 6100.00    1.25198   1.27636    0.010
 6101.00    1.20493   1.27165    0.010
 6102.00    1.16921   1.26541    0.010
 6103.00    1.17839   1.25658    0.010
 6104.00    1.19101   1.24644    0.010
 6105.00    1.21495   1.24120    0.010
 6106.00    1.23721   1.24491    0.010
 6107.00    1.25480   1.25266    0.010
 6108.00    1.27669   1.25972    0.010
 6109.00    1.30886   1.26589    0.010
 6110.00    1.33993   1.27257    0.010
 6111.00    1.36878   1.28023    0.010
 6112.00    1.38511   1.28612    0.010
 6113.00    1.37906   1.28836    0.010
 6114.00    1.36382   1.28961    0.010
 6115.00    1.33419   1.29146    0.010
 6116.00    1.31121   1.29191    0.010
 6117.00    1.29739   1.28873    0.010
 6118.00    1.28763   1.28175    0.010
 6119.00    1.28278   1.27351    0.010
 6120.00    1.28263   1.26523    0.010
 6121.00    1.28747   1.25559    0.010
 6122.00    1.28220   1.24522    0.010
 6123.00    1.26743   1.23630    0.010
 6124.00    1.26754   1.23088    0.010
 6125.00    1.27999   1.23199    0.010
 6126.00    1.29372   1.23764    0.010
 6127.00    1.30838   1.24299    0.010
 6128.00    1.30011   1.24761    0.010
 6129.00    1.27714   1.25237    0.010
 6130.00    1.25439   1.25706    0.010
 6131.00    1.23176   1.26112    0.010
 6132.00    1.22726   1.26304    0.010
 6133.00    1.23160   1.26069    0.010
 6134.00    1.24303   1.25340    0.010
 6135.00    1.25746   1.24282    0.011
 6136.00    1.27761   1.22980    0.011
 6137.00    1.29983   1.21473    0.011
 6138.00    1.27684   1.19950    0.011
 6139.00    1.24005   1.18949    0.010
 6140.00    1.23069   1.19110    0.010
 6141.00    1.22830   1.20215    0.010
 6142.00    1.22485   1.21468    0.011
 6143.00    1.22118   1.22538    0.011
 6144.00    1.20645   1.23679    0.010
 6145.00    1.18991   1.25034    0.010
 6146.00    1.22660   1.26170    0.010
 6147.00    1.26977   1.26720    0.010
 6148.00    1.27561   1.26820    0.010
 6149.00    1.27834   1.26698    0.010
 6150.00    1.27547   1.26423    0.010
 6151.00    1.27233   1.26024    0.010
 6152.00    1.25938   1.25625    0.010
 6153.00    1.24676   1.25360    0.010
 6154.00    1.26126   1.25201    0.010
 6155.00    1.27495   1.24973    0.010
 6156.00    1.27266   1.24507    0.010
 6157.00    1.26631   1.23821    0.010
 6158.00    1.21304   1.22915    0.010
 6159.00    1.16127   1.21645    0.010
 6160.00    1.12143   1.20028    0.010
 6161.00    1.08703   1.18221    0.010
 6162.00    1.08532   1.16250    0.010
 6163.00    1.08071   1.14262    0.010
 6164.00    1.06231   1.12822    0.010
 6165.00    1.05405   1.12307    0.010
 6166.00    1.08507   1.12502    0.010
 6167.00    1.11775   1.13002    0.010
 6168.00    1.15582   1.13644    0.010
 6169.00    1.19232   1.14435    0.010
 6170.00    1.22458   1.15098    0.010
 6171.00    1.24852   1.15452    0.010
 6172.00    1.25300   1.15932    0.010
 6173.00    1.24294   1.16835    0.010
 6174.00    1.20343   1.17819    0.010
 6175.00    1.17314   1.18599    0.010
 6176.00    1.15910   1.19334    0.010
 6177.00    1.15291   1.20114    0.010
 6178.00    1.15882   1.20822    0.010
 6179.00    1.15455   1.21428    0.010
 6180.00    1.13648   1.22011    0.010
 6181.00    1.12750   1.22505    0.010
 6182.00    1.12937   1.22829    0.010
 6183.00    1.15499   1.23066    0.010
 6184.00    1.20559   1.23169    0.010
 6185.00    1.22646   1.23002    0.010
 6186.00    1.21974   1.22554    0.010
 6187.00    1.19266   1.21817    0.010
 6188.00    1.14892   1.20752    0.010
 6189.00    1.13409   1.19586    0.010
 6190.00    1.14005   1.18589    0.010
 6191.00    1.15043   1.17810    0.010
 6192.00    1.16358   1.17181    0.010
 6193.00    1.16189   1.16781    0.010
 6194.00    1.15201   1.17050    0.010
 6195.00    1.16053   1.17976    0.010
 6196.00    1.17787   1.18941   -2.000
 6197.00    1.21696   1.19708   -2.000
 6198.00    1.26508   1.20377   -2.000
 6199.00    1.26412   1.20956   -2.000
 6200.00    1.24576   1.21255   -2.000
 6201.00    1.29237   1.21219   -2.000
 6202.00    1.35842   1.21222   -2.000
 6203.00    1.40681   1.21567   -2.000
 6204.00    1.45080   1.22093   -2.000
 6205.00    1.46841   1.22560   -2.000
 6206.00    1.48071   1.22915   -2.000
 6207.00    1.42130   1.23221   -2.000
 6208.00    1.35058   1.23443    0.010
 6209.00    1.28673   1.23394    0.010
 6210.00    1.22367   1.22964    0.010
 6211.00    1.18834   1.22184    0.010
 6212.00    1.15521   1.21123    0.010
 6213.00    1.16041   1.19895    0.010
 6214.00    1.16731   1.18574    0.009
 6215.00    1.17383   1.17179    0.010
 6216.00    1.18007   1.15914    0.010
 6217.00    1.17279   1.15009    0.010
 6218.00    1.16580   1.14541    0.010
 6219.00    1.16404   1.14465    0.010
 6220.00    1.16320   1.14523    0.010
 6221.00    1.17256   1.14570    0.010
 6222.00    1.18141   1.14779    0.010
 6223.00    1.18637   1.15232    0.010
 6224.00    1.19293   1.15770    0.010
 6225.00    1.20888   1.16157    0.010
 6226.00    1.22132   1.16282    0.010
 6227.00    1.21747   1.16241    0.010
 6228.00    1.20344   1.16043    0.010
 6229.00    1.15085   1.15632    0.010
 6230.00    1.10664   1.15040    0.010
 6231.00    1.08898   1.14325    0.010
 6232.00    1.08257   1.13702    0.010
 6233.00    1.10633   1.13536    0.010
 6234.00    1.11668   1.13922    0.010
 6235.00    1.09614   1.14613    0.010
 6236.00    1.08177   1.15421    0.009
 6237.00    1.07971   1.16113    0.009
 6238.00    1.07736   1.16505    0.009
 6239.00    1.07451   1.16502    0.009
 6240.00    1.07481   1.16071    0.009
 6241.00    1.07987   1.15346    0.009
 6242.00    1.09135   1.14528    0.010
 6243.00    1.11139   1.13823    0.010
 6244.00    1.11670   1.13243    0.010
 6245.00    1.10468   1.12819    0.010
 6246.00    1.10757   1.12803    0.010
 6247.00    1.12592   1.13138    0.010
 6248.00    1.14905   1.13598    0.010
 6249.00    1.17656   1.14125    0.010
 6250.00    1.17911   1.14582    0.010
 6251.00    1.16154   1.14763    0.010
 6252.00    1.14009   1.14559    0.010
 6253.00    1.11587   1.13918    0.010
 6254.00    1.12475   1.12946    0.010
 6255.00    1.15423   1.11924    0.010
 6256.00    1.17249   1.11055    0.010
 6257.00    1.18466   1.10391    0.010
 6258.00    1.19354   1.09894    0.010
 6259.00    1.20085   1.09688    0.010
 6260.00    1.18696   1.09972    0.011
 6261.00    1.16442   1.10790    0.012
 6262.00    1.09877   1.11918    0.012
 6263.00    1.01810   1.13066    0.012
 6264.00    1.05491   1.14253    0.012
 6265.00    1.12618   1.15377    0.012
 6266.00    1.19834   1.16141    0.011
 6267.00    1.27072   1.16545    0.011
 6268.00    1.25596   1.16894    0.010
 6269.00    1.22409   1.17255    0.010
 6270.00    1.20969   1.17450    0.010
 6271.00    1.19796   1.17506    0.010
 6272.00    1.18126   1.17643    0.010
 6273.00    1.16400   1.17931    0.010
 6274.00    1.15856   1.18239    0.010
 6275.00    1.15401   1.18446    0.010
 6276.00    1.17480   1.18511    0.010
 6277.00    1.19661   1.18485    0.010
 6278.00    1.16278   1.18381    0.010
 6279.00    1.12864   1.18183    0.010
 6280.00    1.09861   1.17924    0.000
 6281.00    1.07052   1.17641    0.000
 6282.00    1.07555   1.17407    0.000
 6283.00    1.08067   1.17424    0.000
 6284.00    1.08685   1.17757    0.000
 6285.00    1.09332   1.18296    0.000
 6286.00    1.10205   1.18921    0.000
 6287.00    1.10871   1.19506    0.000
 6288.00    1.10363   1.20088    0.000
 6289.00    1.09580   1.20613    0.000
 6290.00    1.07553   1.20932    0.000
 6291.00    1.05841   1.20963    0.000
 6292.00    1.05302   1.20697    0.000
 6293.00    1.05593   1.20217    0.000
 6294.00    1.08465   1.19637    0.000
 6295.00    1.11985   1.19032    0.000
 6296.00    1.17210   1.18454    0.000
 6297.00    1.20522   1.17808    0.000
 6298.00    1.19501   1.17034    0.000
 6299.00    1.18017   1.16354    0.000
 6300.00    1.15626   1.15982    0.000
 6301.00    1.14202   1.15824    0.000
 6302.00    1.14431   1.15656    0.000
 6303.00    1.15343   1.15533    0.000
 6304.00    1.17277   1.15765    0.000
 6305.00    1.17803   1.16406    0.000
 6306.00    1.16473   1.17157    0.000
 6307.00    1.14393   1.17800    0.000
 6308.00    1.11445   1.18423    0.000
 6309.00    1.11024   1.19081    0.000
 6310.00    1.13189   1.19533    0.000
 6311.00    1.14573   1.19557    0.000
 6312.00    1.15253   1.19190    0.000
 6313.00    1.13643   1.18660    0.000
 6314.00    1.10214   1.18078    0.000
 6315.00    1.07694   1.17354    0.000
 6316.00    1.05810   1.16474    0.000
 6317.00    1.05374   1.15706    0.000
 6318.00    1.05825   1.15289    0.000
 6319.00    1.09055   1.15043    0.000
 6320.00    1.13772   1.14897    0.000
 6321.00    1.16846   1.15174    0.010
 6322.00    1.19157   1.15882    0.010
 6323.00    1.18955   1.16676    0.010
 6324.00    1.17746   1.17400    0.010
 6325.00    1.17610   1.18229    0.010
 6326.00    1.17839   1.19133    0.010
 6327.00    1.17992   1.19815    0.010
 6328.00    1.18122   1.20231    0.010
 6329.00    1.17849   1.20521    0.010
 6330.00    1.17480   1.20790    0.010
 6331.00    1.15797   1.20882    0.010
 6332.00    1.13864   1.20647    0.010
 6333.00    1.13439   1.20284    0.010
 6334.00    1.13238   1.19952    0.010
 6335.00    1.16801   1.19515    0.010
 6336.00    1.20771   1.18800    0.009
 6337.00    1.21383   1.18001    0.010
 6338.00    1.21755   1.17531    0.010
 6339.00    1.17148   1.17453    0.009
 6340.00    1.12360   1.17482    0.009
 6341.00    1.11927   1.17508    0.009
 6342.00    1.11626   1.17719    0.009
 6343.00    1.15400   1.18029    0.009
 6344.00    1.18897   1.18160    0.009
 6345.00    1.17991   1.18127    0.009
 6346.00    1.16884   1.18188    0.009
 6347.00    1.13749   1.18495    0.009
 6348.00    1.11208   1.18892    0.009
 6349.00    1.12959   1.19277    0.009
 6350.00    1.14142   1.19686    0.010
 6351.00    1.12178   1.20036    0.010
 6352.00    1.10595   1.20184    0.010
 6353.00    1.10703   1.20105    0.010
 6354.00    1.11051   1.19788    0.010
 6355.00    1.12277   1.19132    0.010
 6356.00    1.12879   1.18183    0.010
 6357.00    1.11578   1.17198    0.010
 6358.00    1.11160   1.16285    0.009
 6359.00    1.13026   1.15261    0.010
 6360.00    1.15350   1.14125    0.010
 6361.00    1.18691   1.13230    0.010
 6362.00    1.22486   1.12728    0.010
 6363.00    1.27156   1.12443    0.010
 6364.00    1.28422   1.12380    0.010
 6365.00    1.23956   1.12770    0.010
 6366.00    1.18753   1.13598    0.010
 6367.00    1.12463   1.14620    0.010
 6368.00    1.09028   1.15724    0.010
 6369.00    1.09295   1.16939    0.010
 6370.00    1.11460   1.18161    0.010
 6371.00    1.15794   1.19168    0.010
 6372.00    1.17294   1.19950    0.010
 6373.00    1.15936   1.20654    0.010
 6374.00    1.14050   1.21277    0.010
 6375.00    1.11695   1.21644    0.010
 6376.00    1.11010   1.21722    0.010
 6377.00    1.11633   1.21670    0.010
 6378.00    1.12911   1.21547    0.010
 6379.00    1.14642   1.21289    0.010
 6380.00    1.16970   1.20892    0.010
 6381.00    1.19660   1.20520    0.010
 6382.00    1.19832   1.20279    0.010
 6383.00    1.18677   1.20182    0.010
 6384.00    1.16800   1.20216    0.009
 6385.00    1.14592   1.20300    0.009
 6386.00    1.15519   1.20389    0.010
 6387.00    1.17680   1.20543    0.010
 6388.00    1.17904   1.20737    0.010
 6389.00    1.17479   1.20757    0.009
 6390.00    1.15800   1.20497    0.009
 6391.00    1.13768   1.20108    0.009
 6392.00    1.13351   1.19711    0.009
 6393.00    1.13310   1.19214    0.010
 6394.00    1.14327   1.18568    0.010
 6395.00    1.15541   1.17995    0.010
 6396.00    1.14068   1.17759    0.010
 6397.00    1.12209   1.17744    0.010
 6398.00    1.11200   1.17756    0.010
 6399.00    1.10279   1.17800    0.010
 6400.00    1.11132   1.17844    0.010
 6401.00    1.12104   1.17790    0.010
 6402.00    1.12059   1.17849    0.010
 6403.00    1.11981   1.18328    0.010
 6404.00    1.10696   1.18917    0.010
 6405.00    1.09468   1.19251    0.010
 6406.00    1.10010   1.19496    0.010
 6407.00    1.10549   1.19762    0.010
 6408.00    1.11039   1.19764    0.010
 6409.00    1.11354   1.19388    0.010
 6410.00    1.09982   1.18999    0.010
 6411.00    1.08817   1.18795    0.010
 6412.00    1.09105   1.18541    0.010
 6413.00    1.09734   1.18207    0.009
 6414.00    1.12193   1.18122    0.009
 6415.00    1.14128   1.18314    0.009
 6416.00    1.13795   1.18438    0.009
 6417.00    1.13087   1.18401    0.010
 6418.00    1.11047   1.18354    0.009
 6419.00    1.10228   1.18302    0.009
 6420.00    1.13054   1.18183    0.010
 6421.00    1.15429   1.17999    0.010
 6422.00    1.16652   1.17877    0.010
 6423.00    1.16731   1.18044    0.010
 6424.00    1.14300   1.18598    0.010
 6425.00    1.12414   1.19290    0.010
 6426.00    1.11564   1.19818    0.010
 6427.00    1.10536   1.20188    0.010
 6428.00    1.09211   1.20467    0.010
 6429.00    1.07987   1.20559    0.010
 6430.00    1.06908   1.20322    0.010
 6431.00    1.07460   1.19782    0.010
 6432.00    1.10097   1.19162    0.010
 6433.00    1.11114   1.18801    0.010
 6434.00    1.10306   1.18790    0.010
 6435.00    1.09595   1.18858    0.010
 6436.00    1.08980   1.18859    0.009
 6437.00    1.10794   1.18976    0.009
 6438.00    1.14737   1.19257    0.009
 6439.00    1.18678   1.19419    0.010
 6440.00    1.22617   1.19398    0.010
 6441.00    1.23525   1.19564    0.010
 6442.00    1.22375   1.20145    0.010
 6443.00    1.20748   1.20830    0.010
 6444.00    1.18837   1.21333    0.010
 6445.00    1.18722   1.21691    0.010
 6446.00    1.19539   1.21855    0.010
 6447.00    1.19608   1.21625    0.010
 6448.00    1.19340   1.21006    0.010
 6449.00    1.18064   1.20112    0.010
 6450.00    1.16397   1.18951    0.010
 6451.00    1.15157   1.17717    0.010
 6452.00    1.14057   1.16896    0.010
 6453.00    1.10730   1.16725    0.010
 6454.00    1.06789   1.16929    0.010
 6455.00    1.05411   1.17291    0.010
 6456.00    1.04613   1.17807    0.009
 6457.00    1.05989   1.18468    0.009
 6458.00    1.07758   1.19141    0.010
 6459.00    1.08041   1.19649    0.010
 6460.00    1.08117   1.19865    0.010
 6461.00    1.11470   1.19845    0.009
 6462.00    1.15149   1.19691    0.009
 6463.00    1.15359   1.19334    0.009
 6464.00    1.15350   1.18858    0.010
 6465.00    1.14560   1.18684    0.010
 6466.00    1.13758   1.18895    0.010
 6467.00    1.15854   1.19144    0.009
 6468.00    1.17945   1.19344    0.009
 6469.00    1.19915   1.19664    0.010
 6470.00    1.21755   1.20044    0.010
 6471.00    1.21765   1.20197    0.010
 6472.00    1.21615   1.20111    0.010
 6473.00    1.19979   1.19955    0.010
 6474.00    1.18062   1.19899    0.010
 6475.00    1.14239   1.19892    0.010
 6476.00    1.11253   1.19793    0.010
 6477.00    1.12659   1.19675    0.010
 6478.00    1.13983   1.19662    0.010
 6479.00    1.14965   1.19608    0.010
 6480.00    1.15724   1.19316    0.010
 6481.00    1.15707   1.18926    0.009
 6482.00    1.15036   1.18532    0.009
 6483.00    1.12444   1.18051    0.009
 6484.00    1.11247   1.17606    0.009
 6485.00    1.13543   1.17465    0.010
 6486.00    1.16235   1.17559    0.010
 6487.00    1.19782   1.17623    0.009
 6488.00    1.20621   1.17615    0.009
 6489.00    1.16392   1.17564    0.009
 6490.00    1.11599   1.17241    0.009
 6491.00    1.05884   1.16350    0.009
 6492.00    1.01251   1.14929    0.010
 6493.00    0.98171   1.13246    0.009
 6494.00    0.96352   1.11389    0.009
 6495.00    0.96123   1.09332    0.009
 6496.00    0.98125   1.07386    0.010
 6497.00    1.02605   1.06104    0.010
 6498.00    1.05652   1.05663    0.010
 6499.00    1.07293   1.05862    0.010
 6500.00    1.07658   1.06572    0.010
 6501.00    1.06920   1.07833    0.010
 6502.00    1.06227   1.09567    0.010
 6503.00    1.05567   1.11430    0.010
 6504.00    1.06588   1.13130    0.010
 6505.00    1.08734   1.14568    0.010
 6506.00    1.09402   1.15787    0.010
 6507.00    1.09203   1.16783    0.010
 6508.00    1.07827   1.17488    0.009
 6509.00    1.05850   1.17895    0.009
 6510.00    1.07798   1.18099    0.009
 6511.00    1.11483   1.18255    0.009
 6512.00    1.13247   1.18354    0.009
 6513.00    1.14282   1.18295    0.009
 6514.00    1.13696   1.18099    0.009
 6515.00    1.12587   1.17848    0.009
 6516.00    1.10962   1.17515    0.009
 6517.00    1.09199   1.17120    0.009
 6518.00    1.09710   1.16780    0.010
 6519.00    1.10725   1.16549    0.010
 6520.00    1.08901   1.16427    0.010
 6521.00    1.06576   1.16536    0.010
 6522.00    1.07380   1.16889    0.010
 6523.00    1.08605   1.17272    0.010
 6524.00    1.09624   1.17542    0.010
 6525.00    1.10622   1.17794    0.010
 6526.00    1.11891   1.18047    0.010
 6527.00    1.13175   1.18123    0.010
 6528.00    1.13532   1.17966    0.000
 6529.00    1.13862   1.17777    0.000
 6530.00    1.13735   1.17698    0.000
 6531.00    1.13548   1.17646    0.000
 6532.00    1.11865   1.17547    0.000
 6533.00    1.10324   1.17466    0.000
 6534.00    1.10680   1.17474    0.000
 6535.00    1.11131   1.17592    0.000
 6536.00    1.12428   1.17834    0.000
 6537.00    1.13006   1.18140    0.000
 6538.00    1.08863   1.18392    0.000
 6539.00    1.05513   1.18578    0.000
 6540.00    1.06219   1.18773    0.000
 6541.00    1.07461   1.18902    0.000
 6542.00    1.10912   1.18775    0.000
 6543.00    1.13655   1.18336    0.000
 6544.00    1.13976   1.17754    0.000
 6545.00    1.14002   1.17167    0.000
 6546.00    1.13178   1.16532    0.000
 6547.00    1.11940   1.15802    0.000
 6548.00    1.09687   1.15157    0.000
 6549.00    1.08470   1.14802    0.000
 6550.00    1.09448   1.14613    0.000
 6551.00    1.11676   1.14356    0.000
 6552.00    1.16207   1.13992    0.000
 6553.00    1.17293   1.13625    0.000
 6554.00    1.12834   1.13228    0.000
 6555.00    1.07698   1.12641    0.000
 6556.00    1.01607   1.11804    0.000
 6557.00    0.99645   1.10854    0.000
 6558.00    1.02817   1.09838    0.000
 6559.00    1.06797   1.08465    0.000
 6560.00    1.11665   1.06567    0.000
 6561.00    1.17407   1.04548    0.000
 6562.00    1.23995   1.02703    0.000
 6563.00    1.28067   1.00755    0.000
 6564.00    1.29995   0.98967    0.000
 6565.00    1.27639   0.98468    0.000
 6566.00    1.22068   0.99483    0.000
 6567.00    1.18218   1.01037    0.000
 6568.00    1.15502   1.02765    0.000
 6569.00    1.11738   1.04931    0.000
 6570.00    1.07368   1.07129    0.000
 6571.00    1.06805   1.08703    0.000
 6572.00    1.08156   1.09689    0.000
 6573.00    1.09600   1.10317    0.000
 6574.00    1.11084   1.10640    0.000
 6575.00    1.08354   1.10822    0.000
 6576.00    1.04050   1.11110    0.000
 6577.00    1.03225   1.11577    0.000
 6578.00    1.03502   1.12154    0.000
 6579.00    1.09664   1.12755    0.000
 6580.00    1.17383   1.13338    0.000
 6581.00    1.20783   1.13845    0.000
 6582.00    1.23250   1.14211    0.000
 6583.00    1.24425   1.14467    0.000
 6584.00    1.25377   1.14707    0.000
 6585.00    1.26724   1.14921    0.000
 6586.00    1.28122   1.15055    0.000
 6587.00    1.23378   1.15135    0.000
 6588.00    1.18073   1.15219    0.000
 6589.00    1.16467   1.15224    0.000
 6590.00    1.15066   1.14968    0.000
 6591.00    1.14061   1.14475    0.000
 6592.00    1.13069   1.13912    0.000
 6593.00    1.12512   1.13244    0.000
 6594.00    1.11834   1.12416    0.000
 6595.00    1.08373   1.11753    0.000
 6596.00    1.05076   1.11563    0.000
 6597.00    1.03843   1.11685    0.000
 6598.00    1.02854   1.11910    0.000
 6599.00    1.03952   1.12310    0.000
 6600.00    1.05127   1.12927    0.000
 6601.00    1.06789   1.13598    0.000
 6602.00    1.07922   1.14128    0.000
 6603.00    1.06425   1.14431    0.000
 6604.00    1.05427   1.14527    0.000
 6605.00    1.06442   1.14427    0.000
 6606.00    1.06524   1.14114    0.000
 6607.00    1.03480   1.13671    0.000
 6608.00    1.01067   1.13257    0.000
 6609.00    1.00440   1.12907    0.010
 6610.00    1.01054   1.12610    0.010
 6611.00    1.04664   1.12545    0.010
 6612.00    1.07523   1.12872    0.010
 6613.00    1.08817   1.13392    0.010
 6614.00    1.09428   1.13844    0.010
 6615.00    1.08802   1.14299    0.010
 6616.00    1.07851   1.14909    0.010
 6617.00    1.06385   1.15500    0.010
 6618.00    1.05947   1.15844    0.010
 6619.00    1.06940   1.16021    0.010
 6620.00    1.06267   1.16179    0.010
 6621.00    1.03554   1.16230    0.010
 6622.00    1.01670   1.16063    0.009
 6623.00    1.00682   1.15759    0.009
 6624.00    1.00746   1.15396    0.009
 6625.00    1.01812   1.14926    0.009
 6626.00    1.03496   1.14400    0.009
 6627.00    1.05697   1.13988    0.009
 6628.00    1.07577   1.13692    0.009
 6629.00    1.09219   1.13374    0.010
 6630.00    1.08810   1.13022    0.010
 6631.00    1.07069   1.12695    0.010
 6632.00    1.05407   1.12385    0.010
 6633.00    1.03789   1.12059    0.010
 6634.00    1.04031   1.11712    0.010
 6635.00    1.05194   1.11432    0.010
 6636.00    1.05001   1.11364    0.010
 6637.00    1.04229   1.11514    0.010
 6638.00    1.03763   1.11766    0.010
 6639.00    1.03410   1.12058    0.010
 6640.00    1.03744   1.12313    0.010
 6641.00    1.04291   1.12466    0.010
 6642.00    1.05925   1.12595    0.010
 6643.00    1.07841   1.12683    0.010
 6644.00    1.09428   1.12548    0.010
 6645.00    1.10945   1.12316    0.010
 6646.00    1.09614   1.12313    0.009
 6647.00    1.07808   1.12460    0.009
 6648.00    1.06080   1.12492    0.009
 6649.00    1.04362   1.12510    0.009
 6650.00    1.04437   1.12699    0.009
 6651.00    1.04669   1.12919    0.009
 6652.00    1.02282   1.12998    0.009
 6653.00    0.99762   1.13006    0.009
 6654.00    0.98804   1.13029    0.010
 6655.00    0.97912   1.13034    0.010
 6656.00    0.99643   1.12992    0.010
 6657.00    1.01401   1.12893    0.010
 6658.00    1.03725   1.12733    0.010
 6659.00    1.05924   1.12533    0.010
 6660.00    1.06623   1.12246    0.011
 6661.00    1.06637   1.11818    0.011
 6662.00    1.00994   1.11341    0.011
 6663.00    0.96493   1.10881    0.011
 6664.00    0.99039   1.10368    0.011
 6665.00    1.01606   1.09915    0.011
 6666.00    1.04274   1.09747    0.010
 6667.00    1.06125   1.09794    0.010
 6668.00    1.04750   1.09911    0.010
 6669.00    1.04068   1.10195    0.009
 6670.00    1.05659   1.10700    0.009
 6671.00    1.06950   1.11243    0.010
 6672.00    1.07410   1.11682    0.010
 6673.00    1.07078   1.12006    0.010
 6674.00    1.04866   1.12160    0.009
 6675.00    1.03123   1.12047    0.009
 6676.00    1.02343   1.11730    0.010
 6677.00    1.02524   1.11325    0.010
 6678.00    1.04424   1.10765    0.010
 6679.00    1.03850   1.10086    0.010
 6680.00    0.99409   1.09666    0.010
 6681.00    0.96087   1.09648    0.010
 6682.00    0.94299   1.09738    0.010
 6683.00    0.94771   1.09883    0.010
 6684.00    0.97973   1.10299    0.010
 6685.00    1.00504   1.10864    0.010
 6686.00    1.02322   1.11299    0.010
 6687.00    1.02943   1.11609    0.010
 6688.00    1.02439   1.11867    0.010
 6689.00    1.00549   1.12027    0.010
 6690.00    0.97509   1.12084    0.009
 6691.00    0.97475   1.12086    0.009
 6692.00    0.99631   1.12012    0.009
 6693.00    0.99127   1.11819    0.009
 6694.00    0.96922   1.11556    0.009
 6695.00    0.96201   1.11279    0.009
 6696.00    0.96312   1.10949    0.000
 6697.00    0.95748   1.10555    0.000
 6698.00    0.94856   1.10251    0.000
 6699.00    0.98097   1.10112    0.000
 6700.00    1.03077   1.10051    0.000
 6701.00    1.05964   1.10041    0.000
 6702.00    1.08096   1.10126    0.000
 6703.00    1.04940   1.10243    0.000
 6704.00    1.00173   1.10297    0.000
 6705.00    0.99236   1.10287    0.000
 6706.00    0.99268   1.10270    0.000
 6707.00    0.96904   1.10264    0.000
 6708.00    0.94047   1.10216    0.000
 6709.00    0.98172   1.10129    0.000
 6710.00    1.03427   1.10017    0.000
 6711.00    1.04949   1.09813    0.000
 6712.00    1.06020   1.09503    0.000
 6713.00    1.06851   1.09113    0.000
 6714.00    1.07662   1.08590    0.000
 6715.00    1.07316   1.07953    0.000
 6716.00    1.06915   1.07383    0.000
 6717.00    1.05060   1.06933    0.000
 6718.00    1.03206   1.06532    0.000
 6719.00    1.02574   1.06300    0.000
 6720.00    1.01893   1.06425    0.000
 6721.00    1.00270   1.06798    0.000
 6722.00    0.99014   1.07183    0.000
 6723.00    1.01973   1.07591    0.000
 6724.00    1.04490   1.08112    0.000
 6725.00    1.03484   1.08610    0.000
 6726.00    1.02825   1.08912    0.000
 6727.00    1.04248   1.09073    0.000
 6728.00    1.05594   1.09267    0.000
 6729.00    1.06577   1.09478    0.000
 6730.00    1.07143   1.09606    0.000
 6731.00    1.06098   1.09686    0.000
 6732.00    1.05652   1.09804    0.000
 6733.00    1.07130   1.09896    0.000
 6734.00    1.08686   1.09888    0.000
 6735.00    1.10451   1.09803    0.000
 6736.00    1.10549   1.09668    0.000
 6737.00    1.06750   1.09482    0.000
 6738.00    1.02353   1.09243    0.000
 6739.00    0.96748   1.08945    0.000
 6740.00    0.93342   1.08608    0.000
 6741.00    0.93806   1.08335    0.000
 6742.00    0.95416   1.08158    0.000
 6743.00    0.98794   1.07961    0.000
 6744.00    1.00419   1.07731    0.000
 6745.00    0.99677   1.07621    0.000
 6746.00    1.00027   1.07601    0.000
 6747.00    1.01676   1.07473    0.000
 6748.00    1.01951   1.07282    0.000
 6749.00    1.00781   1.07181    0.000
 6750.00    1.00339   1.07086    0.000
 6751.00    1.00570   1.06927    0.000
 6752.00    1.00872   1.06889    0.000
 6753.00    1.01232   1.06989    0.011
 6754.00    1.00968   1.07117    0.011
 6755.00    1.00256   1.07371    0.011
 6756.00    0.98181   1.07823    0.011
 6757.00    0.95247   1.08314    0.011
 6758.00    0.96912   1.08795    0.011
 6759.00    1.01112   1.09324    0.011
 6760.00    1.07832   1.09791    0.011
 6761.00    1.15760   1.10125    0.012
 6762.00    1.18520   1.10337    0.012
 6763.00    1.19142   1.10394    0.012
 6764.00    1.17585   1.10274    0.012
 6765.00    1.15257   1.10030    0.012
 6766.00    1.12625   1.09708    0.012
 6767.00    1.09903   1.09308    0.012
 6768.00    1.13582   1.08843    0.012
 6769.00    1.18847   1.08433    0.012
 6770.00    1.15745   1.08213    0.011
 6771.00    1.10965   1.08120    0.011
 6772.00    1.13346   1.08084    0.011
 6773.00    1.16852   1.08242    0.011
 6774.00    1.10416   1.08652    0.011
 6775.00    1.02820   1.09116    0.010
 6776.00    1.02465   1.09544    0.010
 6777.00    1.02681   1.09992    0.010
 6778.00    1.02394   1.10376    0.011
 6779.00    1.02086   1.10577    0.011
 6780.00    0.99360   1.10591    0.011
 6781.00    0.96753   1.10407    0.011
 6782.00    1.00845   1.10011    0.011
 6783.00    1.04828   1.09472    0.011
 6784.00    1.06840   1.08858    0.011
 6785.00    1.08292   1.08250    0.011
 6786.00    1.03617   1.07773    0.011
 6787.00    1.00058   1.07443    0.011
 6788.00    1.05076   1.07281    0.011
 6789.00    1.08834   1.07341    0.011
 6790.00    1.05252   1.07517    0.011
 6791.00    1.01934   1.07667    0.011
 6792.00    0.99837   1.07838    0.011
 6793.00    1.00310   1.08011    0.011
 6794.00    1.10505   1.08036    0.011
 6795.00    1.17585   1.07984    0.011
 6796.00    1.14830   1.07995    0.011
 6797.00    1.10304   1.08027    0.011
 6798.00    1.01037   1.08057    0.010
 6799.00    0.96681   1.08164    0.010
 6800.00    1.03612   1.08335    0.011
 6801.00    1.08090   1.08494    0.011
 6802.00    1.07693   1.08658    0.011
 6803.00    1.06211   1.08803    0.011
 6804.00    1.02847   1.08853    0.011
 6805.00    0.97966   1.08822    0.011
 6806.00    0.90782   1.08812    0.011
 6807.00    0.88302   1.08767    0.010
 6808.00    0.92091   1.08623    0.011
 6809.00    0.96709   1.08524    0.011
 6810.00    1.02298   1.08513    0.011
 6811.00    1.06004   1.08440    0.011
 6812.00    1.07758   1.08334    0.011
 6813.00    1.05763   1.08331    0.011
 6814.00    1.00344   1.08359    0.011
 6815.00    0.97920   1.08329    0.011
 6816.00    0.97907   1.08307    0.011
 6817.00    0.98330   1.08368    0.011
 6818.00    0.99063   1.08489    0.011
 6819.00    1.01230   1.08590    0.010
 6820.00    1.04288   1.08677    0.010
 6821.00    1.04660   1.08810    0.010
 6822.00    1.03574   1.08989    0.010
 6823.00    1.03247   1.09166    0.010
 6824.00    1.03278   1.09303    0.010
 6825.00    0.99986   1.09366    0.010
 6826.00    0.95341   1.09388    0.010
 6827.00    0.93052   1.09395    0.011
 6828.00    0.91580   1.09333    0.011
 6829.00    0.96891   1.09162    0.011
 6830.00    1.04186   1.08998    0.011
 6831.00    1.04728   1.08946    0.011
 6832.00    1.03635   1.08952    0.011
 6833.00    1.05412   1.08919    0.011
 6834.00    1.07751   1.08898    0.011
 6835.00    1.09533   1.08924    0.011
 6836.00    1.11231   1.08883    0.011
 6837.00    1.10129   1.08642    0.011
 6838.00    1.08712   1.08245    0.011
 6839.00    1.04633   1.07770    0.011
 6840.00    1.00355   1.07216    0.011
 6841.00    0.98655   1.06621    0.011
 6842.00    0.97057   1.06110    0.011
 6843.00    0.95882   1.05774    0.011
 6844.00    0.94933   1.05655    0.011
 6845.00    1.02837   1.05794    0.011
 6846.00    1.10018   1.06129    0.011
 6847.00    1.04982   1.06559    0.011
 6848.00    1.00441   1.07019    0.011
 6849.00    1.01078   1.07460    0.011
 6850.00    1.01482   1.07787    0.011
 6851.00    1.00167   1.07921    0.011
 6852.00    0.99055   1.07861    0.011
 6853.00    0.99093   1.07674    0.010
 6854.00    0.99436   1.07417    0.010
 6855.00    1.01152   1.07036    0.010
 6856.00    1.01390   1.06545    0.010
 6857.00    0.96154   1.06157    0.010
 6858.00    0.92412   1.05897    0.010
 6859.00    0.93301   1.05595    0.010
 6860.00    0.94358   1.05378    0.011
 6861.00    0.95855   1.05410    0.011
 6862.00    0.97663   1.05479    0.011
 6863.00    1.00170   1.05524    0.011
 6864.00    1.03635   1.05739    0.011
 6865.00    1.08974   1.05988    0.011
 6866.00    1.12941   1.06060    0.011
 6867.00    1.14566   1.06104    0.011
 6868.00    1.14510   1.06180    0.011
 6869.00    1.11941   1.06104    0.011
 6870.00    1.08978   1.05932    0.011
 6871.00    1.05498   1.05870    0.011
 6872.00    1.04967   1.05818    0.010
 6873.00    1.07849   1.05701    0.011
 6874.00    1.07445   1.05739    0.011
 6875.00    1.03688   1.05976    0.010
 6876.00    0.99998   1.06153    0.010
 6877.00    0.96367   1.06267    0.010
 6878.00    0.94885   1.06505    0.010
 6879.00    0.95106   1.06751    0.010
 6880.00    0.96564   1.06817    0.010
 6881.00    0.98886   1.06807    0.010
 6882.00    0.99915   1.06819    0.010
 6883.00    1.00152   1.06738    0.010
 6884.00    1.02223   1.06609    0.010
 6885.00    1.05274   1.06657    0.010
 6886.00    1.05088   1.06820    0.010
 6887.00    1.03399   1.06972    0.011
 6888.00    1.02264   1.07271    0.011
 6889.00    1.01349   1.07776    0.011
 6890.00    1.01269   1.08204    0.011
 6891.00    1.01473   1.08504    0.011
 6892.00    1.01275   1.08845    0.011
 6893.00    1.00962   1.09095    0.011
 6894.00    1.01937   1.09135    0.011
 6895.00    1.03217   1.09138    0.010
 6896.00    1.00863   1.09128    0.010
 6897.00    0.97816   1.08997    0.010
 6898.00    0.96731   1.08850    0.010
 6899.00    0.95936   1.08835    0.010
 6900.00    0.94825   1.08837    0.010
 6901.00    0.93680   1.08790    0.010
 6902.00    0.91807   1.08835    0.010
 6903.00    0.89882   1.09005    0.010
 6904.00    0.93227   1.09155    0.010
 6905.00    0.96762   1.09248    0.010
 6906.00    0.99773   1.09379    0.010
 6907.00    1.02594   1.09564    0.010
 6908.00    0.98911   1.09684    0.011
 6909.00    0.95536   1.09691    0.011
 6910.00    0.97046   1.09630    0.011
 6911.00    0.98309   1.09514    0.011
 6912.00    0.97102   1.09276    0.011
 6913.00    0.95469   1.08949    0.011
 6914.00    0.90775   1.08604    0.010
 6915.00    0.87180   1.08222    0.010
 6916.00    0.89641   1.07917    0.010
 6917.00    0.92253   1.07778    0.010
 6918.00    0.95527   1.07705    0.010
 6919.00    0.97485   1.07701    0.010
 6920.00    0.94675   1.07860    0.010
 6921.00    0.92243   1.08045    0.010
 6922.00    0.90960   1.08097    0.010
 6923.00    0.90427   1.08103    0.010
 6924.00    0.91835   1.08053    0.010
 6925.00    0.92148   1.07884    0.010
 6926.00    0.90026   1.07650    0.010
 6927.00    0.87408   1.07471    0.010
 6928.00    0.83835   1.07389    0.011
 6929.00    0.83011   1.07356    0.011
 6930.00    0.86804   1.07362    0.011
 6931.00    0.89931   1.07433    0.011
 6932.00    0.92076   1.07583    0.011
 6933.00    0.92666   1.07708    0.011
 6934.00    0.91240   1.07728    0.011
 6935.00    0.90651   1.07776    0.011
 6936.00    0.91017   1.07928    0.011
 6937.00    0.91547   1.08051    0.011
 6938.00    0.92243   1.08122    0.011
 6939.00    0.93932   1.08258    0.010
 6940.00    0.96501   1.08407    0.010
 6941.00    0.98838   1.08439    0.010
 6942.00    1.00992   1.08359    0.010
 6943.00    1.00139   1.08192    0.010
 6944.00    0.97217   1.07983    0.010
 6945.00    0.96261   1.07736    0.010
 6946.00    0.96491   1.07441    0.011
 6947.00    0.95629   1.07238    0.011
 6948.00    0.94192   1.07170    0.011
 6949.00    0.91016   1.07088    0.011
 6950.00    0.87045   1.07045    0.011
 6951.00    0.84543   1.07111    0.011
 6952.00    0.82618   1.07114    0.011
 6953.00    0.81466   1.07058    0.011
 6954.00    0.80573   1.07095    0.011
 6955.00    0.84337   1.07135    0.011
 6956.00    0.89410   1.07166    0.011
 6957.00    0.93758   1.07354    0.011
 6958.00    0.97939   1.07632    0.011
 6959.00    0.96385   1.07881    0.011
 6960.00    0.93767   1.08168    0.011
 6961.00    0.95530   1.08486    0.010
 6962.00    0.97919   1.08758    0.010
 6963.00    0.99869   1.08946    0.010
 6964.00    1.01774   1.09100    0.010
 6965.00    1.01318   1.09258    0.010
 6966.00    1.00706   1.09377    0.011
 6967.00    1.00052   1.09419    0.011
 6968.00    0.99397   1.09471    0.011
 6969.00    0.99891   1.09540    0.011
 6970.00    1.00253   1.09532    0.011
 6971.00    0.96593   1.09448    0.011
 6972.00    0.93183   1.09277    0.011
 6973.00    0.93488   1.09007    0.011
 6974.00    0.93353   1.08653    0.011
 6975.00    0.88983   1.08111    0.011
 6976.00    0.85820   1.07342    0.011
 6977.00    0.91053   1.06590    0.011
 6978.00    0.95213   1.05967    0.011
 6979.00    0.93605   1.05308    0.011
 6980.00    0.92928   1.04816    0.011
 6981.00    0.96261   1.04819    0.011
 6982.00    0.97156   1.05147    0.010
 6983.00    0.89395   1.05584    0.010
 6984.00    0.83940   1.06256    0.010
 6985.00    0.85365   1.07102    0.010
 6986.00    0.87532   1.07800    0.010
 6987.00    0.91589   1.08285    0.011
 6988.00    0.93622   1.08657    0.011
 6989.00    0.91233   1.08866    0.011
 6990.00    0.90255   1.08900    0.011
 6991.00    0.91954   1.08881    0.011
 6992.00    0.91521   1.08880    0.011
 6993.00    0.87558   1.08870    0.011
 6994.00    0.89423   1.08844    0.011
 6995.00    0.99747   1.08816    0.011
 6996.00    1.04827   1.08765    0.011
 6997.00    1.03215   1.08638    0.011
 6998.00    1.00873   1.08430    0.011
 6999.00    0.97711   1.08181    0.011
 7000.00    0.98401   1.07882    0.011
 7001.00    1.02914   1.07536    0.011
 7002.00    1.03373   1.07243    0.011
 7003.00    1.00286   1.07048    0.011
 7004.00    0.95276   1.06857    0.011
 7005.00    0.88785   1.06681    0.011
 7006.00    0.89017   1.06638    0.011
 7007.00    0.93805   1.06699    0.011
 7008.00    0.94404   1.06743    0.011
 7009.00    0.92516   1.06779    0.011
 7010.00    0.91826   1.06887    0.011
 7011.00    0.91756   1.06985    0.011
 7012.00    0.93551   1.06963    0.011
 7013.00    0.96182   1.06828    0.011
 7014.00    0.99413   1.06617    0.011
 7015.00    1.02875   1.06370    0.011
 7016.00    0.98643   1.06080    0.011
 7017.00    0.91885   1.05738    0.011
 7018.00    0.91657   1.05555    0.011
 7019.00    0.93226   1.05653    0.011
 7020.00    0.93536   1.05783    0.011
 7021.00    0.93562   1.05868    0.011
 7022.00    0.93783   1.06105    0.011
 7023.00    0.94039   1.06380    0.011
 7024.00    0.93043   1.06438    0.011
 7025.00    0.91873   1.06387    0.011
 7026.00    0.91603   1.06418    0.011
 7027.00    0.91423   1.06487    0.011
 7028.00    0.89570   1.06533    0.011
 7029.00    0.87613   1.06656    0.011
 7030.00    0.90366   1.06897    0.011
 7031.00    0.93247   1.07170    0.011
 7032.00    0.94235   1.07375    0.012
 7033.00    0.95144   1.07528    0.012
 7034.00    0.93880   1.07681    0.012
 7035.00    0.92935   1.07740    0.012
 7036.00    0.96478   1.07671    0.012
 7037.00    0.99151   1.07684    0.012
 7038.00    0.93805   1.07792    0.012
 7039.00    0.88991   1.07823    0.011
 7040.00    0.87768   1.07987    0.011
 7041.00    0.86968   1.08468    0.011
 7042.00    0.88379   1.08966    0.011
 7043.00    0.89656   1.09393    0.011
 7044.00    0.90372   1.09977    0.011
 7045.00    0.90957   1.10558    0.011
 7046.00    0.91086   1.10898    0.012
 7047.00    0.92799   1.11137    0.012
 7048.00    0.99152   1.11310    0.012
 7049.00    0.96216   1.11263    0.012
 7050.00    0.70091   1.10973   -2.000
 7051.00    0.56093   1.10510   -2.000
 7052.00    0.68178   1.09875   -2.000
 7053.00    0.76133   1.09017   -2.000
 7054.00    0.76377   1.08012   -2.000
 7055.00    0.78796   1.07026   -2.000
 7056.00    0.84761   1.06108   -2.000
 7057.00    0.89078   1.05248   -2.000
 7058.00    0.91037   1.04541   -2.000
 7059.00    0.92114   1.04046   -2.000
 7060.00    0.92084   1.03623   -2.000
 7061.00    0.92815   1.03236   -2.000
 7062.00    0.94391   1.02993   -2.000
 7063.00    0.92344   1.02805   -2.000
 7064.00    0.86755   1.02544   -2.000
 7065.00    0.83959   1.02335   -2.000
 7066.00    0.83572   1.02189   -2.000
 7067.00    0.84775   1.02004   -2.000
 7068.00    0.87188   1.01866   -2.000
 7069.00    0.89405   1.01825   -2.000
 7070.00    0.91490   1.01857   -2.000
 7071.00    0.94117   1.02060   -2.000
 7072.00    0.97060   1.02422   -2.000
 7073.00    0.99847   1.02807   -2.000
 7074.00    1.02554   1.03269   -2.000
 7075.00    1.00801   1.03802   -2.000
 7076.00    0.97079   1.04234   -2.000
 7077.00    0.93660   1.04537   -2.000
 7078.00    0.90356   1.04785   -2.000
 7079.00    0.85200   1.04922   -2.000
 7080.00    0.79448   1.04860   -2.000
 7081.00    0.80386   1.04626   -2.000
 7082.00    0.83126   1.04225   -2.000
 7083.00    0.84227   1.03642   -2.000
 7084.00    0.84965   1.02905   -2.000
 7085.00    0.86853   1.01993   -2.000
 7086.00    0.88943   1.01030   -2.000
 7087.00    0.85284   1.00176   -2.000
 7088.00    0.80854   0.99341   -2.000
 7089.00    0.81091   0.98564   -2.000
 7090.00    0.81771   0.98024   -2.000
 7091.00    0.84061   0.97623   -2.000
 7092.00    0.86446   0.97292   -2.000
 7093.00    0.83132   0.97124   -2.000
 7094.00    0.79651   0.97074   -2.000
 7095.00    0.72406   0.97088   -2.000
 7096.00    0.65662   0.97201   -2.000
 7097.00    0.71370   0.97419   -2.000
 7098.00    0.76805   0.97663   -2.000
 7099.00    0.78609   0.97952   -2.000
 7100.00    0.80520   0.98305   -2.000
 7101.00    0.83392   0.98614   -2.000
 7102.00    0.85500   0.98894   -2.000
 7103.00    0.82620   0.99148   -2.000
 7104.00    0.79995   0.99325   -2.000
 7105.00    0.78671   0.99428   -2.000
 7106.00    0.77543   0.99516   -2.000
 7107.00    0.77226   0.99540   -2.000
 7108.00    0.77373   0.99442   -2.000
 7109.00    0.79105   0.99325   -2.000
 7110.00    0.82150   0.99238   -2.000
 7111.00    0.88973   0.99099   -2.000
 7112.00    0.94864   0.98930   -2.000
 7113.00    0.98465   0.98876   -2.000
 7114.00    0.95345   0.98944   -2.000
 7115.00    0.78000   0.99019   -2.000
 7116.00    0.68045   0.99125   -2.000
 7117.00    0.71678   0.99334   -2.000
 7118.00    0.75267   0.99530   -2.000
 7119.00    0.78785   0.99622   -2.000
 7120.00    0.81606   0.99634   -2.000
 7121.00    0.83444   0.99620   -2.000
 7122.00    0.89191   0.99535   -2.000
 7123.00    0.99788   0.99277   -2.000
 7124.00    1.07633   0.98986   -2.000
 7125.00    1.12470   0.98728   -2.000
 7126.00    1.06311   0.98361   -2.000
 7127.00    0.89548   0.97900   -2.000
 7128.00    0.92800   0.97476   -2.000
 7129.00    1.13071   0.97095   -2.000
 7130.00    1.08268   0.96717   -2.000
 7131.00    0.84688   0.96387   -2.000
 7132.00    0.77685   0.96216   -2.000
 7133.00    0.81589   0.96228   -2.000
 7134.00    0.79586   0.96351   -2.000
 7135.00    0.74180   0.96613   -2.000
 7136.00    0.80874   0.96988   -2.000
 7137.00    0.93640   0.97359   -2.000
 7138.00    0.92021   0.97751   -2.000
 7139.00    0.84155   0.98117   -2.000
 7140.00    0.86152   0.98318   -2.000
 7141.00    0.91824   0.98465   -2.000
 7142.00    0.96318   0.98624   -2.000
 7143.00    1.00441   0.98621   -2.000
 7144.00    0.93919   0.98536   -2.000
 7145.00    0.84589   0.98459   -2.000
 7146.00    0.79976   0.98258   -2.000
 7147.00    0.76381   0.98043   -2.000
 7148.00    0.76863   0.97872   -2.000
 7149.00    0.78041   0.97627   -2.000
 7150.00    0.91489   0.97523   -2.000
 7151.00    1.06526   0.97654   -2.000
 7152.00    0.91989   0.97787   -2.000
 7153.00    0.74766   0.97998   -2.000
 7154.00    0.79063   0.98449   -2.000
 7155.00    0.84538   0.98906   -2.000
 7156.00    0.90668   0.99189   -2.000
 7157.00    0.96791   0.99478   -2.000
 7158.00    1.01155   0.99761   -2.000
 7159.00    1.04837   0.99822   -2.000
 7160.00    0.93023   0.99738   -2.000
 7161.00    0.82940   0.99616   -2.000
 7162.00    0.94649   0.99364   -2.000
 7163.00    1.04469   0.99027   -2.000
 7164.00    0.98175   0.98734   -2.000
 7165.00    0.91258   0.98437   -2.000
 7166.00    0.80398   0.98202   -2.000
 7167.00    0.73639   0.98184   -2.000
 7168.00    0.87247   0.98309   -2.000
 7169.00    0.96251   0.98539   -2.000
 7170.00    0.86729   0.98929   -2.000
 7171.00    0.78336   0.99382   -2.000
 7172.00    0.73719   0.99811   -2.000
 7173.00    0.71764   1.00185   -2.000
 7174.00    0.77321   1.00423   -2.000
 7175.00    0.81868   1.00544   -2.000
 7176.00    0.83981   1.00570   -2.000
 7177.00    0.85467   1.00406   -2.000
 7178.00    0.85651   1.00131   -2.000
 7179.00    0.87976   0.99859   -2.000
 7180.00    0.94180   0.99551   -2.000
 7181.00    0.93416   0.99213   -2.000
 7182.00    0.81623   0.98917   -2.000
 7183.00    0.76324   0.98714   -2.000
 7184.00    0.80046   0.98574   -2.000
 7185.00    0.80615   0.98383   -2.000
 7186.00    0.77327   0.98198   -2.000
 7187.00    0.77163   0.98053   -2.000
 7188.00    0.80367   0.97807   -2.000
 7189.00    0.81936   0.97538   -2.000
 7190.00    0.81953   0.97345   -2.000
 7191.00    0.82866   0.97175   -2.000
 7192.00    0.84532   0.97118   -2.000
 7193.00    0.86144   0.97208   -2.000
 7194.00    0.87716   0.97323   -2.000
 7195.00    0.85399   0.97494   -2.000
 7196.00    0.80559   0.97792   -2.000
 7197.00    0.86392   0.98053   -2.000
 7198.00    0.98280   0.98220   -2.000
 7199.00    0.95343   0.98444   -2.000
 7200.00    0.85085   0.98665   -2.000
 7201.00    0.91914   0.98793   -2.000
 7202.00    1.06040   0.98889   -2.000
 7203.00    1.01281   0.98961   -2.000
 7204.00    0.89613   0.98948   -2.000
 7205.00    0.83979   0.98825   -2.000
 7206.00    0.80215   0.98666   -2.000
 7207.00    0.78958   0.98452   -2.000
 7208.00    0.78349   0.98159   -2.000
 7209.00    0.73572   0.97984   -2.000
 7210.00    0.67920   0.97912   -2.000
 7211.00    0.66937   0.97866   -2.000
 7212.00    0.66731   0.98007   -2.000
 7213.00    0.70601   0.98276   -2.000
 7214.00    0.74980   0.98509   -2.000
 7215.00    0.77577   0.98796   -2.000
 7216.00    0.80019   0.99124   -2.000
 7217.00    0.77865   0.99342   -2.000
 7218.00    0.75478   0.99536   -2.000
