###################################################################
## OUTPUT of StarlightChains_v04.for    [Cid@UFSC - 01/Apr/2007] ##
###################################################################

## Some input info
KUG0210-078._40_48.txt                   [arq_obs]
Base.CB07.vall.4m                        [arq_base]
Masks.EmLines.NEW.gm                     [arq_masks]
StCv04.C11.config                        [arq_config]
   66                                    [N_base]
    0                                    [N_YAV_components = # of components with extra extinction!]
    0                                    [i_FitPowerLaw (1/0 = Yes/No)]
-9.99                                    [alpha_PowerLaw]
CCM                                      [red_law_option]
 1.458241                                [q_norm = A(l_norm)/A(V)]

## (Re)Sampling Parameters
 3741.00                                 [l_ini (A)]
 7218.00                                 [l_fin (A)]
    1.00                                 [dl    (A)]     (OBS: dl_cushion =    50.00 A)

## Normalization info
 4020.00                                 [l_norm (A) - for base]
 4010.00                                 [llow_norm (A) - window for f_obs]
 4060.00                                 [lupp_norm (A) - window for f_obs]
5.276937E-18                             [fobs_norm (in input units)]

## S/N
 3691.00                                 [llow_SN (A) - window for S/N]
 7268.00                                 [lupp_SN (A) - window for S/N]
   3.612                                 [S/N in S/N window]
   2.764                                 [S/N in norm. window]
   0.008                                 [S/N_err in S/N window]
   0.006                                 [S/N_err in norm. window]
  1.0000                                 [fscale_chi2]

## etc...
    -2007733                             [idum_orig]
  2393                                   [NOl_eff]
  2378                                   [Nl_eff]
    15    NSIGMA                         [Ntot_cliped & clip_method]
  2155580                                [Nglobal_steps]
   7                                     [N_chains]
  44                                     [NEX0s_base = N_base in EX0s-fits]
 0   0   1       15   2.0   8.526E+02    [Clip-Bug, RC-Crash & Burn-In warning-flags, n_censored_weights, wei_nsig_threshold & wei_limit]
    46     45.140     44.213      0.927  [idt_all, wdt_TotTime, wdt_UsrTime & wdt_SysTime (sec)]

## Synthesis Results - Best model ##

 1.67343E-05                             [chi2/Nl_eff]
    39.79600                             [adev (%)]

   130.00002                             [sum-of-x (%)]
 1.53366E-16                             [Flux_tot (units of input spectrum!)]
 1.16210E-13                             [Mini_tot (???)]
 6.89977E-14                             [Mcor_tot (???)]

-465.32                                  [v0_min  (km/s)]
 323.72                                  [vd_min  (km/s)]
 2.3134                                  [AV_min  (mag)]
 0.0000                                  [YAV_min (mag)]

# j     x_j(%)      Mini_j(%)     Mcor_j(%)     age_j(yr)     Z_j      (L/M)_j    YAV?  Mstars   component_j        a/Fe...       SSP_chi2r SSP_adev(%)   SSP_AV   SSP_x(%)
  1      0.0000     0.0000E+00    0.0000E+00    1.000000E+06  0.00400  1.094E-02    0   1.0000   age020_m42            0.0000     1.6024E-05    42.4234   2.6986   139.1571
  2      0.0000     0.0000E+00    0.0000E+00    3.160000E+06  0.00400  4.007E-02    0   0.9999   age045_m42            0.0000     1.6290E-05    41.7045   1.9541   148.9775
  3      0.0000     0.0000E+00    0.0000E+00    5.010000E+06  0.00400  2.539E-02    0   0.9488   age055_m42            0.0000     1.6074E-05    42.2786   2.2852   145.1743
  4      3.7473     1.4520E-01    2.2548E-01    6.610000E+06  0.00400  2.620E-02    0   0.9220   age061_m42            0.0000     1.6289E-05    41.9253   1.8878   149.1085
  5      0.0000     0.0000E+00    0.0000E+00    1.000000E+07  0.00400  1.322E-02    0   0.8862   age070_m42            0.0000     1.6226E-05    42.7284   1.6520   149.9281
  6      2.0806     2.6794E-01    3.8680E-01    1.445000E+07  0.00400  7.883E-03    0   0.8571   age078_m42            0.0000     1.6138E-05    42.8982   1.9755   146.4745
  7      4.1176     7.9605E-01    1.0959E+00    2.512000E+07  0.00400  5.251E-03    0   0.8174   age090_m42            0.0000     1.6280E-05    42.8217   1.5270   150.3760
  8      0.1408     3.9168E-02    5.1793E-02    4.000000E+07  0.00400  3.649E-03    0   0.7851   age104_m42            0.0000     1.6355E-05    42.3700   1.2912   151.9253
  9      0.0000     0.0000E+00    0.0000E+00    5.500000E+07  0.00400  3.098E-03    0   0.7629   age110_m42            0.0000     1.6589E-05    42.1226   1.4259   152.9578
 10      0.0000     0.0000E+00    0.0000E+00    1.015200E+08  0.00400  2.228E-03    0   0.7207   age116_m42            0.0000     1.6788E-05    41.9366   1.4361   153.8268
 11      0.7288     6.7692E-01    7.5795E-01    2.861200E+08  0.00400  1.093E-03    0   0.6648   age125_m42            0.0000     1.6882E-05    41.5774   0.8943   157.2166
 12      0.0000     0.0000E+00    0.0000E+00    5.088000E+08  0.00400  6.597E-04    0   0.6365   age130_m42            0.0000     1.7262E-05    40.7212   0.8652   159.4706
 13      0.0148     7.0490E-02    6.8836E-02    1.434000E+09  0.00400  2.132E-04    0   0.5798   age139_m42            0.0000     1.7179E-05    38.2185  -0.1191   163.0921
 14      0.0000     0.0000E+00    0.0000E+00    4.250000E+09  0.00400  5.895E-05    0   0.5377   age158_m42            0.0000     1.6473E-05    35.1764  -0.5932   158.7549
 15      0.0024     6.8841E-02    6.0431E-02    7.500000E+09  0.00400  3.510E-05    0   0.5212   age171_m42            0.0000     1.6609E-05    34.2772  -0.7879   158.2348
 16      0.0000     0.0000E+00    0.0000E+00    1.300000E+10  0.00400  2.005E-05    0   0.5034   age193_m42            0.0000     1.6754E-05    33.5848  -0.9562   157.7247
 17      0.0000     0.0000E+00    0.0000E+00    1.800000E+10  0.00400  1.525E-05    0   0.4967   age213_m42            0.0000     1.6675E-05    33.6598  -0.9737   156.7802
 18     21.4836     1.7617E+00    2.9671E+00    1.000000E+06  0.00800  1.238E-02    0   1.0000   age020_m52            0.0000     1.6029E-05    42.4097   2.6940   139.4737
 19     21.4564     7.0859E-01    1.1894E+00    3.160000E+06  0.00800  3.074E-02    0   0.9966   age045_m52            0.0000     1.6009E-05    42.4141   2.6119   140.8972
 20      0.0000     0.0000E+00    0.0000E+00    5.010000E+06  0.00800  2.668E-02    0   0.9443   age055_m52            0.0000     1.6017E-05    42.3267   2.3702   143.8564
 21      0.0000     0.0000E+00    0.0000E+00    6.610000E+06  0.00800  2.136E-02    0   0.9177   age061_m52            0.0000     1.5912E-05    41.1639   1.1492   151.7579
 22      0.0000     0.0000E+00    0.0000E+00    1.000000E+07  0.00800  1.215E-02    0   0.8827   age070_m52            0.0000     1.6137E-05    43.0687   1.8449   149.0501
 23     14.0000     1.6304E+00    2.3484E+00    1.445000E+07  0.00800  8.717E-03    0   0.8552   age078_m52            0.0000     1.6132E-05    42.7588   1.9394   148.5103
 24      1.2236     2.2213E-01    3.0536E-01    2.512000E+07  0.00800  5.592E-03    0   0.8162   age090_m52            0.0000     1.6301E-05    42.8216   1.5955   152.0432
 25      0.0000     0.0000E+00    0.0000E+00    4.000000E+07  0.00800  3.896E-03    0   0.7841   age104_m52            0.0000     1.6418E-05    42.3704   1.4973   153.7522
 26      0.0000     0.0000E+00    0.0000E+00    1.015200E+08  0.00800  2.148E-03    0   0.7226   age116_m52            0.0000     1.6563E-05    41.5319   1.4132   154.6219
 27      0.0780     7.9789E-02    8.9810E-02    2.861200E+08  0.00800  9.925E-04    0   0.6683   age125_m52            0.0000     1.7322E-05    40.6255   0.9313   160.9909
 28      0.0000     0.0000E+00    0.0000E+00    9.047900E+08  0.00800  3.141E-04    0   0.6138   age135_m52            0.0000     1.7611E-05    36.4558   0.1069   168.9183
 29      0.0000     0.0000E+00    0.0000E+00    1.434000E+09  0.00800  1.719E-04    0   0.5853   age139_m52            0.0000     1.6842E-05    35.9256  -0.4724   165.8880
 30      0.8930     1.1517E+01    1.0862E+01    2.500000E+09  0.00800  7.872E-05    0   0.5600   age150_m52            0.0000     1.6878E-05    34.4911  -0.7795   163.4230
 31      0.0000     0.0000E+00    0.0000E+00    4.250000E+09  0.00800  4.336E-05    0   0.5426   age158_m52            0.0000     1.6835E-05    34.0318  -0.7965   161.9926
 32      0.0000     0.0000E+00    0.0000E+00    6.250000E+09  0.00800  3.159E-05    0   0.5319   age166_m52            0.0000     1.7224E-05    33.2870  -1.0000   162.3865
 33      0.0000     0.0000E+00    0.0000E+00    1.300000E+10  0.00800  1.361E-05    0   0.5073   age193_m52            0.0000     1.9382E-05    32.7420  -1.0000   141.7517
 34      0.0000     0.0000E+00    0.0000E+00    1.800000E+10  0.00800  9.886E-06    0   0.4990   age213_m52            0.0000     2.0739E-05    32.8563  -1.0000   136.3282
 35      4.1236     2.7113E-01    4.5665E-01    1.000000E+06  0.02000  1.544E-02    0   1.0000   age020_m62            0.0000     1.6022E-05    42.4244   2.6895   139.8318
 36     35.8666     9.6786E-01    1.6070E+00    3.160000E+06  0.02000  3.762E-02    0   0.9858   age045_m62            0.0000     1.5997E-05    42.4560   2.6283   141.1300
 37      0.0000     0.0000E+00    0.0000E+00    5.010000E+06  0.02000  3.296E-02    0   0.9342   age055_m62            0.0000     1.6139E-05    42.1807   2.2373   147.5014
 38      0.6509     5.7264E-02    8.5462E-02    8.710000E+06  0.02000  1.154E-02    0   0.8861   age067_m62            0.0000     1.6360E-05    45.8204   1.3886   148.7358
 39      0.0000     0.0000E+00    0.0000E+00    1.445000E+07  0.02000  7.663E-03    0   0.8472   age078_m62            0.0000     1.6140E-05    43.5369   1.5247   150.9839
 40      0.0000     0.0000E+00    0.0000E+00    2.512000E+07  0.02000  4.532E-03    0   0.8099   age090_m62            0.0000     1.6202E-05    44.0503   1.5224   150.3819
 41      0.0000     0.0000E+00    0.0000E+00    5.500000E+07  0.02000  2.733E-03    0   0.7595   age110_m62            0.0000     1.6293E-05    42.5943   1.4849   152.6805
 42      0.4113     3.0498E-01    3.5879E-01    1.609000E+08  0.02000  1.369E-03    0   0.6985   age120_m62            0.0000     1.6969E-05    41.7547   1.2980   158.0748
 43      6.6372     7.4758E+00    8.4537E+00    2.861200E+08  0.02000  9.013E-04    0   0.6714   age125_m62            0.0000     1.7678E-05    40.8221   1.0355   163.0425
 44      0.0000     0.0000E+00    0.0000E+00    5.088000E+08  0.02000  5.028E-04    0   0.6449   age130_m62            0.0000     1.8225E-05    38.2772   0.6326   168.6073
 45      1.1603     4.8512E+00    5.0486E+00    9.047900E+08  0.02000  2.428E-04    0   0.6179   age135_m62            0.0000     1.7424E-05    35.5953   0.0259   169.1914
 46      0.0000     0.0000E+00    0.0000E+00    1.434000E+09  0.02000  1.263E-04    0   0.5908   age139_m62            0.0000     1.6991E-05    34.4006  -0.4281   167.4592
 47      0.0000     0.0000E+00    0.0000E+00    2.500000E+09  0.02000  5.985E-05    0   0.5673   age150_m62            0.0000     1.7132E-05    33.6247  -0.8192   166.6307
 48      0.0000     0.0000E+00    0.0000E+00    4.250000E+09  0.02000  3.271E-05    0   0.5468   age158_m62            0.0000     1.7888E-05    32.3368  -1.0000   160.5008
 49      0.0000     0.0000E+00    0.0000E+00    1.000000E+10  0.02000  1.360E-05    0   0.5167   age181_m62            0.0000     2.0424E-05    31.9616  -1.0000   144.6591
 50      0.0000     0.0000E+00    0.0000E+00    1.800000E+10  0.02000  7.124E-06    0   0.5013   age213_m62            0.0000     2.2859E-05    32.6884  -1.0000   133.9840
 51      5.3741     2.1048E-01    3.5443E-01    1.000000E+06  0.05000  2.592E-02    0   0.9998   age020_m72            0.0000     1.6043E-05    42.3861   2.6844   139.7169
 52      0.0000     0.0000E+00    0.0000E+00    3.160000E+06  0.05000  4.845E-02    0   0.9577   age045_m72            0.0000     1.5993E-05    42.3909   2.5018   143.4547
 53      2.0506     6.7763E-02    1.0440E-01    5.010000E+06  0.05000  3.072E-02    0   0.9147   age055_m72            0.0000     1.6008E-05    43.3418   2.0916   146.7420
 54      0.0000     0.0000E+00    0.0000E+00    6.610000E+06  0.05000  1.455E-02    0   0.8877   age061_m72            0.0000     1.6723E-05    48.4571   1.5013   148.1550
 55      0.0000     0.0000E+00    0.0000E+00    1.000000E+07  0.05000  9.074E-03    0   0.8524   age070_m72            0.0000     1.6110E-05    44.2066   2.2926   146.1295
 56      0.0000     0.0000E+00    0.0000E+00    2.512000E+07  0.05000  4.250E-03    0   0.7902   age090_m72            0.0000     1.6235E-05    43.7751   1.9778   149.0701
 57      0.0000     0.0000E+00    0.0000E+00    4.000000E+07  0.05000  3.087E-03    0   0.7618   age104_m72            0.0000     1.6373E-05    43.9842   1.7545   151.2726
 58      0.0000     0.0000E+00    0.0000E+00    1.015200E+08  0.05000  1.700E-03    0   0.7096   age116_m72            0.0000     1.6880E-05    42.3498   1.4544   156.8161
 59      0.7938     1.0913E+00    1.2191E+00    2.861200E+08  0.05000  7.384E-04    0   0.6633   age125_m72            0.0000     1.7985E-05    39.6418   0.8915   166.0080
 60      0.0000     0.0000E+00    0.0000E+00    5.088000E+08  0.05000  3.819E-04    0   0.6372   age130_m72            0.0000     1.7747E-05    37.0265   0.3655   170.6507
 61      0.0000     0.0000E+00    0.0000E+00    9.047900E+08  0.05000  1.676E-04    0   0.6110   age135_m72            0.0000     1.7316E-05    34.5024  -0.3704   170.2131
 62      2.4133     2.7723E+01    2.7428E+01    1.434000E+09  0.05000  8.837E-05    0   0.5874   age139_m72            0.0000     1.7412E-05    33.4447  -0.8220   169.4224
 63      0.0000     0.0000E+00    0.0000E+00    2.500000E+09  0.05000  4.233E-05    0   0.5598   age150_m72            0.0000     1.8143E-05    32.1692  -1.0000   162.1364
 64      0.5512     3.8995E+01    3.4474E+01    6.250000E+09  0.05000  1.435E-05    0   0.5249   age166_m72            0.0000     2.1241E-05    32.8417  -1.0000   139.9122
 65      0.0000     0.0000E+00    0.0000E+00    1.300000E+10  0.05000  6.513E-06    0   0.5036   age193_m72            0.0000     2.4765E-05    33.7118  -1.0000   127.9758
 66      0.0000     0.0000E+00    0.0000E+00    1.800000E+10  0.05000  4.527E-06    0   0.4945   age213_m72            0.0000     2.7086E-05    34.3014  -1.0000   120.1584


## Synthesis Results - Average & Chains ##

# j      x_j: min, <> & last-chain-values for 1 ...  7 chains
  1      0.0000      1.4715      1.7699      0.8148      0.2627      2.1630      0.0000      0.9951      0.8605
  2      0.0000      1.2906      0.8335      1.1416      0.5936      0.0000      1.0319      0.0101      0.8654
  3      0.0000      1.0989      1.6185      0.0553      0.1585      0.2855      0.9787      0.0000      0.0000
  4      3.7473      1.5529      1.5829      1.8641      1.9075      5.0321      1.6339      0.0000      1.6942
  5      0.0000      1.4799      0.5123      0.3926      0.4614      1.3008      4.0649      0.0000      0.4102
  6      2.0806      1.3723      1.0985      0.0871      0.0000      0.0965      0.6256      0.0000      0.2157
  7      4.1176      1.2682      0.0165      0.7415      0.5286      0.0000      0.8487      3.4440      2.0986
  8      0.1408      1.9257      0.3908      2.1773      2.2497      6.1945      1.8289      0.3884      1.2435
  9      0.0000      1.6270      0.0000      0.6362      0.0000      0.0000      0.2656      0.1091      0.3389
 10      0.0000      1.4756      0.0000      1.1887      1.7662      1.4469      0.2285      1.9014      1.5677
 11      0.7288      1.7880      2.0466      0.0000      0.5312      2.4204      0.4008      5.1504      1.2355
 12      0.0000      1.2572      3.1861      0.2536      0.4978      3.8998      0.0000      1.1398      0.8068
 13      0.0148      1.0138      0.0000      1.2168      0.0000      1.4347      0.7379      0.3660      0.2095
 14      0.0000      1.4837      6.2235      1.0279      0.7627      5.2640      1.0750      3.5533      0.7558
 15      0.0024      1.2961      2.2761      0.8271      0.9126      6.9800      1.9086      0.0000      0.8107
 16      0.0000      1.1751      1.3145      1.6925      0.0000      0.0000      0.1816      0.0000      1.1458
 17      0.0000      1.4971      2.8611      2.7234      0.0000      0.0000      2.9196      1.9419      1.1473
 18     21.4836      1.6696      0.0000      0.1208      2.0816      0.6251      2.7619      0.8844      1.8614
 19     21.4564      1.7899      0.0000      0.0000      0.8666      1.2730      2.8093      0.5751      0.0000
 20      0.0000      1.5158      4.1262      1.3655      0.7148      0.0000      0.0000      0.5663      2.4362
 21      0.0000      1.1725      1.5697      2.7180      0.0109      1.1312      1.4885      0.3789      1.7198
 22      0.0000      1.3652      1.8959      1.2585      0.8425      0.0000      3.5037      1.7968      2.6912
 23     14.0000      1.8065      1.4986      0.8564      1.1271      5.6447      3.3155      3.7185      0.7781
 24      1.2236      1.2319      1.5241      0.3364      1.3436      0.0000      4.9849      0.0000      0.9818
 25      0.0000      0.8364      0.0000      0.0000      0.3504      0.0000      5.0221      1.6937      0.5898
 26      0.0000      1.1971      0.0000      0.5931      0.0000      0.0000      1.5289      2.5029      0.0000
 27      0.0780      1.1980      0.8635      0.0000      0.4915      1.1361      0.3606      4.9371      1.0486
 28      0.0000      1.3859      1.0839      0.6640      3.4287      0.5116      0.0000      0.0000      2.2958
 29      0.0000      1.2112      0.6430      0.7415      0.6973      0.0000      0.0000      1.5949      0.0000
 30      0.8930      1.0732      3.3860      0.0310      0.9348      1.8842      1.1232      0.2134      0.3314
 31      0.0000      1.2025      0.6282      0.7639      0.6366      1.7623      0.0000      1.7645      0.1527
 32      0.0000      1.3317      0.3551      0.0000      0.2096      5.4055      3.4582      0.4412      0.1221
 33      0.0000      2.3565      7.9017     11.2183     11.8731      1.4911      4.0625      4.2005      7.6937
 34      0.0000      1.3774      1.8395      1.6550      1.4209      1.4479      3.2468      2.3446      1.5513
 35      4.1236      1.4154      2.5926      0.7082      1.4721      1.6049      2.3520      0.3350      0.4527
 36     35.8666      1.5327      1.1430      0.6641      1.6339      0.0000      0.7594      0.0000      0.0024
 37      0.0000      2.5764      5.6416      8.4536      7.6812      0.7413      1.6267      2.6060      5.0657
 38      0.6509      1.2250      1.1380      0.5323      2.5129      1.4508      0.4554      0.0000      0.0000
 39      0.0000      1.5820      0.4258      3.9175      3.1880      0.1704      0.2852      0.4302      2.6825
 40      0.0000      1.0475      1.7307      0.8421      0.3559      0.0000      0.0000      4.2269      0.2986
 41      0.0000      1.2676      0.7852      1.2698      0.8887      0.0917      0.1391      3.5739      2.6439
 42      0.4113      1.3411      1.0389      1.7775      0.2222      0.6220      0.7527      0.0026      1.0334
 43      6.6372      1.7986      0.5637      0.0000      0.0916      0.0000      1.6572      0.1283      0.0000
 44      0.0000      0.9361      0.0000      0.0000      0.0000      0.0000      0.1011      1.3886      0.0174
 45      1.1603      1.4527      0.5414      0.0000      0.0000      5.8536      1.5940      0.0000      0.0596
 46      0.0000      1.1883      0.0000      0.4871      0.5614      0.0045      0.2562      4.7555      1.4185
 47      0.0000      1.2961      0.8981      0.4567      0.4739      0.2460      7.1905      1.0412      0.4693
 48      0.0000      1.3852      0.0000      0.6068      0.2108      0.9954      2.3324      1.5272      0.0000
 49      0.0000      1.4857      0.2830      1.2982      0.2317      2.1592      0.0000      2.8997      0.0468
 50      0.0000      2.0577      3.7342      8.2814      9.9366      2.6195      6.8212      0.0000      8.1098
 51      5.3741      1.7243      0.1428      1.9509      1.5364      0.0155      0.9834      4.9303      1.4326
 52      0.0000      0.9200      2.2345      1.0830      0.4133      0.0000      0.0000      0.5486      0.7168
 53      2.0506      1.3286      0.3636      1.9998      0.1502      0.0000      1.4840      2.3825      1.8846
 54      0.0000      1.7439      1.2697      2.2382      2.0323      0.1726      0.0000      1.9219      1.2572
 55      0.0000      1.4521      0.0000      1.0469      1.4698      3.5738      0.0000      0.4169      1.5475
 56      0.0000      1.0535      2.3150      2.5114      1.6882      0.0133      0.5724      0.0000      3.7485
 57      0.0000      1.9201      2.5982      3.8826      5.0707      0.0000      0.2353      0.0000      3.3102
 58      0.0000      1.0526      0.0392      0.2305      0.2182      1.0965      0.0000      0.0000      0.0000
 59      0.7938      1.5131      0.0000      0.3370      0.1996      2.1927      0.7841      0.5857      0.0000
 60      0.0000      1.5047      0.2431      0.0066      0.8564      0.0000      2.8856      0.2140      0.0000
 61      0.0000      1.1035      0.0273      0.3867      0.5163      2.0365      1.2210      0.0000      4.9013
 62      2.4133      1.3988      2.7521      0.8125      0.0000      2.7384      5.8815      0.0000      1.4973
 63      0.0000      1.5932      0.5483      1.6843      0.7116      0.9960      1.6454      2.6948      0.0000
 64      0.5512      1.5778      2.2623      0.0000      2.7937      2.2279      0.7962      6.5663      1.5405
 65      0.0000      1.3696      2.3431      1.7492      1.7304      1.7926      0.0000      0.0000      2.7147
 66      0.0000      1.9889      4.4209      6.7091      9.3455      5.9174      0.2639      5.6853      9.8716

# j      m_j: min, <> & last-chain-values for 1 ...  7 chains
  1  0.0000E+00  1.3446E-02  9.4497E-03  3.3487E-03  9.3922E-04  1.2133E-02  0.0000E+00  6.1112E-03  3.2425E-03
  2  0.0000E+00  3.2195E-03  1.2149E-03  1.2808E-03  5.7935E-04  0.0000E+00  2.0606E-03  1.6974E-05  8.9024E-04
  3  0.0000E+00  4.1050E-03  3.5328E-03  9.2961E-05  2.3162E-04  6.5459E-04  2.9268E-03  0.0000E+00  0.0000E+00
  4  2.2548E-01  5.4629E-03  3.2536E-03  2.9496E-03  2.6253E-03  1.0867E-02  4.6013E-03  0.0000E+00  2.4579E-03
  5  0.0000E+00  9.9174E-03  2.0061E-03  1.1833E-03  1.2096E-03  5.3509E-03  2.1806E-02  0.0000E+00  1.1335E-03
  6  3.8680E-01  1.4916E-02  6.9761E-03  4.2588E-04  0.0000E+00  6.4403E-04  5.4433E-03  0.0000E+00  9.6661E-04
  7  1.0959E+00  1.9736E-02  1.5043E-04  5.1900E-03  3.2184E-03  0.0000E+00  1.0572E-02  3.6017E-02  1.3467E-02
  8  5.1793E-02  4.1420E-02  4.9118E-03  2.1063E-02  1.8931E-02  8.1786E-02  3.1489E-02  5.6135E-03  1.1030E-02
  9  0.0000E+00  4.0052E-02  0.0000E+00  7.0446E-03  0.0000E+00  0.0000E+00  5.2343E-03  1.8051E-03  3.4409E-03
 10  0.0000E+00  4.7718E-02  0.0000E+00  1.7288E-02  2.2345E-02  2.8721E-02  5.9161E-03  4.1321E-02  2.0905E-02
 11  7.5795E-01  1.0872E-01  7.2710E-02  0.0000E+00  1.2636E-02  9.0339E-02  1.9510E-02  2.1046E-01  3.0980E-02
 12  0.0000E+00  1.2126E-01  1.7956E-01  1.1002E-02  1.8783E-02  2.3090E-01  0.0000E+00  7.3882E-02  3.2090E-02
 13  6.8836E-02  2.7561E-01  0.0000E+00  1.4878E-01  0.0000E+00  2.3943E-01  1.6059E-01  6.6874E-02  2.3485E-02
 14  0.0000E+00  1.3529E+00  3.3158E+00  4.2155E-01  2.7207E-01  2.9464E+00  7.8463E-01  2.1774E+00  2.8419E-01
 15  6.0431E-02  1.9240E+00  1.9742E+00  5.5219E-01  5.2997E-01  6.3603E+00  2.2679E+00  0.0000E+00  4.9625E-01
 16  0.0000E+00  2.9495E+00  1.9278E+00  1.9107E+00  0.0000E+00  0.0000E+00  3.6485E-01  0.0000E+00  1.1859E+00
 17  0.0000E+00  4.8745E+00  5.4432E+00  3.9883E+00  0.0000E+00  0.0000E+00  7.6097E+00  4.2492E+00  1.5404E+00
 18  2.9671E+00  1.3482E-02  0.0000E+00  4.3882E-04  6.5762E-03  3.0985E-03  1.7852E-02  4.7993E-03  6.1983E-03
 19  1.1894E+00  5.8011E-03  0.0000E+00  0.0000E+00  1.0988E-03  2.5326E-03  7.2884E-03  1.2526E-03  0.0000E+00
 20  0.0000E+00  5.3634E-03  8.5303E-03  2.1730E-03  9.8947E-04  0.0000E+00  0.0000E+00  1.3465E-03  3.5546E-03
 21  0.0000E+00  5.0359E-03  3.9392E-03  5.2505E-03  1.8286E-05  2.9823E-03  5.1175E-03  1.0936E-03  3.0461E-03
 22  0.0000E+00  9.9150E-03  8.0452E-03  4.1111E-03  2.3937E-03  0.0000E+00  2.0370E-02  8.7700E-03  8.0599E-03
 23  2.3484E+00  1.7718E-02  8.5877E-03  3.7776E-03  4.3248E-03  3.3983E-02  2.6029E-02  2.4509E-02  3.1470E-03
 24  3.0536E-01  1.7974E-02  1.2993E-02  2.2076E-03  7.6697E-03  0.0000E+00  5.8224E-02  0.0000E+00  5.9076E-03
 25  0.0000E+00  1.6829E-02  0.0000E+00  0.0000E+00  2.7584E-03  0.0000E+00  8.0882E-02  2.2900E-02  4.8933E-03
 26  0.0000E+00  4.0257E-02  0.0000E+00  8.9718E-03  0.0000E+00  0.0000E+00  4.1159E-02  5.6566E-02  0.0000E+00
 27  8.9810E-02  8.0644E-02  3.3961E-02  0.0000E+00  1.2943E-02  4.6944E-02  1.9428E-02  2.2334E-01  2.9109E-02
 28  0.0000E+00  2.7074E-01  1.2372E-01  5.8343E-02  2.6205E-01  6.1353E-02  0.0000E+00  0.0000E+00  1.8495E-01
 29  0.0000E+00  4.1228E-01  1.2788E-01  1.1351E-01  9.2853E-02  0.0000E+00  0.0000E+00  3.6483E-01  0.0000E+00
 30  1.0862E+01  7.6324E-01  1.4069E+00  9.9142E-03  2.6009E-01  8.2251E-01  6.3940E-01  1.0201E-01  9.7187E-02
 31  0.0000E+00  1.5043E+00  4.5919E-01  4.2982E-01  3.1157E-01  1.3533E+00  0.0000E+00  1.4834E+00  7.8762E-02
 32  0.0000E+00  2.2415E+00  3.4927E-01  0.0000E+00  1.3806E-01  5.5852E+00  4.6595E+00  4.9908E-01  8.4722E-02
 33  0.0000E+00  8.7809E+00  1.7204E+01  1.8801E+01  1.7309E+01  3.4105E+00  1.2117E+01  1.0519E+01  1.1822E+01
 34  0.0000E+00  6.9501E+00  5.4235E+00  3.7561E+00  2.8050E+00  4.4849E+00  1.3114E+01  7.9507E+00  3.2280E+00
 35  4.5665E-01  9.1641E-03  9.8079E-03  2.0625E-03  3.7290E-03  6.3784E-03  1.2190E-02  1.4578E-03  1.2086E-03
 36  1.6070E+00  4.0151E-03  1.7494E-03  7.8241E-04  1.6745E-03  0.0000E+00  1.5925E-03  0.0000E+00  2.5816E-06
 37  0.0000E+00  7.3002E-03  9.3400E-03  1.0773E-02  8.5148E-03  1.2893E-03  3.6897E-03  4.9623E-03  5.9190E-03
 38  8.5462E-02  9.4029E-03  5.1041E-03  1.8376E-03  7.5465E-03  6.8362E-03  2.7981E-03  0.0000E+00  0.0000E+00
 39  0.0000E+00  1.7485E-02  2.7499E-03  1.9474E-02  1.3785E-02  1.1561E-03  2.5234E-03  3.1952E-03  1.2226E-02
 40  0.0000E+00  1.8713E-02  1.8066E-02  6.7667E-03  2.4877E-03  0.0000E+00  0.0000E+00  5.0748E-02  2.1997E-03
 41  0.0000E+00  3.5216E-02  1.2745E-02  1.5867E-02  9.6595E-03  1.5640E-03  3.0926E-03  6.6725E-02  3.0289E-02
 42  3.5879E-01  6.8404E-02  3.0962E-02  4.0778E-02  4.4349E-03  1.9475E-02  3.0733E-02  8.9916E-05  2.1737E-02
 43  8.4537E+00  1.3394E-01  2.4526E-02  0.0000E+00  2.6686E-03  0.0000E+00  9.8791E-02  6.4227E-03  0.0000E+00
 44  0.0000E+00  1.2002E-01  0.0000E+00  0.0000E+00  0.0000E+00  0.0000E+00  1.0374E-02  1.1966E-01  9.2021E-04
 45  5.0486E+00  3.6959E-01  8.0478E-02  0.0000E+00  0.0000E+00  9.1415E-01  3.2463E-01  0.0000E+00  6.2543E-03
 46  0.0000E+00  5.5568E-01  0.0000E+00  1.0245E-01  1.0270E-01  1.2997E-03  9.5900E-02  1.4945E+00  2.7355E-01
 47  0.0000E+00  1.2281E+00  4.9724E-01  1.9465E-01  1.7569E-01  1.4309E-01  5.4541E+00  6.6307E-01  1.8338E-01
 48  0.0000E+00  2.3148E+00  0.0000E+00  4.5612E-01  1.3785E-01  1.0211E+00  3.1201E+00  1.7152E+00  0.0000E+00
 49  0.0000E+00  5.6427E+00  6.2793E-01  2.2177E+00  3.4429E-01  5.0339E+00  0.0000E+00  7.4012E+00  7.3268E-02
 50  0.0000E+00  1.4475E+01  1.5348E+01  2.6202E+01  2.7347E+01  1.1312E+01  3.8411E+01  0.0000E+00  2.3526E+01
 51  3.5443E-01  6.6490E-03  3.2175E-04  3.3836E-03  2.3177E-03  3.6659E-05  3.0355E-03  1.2776E-02  2.2780E-03
 52  0.0000E+00  1.8180E-03  2.5800E-03  9.6252E-04  3.1949E-04  0.0000E+00  0.0000E+00  7.2854E-04  5.8407E-04
 53  1.0440E-01  3.9546E-03  6.3243E-04  2.6774E-03  1.7497E-04  0.0000E+00  3.5359E-03  4.7660E-03  2.3133E-03
 54  0.0000E+00  1.0636E-02  4.5247E-03  6.1397E-03  4.8493E-03  6.4637E-04  0.0000E+00  7.8774E-03  3.1620E-03
 55  0.0000E+00  1.3636E-02  0.0000E+00  4.4217E-03  5.4000E-03  2.0602E-02  0.0000E+00  2.6313E-03  5.9927E-03
 56  0.0000E+00  1.9582E-02  2.5142E-02  2.0995E-02  1.2276E-02  1.5179E-04  8.5163E-03  0.0000E+00  2.8732E-02
 57  0.0000E+00  4.7368E-02  3.7452E-02  4.3081E-02  4.8941E-02  0.0000E+00  4.6466E-03  0.0000E+00  3.3676E-02
 58  0.0000E+00  4.3922E-02  9.5640E-04  4.3264E-03  3.5614E-03  2.8086E-02  0.0000E+00  0.0000E+00  0.0000E+00
 59  1.2191E+00  1.3588E-01  0.0000E+00  1.3611E-02  7.0132E-03  1.2087E-01  5.6365E-02  3.5347E-02  0.0000E+00
 60  0.0000E+00  2.5099E-01  2.3694E-02  4.9521E-04  5.5885E-02  0.0000E+00  3.8528E-01  2.3992E-02  0.0000E+00
 61  0.0000E+00  4.0215E-01  5.8047E-03  6.3388E-02  7.3610E-02  4.5559E-01  3.5620E-01  0.0000E+00  7.3661E-01
 62  2.7428E+01  9.2951E-01  1.0685E+00  2.4283E-01  0.0000E+00  1.1170E+00  3.1285E+00  0.0000E+00  4.1030E-01
 63  0.0000E+00  2.1062E+00  4.2356E-01  1.0015E+00  3.6806E-01  8.0830E-01  1.7413E+00  2.3942E+00  0.0000E+00
 64  3.4474E+01  5.7696E+00  4.8336E+00  0.0000E+00  3.9967E+00  5.0009E+00  2.3304E+00  1.6136E+01  2.3230E+00
 65  0.0000E+00  1.0587E+01  1.0582E+01  6.0814E+00  5.2331E+00  8.5056E+00  0.0000E+00  0.0000E+00  8.6534E+00
 66  0.0000E+00  2.1719E+01  2.8207E+01  3.2951E+01  3.9926E+01  3.9666E+01  2.3068E+00  4.1722E+01  4.4453E+01

# AV, chi2 & Mass for <> & i_chain = 1 ...  7 solutions
AV       2.3134      0.6616      0.8464      0.7404      0.6318      0.7572      0.7969      0.9136      0.7016
chi2 1.6734E-05  3.1784E-05  2.6940E-05  2.7089E-05  2.7060E-05  2.6369E-05  2.5861E-05  2.7078E-05  2.6916E-05
Mass 6.8998E-14  1.2836E-13  2.8158E-13  3.1724E-13  3.1521E-13  2.3777E-13  1.9230E-13  2.6793E-13  3.2846E-13
-465.32                                  [v0_min (km/s) before EX0s...]
 323.72                                  [vd_min (km/s) before EX0s...]


## Synthetic spectrum (Best Model) ##l_obs f_obs f_syn wei
 3478    [Nl_obs]
 3741.00    1.78377   1.06268    0.000
 3742.00    1.34491   1.04975    0.000
 3743.00    0.82975   1.04026    0.000
 3744.00    0.56971   1.03566    0.000
 3745.00    0.45832   1.03676    0.015
 3746.00    0.86824   1.04394    0.015
 3747.00    1.54291   1.05662    0.016
 3748.00    1.40812   1.07169    0.016
 3749.00    0.91740   1.08901    0.017
 3750.00    1.37636   1.10682    0.017
 3751.00    2.19386   1.12261    0.016
 3752.00    2.86687   1.13687    0.016
 3753.00    3.49357   1.14635    0.016
 3754.00    3.21943   1.15176    0.016
 3755.00    2.70389   1.15352    0.015
 3756.00    2.08766   1.14928    0.015
 3757.00    1.44932   1.14099    0.014
 3758.00    1.16692   1.12820    0.014
 3759.00    0.94665   1.11129    0.015
 3760.00    0.84241   1.09259    0.019
 3761.00    0.75359   1.07294    0.029
 3762.00    1.06035   1.05517    0.020
 3763.00    1.40430   1.04185    0.014
 3764.00    0.88946   1.03358    0.013
 3765.00    0.32508   1.03240    0.013
 3766.00    0.25517   1.03943    0.013
 3767.00    0.20414   1.05314    0.013
 3768.00    1.02030   1.07249    0.014
 3769.00    1.80655   1.09561    0.015
 3770.00    1.86637   1.12050    0.014
 3771.00    1.91028   1.14612    0.014
 3772.00    1.74567   1.16978    0.013
 3773.00    1.58543   1.19026    0.013
 3774.00    1.46355   1.20760    0.013
 3775.00    1.33922   1.22088    0.012
 3776.00    1.19904   1.23015    0.013
 3777.00    1.07630   1.23559    0.013
 3778.00    1.04182   1.23720    0.013
 3779.00    0.95929   1.23520    0.013
 3780.00    0.68001   1.22945    0.013
 3781.00    0.50706   1.22007    0.013
 3782.00    0.69475   1.20688    0.013
 3783.00    0.98067   1.19007    0.014
 3784.00    1.54757   1.16971    0.014
 3785.00    1.75067   1.14592    0.014
 3786.00    1.06493   1.12004    0.014
 3787.00    0.31757   1.09307    0.014
 3788.00   -0.55967   1.06675    0.000
 3789.00   -0.81695   1.04341    0.000
 3790.00    0.06132   1.02503    0.014
 3791.00    0.86112   1.01316    0.014
 3792.00    1.53532   1.00932    0.014
 3793.00    1.89579   1.01467    0.014
 3794.00    1.81559   1.02792    0.014
 3795.00    1.70804   1.04747    0.014
 3796.00    1.56666   1.07145    0.014
 3797.00    1.30576   1.09773    0.013
 3798.00    0.91462   1.12534    0.013
 3799.00    0.81911   1.15184    0.014
 3800.00    1.00768   1.17525    0.014
 3801.00    0.89738   1.19600    0.014
 3802.00    0.53380   1.21338    0.013
 3803.00    0.14466   1.22708    0.013
 3804.00   -0.26355   1.23736    0.000
 3805.00   -0.05139   1.24374    0.000
 3806.00    0.56746   1.24724    0.012
 3807.00    1.13257   1.24784    0.013
 3808.00    1.66685   1.24503    0.013
 3809.00    1.77260   1.24064    0.014
 3810.00    1.66417   1.23503    0.014
 3811.00    1.39372   1.22887    0.014
 3812.00    1.05320   1.22333    0.014
 3813.00    1.28516   1.21681    0.014
 3814.00    1.72944   1.21222    0.013
 3815.00    2.40151   1.21004    0.013
 3816.00    3.14518   1.20715    0.014
 3817.00    3.08932   1.20385    0.017
 3818.00    2.82371   1.19769    0.023
 3819.00    1.87710   1.18900    0.017
 3820.00    0.78457   1.17784    0.013
 3821.00    0.41636   1.16159    0.012
 3822.00    0.17108   1.14091    0.012
 3823.00    0.07404   1.11610    0.012
 3824.00   -0.00399   1.08858    0.000
 3825.00    0.38803   1.06109    0.012
 3826.00    0.82224   1.03493    0.013
 3827.00    1.28524   1.01263    0.015
 3828.00    1.74979   0.99628    0.017
 3829.00    1.13458   0.98717    0.015
 3830.00    0.50850   0.98826    0.013
 3831.00    0.79172   0.99887    0.014
 3832.00    1.04432   1.01667    0.014
 3833.00    0.61660   1.04073    0.013
 3834.00    0.22554   1.06824    0.013
 3835.00    0.29043   1.09801    0.013
 3836.00    0.38246   1.12808    0.013
 3837.00    0.70382   1.15573    0.014
 3838.00    1.09427   1.18049    0.015
 3839.00    1.91931   1.20161    0.015
 3840.00    2.48816   1.21931    0.014
 3841.00    1.79293   1.23393    0.014
 3842.00    1.20118   1.24540    0.013
 3843.00    1.02363   1.25438    0.013
 3844.00    0.80893   1.26107    0.013
 3845.00    0.47067   1.26612    0.013
 3846.00    0.27647   1.27029    0.013
 3847.00    0.48678   1.27305    0.000
 3848.00    0.84826   1.27493    0.000
 3849.00    1.57283   1.27614    0.000
 3850.00    2.03324   1.27682    0.000
 3851.00    1.94582   1.27771    0.000
 3852.00    1.71620   1.27813    0.000
 3853.00    1.23012   1.27811    0.000
 3854.00    1.06585   1.27782    0.000
 3855.00    1.40909   1.27749    0.000
 3856.00    1.28929   1.27659    0.000
 3857.00    0.52847   1.27560    0.000
 3858.00   -0.18098   1.27440    0.000
 3859.00   -0.82783   1.27252    0.000
 3860.00   -0.75371   1.27056    0.000
 3861.00    0.09487   1.26751    0.000
 3862.00    0.85576   1.26509    0.000
 3863.00    1.53354   1.26297    0.000
 3864.00    2.13582   1.25972    0.000
 3865.00    2.67501   1.25586    0.000
 3866.00    2.42338   1.25139    0.000
 3867.00    1.59009   1.24721    0.000
 3868.00    1.24725   1.24248    0.000
 3869.00    1.22121   1.23590    0.000
 3870.00    1.25711   1.22735    0.000
 3871.00    1.32802   1.21707    0.000
 3872.00    1.52086   1.20457    0.000
 3873.00    1.77368   1.18920    0.000
 3874.00    1.81963   1.17043    0.000
 3875.00    1.77760   1.14780    0.000
 3876.00    1.64711   1.12214    0.000
 3877.00    1.48439   1.09410    0.000
 3878.00    1.84508   1.06531    0.000
 3879.00    2.36712   1.03800    0.000
 3880.00    1.73162   1.01325    0.000
 3881.00    0.79897   0.99358    0.013
 3882.00    0.39211   0.98061    0.013
 3883.00    0.09519   0.97623    0.012
 3884.00   -0.48172   0.98249    0.000
 3885.00   -1.10479   0.99704    0.000
 3886.00   -0.88723   1.01795    0.000
 3887.00   -0.56556   1.04336    0.000
 3888.00   -0.05035   1.07148    0.000
 3889.00    0.48141   1.10124    0.013
 3890.00    0.38914   1.13008    0.013
 3891.00    0.26577   1.15627    0.012
 3892.00    0.02284   1.17910    0.012
 3893.00   -0.22381   1.19873    0.000
 3894.00   -0.58478   1.21547    0.000
 3895.00   -0.91241   1.22952    0.000
 3896.00   -0.55812   1.24117    0.000
 3897.00   -0.19084   1.25056    0.000
 3898.00    0.33012   1.25842    0.012
 3899.00    0.80751   1.26495    0.011
 3900.00    0.92992   1.27035    0.011
 3901.00    1.06579   1.27483    0.011
 3902.00    1.28384   1.27844    0.011
 3903.00    1.46188   1.28116    0.011
 3904.00    1.44736   1.28308    0.011
 3905.00    1.49800   1.28403    0.011
 3906.00    1.80384   1.28414    0.011
 3907.00    1.99214   1.28368    0.011
 3908.00    1.79726   1.28217    0.011
 3909.00    1.55060   1.28010    0.011
 3910.00    1.16117   1.27713    0.012
 3911.00    0.96789   1.27367    0.012
 3912.00    1.23777   1.26993    0.012
 3913.00    1.54838   1.26572    0.012
 3914.00    1.94214   1.26208    0.013
 3915.00    1.91283   1.25843    0.013
 3916.00    1.13211   1.25540    0.013
 3917.00    0.63475   1.25258    0.013
 3918.00    0.57766   1.24959    0.013
 3919.00    0.63357   1.24762    0.013
 3920.00    0.84366   1.24539    0.013
 3921.00    0.35124   1.24376    0.013
 3922.00   -0.98505   1.24250    0.000
 3923.00   -1.05020   1.24086    0.000
 3924.00    0.23089   1.24011    0.013
 3925.00    0.56166   1.23914    0.013
 3926.00    0.00468   1.23910    0.013
 3927.00   -0.59072   1.24005    0.000
 3928.00   -1.21776   1.24173    0.000
 3929.00   -1.05618   1.24490    0.000
 3930.00   -0.32292   1.24847    0.000
 3931.00    0.17645   1.25257    0.013
 3932.00    0.52699   1.25677    0.013
 3933.00    0.76048   1.26091    0.013
 3934.00    0.92883   1.26497    0.013
 3935.00    1.17184   1.26825    0.013
 3936.00    1.45099   1.27068    0.013
 3937.00    1.86809   1.27239    0.013
 3938.00    2.34285   1.27346    0.013
 3939.00    2.10025   1.27392    0.013
 3940.00    1.60105   1.27400    0.013
 3941.00    1.47103   1.27340    0.013
 3942.00    1.45260   1.27228    0.013
 3943.00    1.67539   1.27064    0.013
 3944.00    1.95875   1.26831    0.013
 3945.00    1.92257   1.26539    0.013
 3946.00    1.82122   1.26138    0.013
 3947.00    1.98087   1.25636    0.013
 3948.00    2.18231   1.24999    0.013
 3949.00    1.69041   1.24227    0.013
 3950.00    1.11573   1.23283    0.013
 3951.00    0.21419   1.22082    0.013
 3952.00   -0.71397   1.20648    0.000
 3953.00   -0.76950   1.18901    0.000
 3954.00   -0.78492   1.16839    0.000
 3955.00   -0.15392   1.14458    0.000
 3956.00    0.49110   1.11716    0.013
 3957.00    1.43840   1.08792    0.013
 3958.00    2.34926   1.05770    0.014
 3959.00    2.56971   1.02744    0.014
 3960.00    2.65192   0.99938    0.000
 3961.00    1.17631   0.97474    0.000
 3962.00   -0.16654   0.95639    0.000
 3963.00   -0.46577   0.94627    0.000
 3964.00   -0.41274   0.94504    0.000
 3965.00    1.73048   0.95356    0.000
 3966.00    3.21675   0.97009    0.000
 3967.00    1.61845   0.99284    0.000
 3968.00    0.39725   1.02037    0.000
 3969.00    0.62117   1.05061    0.000
 3970.00    1.00851   1.08209    0.000
 3971.00    1.91818   1.11259    0.000
 3972.00    2.31337   1.14025    0.000
 3973.00    1.31523   1.16469    0.000
 3974.00    0.70416   1.18568    0.000
 3975.00    0.99191   1.20343    0.000
 3976.00    1.24341   1.21832    0.000
 3977.00    1.42211   1.23078    0.000
 3978.00    1.51067   1.24121    0.000
 3979.00    1.44156   1.24991    0.000
 3980.00    1.63527   1.25729    0.000
 3981.00    2.23135   1.26329    0.014
 3982.00    2.44080   1.26829    0.014
 3983.00    2.13028   1.27251    0.014
 3984.00    1.96076   1.27583    0.014
 3985.00    1.95820   1.27844    0.013
 3986.00    1.94646   1.28026    0.013
 3987.00    1.92513   1.28160    0.013
 3988.00    2.17942   1.28270    0.013
 3989.00    2.68758   1.28337    0.013
 3990.00    2.48622   1.28387    0.013
 3991.00    1.70882   1.28431    0.013
 3992.00    1.40363   1.28441    0.013
 3993.00    1.43582   1.28419    0.013
 3994.00    1.28656   1.28347    0.013
 3995.00    1.02352   1.28242    0.013
 3996.00    1.23536   1.28093    0.012
 3997.00    1.70743   1.27892    0.012
 3998.00    1.94992   1.27701    0.013
 3999.00    2.08304   1.27509    0.013
 4000.00    1.66107   1.27328    0.013
 4001.00    1.01095   1.27172    0.012
 4002.00    1.18409   1.27143    0.012
 4003.00    1.64638   1.27219    0.012
 4004.00    1.61593   1.27352    0.013
 4005.00    1.43948   1.27568    0.013
 4006.00    1.68108   1.27800    0.013
 4007.00    2.02538   1.28034    0.013
 4008.00    2.47228   1.28204    0.013
 4009.00    2.93957   1.28293    0.013
 4010.00    2.65586   1.28257    0.013
 4011.00    2.25545   1.28028    0.013
 4012.00    1.31610   1.27626    0.013
 4013.00    0.31478   1.27025    0.013
 4014.00    0.44618   1.26289    0.013
 4015.00    0.66517   1.25432    0.013
 4016.00    0.21281   1.24518    0.013
 4017.00   -0.26782   1.23622    0.000
 4018.00    0.58232   1.22831    0.013
 4019.00    1.43868   1.22471    0.013
 4020.00    2.03539   1.22399    0.013
 4021.00    2.54900   1.22563    0.013
 4022.00    1.59762   1.22992    0.013
 4023.00    0.77785   1.23587    0.013
 4024.00    1.37420   1.24378    0.013
 4025.00    1.89201   1.25206    0.013
 4026.00    1.81364   1.26111    0.013
 4027.00    1.80231   1.26963    0.013
 4028.00    2.17764   1.27668    0.014
 4029.00    2.42922   1.28258    0.014
 4030.00    2.11367   1.28699    0.014
 4031.00    1.94978   1.29037    0.013
 4032.00    2.35482   1.29263    0.013
 4033.00    2.53776   1.29391    0.013
 4034.00    2.02446   1.29460    0.013
 4035.00    1.58441   1.29475    0.013
 4036.00    1.33924   1.29436    0.013
 4037.00    1.04380   1.29390    0.013
 4038.00    0.63354   1.29342    0.013
 4039.00    0.22018   1.29338    0.013
 4040.00   -0.19933   1.29339    0.000
 4041.00   -0.13391   1.29347    0.000
 4042.00    0.76690   1.29377    0.013
 4043.00    1.30423   1.29382    0.013
 4044.00    1.29324   1.29380    0.013
 4045.00    0.91777   1.29357    0.013
 4046.00    0.05914   1.29314    0.013
 4047.00   -0.32980   1.29255    0.000
 4048.00   -0.17041   1.29166    0.000
 4049.00    0.12218   1.29073    0.013
 4050.00    0.55188   1.28962    0.013
 4051.00    0.78727   1.28835    0.013
 4052.00    0.84621   1.28694    0.013
 4053.00    0.70421   1.28530    0.013
 4054.00    0.40139   1.28354    0.013
 4055.00    0.47786   1.28135    0.013
 4056.00    0.82140   1.27901    0.012
 4057.00    0.97069   1.27628    0.012
 4058.00    1.00000   1.27320    0.013
 4059.00    1.25157   1.26961    0.013
 4060.00    1.62306   1.26589    0.013
 4061.00    1.88637   1.26236    0.013
 4062.00    2.09899   1.25899    0.013
 4063.00    1.48775   1.25651    0.012
 4064.00    0.54367   1.25439    0.012
 4065.00    0.35307   1.25299    0.012
 4066.00    0.42228   1.25218    0.012
 4067.00    0.96232   1.25164    0.012
 4068.00    1.63907   1.25193    0.012
 4069.00    1.16295   1.25271    0.012
 4070.00    0.40992   1.25390    0.012
 4071.00   -0.02848   1.25495    0.000
 4072.00   -0.40592   1.25577    0.000
 4073.00    0.93226   1.25619    0.012
 4074.00    2.52897   1.25570    0.013
 4075.00    2.26049   1.25456    0.013
 4076.00    1.78571   1.25257    0.013
 4077.00    1.21184   1.24966    0.012
 4078.00    0.63072   1.24546    0.012
 4079.00    1.32284   1.24012    0.012
 4080.00    2.06370   1.23371    0.013
 4081.00    2.08014   1.22576    0.013
 4082.00    2.07650   1.21670    0.013
 4083.00    1.46736   1.20566    0.013
 4084.00    0.89894   1.19226    0.013
 4085.00    1.00164   1.17628    0.013
 4086.00    1.13333   1.15735    0.013
 4087.00    1.56332   1.13536    0.013
 4088.00    1.93417   1.11066    0.013
 4089.00    1.87104   1.08398    0.013
 4090.00    1.91035   1.05628    0.013
 4091.00    2.52431   1.02868    0.013
 4092.00    3.00917   1.00370    0.000
 4093.00    2.91634   0.98378    0.000
 4094.00    2.69008   0.97020    0.000
 4095.00    1.97374   0.96478    0.000
 4096.00    1.49950   0.96722    0.000
 4097.00    1.76985   0.97741    0.000
 4098.00    1.91375   0.99435    0.000
 4099.00    1.72717   1.01643    0.000
 4100.00    1.58450   1.04222    0.000
 4101.00    1.54042   1.06963    0.000
 4102.00    1.42470   1.09730    0.000
 4103.00    1.16957   1.12305    0.000
 4104.00    0.88077   1.14592    0.000
 4105.00    0.53487   1.16539    0.000
 4106.00    0.51044   1.18132    0.000
 4107.00    0.96389   1.19449    0.000
 4108.00    1.38821   1.20453    0.000
 4109.00    1.77447   1.21249    0.000
 4110.00    1.57866   1.21844    0.000
 4111.00    0.71288   1.22322    0.000
 4112.00    0.63283   1.22775    0.000
 4113.00    1.35038   1.23172    0.012
 4114.00    1.66625   1.23592    0.012
 4115.00    1.62250   1.23997    0.012
 4116.00    1.38266   1.24412    0.012
 4117.00    0.98813   1.24819    0.012
 4118.00    0.35483   1.25162    0.012
 4119.00   -0.44415   1.25527    0.000
 4120.00   -0.16627   1.25811    0.000
 4121.00    0.76689   1.26071    0.012
 4122.00    1.14202   1.26280    0.012
 4123.00    1.22068   1.26440    0.012
 4124.00    1.18311   1.26600    0.012
 4125.00    1.09195   1.26732    0.012
 4126.00    1.44858   1.26878    0.012
 4127.00    1.98301   1.26980    0.012
 4128.00    1.84980   1.27078    0.012
 4129.00    1.49062   1.27127    0.011
 4130.00    1.32692   1.27105    0.011
 4131.00    1.21884   1.27015    0.011
 4132.00    1.26708   1.26837    0.011
 4133.00    1.35203   1.26566    0.011
 4134.00    1.21479   1.26289    0.011
 4135.00    1.03561   1.26095    0.011
 4136.00    0.99662   1.25916    0.011
 4137.00    0.97810   1.25821    0.011
 4138.00    0.90743   1.25818    0.011
 4139.00    0.83123   1.25906    0.011
 4140.00    1.13566   1.26067    0.012
 4141.00    1.46643   1.26306    0.012
 4142.00    1.33354   1.26586    0.012
 4143.00    1.18467   1.26860    0.011
 4144.00    1.54950   1.27156    0.012
 4145.00    1.89335   1.27409    0.012
 4146.00    1.51032   1.27607    0.012
 4147.00    1.14332   1.27782    0.012
 4148.00    1.02437   1.27947    0.012
 4149.00    0.89612   1.28089    0.011
 4150.00    0.67621   1.28225    0.012
 4151.00    0.46512   1.28348    0.012
 4152.00    0.31666   1.28454    0.012
 4153.00    0.44542   1.28541    0.012
 4154.00    2.08757   1.28610    0.012
 4155.00    3.19755   1.28643    0.012
 4156.00    1.98142   1.28643    0.012
 4157.00    0.98378   1.28607    0.011
 4158.00    0.77199   1.28544    0.011
 4159.00    0.58529   1.28445    0.011
 4160.00    0.47432   1.28342    0.011
 4161.00    0.54526   1.28223    0.011
 4162.00    1.08338   1.28097    0.011
 4163.00    1.52513   1.27991    0.012
 4164.00    1.75397   1.27892    0.012
 4165.00    1.89104   1.27826    0.012
 4166.00    1.85231   1.27773    0.012
 4167.00    1.68176   1.27761    0.012
 4168.00    1.29092   1.27772    0.012
 4169.00    1.29769   1.27809    0.012
 4170.00    1.88690   1.27872    0.012
 4171.00    2.07755   1.27933    0.012
 4172.00    1.75486   1.28006    0.012
 4173.00    1.32394   1.28067    0.012
 4174.00    0.77018   1.28118    0.012
 4175.00    0.63523   1.28139    0.012
 4176.00    0.91945   1.28156    0.012
 4177.00    1.37355   1.28145    0.012
 4178.00    1.97761   1.28134    0.012
 4179.00    1.69007   1.28118    0.012
 4180.00    0.70909   1.28093    0.012
 4181.00    0.93957   1.28084    0.012
 4182.00    1.99853   1.28050    0.012
 4183.00    1.86325   1.28022    0.012
 4184.00    1.01213   1.27950    0.012
 4185.00    0.73713   1.27857    0.012
 4186.00    0.76344   1.27709    0.011
 4187.00    1.14278   1.27506    0.012
 4188.00    1.68225   1.27282    0.012
 4189.00    1.74279   1.27020    0.012
 4190.00    1.61643   1.26782    0.011
 4191.00    1.26761   1.26570    0.011
 4192.00    0.84490   1.26420    0.011
 4193.00    0.64147   1.26354    0.011
 4194.00    0.49915   1.26389    0.012
 4195.00    0.81076   1.26524    0.011
 4196.00    1.22650   1.26749    0.011
 4197.00    1.19987   1.27044    0.011
 4198.00    1.09193   1.27381    0.011
 4199.00    1.31336   1.27733    0.011
 4200.00    1.58137   1.28064    0.011
 4201.00    1.96604   1.28362    0.011
 4202.00    2.36260   1.28604    0.011
 4203.00    1.61191   1.28790    0.011
 4204.00    0.78647   1.28927    0.011
 4205.00    0.78222   1.29035    0.011
 4206.00    0.80416   1.29111    0.011
 4207.00    1.44379   1.29167    0.011
 4208.00    2.06121   1.29207    0.011
 4209.00    2.02627   1.29241    0.011
 4210.00    1.96614   1.29251    0.011
 4211.00    1.53906   1.29255    0.011
 4212.00    1.16004   1.29222    0.011
 4213.00    1.23553   1.29164    0.011
 4214.00    1.27939   1.29081    0.011
 4215.00    1.10588   1.28963    0.011
 4216.00    0.93704   1.28855    0.011
 4217.00    0.79304   1.28731    0.011
 4218.00    0.74987   1.28626    0.011
 4219.00    1.13732   1.28537    0.011
 4220.00    1.37519   1.28484    0.010
 4221.00    1.08598   1.28464    0.010
 4222.00    0.93571   1.28475    0.010
 4223.00    1.19687   1.28519    0.010
 4224.00    1.47054   1.28565    0.010
 4225.00    1.77579   1.28628    0.011
 4226.00    1.93754   1.28688    0.011
 4227.00    1.78748   1.28737    0.010
 4228.00    1.58318   1.28781    0.010
 4229.00    1.27659   1.28815    0.010
 4230.00    0.95895   1.28849    0.010
 4231.00    0.62310   1.28896    0.010
 4232.00    0.47376   1.28953    0.010
 4233.00    0.59363   1.29011    0.010
 4234.00    0.73229   1.29072    0.010
 4235.00    0.89482   1.29129    0.010
 4236.00    1.17642   1.29166    0.010
 4237.00    1.59125   1.29192    0.010
 4238.00    1.68475   1.29189    0.010
 4239.00    1.46116   1.29158    0.010
 4240.00    1.39640   1.29113    0.010
 4241.00    1.46986   1.29047    0.010
 4242.00    1.60020   1.28979    0.010
 4243.00    1.77415   1.28904    0.010
 4244.00    1.63273   1.28840    0.010
 4245.00    1.27877   1.28791    0.010
 4246.00    1.07220   1.28760    0.011
 4247.00    0.95266   1.28749    0.011
 4248.00    0.97177   1.28754    0.011
 4249.00    1.06227   1.28781    0.011
 4250.00    1.16519   1.28802    0.011
 4251.00    1.27366   1.28830    0.011
 4252.00    1.35444   1.28843    0.011
 4253.00    1.42460   1.28827    0.011
 4254.00    1.40165   1.28807    0.011
 4255.00    1.34834   1.28747    0.011
 4256.00    0.75875   1.28662    0.010
 4257.00    0.02278   1.28539    0.010
 4258.00    0.10825   1.28405    0.011
 4259.00    0.37781   1.28261    0.011
 4260.00    0.61756   1.28115    0.011
 4261.00    0.85198   1.27974    0.011
 4262.00    0.81797   1.27850    0.011
 4263.00    0.74724   1.27755    0.011
 4264.00    1.01870   1.27681    0.011
 4265.00    1.32358   1.27667    0.012
 4266.00    1.30964   1.27690    0.011
 4267.00    1.27620   1.27731    0.011
 4268.00    1.17924   1.27805    0.011
 4269.00    1.07921   1.27880    0.011
 4270.00    0.71224   1.27975    0.011
 4271.00    0.37016   1.28059    0.011
 4272.00    0.68569   1.28133    0.011
 4273.00    0.98879   1.28186    0.011
 4274.00    1.12099   1.28218    0.011
 4275.00    1.20633   1.28219    0.011
 4276.00    0.86596   1.28199    0.011
 4277.00    0.65362   1.28151    0.011
 4278.00    1.29417   1.28092    0.011
 4279.00    1.70050   1.28027    0.011
 4280.00    0.89428   1.27958    0.011
 4281.00    0.34654   1.27903    0.011
 4282.00    0.87788   1.27853   -2.000
 4283.00    1.13498   1.27809   -2.000
 4284.00    0.44536   1.27777   -2.000
 4285.00   -0.00597   1.27726   -2.000
 4286.00    0.23534   1.27677   -2.000
 4287.00    0.75407   1.27598   -2.000
 4288.00    1.96092   1.27517   -2.000
 4289.00    2.65598   1.27402   -2.000
 4290.00    2.25696   1.27271   -2.000
 4291.00    1.77414   1.27105   -2.000
 4292.00    1.13577   1.26929   -2.000
 4293.00    0.80931   1.26757   -2.000
 4294.00    0.98874   1.26585   -2.000
 4295.00    1.15068   1.26437   -2.000
 4296.00    1.28777   1.26303   -2.000
 4297.00    1.29268   1.26205   -2.000
 4298.00    1.13219   1.26144    0.011
 4299.00    1.37348   1.26121    0.011
 4300.00    2.05796   1.26123    0.011
 4301.00    2.12442   1.26165    0.011
 4302.00    1.58958   1.26236    0.011
 4303.00    0.82538   1.26322    0.011
 4304.00   -0.13562   1.26427    0.000
 4305.00   -0.11104   1.26531    0.000
 4306.00    0.65832   1.26647    0.011
 4307.00    1.11232   1.26750    0.011
 4308.00    1.35690   1.26834    0.011
 4309.00    1.61378   1.26882    0.011
 4310.00    1.87780   1.26879    0.011
 4311.00    2.19668   1.26828    0.011
 4312.00    2.54336   1.26710    0.010
 4313.00    2.27065   1.26532    0.010
 4314.00    1.72614   1.26267    0.010
 4315.00    1.45895   1.25932    0.010
 4316.00    1.29623   1.25515    0.010
 4317.00    1.37035   1.25018    0.010
 4318.00    1.52018   1.24437    0.010
 4319.00    1.55263   1.23753    0.010
 4320.00    1.55370   1.22938    0.010
 4321.00    0.72920   1.21956    0.010
 4322.00   -0.27597   1.20774    0.000
 4323.00   -0.24619   1.19357    0.000
 4324.00   -0.03638   1.17691    0.000
 4325.00    0.48388   1.15741    0.010
 4326.00    1.04521   1.13523    0.010
 4327.00    1.26421   1.11093    0.010
 4328.00    1.45122   1.08539    0.010
 4329.00    1.28374   1.06002    0.010
 4330.00    1.09598   1.03632    0.000
 4331.00    1.36488   1.01601    0.000
 4332.00    1.64365   1.00070    0.000
 4333.00    1.83657   0.99149    0.000
 4334.00    2.00075   0.98934    0.000
 4335.00    1.47494   0.99420    0.000
 4336.00    0.98624   1.00587    0.000
 4337.00    0.98074   1.02298    0.000
 4338.00    1.01876   1.04466    0.000
 4339.00    1.43691   1.06927    0.000
 4340.00    1.82137   1.09457    0.000
 4341.00    1.98820   1.11929    0.000
 4342.00    2.20455   1.14258    0.000
 4343.00    2.67070   1.16395    0.000
 4344.00    2.86604   1.18309    0.000
 4345.00    1.95598   1.20004    0.000
 4346.00    1.23444   1.21496    0.000
 4347.00    1.15073   1.22793    0.000
 4348.00    1.16022   1.23931    0.000
 4349.00    1.43566   1.24913    0.000
 4350.00    1.67038   1.25786    0.000
 4351.00    1.80584   1.26525    0.010
 4352.00    2.01223   1.27152    0.010
 4353.00    2.36784   1.27672    0.010
 4354.00    2.54358   1.28098    0.010
 4355.00    2.39049   1.28433    0.010
 4356.00    2.19393   1.28691    0.010
 4357.00    1.92791   1.28882    0.010
 4358.00    1.85721   1.29021    0.010
 4359.00    2.06035   1.29103    0.010
 4360.00    2.11049   1.29159    0.010
 4361.00    1.97183   1.29178    0.010
 4362.00    1.66030   1.29196    0.010
 4363.00    1.16075   1.29195    0.010
 4364.00    0.89817   1.29202    0.010
 4365.00    0.86291   1.29212    0.010
 4366.00    1.09980   1.29239    0.010
 4367.00    1.56690   1.29247    0.010
 4368.00    1.66563   1.29254    0.010
 4369.00    1.48997   1.29220    0.010
 4370.00    1.44580   1.29158    0.010
 4371.00    1.48767   1.29032    0.010
 4372.00    1.77712   1.28848    0.010
 4373.00    2.20838   1.28602    0.010
 4374.00    1.93863   1.28295    0.010
 4375.00    1.31921   1.27948    0.010
 4376.00    1.07944   1.27575    0.010
 4377.00    1.00350   1.27235    0.010
 4378.00    0.90637   1.26940    0.010
 4379.00    0.80138   1.26746    0.010
 4380.00    0.70169   1.26651    0.010
 4381.00    0.60365   1.26706    0.010
 4382.00    1.19166   1.26879    0.010
 4383.00    1.95915   1.27178    0.010
 4384.00    1.36448   1.27551    0.010
 4385.00    0.47885   1.27984    0.010
 4386.00    0.59337   1.28452    0.010
 4387.00    0.87702   1.28919    0.010
 4388.00    1.68766   1.29313    0.010
 4389.00    2.56563   1.29672    0.010
 4390.00    2.33561   1.29947    0.010
 4391.00    2.00672   1.30165    0.010
 4392.00    1.90347   1.30318    0.010
 4393.00    1.81224   1.30424    0.010
 4394.00    2.11468   1.30490    0.010
 4395.00    2.41676   1.30521    0.010
 4396.00    2.06322   1.30525    0.010
 4397.00    1.73616   1.30529    0.010
 4398.00    1.99118   1.30521    0.010
 4399.00    2.21937   1.30523    0.010
 4400.00    2.11603   1.30512    0.010
 4401.00    1.99791   1.30502    0.010
 4402.00    1.75535   1.30479    0.010
 4403.00    1.55770   1.30453    0.010
 4404.00    1.64150   1.30413    0.010
 4405.00    1.68974   1.30362    0.011
 4406.00    1.56311   1.30316    0.011
 4407.00    1.59090   1.30277    0.011
 4408.00    2.23516   1.30272    0.011
 4409.00    2.52854   1.30280    0.011
 4410.00    1.65827   1.30349    0.010
 4411.00    0.95240   1.30435    0.010
 4412.00    0.70708   1.30578    0.010
 4413.00    0.74201   1.30723    0.010
 4414.00    1.44865   1.30906    0.010
 4415.00    1.88031   1.31044    0.010
 4416.00    1.74284   1.31193    0.010
 4417.00    1.66915   1.31276    0.010
 4418.00    1.71028   1.31349    0.010
 4419.00    1.87619   1.31366    0.010
 4420.00    2.23853   1.31366    0.010
 4421.00    2.52192   1.31323    0.010
 4422.00    2.69620   1.31268    0.010
 4423.00    2.45419   1.31189    0.010
 4424.00    1.70585   1.31111    0.010
 4425.00    1.39805   1.31029    0.010
 4426.00    1.56263   1.30957    0.010
 4427.00    1.85923   1.30908    0.010
 4428.00    2.28068   1.30866    0.010
 4429.00    2.10094   1.30858    0.010
 4430.00    1.41985   1.30857    0.010
 4431.00    1.29178   1.30888    0.010
 4432.00    1.56973   1.30923    0.010
 4433.00    1.33853   1.30980    0.010
 4434.00    0.77907   1.31046    0.010
 4435.00    1.15203   1.31112    0.010
 4436.00    2.05091   1.31182    0.011
 4437.00    1.81097   1.31249    0.011
 4438.00    1.01195   1.31322    0.011
 4439.00    0.69469   1.31388    0.011
 4440.00    0.58185   1.31456    0.010
 4441.00    0.76530   1.31501    0.010
 4442.00    1.05643   1.31529    0.010
 4443.00    1.42223   1.31536    0.010
 4444.00    1.81100   1.31528    0.010
 4445.00    1.62188   1.31499    0.010
 4446.00    1.28481   1.31450    0.010
 4447.00    0.97545   1.31399    0.010
 4448.00    0.67186   1.31324    0.010
 4449.00    1.31273   1.31258    0.010
 4450.00    2.10878   1.31159    0.010
 4451.00    1.74896   1.31070    0.010
 4452.00    1.24665   1.30941    0.010
 4453.00    1.20750   1.30785    0.010
 4454.00    1.20774   1.30571    0.010
 4455.00    1.49214   1.30300    0.010
 4456.00    1.79055   1.29956    0.010
 4457.00    1.85022   1.29538    0.010
 4458.00    1.91054   1.29069    0.010
 4459.00    2.25049   1.28560    0.010
 4460.00    2.50624   1.28042    0.010
 4461.00    1.05687   1.27575    0.000
 4462.00   -0.17381   1.27190    0.000
 4463.00    1.16591   1.26947    0.000
 4464.00    2.32510   1.26850    0.000
 4465.00    2.02019   1.26938    0.000
 4466.00    1.77031   1.27172    0.000
 4467.00    1.85530   1.27561    0.000
 4468.00    1.93307   1.28080    0.000
 4469.00    1.97625   1.28598    0.000
 4470.00    1.98768   1.29121    0.000
 4471.00    1.87512   1.29592    0.000
 4472.00    1.76040   1.30039    0.000
 4473.00    1.63866   1.30405    0.000
 4474.00    1.45585   1.30755    0.000
 4475.00    1.10505   1.31040    0.000
 4476.00    1.08702   1.31343    0.000
 4477.00    1.85315   1.31594    0.000
 4478.00    2.19126   1.31874    0.000
 4479.00    1.65761   1.32076    0.000
 4480.00    1.28856   1.32291    0.000
 4481.00    1.21130   1.32436    0.000
 4482.00    1.31876   1.32585    0.010
 4483.00    1.71270   1.32684    0.010
 4484.00    1.92902   1.32791    0.010
 4485.00    1.90341   1.32871    0.010
 4486.00    1.80530   1.32968    0.010
 4487.00    1.62026   1.33049    0.010
 4488.00    1.49611   1.33154    0.010
 4489.00    1.43634   1.33255    0.010
 4490.00    1.66626   1.33378    0.010
 4491.00    2.16631   1.33502    0.010
 4492.00    2.35454   1.33636    0.010
 4493.00    2.28642   1.33764    0.010
 4494.00    1.85485   1.33887    0.010
 4495.00    1.16028   1.33994    0.010
 4496.00    1.13098   1.34090    0.010
 4497.00    1.52427   1.34152    0.010
 4498.00    1.70086   1.34187    0.010
 4499.00    1.75708   1.34180    0.009
 4500.00    1.72914   1.34143    0.010
 4501.00    1.66054   1.34072    0.010
 4502.00    1.72231   1.33982    0.010
 4503.00    1.83848   1.33872    0.010
 4504.00    1.56112   1.33758    0.010
 4505.00    1.14330   1.33639    0.010
 4506.00    1.19690   1.33537    0.010
 4507.00    1.39262   1.33445    0.010
 4508.00    1.09048   1.33374    0.010
 4509.00    0.66364   1.33319    0.010
 4510.00    1.09456   1.33279    0.010
 4511.00    1.69986   1.33233    0.010
 4512.00    1.40768   1.33190    0.010
 4513.00    0.97232   1.33125    0.009
 4514.00    0.84241   1.33045    0.009
 4515.00    0.74880   1.32940    0.009
 4516.00    0.82907   1.32810    0.010
 4517.00    0.92342   1.32670    0.010
 4518.00    1.15539   1.32514    0.010
 4519.00    1.39362   1.32362    0.010
 4520.00    1.33595   1.32211    0.010
 4521.00    1.28322   1.32085    0.009
 4522.00    1.66766   1.31971    0.009
 4523.00    2.00706   1.31887    0.009
 4524.00    1.50138   1.31811    0.009
 4525.00    1.03512   1.31746    0.009
 4526.00    1.01059   1.31684    0.009
 4527.00    1.02431   1.31615    0.009
 4528.00    1.33736   1.31543    0.009
 4529.00    1.55748   1.31447    0.009
 4530.00    1.22815   1.31345    0.009
 4531.00    1.00442   1.31235    0.009
 4532.00    1.27497   1.31141    0.010
 4533.00    1.41085   1.31074    0.010
 4534.00    1.03207   1.31046    0.010
 4535.00    0.81362   1.31059    0.009
 4536.00    1.10643   1.31114    0.009
 4537.00    1.36391   1.31210    0.009
 4538.00    1.52593   1.31332    0.010
 4539.00    1.62119   1.31473    0.010
 4540.00    1.56179   1.31626    0.010
 4541.00    1.56435   1.31770    0.010
 4542.00    1.69113   1.31922    0.009
 4543.00    1.71838   1.32062    0.009
 4544.00    1.57186   1.32218    0.010
 4545.00    1.49700   1.32369    0.010
 4546.00    1.53166   1.32549    0.009
 4547.00    1.75331   1.32730    0.009
 4548.00    2.22599   1.32935    0.009
 4549.00    2.32980   1.33138    0.009
 4550.00    1.99756   1.33343    0.000
 4551.00    1.78827   1.33531    0.000
 4552.00    1.70713   1.33695    0.000
 4553.00    1.74570   1.33830    0.000
 4554.00    1.89432   1.33926    0.000
 4555.00    1.82155   1.33990    0.000
 4556.00    1.56937   1.34022    0.000
 4557.00    1.59964   1.34033    0.000
 4558.00    1.83134   1.34030    0.000
 4559.00    1.55295   1.34020    0.000
 4560.00    0.95533   1.34016    0.000
 4561.00    0.71262   1.34014    0.000
 4562.00    0.66404   1.34027    0.000
 4563.00    0.77837   1.34044    0.000
 4564.00    0.97015   1.34073    0.000
 4565.00    1.26434   1.34100    0.000
 4566.00    1.60053   1.34128    0.000
 4567.00    1.68182   1.34149    0.000
 4568.00    1.67381   1.34160    0.000
 4569.00    1.73502   1.34161    0.000
 4570.00    1.81669   1.34146    0.000
 4571.00    1.62437   1.34124    0.000
 4572.00    1.36492   1.34090    0.000
 4573.00    1.27856   1.34053    0.000
 4574.00    1.22650   1.34016    0.000
 4575.00    1.46270   1.33977    0.000
 4576.00    1.74352   1.33952    0.000
 4577.00    1.50794   1.33919    0.000
 4578.00    1.21326   1.33907    0.000
 4579.00    1.02460   1.33881    0.000
 4580.00    0.84408   1.33876    0.000
 4581.00    0.74780   1.33853    0.000
 4582.00    0.65504   1.33847    0.000
 4583.00    0.78540   1.33827    0.000
 4584.00    0.91597   1.33822    0.000
 4585.00    0.97226   1.33814    0.000
 4586.00    1.02698   1.33818    0.000
 4587.00    1.05413   1.33832    0.000
 4588.00    1.08127   1.33854    0.000
 4589.00    1.10829   1.33895    0.000
 4590.00    1.13562   1.33938    0.000
 4591.00    1.16524   1.34007    0.000
 4592.00    1.22253   1.34069    0.000
 4593.00    1.43886   1.34161    0.000
 4594.00    1.59161   1.34240    0.000
 4595.00    1.45386   1.34348    0.000
 4596.00    1.32824   1.34441    0.000
 4597.00    1.24798   1.34556    0.000
 4598.00    1.28552   1.34654    0.000
 4599.00    1.69147   1.34763    0.000
 4600.00    1.92326   1.34856    0.000
 4601.00    1.69276   1.34945    0.000
 4602.00    1.47000   1.35019    0.000
 4603.00    1.26487   1.35077    0.000
 4604.00    1.21632   1.35124    0.000
 4605.00    1.47671   1.35149    0.000
 4606.00    1.65055   1.35172    0.000
 4607.00    1.67559   1.35173    0.000
 4608.00    1.63938   1.35182    0.000
 4609.00    1.51095   1.35177    0.000
 4610.00    1.38442   1.35188    0.000
 4611.00    1.26041   1.35193    0.000
 4612.00    1.26881   1.35216    0.000
 4613.00    1.43151   1.35235    0.000
 4614.00    1.60242   1.35265    0.000
 4615.00    1.78176   1.35285    0.000
 4616.00    1.80473   1.35300    0.000
 4617.00    1.68596   1.35298    0.000
 4618.00    1.79161   1.35278    0.000
 4619.00    2.07656   1.35238    0.000
 4620.00    1.88479   1.35177    0.000
 4621.00    1.35795   1.35101    0.000
 4622.00    1.19169   1.35009    0.000
 4623.00    1.24774   1.34912    0.000
 4624.00    1.18358   1.34805    0.000
 4625.00    1.05469   1.34701    0.000
 4626.00    1.29556   1.34589    0.000
 4627.00    1.70937   1.34478    0.000
 4628.00    1.58328   1.34357    0.000
 4629.00    1.23953   1.34229    0.000
 4630.00    1.23761   1.34087    0.000
 4631.00    1.35330   1.33929    0.000
 4632.00    1.57048   1.33754    0.000
 4633.00    1.81706   1.33554    0.000
 4634.00    1.69047   1.33342    0.000
 4635.00    1.47450   1.33107    0.000
 4636.00    1.31756   1.32873    0.000
 4637.00    1.17202   1.32633    0.000
 4638.00    1.09773   1.32424    0.000
 4639.00    1.03414   1.32239    0.000
 4640.00    1.02621   1.32122    0.000
 4641.00    1.02442   1.32063    0.000
 4642.00    1.11931   1.32100    0.000
 4643.00    1.22123   1.32209    0.000
 4644.00    1.22765   1.32412    0.000
 4645.00    1.23046   1.32672    0.000
 4646.00    1.09302   1.32993    0.000
 4647.00    0.96066   1.33331    0.000
 4648.00    1.04341   1.33675    0.000
 4649.00    1.12101   1.33994    0.000
 4650.00    1.11457   1.34267    0.000
 4651.00    1.11944   1.34489    0.000
 4652.00    1.23994   1.34637    0.000
 4653.00    1.34502   1.34731    0.000
 4654.00    1.33739   1.34753    0.000
 4655.00    1.45244   1.34744    0.000
 4656.00    2.25323   1.34688    0.000
 4657.00    2.80986   1.34633    0.000
 4658.00    2.27715   1.34566    0.000
 4659.00    1.79095   1.34525    0.000
 4660.00    1.47515   1.34495    0.000
 4661.00    1.23972   1.34501    0.000
 4662.00    1.25084   1.34519    0.000
 4663.00    1.14513   1.34565    0.000
 4664.00    0.73475   1.34604    0.000
 4665.00    0.51220   1.34649    0.000
 4666.00    0.71062   1.34661    0.000
 4667.00    0.86972   1.34657    0.000
 4668.00    0.95246   1.34595    0.000
 4669.00    1.04665   1.34505    0.000
 4670.00    1.16023   1.34345    0.000
 4671.00    1.28001   1.34159    0.000
 4672.00    1.40901   1.33914    0.000
 4673.00    1.57799   1.33666    0.000
 4674.00    1.79911   1.33395    0.000
 4675.00    1.74061   1.33164    0.000
 4676.00    1.36083   1.32959    0.000
 4677.00    1.24256   1.32839    0.000
 4678.00    1.38926   1.32785    0.000
 4679.00    1.44602   1.32841    0.000
 4680.00    1.42238   1.32968    0.000
 4681.00    1.33479   1.33191    0.000
 4682.00    1.19683   1.33451    0.000
 4683.00    1.46995   1.33761    0.000
 4684.00    2.02781   1.34055    0.000
 4685.00    2.08614   1.34343    0.000
 4686.00    1.84106   1.34573    0.000
 4687.00    1.54046   1.34761    0.000
 4688.00    1.21042   1.34877    0.000
 4689.00    1.16705   1.34941    0.000
 4690.00    1.25559   1.34951    0.000
 4691.00    1.34014   1.34921    0.000
 4692.00    1.42310   1.34866    0.000
 4693.00    1.55606   1.34789    0.000
 4694.00    1.70590   1.34714    0.000
 4695.00    1.56465   1.34627    0.000
 4696.00    1.34079   1.34557    0.000
 4697.00    1.34027   1.34474    0.000
 4698.00    1.39205   1.34414    0.000
 4699.00    1.50916   1.34334    0.000
 4700.00    1.63856   1.34291    0.000
 4701.00    1.43393   1.34223    0.000
 4702.00    1.18072   1.34219    0.000
 4703.00    1.11539   1.34193    0.000
 4704.00    1.06991   1.34269    0.000
 4705.00    1.30905   1.34327    0.000
 4706.00    1.56773   1.34514    0.000
 4707.00    1.06734   1.34676    0.000
 4708.00    0.54113   1.34970    0.000
 4709.00    0.80222   1.35214    0.000
 4710.00    1.06892   1.35560    0.000
 4711.00    1.47853   1.35822    0.000
 4712.00    1.85506   1.36137    0.000
 4713.00    1.72395   1.36346    0.000
 4714.00    1.58672   1.36563    0.000
 4715.00    1.38937   1.36673    0.000
 4716.00    1.22555   1.36766    0.000
 4717.00    1.29886   1.36777    0.000
 4718.00    1.35147   1.36769    0.000
 4719.00    1.29145   1.36716    0.000
 4720.00    1.32878   1.36660    0.000
 4721.00    1.79039   1.36594    0.000
 4722.00    2.09642   1.36542    0.000
 4723.00    1.84433   1.36503    0.000
 4724.00    1.70600   1.36488    0.000
 4725.00    1.91010   1.36495    0.000
 4726.00    1.89917   1.36523    0.000
 4727.00    1.33724   1.36570    0.000
 4728.00    1.02909   1.36631    0.000
 4729.00    1.28039   1.36702    0.000
 4730.00    1.39773   1.36778    0.000
 4731.00    1.25897   1.36860    0.000
 4732.00    1.21648   1.36938    0.000
 4733.00    1.33458   1.37020    0.000
 4734.00    1.51524   1.37094    0.000
 4735.00    1.78736   1.37168    0.000
 4736.00    1.96127   1.37231    0.000
 4737.00    2.00890   1.37289    0.000
 4738.00    1.95159   1.37331    0.000
 4739.00    1.77539   1.37363    0.000
 4740.00    1.64885   1.37379    0.000
 4741.00    1.57192   1.37379    0.000
 4742.00    1.49046   1.37365    0.000
 4743.00    1.40500   1.37334    0.000
 4744.00    1.49778   1.37296    0.000
 4745.00    1.72895   1.37241    0.000
 4746.00    1.67574   1.37186    0.000
 4747.00    1.42841   1.37117    0.000
 4748.00    1.35716   1.37052    0.000
 4749.00    1.39125   1.36976    0.000
 4750.00    1.50072   1.36903    0.000
 4751.00    1.64954   1.36825    0.000
 4752.00    1.60893   1.36750    0.000
 4753.00    1.48258   1.36678    0.000
 4754.00    1.48398   1.36614    0.000
 4755.00    1.53513   1.36563    0.000
 4756.00    1.31428   1.36527    0.000
 4757.00    1.00330   1.36515    0.000
 4758.00    1.15687   1.36524    0.000
 4759.00    1.43958   1.36559    0.000
 4760.00    1.45590   1.36616    0.000
 4761.00    1.41128   1.36693    0.008
 4762.00    1.60456   1.36784    0.008
 4763.00    1.84141   1.36884    0.008
 4764.00    1.84092   1.36985    0.008
 4765.00    1.80701   1.37080    0.008
 4766.00    1.60353   1.37166    0.008
 4767.00    1.38285   1.37233    0.008
 4768.00    1.62901   1.37285    0.008
 4769.00    1.90535   1.37312    0.008
 4770.00    1.57449   1.37322    0.008
 4771.00    1.22624   1.37308    0.008
 4772.00    1.36761   1.37282    0.008
 4773.00    1.51369   1.37241    0.008
 4774.00    1.79633   1.37196    0.008
 4775.00    2.03706   1.37150    0.008
 4776.00    1.67194   1.37110    0.008
 4777.00    1.32896   1.37081    0.008
 4778.00    1.19428   1.37068    0.008
 4779.00    1.10774   1.37076    0.008
 4780.00    1.35076   1.37102    0.008
 4781.00    1.58723   1.37150    0.008
 4782.00    1.78900   1.37212    0.008
 4783.00    1.86097   1.37289    0.008
 4784.00    1.38012   1.37367    0.008
 4785.00    1.03480   1.37448    0.007
 4786.00    1.16574   1.37518    0.008
 4787.00    1.24571   1.37577    0.008
 4788.00    1.17510   1.37616    0.008
 4789.00    1.18227   1.37638    0.008
 4790.00    1.38528   1.37638    0.008
 4791.00    1.49806   1.37624    0.008
 4792.00    1.41517   1.37592    0.008
 4793.00    1.37233   1.37553    0.008
 4794.00    1.40487   1.37503    0.008
 4795.00    1.56027   1.37457    0.008
 4796.00    1.91756   1.37403    0.008
 4797.00    2.00214   1.37362    0.008
 4798.00    1.69377   1.37316    0.008
 4799.00    1.43380   1.37288    0.008
 4800.00    1.23515   1.37257    0.008
 4801.00    1.21417   1.37243    0.008
 4802.00    1.39161   1.37232    0.008
 4803.00    1.54479   1.37231    0.008
 4804.00    1.67407   1.37237    0.008
 4805.00    1.59407   1.37244    0.008
 4806.00    1.33225   1.37258    0.008
 4807.00    1.44734   1.37262    0.008
 4808.00    1.85088   1.37267    0.008
 4809.00    1.87583   1.37255    0.008
 4810.00    1.64612   1.37238    0.008
 4811.00    1.45788   1.37200    0.008
 4812.00    1.29409   1.37152    0.008
 4813.00    1.26110   1.37088    0.008
 4814.00    1.29532   1.37013    0.008
 4815.00    1.16927   1.36933    0.008
 4816.00    0.97186   1.36843    0.008
 4817.00    1.18470   1.36760    0.008
 4818.00    1.55450   1.36669    0.008
 4819.00    1.66733   1.36593    0.008
 4820.00    1.69661   1.36511    0.008
 4821.00    1.55982   1.36443    0.008
 4822.00    1.37781   1.36368    0.008
 4823.00    1.61333   1.36299    0.008
 4824.00    1.94214   1.36221    0.008
 4825.00    1.51724   1.36134    0.008
 4826.00    0.95801   1.36037    0.008
 4827.00    1.28793   1.35915    0.008
 4828.00    1.73899   1.35779    0.008
 4829.00    1.74429   1.35606    0.008
 4830.00    1.70627   1.35409    0.008
 4831.00    1.50382   1.35172    0.008
 4832.00    1.29139   1.34899    0.008
 4833.00    1.32743   1.34580    0.008
 4834.00    1.37189   1.34205    0.008
 4835.00    1.74496   1.33771    0.008
 4836.00    2.10505   1.33253    0.008
 4837.00    2.12631   1.32646    0.008
 4838.00    2.12127   1.31919    0.008
 4839.00    1.75736   1.31059    0.008
 4840.00    1.45626   1.30031    0.008
 4841.00    1.72283   1.28821    0.008
 4842.00    1.91226   1.27393    0.008
 4843.00    1.58978   1.25750    0.008
 4844.00    1.28520   1.23877    0.008
 4845.00    1.07304   1.21812    0.008
 4846.00    0.94331   1.19578    0.008
 4847.00    1.15674   1.17270    0.008
 4848.00    1.32479   1.14931    0.000
 4849.00    1.33659   1.12711    0.000
 4850.00    1.34535   1.10684    0.000
 4851.00    1.34527   1.09012    0.000
 4852.00    1.38788   1.07760    0.000
 4853.00    1.53619   1.07048    0.000
 4854.00    1.64081   1.06883    0.000
 4855.00    1.65224   1.07301    0.000
 4856.00    1.58280   1.08254    0.000
 4857.00    1.36350   1.09675    0.000
 4858.00    1.37004   1.11473    0.000
 4859.00    1.74217   1.13519    0.000
 4860.00    1.78180   1.15722    0.000
 4861.00    1.34927   1.17949    0.000
 4862.00    1.28426   1.20138    0.000
 4863.00    1.67840   1.22198    0.000
 4864.00    1.74627   1.24106    0.000
 4865.00    1.45489   1.25818    0.000
 4866.00    1.37677   1.27347    0.000
 4867.00    1.50577   1.28677    0.000
 4868.00    1.42200   1.29831    0.000
 4869.00    1.15600   1.30813    0.000
 4870.00    1.19690   1.31653    0.000
 4871.00    1.46930   1.32355    0.000
 4872.00    1.76392   1.32947    0.000
 4873.00    2.07326   1.33431    0.000
 4874.00    1.97611   1.33832    0.000
 4875.00    1.64300   1.34155    0.008
 4876.00    1.47584   1.34431    0.008
 4877.00    1.39259   1.34661    0.008
 4878.00    1.42123   1.34875    0.008
 4879.00    1.49885   1.35081    0.008
 4880.00    1.61932   1.35286    0.008
 4881.00    1.75589   1.35510    0.008
 4882.00    1.85509   1.35740    0.008
 4883.00    1.94238   1.35999    0.008
 4884.00    1.88107   1.36255    0.008
 4885.00    1.78015   1.36533    0.008
 4886.00    1.52488   1.36790    0.008
 4887.00    1.23595   1.37052    0.008
 4888.00    1.23215   1.37278    0.007
 4889.00    1.27778   1.37481    0.007
 4890.00    1.41884   1.37642    0.007
 4891.00    1.57247   1.37777    0.007
 4892.00    1.67684   1.37867    0.008
 4893.00    1.77663   1.37930    0.008
 4894.00    1.84168   1.37954    0.008
 4895.00    1.90476   1.37967    0.008
 4896.00    1.74852   1.37944    0.008
 4897.00    1.59043   1.37923    0.008
 4898.00    1.77692   1.37873    0.008
 4899.00    1.95115   1.37824    0.008
 4900.00    1.83422   1.37743    0.008
 4901.00    1.71626   1.37657    0.007
 4902.00    1.58477   1.37532    0.007
 4903.00    1.48907   1.37369    0.007
 4904.00    1.70459   1.37171    0.007
 4905.00    1.87511   1.36889    0.007
 4906.00    1.75607   1.36610    0.007
 4907.00    1.63991   1.36183    0.007
 4908.00    1.53827   1.35845    0.007
 4909.00    1.47004   1.35365    0.007
 4910.00    1.53779   1.35055    0.007
 4911.00    1.59039   1.34622    0.007
 4912.00    1.59186   1.34444    0.007
 4913.00    1.54041   1.34202    0.007
 4914.00    1.33828   1.34221    0.007
 4915.00    1.22224   1.34266    0.007
 4916.00    1.31566   1.34496    0.007
 4917.00    1.38789   1.34806    0.007
 4918.00    1.41563   1.35187    0.007
 4919.00    1.47295   1.35647    0.007
 4920.00    1.58423   1.36061    0.007
 4921.00    1.64980   1.36528    0.007
 4922.00    1.64249   1.36873    0.007
 4923.00    1.61636   1.37232    0.007
 4924.00    1.56389   1.37449    0.007
 4925.00    1.57609   1.37654    0.007
 4926.00    1.66796   1.37750    0.007
 4927.00    1.65118   1.37848    0.007
 4928.00    1.51646   1.37869    0.007
 4929.00    1.51572   1.37926    0.007
 4930.00    1.64328   1.37938    0.007
 4931.00    1.56611   1.38002    0.007
 4932.00    1.31605   1.38055    0.007
 4933.00    1.20834   1.38157    0.007
 4934.00    1.20645   1.38253    0.007
 4935.00    1.41759   1.38384    0.007
 4936.00    1.76786   1.38512    0.007
 4937.00    1.76061   1.38638    0.007
 4938.00    1.54897   1.38759    0.007
 4939.00    1.43184   1.38848    0.007
 4940.00    1.36175   1.38922    0.000
 4941.00    1.26744   1.38940    0.000
 4942.00    1.16270   1.38954    0.000
 4943.00    1.31542   1.38902    0.000
 4944.00    1.56320   1.38854    0.000
 4945.00    1.62032   1.38741    0.000
 4946.00    1.61779   1.38653    0.000
 4947.00    1.62411   1.38564    0.000
 4948.00    1.63274   1.38491    0.000
 4949.00    1.68062   1.38418    0.000
 4950.00    1.73687   1.38366    0.000
 4951.00    1.51414   1.38340    0.000
 4952.00    1.24441   1.38327    0.000
 4953.00    1.23602   1.38327    0.000
 4954.00    1.26088   1.38335    0.000
 4955.00    1.41826   1.38365    0.000
 4956.00    1.58739   1.38386    0.000
 4957.00    1.74496   1.38423    0.000
 4958.00    1.90192   1.38450    0.000
 4959.00    1.62874   1.38486    0.000
 4960.00    1.35270   1.38518    0.000
 4961.00    1.49765   1.38545    0.000
 4962.00    1.62832   1.38575    0.000
 4963.00    1.44855   1.38587    0.000
 4964.00    1.30509   1.38582    0.000
 4965.00    1.60732   1.38559    0.000
 4966.00    1.90394   1.38505    0.000
 4967.00    2.15359   1.38430    0.000
 4968.00    2.29617   1.38326    0.000
 4969.00    1.77025   1.38198    0.000
 4970.00    1.34704   1.38044    0.000
 4971.00    1.42745   1.37885    0.000
 4972.00    1.52139   1.37731    0.000
 4973.00    1.66919   1.37593    0.000
 4974.00    1.78971   1.37481    0.000
 4975.00    1.81992   1.37406    0.000
 4976.00    1.81148   1.37359    0.000
 4977.00    1.69495   1.37344    0.000
 4978.00    1.55403   1.37364    0.000
 4979.00    1.35477   1.37388    0.000
 4980.00    1.30741   1.37455    0.000
 4981.00    1.57378   1.37498    0.000
 4982.00    1.73511   1.37563    0.000
 4983.00    1.70770   1.37601    0.000
 4984.00    1.65686   1.37628    0.000
 4985.00    1.56923   1.37625    0.000
 4986.00    1.49384   1.37591    0.000
 4987.00    1.43535   1.37531    0.000
 4988.00    1.40830   1.37413    0.000
 4989.00    1.41943   1.37298    0.000
 4990.00    1.50064   1.37110    0.000
 4991.00    1.65686   1.36972    0.000
 4992.00    1.66595   1.36755    0.000
 4993.00    1.53613   1.36612    0.000
 4994.00    1.40239   1.36399    0.000
 4995.00    1.26539   1.36248    0.000
 4996.00    1.30366   1.36065    0.000
 4997.00    1.47039   1.35928    0.000
 4998.00    1.51663   1.35779    0.000
 4999.00    1.48533   1.35631    0.000
 5000.00    1.45612   1.35477    0.000
 5001.00    1.42809   1.35292    0.000
 5002.00    1.39503   1.35147    0.000
 5003.00    1.35950   1.34911    0.000
 5004.00    1.47093   1.34805    0.000
 5005.00    1.64458   1.34568    0.000
 5006.00    1.59396   1.34537    0.000
 5007.00    1.46201   1.34441    0.000
 5008.00    1.26953   1.34517    0.000
 5009.00    1.05847   1.34535    0.000
 5010.00    1.09273   1.34722    0.000
 5011.00    1.18963   1.34887    0.000
 5012.00    1.09217   1.35131    0.000
 5013.00    0.95433   1.35395    0.000
 5014.00    1.06003   1.35686    0.000
 5015.00    1.20561   1.35981    0.000
 5016.00    1.29706   1.36249    0.000
 5017.00    1.38188   1.36517    0.000
 5018.00    1.49613   1.36735    0.000
 5019.00    1.61286   1.36962    0.000
 5020.00    1.64491   1.37116    0.000
 5021.00    1.67283   1.37249    0.000
 5022.00    1.45281   1.37322    0.000
 5023.00    1.23228   1.37376    0.000
 5024.00    1.21479   1.37369    0.000
 5025.00    1.20117   1.37327    0.000
 5026.00    1.26510   1.37223    0.000
 5027.00    1.29596   1.37149    0.000
 5028.00    0.94056   1.37011    0.000
 5029.00    0.68517   1.36899    0.007
 5030.00    1.23724   1.36728    0.007
 5031.00    1.70801   1.36620    0.007
 5032.00    1.68585   1.36515    0.007
 5033.00    1.64489   1.36515    0.007
 5034.00    1.51400   1.36459    0.007
 5035.00    1.35409   1.36482    0.007
 5036.00    1.08116   1.36512    0.007
 5037.00    0.91972   1.36527    0.007
 5038.00    1.11991   1.36603    0.007
 5039.00    1.30453   1.36651    0.007
 5040.00    1.44642   1.36816    0.007
 5041.00    1.49532   1.36862    0.007
 5042.00    1.32555   1.37054    0.007
 5043.00    1.31449   1.37127    0.007
 5044.00    1.62607   1.37340    0.007
 5045.00    1.80968   1.37412    0.007
 5046.00    1.76685   1.37601    0.007
 5047.00    1.69783   1.37694    0.007
 5048.00    1.58826   1.37872    0.007
 5049.00    1.41448   1.37959    0.007
 5050.00    1.15340   1.38078    0.007
 5051.00    1.02017   1.38154    0.007
 5052.00    1.03995   1.38194    0.007
 5053.00    1.03934   1.38231    0.007
 5054.00    1.01723   1.38185    0.007
 5055.00    1.15209   1.38166    0.007
 5056.00    1.43308   1.38090    0.007
 5057.00    1.50374   1.38041    0.007
 5058.00    1.40178   1.37944    0.007
 5059.00    1.38305   1.37877    0.007
 5060.00    1.42444   1.37789    0.007
 5061.00    1.53278   1.37711    0.007
 5062.00    1.68358   1.37621    0.007
 5063.00    1.82831   1.37541    0.007
 5064.00    1.96967   1.37465    0.007
 5065.00    1.65414   1.37384    0.007
 5066.00    1.11831   1.37318    0.007
 5067.00    1.20156   1.37245    0.007
 5068.00    1.54254   1.37195    0.007
 5069.00    1.53607   1.37113    0.007
 5070.00    1.40588   1.37081    0.007
 5071.00    1.46593   1.37033    0.007
 5072.00    1.58320   1.37040    0.007
 5073.00    1.49749   1.37048    0.007
 5074.00    1.36107   1.37101    0.007
 5075.00    1.43774   1.37165    0.007
 5076.00    1.55758   1.37243    0.007
 5077.00    1.65233   1.37345    0.007
 5078.00    1.74309   1.37436    0.007
 5079.00    1.69022   1.37547    0.007
 5080.00    1.62036   1.37622    0.007
 5081.00    1.43198   1.37711    0.007
 5082.00    1.23408   1.37761    0.007
 5083.00    1.32043   1.37803    0.007
 5084.00    1.41957   1.37811    0.006
 5085.00    1.34758   1.37793    0.006
 5086.00    1.27613   1.37755    0.006
 5087.00    1.33302   1.37678    0.006
 5088.00    1.39451   1.37607    0.006
 5089.00    1.54139   1.37506    0.006
 5090.00    1.66315   1.37433    0.006
 5091.00    1.50522   1.37354    0.007
 5092.00    1.37101   1.37300    0.007
 5093.00    1.42162   1.37265    0.007
 5094.00    1.48210   1.37229    0.007
 5095.00    1.60069   1.37216    0.007
 5096.00    1.71380   1.37200    0.007
 5097.00    1.80132   1.37211    0.007
 5098.00    1.81152   1.37226    0.007
 5099.00    1.52707   1.37263    0.007
 5100.00    1.35206   1.37296    0.007
 5101.00    1.52514   1.37369    0.007
 5102.00    1.61176   1.37426    0.007
 5103.00    1.46526   1.37502    0.007
 5104.00    1.28664   1.37577    0.007
 5105.00    1.03374   1.37633    0.007
 5106.00    0.94322   1.37682    0.007
 5107.00    1.17755   1.37713    0.007
 5108.00    1.34291   1.37720    0.007
 5109.00    1.38809   1.37693    0.007
 5110.00    1.41996   1.37647    0.007
 5111.00    1.43153   1.37545    0.007
 5112.00    1.44557   1.37442    0.007
 5113.00    1.46292   1.37294    0.007
 5114.00    1.51507   1.37154    0.007
 5115.00    1.60828   1.37006    0.007
 5116.00    1.60193   1.36870    0.007
 5117.00    1.49198   1.36767    0.007
 5118.00    1.54391   1.36668    0.007
 5119.00    1.74441   1.36607    0.007
 5120.00    1.84292   1.36547    0.007
 5121.00    1.85891   1.36551    0.007
 5122.00    1.77273   1.36534    0.007
 5123.00    1.61382   1.36569    0.007
 5124.00    1.46632   1.36576    0.007
 5125.00    1.32595   1.36596    0.007
 5126.00    1.28285   1.36607    0.007
 5127.00    1.29285   1.36624    0.007
 5128.00    1.29703   1.36614    0.007
 5129.00    1.29845   1.36557    0.007
 5130.00    1.45849   1.36534    0.007
 5131.00    1.68344   1.36459    0.007
 5132.00    1.73087   1.36418    0.007
 5133.00    1.71624   1.36376    0.007
 5134.00    1.77218   1.36293    0.007
 5135.00    1.84892   1.36235    0.007
 5136.00    1.63901   1.36197    0.007
 5137.00    1.35907   1.36179    0.007
 5138.00    1.35629   1.36128    0.007
 5139.00    1.40825   1.36164    0.007
 5140.00    1.48510   1.36140    0.007
 5141.00    1.56579   1.36213    0.007
 5142.00    1.43676   1.36233    0.007
 5143.00    1.28384   1.36291    0.007
 5144.00    1.24136   1.36355    0.007
 5145.00    1.20731   1.36416    0.007
 5146.00    1.39296   1.36497    0.007
 5147.00    1.58764   1.36523    0.007
 5148.00    1.39786   1.36593    0.007
 5149.00    1.21090   1.36550    0.007
 5150.00    1.27605   1.36536    0.007
 5151.00    1.34949   1.36386    0.007
 5152.00    1.56674   1.36237    0.007
 5153.00    1.74494   1.36019    0.007
 5154.00    1.50774   1.35734    0.007
 5155.00    1.29449   1.35417    0.007
 5156.00    1.26145   1.35077    0.007
 5157.00    1.23425   1.34736    0.007
 5158.00    1.24047   1.34386    0.007
 5159.00    1.26100   1.34075    0.007
 5160.00    1.34672   1.33822    0.007
 5161.00    1.41876   1.33676    0.007
 5162.00    1.43978   1.33605    0.007
 5163.00    1.45122   1.33580    0.007
 5164.00    1.43279   1.33579    0.007
 5165.00    1.33971   1.33652    0.007
 5166.00    1.04891   1.33801    0.007
 5167.00    0.91572   1.33956    0.007
 5168.00    1.14095   1.34121    0.007
 5169.00    1.35612   1.34265    0.007
 5170.00    1.55148   1.34410    0.007
 5171.00    1.56510   1.34508    0.007
 5172.00    1.26680   1.34586    0.007
 5173.00    1.15831   1.34650    0.007
 5174.00    1.33510   1.34674    0.007
 5175.00    1.40235   1.34696    0.007
 5176.00    1.32493   1.34730    0.007
 5177.00    1.23738   1.34845    0.007
 5178.00    1.13806   1.34943    0.007
 5179.00    1.05047   1.35065    0.007
 5180.00    0.97492   1.35173    0.007
 5181.00    1.03506   1.35270    0.006
 5182.00    1.21800   1.35414    0.006
 5183.00    1.31555   1.35482    0.006
 5184.00    1.34501   1.35583    0.006
 5185.00    1.33600   1.35656    0.006
 5186.00    1.30002   1.35779    0.007
 5187.00    1.31856   1.35827    0.007
 5188.00    1.37066   1.35890    0.007
 5189.00    1.29734   1.35916    0.007
 5190.00    1.15661   1.35906    0.000
 5191.00    1.09998   1.35915    0.000
 5192.00    1.08261   1.35850    0.000
 5193.00    1.17704   1.35818    0.000
 5194.00    1.31646   1.35725    0.000
 5195.00    1.43560   1.35692    0.000
 5196.00    1.54779   1.35601    0.000
 5197.00    1.43655   1.35558    0.000
 5198.00    1.26076   1.35518    0.000
 5199.00    1.27601   1.35536    0.000
 5200.00    1.33687   1.35563    0.000
 5201.00    1.27097   1.35638    0.000
 5202.00    1.18066   1.35763    0.000
 5203.00    1.21465   1.35889    0.000
 5204.00    1.26722   1.36071    0.000
 5205.00    1.26058   1.36223    0.000
 5206.00    1.24746   1.36395    0.000
 5207.00    1.50171   1.36523    0.000
 5208.00    1.77527   1.36634    0.000
 5209.00    1.60118   1.36722    0.000
 5210.00    1.41037   1.36765    0.000
 5211.00    1.32298   1.36807    0.007
 5212.00    1.23823   1.36785    0.007
 5213.00    1.23219   1.36769    0.007
 5214.00    1.23179   1.36713    0.006
 5215.00    1.32276   1.36629    0.007
 5216.00    1.39080   1.36547    0.007
 5217.00    1.22546   1.36444    0.006
 5218.00    1.09161   1.36368    0.006
 5219.00    1.18697   1.36315    0.006
 5220.00    1.29278   1.36327    0.006
 5221.00    1.45681   1.36391    0.007
 5222.00    1.55389   1.36463    0.007
 5223.00    1.35319   1.36596    0.007
 5224.00    1.18573   1.36697    0.007
 5225.00    1.13973   1.36819    0.007
 5226.00    1.16222   1.36968    0.007
 5227.00    1.39437   1.37098    0.007
 5228.00    1.50668   1.37271    0.006
 5229.00    1.30715   1.37420    0.006
 5230.00    1.19052   1.37578    0.006
 5231.00    1.25929   1.37674    0.006
 5232.00    1.31649   1.37738    0.006
 5233.00    1.35128   1.37785    0.006
 5234.00    1.35644   1.37796    0.006
 5235.00    1.31149   1.37780    0.007
 5236.00    1.34855   1.37748    0.007
 5237.00    1.50707   1.37715    0.006
 5238.00    1.59840   1.37641    0.006
 5239.00    1.60226   1.37572    0.006
 5240.00    1.60863   1.37472    0.006
 5241.00    1.61789   1.37414    0.006
 5242.00    1.59540   1.37346    0.006
 5243.00    1.54080   1.37320    0.006
 5244.00    1.40140   1.37267    0.006
 5245.00    1.18633   1.37222    0.006
 5246.00    1.21776   1.37170    0.007
 5247.00    1.44298   1.37078    0.007
 5248.00    1.44896   1.36967    0.007
 5249.00    1.30336   1.36827    0.007
 5250.00    1.41339   1.36670    0.007
 5251.00    1.67839   1.36469    0.007
 5252.00    1.80518   1.36256    0.007
 5253.00    1.85883   1.36003    0.007
 5254.00    1.65861   1.35702    0.007
 5255.00    1.34183   1.35404    0.006
 5256.00    1.25349   1.35165    0.006
 5257.00    1.25547   1.34954    0.006
 5258.00    1.20987   1.34790    0.007
 5259.00    1.14823   1.34701    0.007
 5260.00    1.12935   1.34653    0.007
 5261.00    1.12257   1.34656    0.007
 5262.00    1.18849   1.34753    0.007
 5263.00    1.27139   1.34875    0.007
 5264.00    1.28364   1.35059    0.007
 5265.00    1.28264   1.35304    0.007
 5266.00    1.31233   1.35565    0.007
 5267.00    1.34647   1.35814    0.007
 5268.00    1.36219   1.36062    0.007
 5269.00    1.37598   1.36331    0.007
 5270.00    1.39925   1.36578    0.007
 5271.00    1.42316   1.36851    0.007
 5272.00    1.23505   1.37115    0.007
 5273.00    1.03984   1.37316    0.007
 5274.00    1.16572   1.37520    0.007
 5275.00    1.29002   1.37687    0.007
 5276.00    1.35215   1.37860    0.007
 5277.00    1.40812   1.38022    0.006
 5278.00    1.37021   1.38161    0.006
 5279.00    1.34933   1.38307    0.006
 5280.00    1.49446   1.38391    0.006
 5281.00    1.62281   1.38441    0.006
 5282.00    1.63300   1.38421    0.006
 5283.00    1.62743   1.38389    0.006
 5284.00    1.53638   1.38335    0.006
 5285.00    1.39969   1.38259    0.006
 5286.00    1.06470   1.38175    0.006
 5287.00    0.86022   1.38083    0.006
 5288.00    1.12276   1.37999    0.006
 5289.00    1.34954   1.37924    0.006
 5290.00    1.46893   1.37876    0.006
 5291.00    1.58278   1.37851    0.007
 5292.00    1.68249   1.37874    0.007
 5293.00    1.72379   1.37933    0.007
 5294.00    1.63659   1.38034    0.007
 5295.00    1.53007   1.38118    0.006
 5296.00    1.38668   1.38229    0.006
 5297.00    1.32436   1.38343    0.006
 5298.00    1.39699   1.38439    0.007
 5299.00    1.33871   1.38526    0.007
 5300.00    1.08938   1.38567    0.006
 5301.00    1.06420   1.38592    0.006
 5302.00    1.32671   1.38587    0.006
 5303.00    1.54713   1.38559    0.006
 5304.00    1.71994   1.38514    0.007
 5305.00    1.66734   1.38421    0.006
 5306.00    1.38992   1.38333    0.006
 5307.00    1.17568   1.38182    0.006
 5308.00    1.01701   1.38044    0.006
 5309.00    1.00301   1.37877    0.006
 5310.00    1.10111   1.37705    0.006
 5311.00    1.23845   1.37521    0.006
 5312.00    1.40255   1.37350    0.006
 5313.00    1.50495   1.37180    0.006
 5314.00    1.57052   1.36965    0.006
 5315.00    1.58948   1.36787    0.006
 5316.00    1.58416   1.36626    0.006
 5317.00    1.44911   1.36529    0.006
 5318.00    1.25545   1.36411    0.006
 5319.00    1.30670   1.36371    0.006
 5320.00    1.45311   1.36344    0.006
 5321.00    1.43013   1.36347    0.006
 5322.00    1.35117   1.36353    0.006
 5323.00    1.40371   1.36438    0.006
 5324.00    1.49273   1.36583    0.006
 5325.00    1.48876   1.36689    0.006
 5326.00    1.46358   1.36787    0.006
 5327.00    1.41087   1.36853    0.006
 5328.00    1.35313   1.36935    0.006
 5329.00    1.33106   1.37027    0.006
 5330.00    1.31399   1.37075    0.006
 5331.00    1.22258   1.37146    0.006
 5332.00    1.12366   1.37172    0.006
 5333.00    1.19504   1.37205    0.006
 5334.00    1.27734   1.37230    0.006
 5335.00    1.37470   1.37284    0.006
 5336.00    1.47241   1.37390    0.006
 5337.00    1.53197   1.37484    0.006
 5338.00    1.58924   1.37617    0.006
 5339.00    1.58107   1.37725    0.006
 5340.00    1.56921   1.37853    0.006
 5341.00    1.50438   1.38016    0.006
 5342.00    1.44038   1.38196    0.006
 5343.00    1.38420   1.38335    0.006
 5344.00    1.35944   1.38507    0.006
 5345.00    1.54897   1.38653    0.006
 5346.00    1.70530   1.38769    0.006
 5347.00    1.68632   1.38830    0.006
 5348.00    1.62372   1.38868    0.006
 5349.00    1.37587   1.38874    0.006
 5350.00    1.19188   1.38813    0.006
 5351.00    1.23180   1.38738    0.006
 5352.00    1.25665   1.38609    0.006
 5353.00    1.23709   1.38480    0.006
 5354.00    1.27376   1.38304    0.006
 5355.00    1.45169   1.38126    0.006
 5356.00    1.62865   1.37933    0.006
 5357.00    1.80352   1.37735    0.006
 5358.00    1.82537   1.37585    0.006
 5359.00    1.55979   1.37451    0.006
 5360.00    1.40882   1.37410    0.006
 5361.00    1.44583   1.37359    0.006
 5362.00    1.42030   1.37354    0.006
 5363.00    1.30480   1.37364    0.006
 5364.00    1.31376   1.37373    0.006
 5365.00    1.48020   1.37448    0.006
 5366.00    1.50871   1.37546    0.006
 5367.00    1.38344   1.37682    0.006
 5368.00    1.28551   1.37775   -2.000
 5369.00    1.21447   1.37858   -2.000
 5370.00    1.34212   1.37903   -2.000
 5371.00    1.64210   1.37930   -2.000
 5372.00    1.94924   1.37969   -2.000
 5373.00    2.26186   1.37975   -2.000
 5374.00    2.27128   1.37946   -2.000
 5375.00    2.07713   1.37897   -2.000
 5376.00    1.86587   1.37820   -2.000
 5377.00    1.64453   1.37707   -2.000
 5378.00    1.58006   1.37605   -2.000
 5379.00    1.59603   1.37495   -2.000
 5380.00    1.55217   1.37370   -2.000
 5381.00    1.48173   1.37211   -2.000
 5382.00    1.54459   1.37072   -2.000
 5383.00    1.65834   1.36896    0.006
 5384.00    1.53973   1.36694    0.006
 5385.00    1.34576   1.36550    0.006
 5386.00    1.38024   1.36396    0.006
 5387.00    1.47675   1.36242    0.006
 5388.00    1.57355   1.36064    0.006
 5389.00    1.67041   1.35912    0.006
 5390.00    1.60045   1.35708    0.006
 5391.00    1.50086   1.35463    0.006
 5392.00    1.51920   1.35259    0.006
 5393.00    1.55353   1.35060    0.006
 5394.00    1.44884   1.34859    0.006
 5395.00    1.33071   1.34631    0.006
 5396.00    1.34978   1.34435    0.006
 5397.00    1.37710   1.34186    0.006
 5398.00    1.39703   1.33967    0.006
 5399.00    1.41636   1.33827    0.006
 5400.00    1.36684   1.33774    0.006
 5401.00    1.31756   1.33814    0.006
 5402.00    1.27404   1.33870    0.006
 5403.00    1.24160   1.34008    0.006
 5404.00    1.35944   1.34137    0.006
 5405.00    1.46486   1.34352    0.006
 5406.00    1.45865   1.34642    0.006
 5407.00    1.45058   1.34971    0.006
 5408.00    1.43019   1.35308    0.006
 5409.00    1.40492   1.35597    0.006
 5410.00    1.35451   1.35882    0.006
 5411.00    1.33550   1.36085    0.006
 5412.00    1.44680   1.36279    0.006
 5413.00    1.53880   1.36434    0.006
 5414.00    1.56453   1.36554    0.006
 5415.00    1.56283   1.36625    0.006
 5416.00    1.48178   1.36619    0.006
 5417.00    1.36130   1.36619    0.006
 5418.00    1.14345   1.36567    0.006
 5419.00    1.08302   1.36533    0.006
 5420.00    1.35775   1.36529    0.006
 5421.00    1.49291   1.36492    0.006
 5422.00    1.36994   1.36477    0.006
 5423.00    1.31090   1.36431    0.006
 5424.00    1.35517   1.36457    0.006
 5425.00    1.46882   1.36547    0.006
 5426.00    1.68081   1.36613    0.006
 5427.00    1.71647   1.36712    0.006
 5428.00    1.53222   1.36791    0.006
 5429.00    1.42574   1.36875    0.006
 5430.00    1.40474   1.36969    0.006
 5431.00    1.27235   1.37043    0.006
 5432.00    1.03199   1.37126    0.006
 5433.00    1.06625   1.37137    0.006
 5434.00    1.33530   1.37111    0.006
 5435.00    1.44696   1.37082    0.006
 5436.00    1.44013   1.37025    0.006
 5437.00    1.43416   1.36979    0.006
 5438.00    1.42875   1.36911    0.006
 5439.00    1.44079   1.36823    0.006
 5440.00    1.46292   1.36723    0.006
 5441.00    1.44125   1.36625    0.006
 5442.00    1.39746   1.36550    0.006
 5443.00    1.40431   1.36514    0.006
 5444.00    1.43329   1.36451    0.006
 5445.00    1.41184   1.36433    0.006
 5446.00    1.37147   1.36418    0.006
 5447.00    1.27011   1.36398    0.006
 5448.00    1.14934   1.36395    0.006
 5449.00    1.27748   1.36357    0.006
 5450.00    1.47178   1.36381    0.006
 5451.00    1.47503   1.36400    0.006
 5452.00    1.43672   1.36421    0.006
 5453.00    1.45505   1.36440    0.006
 5454.00    1.48317   1.36445    0.006
 5455.00    1.45281   1.36424    0.006
 5456.00    1.41480   1.36391    0.006
 5457.00    1.33245   1.36364    0.006
 5458.00    1.24600   1.36331    0.006
 5459.00    1.33509   1.36286    0.006
 5460.00    1.43405   1.36214    0.006
 5461.00    1.38296   1.36151    0.006
 5462.00    1.33024   1.36068    0.006
 5463.00    1.45750   1.35951    0.006
 5464.00    1.58056   1.35870    0.006
 5465.00    1.60524   1.35776    0.006
 5466.00    1.63463   1.35708    0.006
 5467.00    1.72465   1.35678    0.006
 5468.00    1.78868   1.35634    0.006
 5469.00    1.62783   1.35639    0.006
 5470.00    1.46997   1.35589    0.006
 5471.00    1.33129   1.35613    0.006
 5472.00    1.22708   1.35697    0.006
 5473.00    1.29567   1.35768    0.006
 5474.00    1.37460   1.35868    0.006
 5475.00    1.49553   1.35903    0.006
 5476.00    1.59461   1.35974    0.006
 5477.00    1.62019   1.36039    0.006
 5478.00    1.64608   1.36119   -2.000
 5479.00    1.67284   1.36205   -2.000
 5480.00    1.66722   1.36250   -2.000
 5481.00    1.58301   1.36292   -2.000
 5482.00    1.56724   1.36288   -2.000
 5483.00    1.69484   1.36301   -2.000
 5484.00    1.67728   1.36313   -2.000
 5485.00    1.39536   1.36311   -2.000
 5486.00    1.47470   1.36299   -2.000
 5487.00    2.12909   1.36258   -2.000
 5488.00    2.49700   1.36231   -2.000
 5489.00    2.46471   1.36184   -2.000
 5490.00    2.14864   1.36116   -2.000
 5491.00    1.48369   1.36045   -2.000
 5492.00    1.04432   1.35988   -2.000
 5493.00    0.84940   1.35943   -2.000
 5494.00    0.93576   1.35868   -2.000
 5495.00    1.29099   1.35776   -2.000
 5496.00    1.52891   1.35701   -2.000
 5497.00    1.66795   1.35677   -2.000
 5498.00    1.76894   1.35629   -2.000
 5499.00    1.84169   1.35605   -2.000
 5500.00    1.84291   1.35598   -2.000
 5501.00    1.79748   1.35575   -2.000
 5502.00    1.68225   1.35610    0.006
 5503.00    1.52719   1.35641    0.006
 5504.00    1.49855   1.35714    0.006
 5505.00    1.53272   1.35793    0.006
 5506.00    1.44431   1.35844    0.006
 5507.00    1.30323   1.35941    0.006
 5508.00    1.24152   1.36011    0.006
 5509.00    1.20904   1.36079    0.006
 5510.00    1.12761   1.36136    0.006
 5511.00    1.03089   1.36162    0.006
 5512.00    1.16103   1.36199    0.005
 5513.00    1.35019   1.36199    0.005
 5514.00    1.32643   1.36177    0.005
 5515.00    1.25747   1.36143    0.006
 5516.00    1.18095   1.36083    0.005
 5517.00    1.10317   1.36009    0.005
 5518.00    1.13807   1.35976    0.005
 5519.00    1.18724   1.35957    0.006
 5520.00    1.23435   1.35929    0.005
 5521.00    1.28128   1.35900    0.005
 5522.00    1.39360   1.35868    0.005
 5523.00    1.50934   1.35885    0.005
 5524.00    1.56416   1.35899    0.005
 5525.00    1.61432   1.35955    0.005
 5526.00    1.39794   1.36027    0.005
 5527.00    1.19373   1.36057    0.005
 5528.00    1.25151   1.36123    0.005
 5529.00    1.30744   1.36179    0.005
 5530.00    1.34088   1.36254    0.005
 5531.00    1.38031   1.36330    0.005
 5532.00    1.46963   1.36361    0.005
 5533.00    1.54371   1.36433    0.006
 5534.00    1.52295   1.36484    0.006
 5535.00    1.51488   1.36524    0.006
 5536.00    1.56882   1.36570    0.006
 5537.00    1.59284   1.36603    0.006
 5538.00    1.49810   1.36640    0.005
 5539.00    1.40353   1.36646    0.006
 5540.00    1.30951   1.36663    0.014
 5541.00    1.27009   1.36666   -1.000
 5542.00    1.38292   1.36650   -1.000
 5543.00    1.45736   1.36623   -1.000
 5544.00    1.44017   1.36586   -1.000
 5545.00    1.42520   1.36556   -1.000
 5546.00    1.41478   1.36494   -1.000
 5547.00    1.40952   1.36418    0.029
 5548.00    1.41352   1.36351    0.008
 5549.00    1.40643   1.36267    0.005
 5550.00    1.38195   1.36182    0.005
 5551.00    1.31524   1.36089    0.005
 5552.00    1.19041   1.35990    0.005
 5553.00    1.15970   1.35912    0.005
 5554.00    1.24308   1.35814    0.005
 5555.00    1.31137   1.35736    0.005
 5556.00    1.36354   1.35666    0.005
 5557.00    1.34301   1.35593    0.005
 5558.00    1.25396   1.35547    0.005
 5559.00    1.20374   1.35498    0.005
 5560.00    1.18580   1.35496    0.005
 5561.00    1.16420   1.35471    0.005
 5562.00    1.13993   1.35436    0.005
 5563.00    1.17855   1.35462    0.005
 5564.00    1.25755   1.35473    0.005
 5565.00    1.41238   1.35480    0.005
 5566.00    1.60982   1.35478    0.005
 5567.00    1.58370   1.35467    0.005
 5568.00    1.44827   1.35450    0.005
 5569.00    1.40084   1.35420    0.005
 5570.00    1.39058   1.35349    0.005
 5571.00    1.37990   1.35255    0.005
 5572.00    1.36908   1.35158    0.005
 5573.00    1.29319   1.35025    0.005
 5574.00    1.19739   1.34902    0.005
 5575.00    1.25498   1.34718    0.005
 5576.00    1.35162   1.34538    0.005
 5577.00    1.41034   1.34363    0.005
 5578.00    1.46121   1.34215    0.005
 5579.00    1.52004   1.34122    0.005
 5580.00    1.58016   1.33997    0.005
 5581.00    1.64931   1.33915    0.005
 5582.00    1.71957   1.33812    0.005
 5583.00    1.70542   1.33816    0.005
 5584.00    1.68419   1.33843    0.005
 5585.00    1.45562   1.33907    0.005
 5586.00    1.21702   1.33987    0.005
 5587.00    1.24808   1.34003    0.005
 5588.00    1.28399   1.34140    0.005
 5589.00    1.36742   1.34237    0.005
 5590.00    1.44952   1.34394    0.005
 5591.00    1.50520   1.34536    0.005
 5592.00    1.55824   1.34634    0.005
 5593.00    1.58072   1.34800    0.005
 5594.00    1.58923   1.34899    0.006
 5595.00    1.48542   1.35058    0.006
 5596.00    1.40686   1.35194    0.006
 5597.00    1.48087   1.35295    0.006
 5598.00    1.54067   1.35384    0.006
 5599.00    1.53276   1.35386    0.006
 5600.00    1.52042   1.35447    0.006
 5601.00    1.49084   1.35490    0.006
 5602.00    1.47764   1.35481    0.005
 5603.00    1.51744   1.35427    0.005
 5604.00    1.50324   1.35307    0.005
 5605.00    1.34112   1.35249    0.005
 5606.00    1.21523   1.35187    0.005
 5607.00    1.17435   1.35112    0.005
 5608.00    1.17245   1.35027    0.005
 5609.00    1.24965   1.34921    0.005
 5610.00    1.34017   1.34873    0.005
 5611.00    1.45424   1.34823    0.005
 5612.00    1.56727   1.34805    0.005
 5613.00    1.67869   1.34810    0.005
 5614.00    1.71039   1.34802    0.005
 5615.00    1.63390   1.34816    0.005
 5616.00    1.61132   1.34827    0.005
 5617.00    1.65317   1.34874    0.005
 5618.00    1.65270   1.34933    0.005
 5619.00    1.60763   1.34960    0.005
 5620.00    1.54128   1.34972    0.005
 5621.00    1.45516   1.34983    0.005
 5622.00    1.41885   1.35005    0.005
 5623.00    1.42335   1.35010    0.005
 5624.00    1.36898   1.34984    0.005
 5625.00    1.27218   1.34922    0.005
 5626.00    1.22383   1.34885    0.005
 5627.00    1.20614   1.34832    0.005
 5628.00    1.23582   1.34774    0.005
 5629.00    1.29172   1.34721    0.005
 5630.00    1.31271   1.34639    0.005
 5631.00    1.31692   1.34619    0.005
 5632.00    1.36517   1.34566    0.005
 5633.00    1.43171   1.34540    0.005
 5634.00    1.49949   1.34536    0.005
 5635.00    1.56770   1.34513    0.005
 5636.00    1.52238   1.34538    0.005
 5637.00    1.44299   1.34513    0.005
 5638.00    1.37535   1.34517    0.005
 5639.00    1.31064   1.34521    0.005
 5640.00    1.36282   1.34507    0.005
 5641.00    1.43861   1.34488    0.005
 5642.00    1.37139   1.34421    0.005
 5643.00    1.28152   1.34375    0.005
 5644.00    1.32163   1.34309    0.005
 5645.00    1.37703   1.34235    0.005
 5646.00    1.28897   1.34148    0.005
 5647.00    1.18944   1.34041    0.005
 5648.00    1.14917   1.33973    0.005
 5649.00    1.11154   1.33886    0.005
 5650.00    1.19196   1.33825    0.005
 5651.00    1.27343   1.33791    0.005
 5652.00    1.34066   1.33758    0.005
 5653.00    1.40776   1.33768    0.005
 5654.00    1.47256   1.33756    0.005
 5655.00    1.53536   1.33809    0.005
 5656.00    1.57608   1.33892    0.005
 5657.00    1.60204   1.33959    0.005
 5658.00    1.51341   1.34039    0.005
 5659.00    1.44089   1.34095    0.005
 5660.00    1.46283   1.34216    0.005
 5661.00    1.45809   1.34318    0.005
 5662.00    1.32920   1.34388    0.005
 5663.00    1.21310   1.34451    0.005
 5664.00    1.14557   1.34488    0.005
 5665.00    1.10543   1.34549    0.005
 5666.00    1.15218   1.34557    0.005
 5667.00    1.22520   1.34548    0.005
 5668.00    1.36889   1.34543    0.005
 5669.00    1.46160   1.34500    0.005
 5670.00    1.43669   1.34471    0.005
 5671.00    1.39615   1.34405    0.005
 5672.00    1.32441   1.34352    0.005
 5673.00    1.28503   1.34323    0.005
 5674.00    1.30193   1.34255    0.005
 5675.00    1.28614   1.34239    0.005
 5676.00    1.22057   1.34200    0.005
 5677.00    1.21685   1.34185    0.005
 5678.00    1.29587   1.34189    0.005
 5679.00    1.35638   1.34157    0.005
 5680.00    1.39506   1.34189    0.005
 5681.00    1.34840   1.34184    0.005
 5682.00    1.21309   1.34180    0.005
 5683.00    1.16064   1.34180    0.005
 5684.00    1.18412   1.34134    0.005
 5685.00    1.18164   1.34131    0.005
 5686.00    1.15820   1.34070    0.005
 5687.00    1.11822   1.33997    0.005
 5688.00    1.06648   1.33938    0.005
 5689.00    1.09012   1.33837    0.005
 5690.00    1.16078   1.33760    0.005
 5691.00    1.26473   1.33639    0.005
 5692.00    1.38682   1.33516    0.005
 5693.00    1.44752   1.33418    0.005
 5694.00    1.47916   1.33325    0.005
 5695.00    1.45806   1.33243    0.005
 5696.00    1.41543   1.33154    0.005
 5697.00    1.41279   1.33085    0.005
 5698.00    1.42411   1.33032    0.005
 5699.00    1.47340   1.33054    0.005
 5700.00    1.53385   1.33071    0.005
 5701.00    1.49226   1.33108    0.005
 5702.00    1.42581   1.33186    0.005
 5703.00    1.33969   1.33253    0.005
 5704.00    1.24968   1.33414    0.005
 5705.00    1.29628   1.33553    0.005
 5706.00    1.36387   1.33690    0.005
 5707.00    1.31290   1.33849    0.005
 5708.00    1.24851   1.33973    0.005
 5709.00    1.23317   1.34146    0.005
 5710.00    1.22155   1.34281    0.005
 5711.00    1.31670   1.34394    0.005
 5712.00    1.41620   1.34480    0.005
 5713.00    1.51116   1.34535    0.005
 5714.00    1.60282   1.34620    0.005
 5715.00    1.55923   1.34660    0.005
 5716.00    1.51433   1.34696    0.005
 5717.00    1.44675   1.34678    0.005
 5718.00    1.38757   1.34654    0.005
 5719.00    1.41722   1.34679    0.005
 5720.00    1.43714   1.34666    0.005
 5721.00    1.38410   1.34667    0.005
 5722.00    1.34129   1.34608    0.005
 5723.00    1.35687   1.34570    0.005
 5724.00    1.38049   1.34575    0.005
 5725.00    1.44061   1.34555    0.005
 5726.00    1.48915   1.34554    0.005
 5727.00    1.49458   1.34492    0.005
 5728.00    1.48649   1.34476    0.005
 5729.00    1.43635   1.34445    0.005
 5730.00    1.39684   1.34429    0.005
 5731.00    1.38545   1.34435    0.005
 5732.00    1.34217   1.34380    0.005
 5733.00    1.22654   1.34381    0.005
 5734.00    1.15291   1.34304    0.005
 5735.00    1.16181   1.34295    0.005
 5736.00    1.20153   1.34307    0.005
 5737.00    1.29406   1.34263    0.005
 5738.00    1.32778   1.34242    0.005
 5739.00    1.27331   1.34144    0.005
 5740.00    1.25979   1.34128    0.000
 5741.00    1.30026   1.34144    0.000
 5742.00    1.37690   1.34119    0.000
 5743.00    1.49557   1.34073    0.000
 5744.00    1.51651   1.34002    0.000
 5745.00    1.43736   1.33990    0.000
 5746.00    1.37129   1.34015    0.000
 5747.00    1.31703   1.34023    0.000
 5748.00    1.31163   1.33994    0.000
 5749.00    1.34513   1.33970    0.000
 5750.00    1.36187   1.33992    0.000
 5751.00    1.36688   1.34032    0.000
 5752.00    1.40271   1.34055    0.000
 5753.00    1.45747   1.34061    0.000
 5754.00    1.44383   1.34068    0.000
 5755.00    1.39349   1.34114    0.000
 5756.00    1.39146   1.34154    0.000
 5757.00    1.41193   1.34157    0.000
 5758.00    1.41498   1.34154    0.000
 5759.00    1.41105   1.34146    0.000
 5760.00    1.44975   1.34146    0.000
 5761.00    1.50304   1.34113    0.000
 5762.00    1.53503   1.34048    0.000
 5763.00    1.56087   1.33969    0.000
 5764.00    1.57944   1.33889    0.000
 5765.00    1.59628   1.33795    0.000
 5766.00    1.53056   1.33645    0.000
 5767.00    1.44900   1.33501    0.000
 5768.00    1.42147   1.33372    0.000
 5769.00    1.40199   1.33253    0.000
 5770.00    1.38150   1.33129    0.000
 5771.00    1.36090   1.32953    0.000
 5772.00    1.41777   1.32821    0.000
 5773.00    1.48019   1.32770    0.000
 5774.00    1.52159   1.32727    0.000
 5775.00    1.56223   1.32704    0.000
 5776.00    1.59855   1.32642    0.000
 5777.00    1.63215   1.32623    0.000
 5778.00    1.56904   1.32710    0.000
 5779.00    1.50327   1.32776    0.000
 5780.00    1.39455   1.32868    0.000
 5781.00    1.29414   1.32916    0.000
 5782.00    1.27781   1.32963    0.000
 5783.00    1.25906   1.33072    0.000
 5784.00    1.22274   1.33156    0.000
 5785.00    1.21061   1.33255    0.000
 5786.00    1.33278   1.33302    0.000
 5787.00    1.43166   1.33323    0.000
 5788.00    1.42723   1.33359    0.000
 5789.00    1.43110   1.33408    0.000
 5790.00    1.46524   1.33461    0.000
 5791.00    1.50463   1.33466   -2.000
 5792.00    1.56004   1.33453   -2.000
 5793.00    1.58938   1.33450   -2.000
 5794.00    1.55103   1.33489   -2.000
 5795.00    1.51975   1.33510   -2.000
 5796.00    1.50423   1.33495   -2.000
 5797.00    1.47983   1.33480   -2.000
 5798.00    1.43826   1.33481   -2.000
 5799.00    1.42423   1.33515   -2.000
 5800.00    1.45666   1.33555   -2.000
 5801.00    1.49045   1.33543   -2.000
 5802.00    1.52624   1.33545   -2.000
 5803.00    1.48919   1.33576   -2.000
 5804.00    1.35749   1.33622   -2.000
 5805.00    1.26352   1.33716   -2.000
 5806.00    1.21274   1.33737   -2.000
 5807.00    1.21685   1.33774   -2.000
 5808.00    1.27637   1.33843   -2.000
 5809.00    1.32165   1.33917   -2.000
 5810.00    1.35423   1.34023   -2.000
 5811.00    1.41413   1.34072    0.000
 5812.00    1.49544   1.34124    0.000
 5813.00    1.52547   1.34184    0.000
 5814.00    1.52011   1.34235    0.000
 5815.00    1.46591   1.34285    0.000
 5816.00    1.38217   1.34315    0.000
 5817.00    1.41410   1.34332    0.000
 5818.00    1.50711   1.34340    0.000
 5819.00    1.53369   1.34330    0.000
 5820.00    1.52981   1.34315    0.000
 5821.00    1.46286   1.34302    0.000
 5822.00    1.37103   1.34284    0.000
 5823.00    1.29567   1.34261    0.000
 5824.00    1.22585   1.34218    0.000
 5825.00    1.24893   1.34175    0.000
 5826.00    1.29823   1.34144    0.000
 5827.00    1.29399   1.34124    0.000
 5828.00    1.27729   1.34096    0.000
 5829.00    1.30642   1.34042    0.000
 5830.00    1.34412   1.33985    0.000
 5831.00    1.36185   1.33942    0.000
 5832.00    1.37669   1.33903    0.000
 5833.00    1.32461   1.33835    0.000
 5834.00    1.26552   1.33743    0.000
 5835.00    1.35118   1.33644    0.000
 5836.00    1.44664   1.33555    0.000
 5837.00    1.50935   1.33458    0.000
 5838.00    1.57098   1.33324    0.000
 5839.00    1.61088   1.33178    0.000
 5840.00    1.64903   1.33048    0.000
 5841.00    1.63246   1.32932    0.000
 5842.00    1.61169   1.32817    0.000
 5843.00    1.52734   1.32668    0.000
 5844.00    1.44127   1.32522    0.000
 5845.00    1.33856   1.32433    0.000
 5846.00    1.24318   1.32376    0.000
 5847.00    1.19929   1.32317    0.000
 5848.00    1.16029   1.32212    0.000
 5849.00    1.14766   1.32128    0.000
 5850.00    1.16623   1.32107    0.000
 5851.00    1.32001   1.32118    0.000
 5852.00    1.44244   1.32070    0.000
 5853.00    1.45304   1.31949    0.000
 5854.00    1.45586   1.31885    0.000
 5855.00    1.43535   1.31780    0.000
 5856.00    1.41626   1.31729    0.000
 5857.00    1.40079   1.31523    0.000
 5858.00    1.39256   1.31222    0.000
 5859.00    1.40020   1.31133    0.000
 5860.00    1.40028   1.30786    0.000
 5861.00    1.38598   1.30590    0.000
 5862.00    1.40965   1.30242    0.000
 5863.00    1.49643   1.29835    0.000
 5864.00    1.55410   1.29900    0.000
 5865.00    1.56938   1.29474    0.000
 5866.00    1.57246   1.29291    0.000
 5867.00    1.55992   1.29084    0.000
 5868.00    1.54517   1.28864    0.000
 5869.00    1.52792   1.29185    0.000
 5870.00    1.49546   1.28871    0.000
 5871.00    1.44785   1.28753    0.000
 5872.00    1.42437   1.28685    0.000
 5873.00    1.42209   1.28547    0.000
 5874.00    1.42733   1.28747    0.000
 5875.00    1.43838   1.28434    0.000
 5876.00    1.37616   1.28180    0.000
 5877.00    1.26411   1.28043    0.000
 5878.00    1.19912   1.27819    0.000
 5879.00    1.16219   1.27721    0.000
 5880.00    1.16713   1.27490    0.000
 5881.00    1.19383   1.27208    0.000
 5882.00    1.16204   1.27154    0.000
 5883.00    1.10389   1.27172    0.000
 5884.00    1.16314   1.27173    0.000
 5885.00    1.26791   1.27282    0.000
 5886.00    1.34620   1.27312    0.000
 5887.00    1.41576   1.27506    0.000
 5888.00    1.39261   1.27904    0.000
 5889.00    1.34382   1.28215    0.000
 5890.00    1.27670   1.28567    0.000
 5891.00    1.20541   1.28856    0.000
 5892.00    1.25045   1.29149    0.000
 5893.00    1.31665   1.29578    0.000
 5894.00    1.29060   1.29942    0.000
 5895.00    1.25166   1.30231    0.000
 5896.00    1.22506   1.30462    0.000
 5897.00    1.19969   1.30650    0.000
 5898.00    1.25436   1.30867    0.000
 5899.00    1.31412   1.31035    0.000
 5900.00    1.26975   1.31140    0.000
 5901.00    1.22234   1.31211    0.005
 5902.00    1.18046   1.31245    0.005
 5903.00    1.14118   1.31315    0.005
 5904.00    1.17511   1.31340    0.005
 5905.00    1.20812   1.31325    0.005
 5906.00    1.22809   1.31345    0.005
 5907.00    1.25404   1.31333    0.005
 5908.00    1.33566   1.31361    0.005
 5909.00    1.40391   1.31375    0.005
 5910.00    1.38131   1.31341    0.005
 5911.00    1.35477   1.31371    0.005
 5912.00    1.30751   1.31375    0.005
 5913.00    1.25500   1.31373    0.005
 5914.00    1.18022   1.31399    0.005
 5915.00    1.11911   1.31385    0.005
 5916.00    1.10578   1.31388    0.005
 5917.00    1.10523   1.31390    0.005
 5918.00    1.14228   1.31363    0.005
 5919.00    1.18333   1.31368    0.005
 5920.00    1.23444   1.31367    0.005
 5921.00    1.28870   1.31337    0.005
 5922.00    1.34976   1.31340    0.005
 5923.00    1.38368   1.31328    0.005
 5924.00    1.36669   1.31310    0.005
 5925.00    1.35006   1.31308    0.005
 5926.00    1.33402   1.31274    0.005
 5927.00    1.34062   1.31277    0.005
 5928.00    1.37972   1.31288    0.005
 5929.00    1.38133   1.31258    0.005
 5930.00    1.33561   1.31249    0.005
 5931.00    1.30110   1.31212    0.005
 5932.00    1.27908   1.31184    0.005
 5933.00    1.25499   1.31197    0.005
 5934.00    1.22887   1.31172    0.005
 5935.00    1.23703   1.31142    0.005
 5936.00    1.27487   1.31095    0.005
 5937.00    1.27723   1.31059    0.005
 5938.00    1.25253   1.31071    0.005
 5939.00    1.22393   1.31036    0.005
 5940.00    1.19271   1.30993    0.005
 5941.00    1.21342   1.30971    0.005
 5942.00    1.26460   1.30977    0.004
 5943.00    1.32039   1.30999    0.004
 5944.00    1.37853   1.30959    0.004
 5945.00    1.34697   1.30968    0.004
 5946.00    1.27564   1.31014    0.004
 5947.00    1.22852   1.31059    0.004
 5948.00    1.19061   1.31104    0.004
 5949.00    1.21287   1.31103    0.004
 5950.00    1.25460   1.31181    0.005
 5951.00    1.30571   1.31274    0.005
 5952.00    1.35937   1.31312    0.005
 5953.00    1.33342   1.31365    0.005
 5954.00    1.28978   1.31392    0.005
 5955.00    1.23140   1.31460    0.005
 5956.00    1.17041   1.31514    0.005
 5957.00    1.19512   1.31509    0.005
 5958.00    1.23140   1.31522    0.005
 5959.00    1.16749   1.31510    0.005
 5960.00    1.09395   1.31496    0.005
 5961.00    1.16718   1.31460    0.005
 5962.00    1.24916   1.31395    0.005
 5963.00    1.38303   1.31342    0.005
 5964.00    1.51681   1.31276    0.005
 5965.00    1.43003   1.31196    0.004
 5966.00    1.34735   1.31096    0.004
 5967.00    1.36891   1.30994    0.004
 5968.00    1.38495   1.30924    0.004
 5969.00    1.32667   1.30862    0.004
 5970.00    1.26675   1.30787    0.004
 5971.00    1.19214   1.30711    0.004
 5972.00    1.13455   1.30650    0.004
 5973.00    1.18901   1.30628    0.004
 5974.00    1.24178   1.30615    0.004
 5975.00    1.28597   1.30582    0.004
 5976.00    1.33455   1.30585    0.004
 5977.00    1.40136   1.30616    0.004
 5978.00    1.44497   1.30632    0.004
 5979.00    1.40906   1.30645    0.004
 5980.00    1.38076   1.30638    0.004
 5981.00    1.37442   1.30677    0.004
 5982.00    1.37425   1.30727    0.004
 5983.00    1.38927   1.30723    0.005
 5984.00    1.38967   1.30730    0.005
 5985.00    1.35902   1.30713    0.005
 5986.00    1.34983   1.30694    0.005
 5987.00    1.38023   1.30697    0.005
 5988.00    1.37446   1.30647    0.005
 5989.00    1.31035   1.30626    0.005
 5990.00    1.25617   1.30589    0.004
 5991.00    1.21605   1.30494    0.004
 5992.00    1.19794   1.30477    0.004
 5993.00    1.20724   1.30431    0.004
 5994.00    1.22152   1.30363    0.004
 5995.00    1.24124   1.30330    0.004
 5996.00    1.22582   1.30228    0.004
 5997.00    1.17639   1.30208    0.004
 5998.00    1.16350   1.30213    0.004
 5999.00    1.18181   1.30124    0.004
 6000.00    1.20419   1.30096    0.004
 6001.00    1.22963   1.30059    0.004
 6002.00    1.27260   1.30031    0.004
 6003.00    1.32715   1.30048    0.004
 6004.00    1.36398   1.29973    0.004
 6005.00    1.39057   1.29949    0.004
 6006.00    1.38732   1.29997    0.004
 6007.00    1.36902   1.29971    0.004
 6008.00    1.32963   1.29966    0.004
 6009.00    1.28105   1.29967    0.004
 6010.00    1.29316   1.29977    0.004
 6011.00    1.32798   1.30055    0.004
 6012.00    1.35161   1.30069    0.004
 6013.00    1.37168   1.30106    0.005
 6014.00    1.38986   1.30196    0.005
 6015.00    1.40752   1.30230    0.005
 6016.00    1.40602   1.30316    0.005
 6017.00    1.40037   1.30401    0.005
 6018.00    1.38126   1.30462    0.005
 6019.00    1.35983   1.30556    0.005
 6020.00    1.38046   1.30615    0.005
 6021.00    1.40659   1.30693    0.005
 6022.00    1.37397   1.30773    0.005
 6023.00    1.33595   1.30809    0.005
 6024.00    1.34415   1.30867    0.005
 6025.00    1.35492   1.30913    0.004
 6026.00    1.38547   1.30955    0.004
 6027.00    1.41484   1.30985    0.004
 6028.00    1.28356   1.30991    0.004
 6029.00    1.15822   1.31025    0.004
 6030.00    1.17060   1.31031    0.004
 6031.00    1.18301   1.31046    0.004
 6032.00    1.19576   1.31062    0.004
 6033.00    1.20262   1.31049    0.004
 6034.00    1.15883   1.31058    0.004
 6035.00    1.12245   1.31054    0.004
 6036.00    1.13345   1.31034    0.004
 6037.00    1.14661   1.31020    0.004
 6038.00    1.17057   1.30994    0.004
 6039.00    1.20133   1.30979    0.004
 6040.00    1.25962   1.30944    0.004
 6041.00    1.30941   1.30884    0.004
 6042.00    1.33066   1.30842    0.004
 6043.00    1.33218   1.30799    0.004
 6044.00    1.27778   1.30745    0.004
 6045.00    1.22581   1.30677    0.004
 6046.00    1.17970   1.30624    0.004
 6047.00    1.14015   1.30599    0.004
 6048.00    1.11434   1.30546    0.004
 6049.00    1.10824   1.30504    0.004
 6050.00    1.13794   1.30464    0.004
 6051.00    1.16295   1.30442    0.004
 6052.00    1.18046   1.30457    0.004
 6053.00    1.19437   1.30404    0.004
 6054.00    1.20323   1.30406    0.004
 6055.00    1.23192   1.30468    0.004
 6056.00    1.28497   1.30468    0.004
 6057.00    1.28896   1.30499    0.004
 6058.00    1.23990   1.30496    0.004
 6059.00    1.20252   1.30504    0.004
 6060.00    1.17630   1.30575    0.004
 6061.00    1.19882   1.30550    0.004
 6062.00    1.26234   1.30533    0.004
 6063.00    1.33239   1.30546    0.004
 6064.00    1.40728   1.30505    0.004
 6065.00    1.39437   1.30478    0.004
 6066.00    1.32434   1.30397    0.004
 6067.00    1.25948   1.30307    0.004
 6068.00    1.19757   1.30290    0.004
 6069.00    1.22863   1.30203    0.004
 6070.00    1.30580   1.30080    0.004
 6071.00    1.33049   1.30017    0.004
 6072.00    1.33268   1.29945    0.004
 6073.00    1.26726   1.29874    0.004
 6074.00    1.17700   1.29807    0.004
 6075.00    1.13376   1.29729    0.004
 6076.00    1.10517   1.29715    0.004
 6077.00    1.14397   1.29688    0.004
 6078.00    1.20025   1.29611    0.004
 6079.00    1.24065   1.29599    0.004
 6080.00    1.27768   1.29610    0.004
 6081.00    1.27906   1.29591    0.004
 6082.00    1.27448   1.29562    0.004
 6083.00    1.25991   1.29540    0.004
 6084.00    1.24409   1.29556    0.004
 6085.00    1.23986   1.29545    0.004
 6086.00    1.23665   1.29514    0.004
 6087.00    1.33685   1.29487    0.004
 6088.00    1.44242   1.29470    0.004
 6089.00    1.39546   1.29492    0.004
 6090.00    1.34428   1.29425    0.004
 6091.00    1.18682   1.29357    0.004
 6092.00    1.03974   1.29409    0.004
 6093.00    1.11393   1.29393    0.004
 6094.00    1.18853   1.29391    0.004
 6095.00    1.26808   1.29391    0.004
 6096.00    1.33322   1.29322    0.004
 6097.00    1.27883   1.29404    0.004
 6098.00    1.22481   1.29441    0.004
 6099.00    1.17306   1.29373    0.004
 6100.00    1.12766   1.29424    0.004
 6101.00    1.11328   1.29419    0.004
 6102.00    1.10412   1.29399    0.004
 6103.00    1.11566   1.29431    0.004
 6104.00    1.13151   1.29333    0.004
 6105.00    1.16149   1.29297    0.004
 6106.00    1.17971   1.29316    0.004
 6107.00    1.16517   1.29202    0.004
 6108.00    1.16570   1.29150    0.004
 6109.00    1.20208   1.29106    0.004
 6110.00    1.24317   1.28986    0.004
 6111.00    1.29398   1.28978    0.004
 6112.00    1.32933   1.28929    0.004
 6113.00    1.33701   1.28829    0.004
 6114.00    1.31645   1.28813    0.004
 6115.00    1.25168   1.28746    0.004
 6116.00    1.23472   1.28696    0.004
 6117.00    1.28347   1.28683    0.004
 6118.00    1.30288   1.28618    0.004
 6119.00    1.28680   1.28584    0.004
 6120.00    1.26609   1.28562    0.004
 6121.00    1.24047   1.28482    0.004
 6122.00    1.19792   1.28388    0.004
 6123.00    1.13946   1.28360    0.004
 6124.00    1.09073   1.28329    0.004
 6125.00    1.05008   1.28245    0.004
 6126.00    1.06437   1.28205    0.004
 6127.00    1.11877   1.28185    0.004
 6128.00    1.15667   1.28188    0.004
 6129.00    1.18398   1.28169    0.004
 6130.00    1.19789   1.28101    0.004
 6131.00    1.20426   1.28154    0.004
 6132.00    1.22079   1.28237    0.004
 6133.00    1.24226   1.28242    0.004
 6134.00    1.26599   1.28245    0.004
 6135.00    1.29068   1.28254    0.004
 6136.00    1.31694   1.28307    0.004
 6137.00    1.34376   1.28316    0.004
 6138.00    1.35143   1.28260    0.004
 6139.00    1.35326   1.28240    0.004
 6140.00    1.29328   1.28203    0.004
 6141.00    1.21761   1.28145    0.004
 6142.00    1.21318   1.28033    0.004
 6143.00    1.22345   1.27884    0.004
 6144.00    1.25677   1.27800    0.004
 6145.00    1.29384   1.27674    0.004
 6146.00    1.28903   1.27478    0.004
 6147.00    1.27912   1.27308    0.004
 6148.00    1.27054   1.27148    0.008
 6149.00    1.26207   1.26995    0.186
 6150.00    1.29452   1.26833   -1.000
 6151.00    1.32893   1.26654   -1.000
 6152.00    1.43228   1.26565   -1.000
 6153.00    1.53554   1.26507   -1.000
 6154.00    1.57536   1.26337   -1.000
 6155.00    1.60764   1.26248   -1.000
 6156.00    1.49176   1.26291   -1.000
 6157.00    1.37199   1.26282   -1.000
 6158.00    1.20741   1.26283   -1.000
 6159.00    1.06518   1.26333    0.079
 6160.00    1.10184   1.26421    0.008
 6161.00    1.14220   1.26537    0.004
 6162.00    1.20482   1.26566    0.004
 6163.00    1.26041   1.26641    0.004
 6164.00    1.28249   1.26821    0.004
 6165.00    1.29528   1.26916    0.004
 6166.00    1.27209   1.26989    0.004
 6167.00    1.24500   1.27111    0.004
 6168.00    1.20533   1.27181    0.004
 6169.00    1.18870   1.27251    0.004
 6170.00    1.23506   1.27298    0.004
 6171.00    1.26369   1.27306    0.004
 6172.00    1.25079   1.27355    0.004
 6173.00    1.22767   1.27329    0.004
 6174.00    1.18383   1.27302    0.004
 6175.00    1.15386   1.27334    0.004
 6176.00    1.14830   1.27217    0.004
 6177.00    1.16975   1.27162    0.004
 6178.00    1.23285   1.27206    0.004
 6179.00    1.26346   1.27111    0.004
 6180.00    1.25005   1.27077    0.004
 6181.00    1.26383   1.27071    0.004
 6182.00    1.31006   1.27044    0.004
 6183.00    1.33853   1.27107    0.004
 6184.00    1.34832   1.27043    0.004
 6185.00    1.34553   1.27021    0.004
 6186.00    1.33107   1.27168    0.004
 6187.00    1.31134   1.27183    0.004
 6188.00    1.28728   1.27193    0.004
 6189.00    1.24696   1.27269    0.004
 6190.00    1.19495   1.27294    0.004
 6191.00    1.19543   1.27354    0.004
 6192.00    1.22907   1.27352    0.004
 6193.00    1.29496   1.27315    0.004
 6194.00    1.37864   1.27376    0.004
 6195.00    1.49881   1.27352    0.004
 6196.00    1.63650   1.27282   -2.000
 6197.00    1.86465   1.27260   -2.000
 6198.00    2.13028   1.27149   -2.000
 6199.00    2.07776   1.27059   -2.000
 6200.00    1.91247   1.26978   -2.000
 6201.00    1.52934   1.26815   -2.000
 6202.00    1.08102   1.26739   -2.000
 6203.00    0.90794   1.26634   -2.000
 6204.00    0.80323   1.26461   -2.000
 6205.00    0.87200   1.26385   -2.000
 6206.00    0.97571   1.26254   -2.000
 6207.00    1.09852   1.26135   -2.000
 6208.00    1.22434   1.26098    0.004
 6209.00    1.21014   1.25973    0.004
 6210.00    1.17953   1.25924    0.004
 6211.00    1.15178   1.25921    0.004
 6212.00    1.12426   1.25805    0.004
 6213.00    1.14057   1.25772    0.004
 6214.00    1.15882   1.25760    0.004
 6215.00    1.21469   1.25668    0.004
 6216.00    1.26896   1.25655    0.004
 6217.00    1.22710   1.25621    0.004
 6218.00    1.18796   1.25555    0.004
 6219.00    1.19858   1.25568    0.004
 6220.00    1.21139   1.25510    0.004
 6221.00    1.24816   1.25459    0.004
 6222.00    1.27966   1.25460    0.004
 6223.00    1.27047   1.25369    0.004
 6224.00    1.26703   1.25327    0.004
 6225.00    1.29722   1.25310    0.004
 6226.00    1.32567   1.25265    0.004
 6227.00    1.34608   1.25263    0.004
 6228.00    1.34551   1.25193    0.004
 6229.00    1.26542   1.25163    0.004
 6230.00    1.20609   1.25144    0.004
 6231.00    1.21250   1.25051    0.004
 6232.00    1.21586   1.25038    0.004
 6233.00    1.21107   1.24985    0.004
 6234.00    1.19199   1.24940    0.004
 6235.00    1.14000   1.24967    0.004
 6236.00    1.10580   1.24864    0.004
 6237.00    1.10705   1.24817    0.004
 6238.00    1.09949   1.24845    0.004
 6239.00    1.07666   1.24752    0.004
 6240.00    1.07131   1.24719    0.004
 6241.00    1.09251   1.24734    0.004
 6242.00    1.12362   1.24684    0.004
 6243.00    1.16796   1.24658    0.004
 6244.00    1.20829   1.24655    0.004
 6245.00    1.24391   1.24649    0.004
 6246.00    1.26518   1.24647    0.004
 6247.00    1.27156   1.24672    0.004
 6248.00    1.27488   1.24734    0.004
 6249.00    1.27538   1.24791    0.004
 6250.00    1.24784   1.24851    0.004
 6251.00    1.19772   1.24905    0.004
 6252.00    1.17249   1.25002    0.004
 6253.00    1.16493   1.25146    0.004
 6254.00    1.20938   1.25214    0.004
 6255.00    1.28620   1.25290    0.004
 6256.00    1.31390   1.25429    0.004
 6257.00    1.31490   1.25526    0.004
 6258.00    1.31998   1.25570    0.004
 6259.00    1.32700   1.25628    0.005
 6260.00    1.40869   1.25732    0.005
 6261.00    1.52080   1.25794    0.005
 6262.00    1.55692   1.25794    0.005
 6263.00    1.56660   1.25850    0.006
 6264.00    1.46003   1.25888    0.005
 6265.00    1.31936   1.25891    0.005
 6266.00    1.23197   1.25937    0.005
 6267.00    1.15753   1.25921    0.005
 6268.00    1.13539   1.25935    0.004
 6269.00    1.12351   1.25993    0.004
 6270.00    1.13261   1.25954    0.004
 6271.00    1.14491   1.25985    0.004
 6272.00    1.17438   1.26026    0.004
 6273.00    1.20578   1.25989    0.004
 6274.00    1.26603   1.26041    0.004
 6275.00    1.32845   1.26038    0.004
 6276.00    1.32137   1.26027    0.004
 6277.00    1.31149   1.26083    0.004
 6278.00    1.26860   1.26021    0.004
 6279.00    1.22553   1.26002    0.004
 6280.00    1.18507   1.26009    0.000
 6281.00    1.14657   1.25936    0.000
 6282.00    1.14119   1.25917    0.000
 6283.00    1.13936   1.25842    0.000
 6284.00    1.17477   1.25759    0.000
 6285.00    1.19898   1.25743    0.000
 6286.00    1.13952   1.25650    0.000
 6287.00    1.09181   1.25579    0.000
 6288.00    1.11097   1.25556    0.000
 6289.00    1.13469   1.25497    0.000
 6290.00    1.17905   1.25452    0.000
 6291.00    1.21630   1.25417    0.000
 6292.00    1.22718   1.25398    0.000
 6293.00    1.23116   1.25394    0.000
 6294.00    1.21372   1.25366    0.000
 6295.00    1.19038   1.25356    0.000
 6296.00    1.15150   1.25356    0.000
 6297.00    1.14067   1.25343    0.000
 6298.00    1.19339   1.25349    0.000
 6299.00    1.24375   1.25325    0.000
 6300.00    1.28952   1.25291    0.000
 6301.00    1.32420   1.25298    0.000
 6302.00    1.33995   1.25271    0.000
 6303.00    1.31723   1.25248    0.000
 6304.00    1.23689   1.25239    0.000
 6305.00    1.18764   1.25197    0.000
 6306.00    1.17930   1.25232    0.000
 6307.00    1.18642   1.25264    0.000
 6308.00    1.21146   1.25218    0.000
 6309.00    1.20924   1.25265    0.000
 6310.00    1.17915   1.25356    0.000
 6311.00    1.17281   1.25367    0.000
 6312.00    1.18789   1.25395    0.000
 6313.00    1.19022   1.25487    0.000
 6314.00    1.18244   1.25554    0.000
 6315.00    1.20697   1.25580    0.000
 6316.00    1.25410   1.25639    0.000
 6317.00    1.26589   1.25658    0.000
 6318.00    1.25601   1.25663    0.000
 6319.00    1.22075   1.25712    0.000
 6320.00    1.17189   1.25671    0.000
 6321.00    1.18104   1.25640    0.004
 6322.00    1.21716   1.25658    0.004
 6323.00    1.23094   1.25587    0.004
 6324.00    1.23577   1.25546    0.004
 6325.00    1.21908   1.25497    0.004
 6326.00    1.19503   1.25401    0.004
 6327.00    1.17472   1.25398    0.004
 6328.00    1.15548   1.25329    0.004
 6329.00    1.10483   1.25219    0.004
 6330.00    1.04672   1.25221    0.004
 6331.00    1.04130   1.25205    0.004
 6332.00    1.04595   1.25137    0.004
 6333.00    1.09925   1.25103    0.004
 6334.00    1.15977   1.25084    0.004
 6335.00    1.23507   1.25083    0.004
 6336.00    1.31197   1.25042    0.004
 6337.00    1.32407   1.24984    0.004
 6338.00    1.33155   1.24999    0.004
 6339.00    1.28014   1.25009    0.004
 6340.00    1.22658   1.24936    0.004
 6341.00    1.20230   1.24892    0.004
 6342.00    1.17789   1.24907    0.004
 6343.00    1.14542   1.24847    0.004
 6344.00    1.11531   1.24769    0.004
 6345.00    1.12269   1.24715    0.004
 6346.00    1.13664   1.24670    0.004
 6347.00    1.21666   1.24631    0.004
 6348.00    1.28267   1.24545    0.004
 6349.00    1.24757   1.24488    0.004
 6350.00    1.21091   1.24513    0.004
 6351.00    1.16563   1.24478    0.004
 6352.00    1.13219   1.24434    0.004
 6353.00    1.15113   1.24491    0.004
 6354.00    1.16246   1.24524    0.004
 6355.00    1.14616   1.24561    0.004
 6356.00    1.13790   1.24641    0.004
 6357.00    1.15413   1.24696    0.004
 6358.00    1.15727   1.24802    0.004
 6359.00    1.12649   1.24911    0.004
 6360.00    1.10392   1.24946    0.004
 6361.00    1.09963   1.25060    0.004
 6362.00    1.09595   1.25168    0.004
 6363.00    1.09344   1.25210    0.004
 6364.00    1.10445   1.25305    0.004
 6365.00    1.13823   1.25354    0.004
 6366.00    1.17057   1.25407    0.004
 6367.00    1.20078   1.25483    0.004
 6368.00    1.18959   1.25471    0.004
 6369.00    1.12469   1.25498    0.004
 6370.00    1.05905   1.25552    0.004
 6371.00    0.99255   1.25518    0.004
 6372.00    0.96104   1.25510    0.004
 6373.00    0.96480   1.25535    0.004
 6374.00    0.98698   1.25506    0.004
 6375.00    1.02554   1.25474    0.004
 6376.00    1.04258   1.25465    0.004
 6377.00    1.04277   1.25440    0.004
 6378.00    1.04549   1.25388    0.004
 6379.00    1.04997   1.25336    0.004
 6380.00    1.05138   1.25301    0.004
 6381.00    1.05095   1.25261    0.004
 6382.00    1.06596   1.25208    0.004
 6383.00    1.08912   1.25137    0.004
 6384.00    1.10402   1.25079    0.004
 6385.00    1.11514   1.25079    0.004
 6386.00    1.10142   1.25026    0.004
 6387.00    1.07793   1.24927    0.004
 6388.00    1.03881   1.24974    0.004
 6389.00    0.99444   1.24960    0.004
 6390.00    0.98708   1.24811    0.004
 6391.00    0.99014   1.24869    0.004
 6392.00    1.02664   1.24908    0.004
 6393.00    1.07090   1.24797    0.004
 6394.00    1.08796   1.24837    0.004
 6395.00    1.09996   1.24838    0.004
 6396.00    1.11082   1.24798    0.004
 6397.00    1.12153   1.24839    0.004
 6398.00    1.06736   1.24765    0.004
 6399.00    1.00644   1.24779    0.004
 6400.00    0.96060   1.24854    0.004
 6401.00    0.91578   1.24746    0.004
 6402.00    0.96079   1.24763    0.004
 6403.00    1.00873   1.24851    0.004
 6404.00    0.99198   1.24786    0.004
 6405.00    0.97441   1.24802    0.004
 6406.00    0.93134   1.24863    0.004
 6407.00    0.89501   1.24846    0.004
 6408.00    0.95977   1.24873    0.004
 6409.00    1.02615   1.24910    0.004
 6410.00    1.10822   1.24917    0.004
 6411.00    1.17666   1.24938    0.004
 6412.00    1.14990   1.24971    0.004
 6413.00    1.12994   1.25024    0.004
 6414.00    1.14656   1.25038    0.004
 6415.00    1.15947   1.25028    0.004
 6416.00    1.15635   1.25083    0.004
 6417.00    1.14961   1.25087    0.004
 6418.00    1.12996   1.25056    0.004
 6419.00    1.12305   1.25112    0.004
 6420.00    1.15423   1.25087    0.004
 6421.00    1.18103   1.25038    0.004
 6422.00    1.19668   1.25096    0.004
 6423.00    1.20894   1.25084    0.004
 6424.00    1.21377   1.25083    0.004
 6425.00    1.22016   1.25111    0.004
 6426.00    1.22949   1.25067    0.004
 6427.00    1.22440   1.25125    0.004
 6428.00    1.19540   1.25128    0.004
 6429.00    1.16870   1.25031    0.004
 6430.00    1.14536   1.25111    0.004
 6431.00    1.12070   1.25123    0.004
 6432.00    1.09435   1.25039    0.004
 6433.00    1.09547   1.25059    0.004
 6434.00    1.12755   1.25013    0.004
 6435.00    1.18749   1.24966    0.004
 6436.00    1.27512   1.24932    0.004
 6437.00    1.32458   1.24837    0.004
 6438.00    1.34059   1.24834    0.004
 6439.00    1.33106   1.24744    0.004
 6440.00    1.30183   1.24605    0.004
 6441.00    1.26141   1.24650    0.004
 6442.00    1.21340   1.24608    0.004
 6443.00    1.15899   1.24514    0.004
 6444.00    1.10077   1.24548    0.004
 6445.00    1.09478   1.24512    0.004
 6446.00    1.11589   1.24454    0.004
 6447.00    1.13938   1.24480    0.004
 6448.00    1.16394   1.24511    0.004
 6449.00    1.16502   1.24492    0.004
 6450.00    1.15702   1.24486    0.004
 6451.00    1.16161   1.24554    0.004
 6452.00    1.17035   1.24528    0.004
 6453.00    1.17609   1.24491    0.004
 6454.00    1.18100   1.24598    0.004
 6455.00    1.18134   1.24606    0.004
 6456.00    1.18063   1.24567    0.004
 6457.00    1.20236   1.24637    0.004
 6458.00    1.22815   1.24631    0.004
 6459.00    1.20957   1.24591    0.004
 6460.00    1.18482   1.24637    0.004
 6461.00    1.19107   1.24613    0.004
 6462.00    1.20042   1.24554    0.004
 6463.00    1.18931   1.24573    0.004
 6464.00    1.17691   1.24548    0.004
 6465.00    1.11243   1.24460    0.004
 6466.00    1.04669   1.24424    0.004
 6467.00    1.05141   1.24393    0.004
 6468.00    1.05938   1.24298    0.004
 6469.00    1.15758   1.24209    0.004
 6470.00    1.25528   1.24137    0.004
 6471.00    1.34608   1.24040    0.004
 6472.00    1.42983   1.23907    0.004
 6473.00    1.44815   1.23781    0.004
 6474.00    1.45548   1.23679    0.004
 6475.00    1.38845   1.23526    0.004
 6476.00    1.31666   1.23363    0.004
 6477.00    1.21989   1.23217    0.004
 6478.00    1.13826   1.23026    0.004
 6479.00    1.12056   1.22874    0.004
 6480.00    1.09824   1.22717    0.004
 6481.00    1.05983   1.22497    0.004
 6482.00    1.03886   1.22395    0.004
 6483.00    1.06904   1.22287    0.004
 6484.00    1.09966   1.22117    0.004
 6485.00    1.13137   1.22104    0.004
 6486.00    1.15977   1.22073    0.004
 6487.00    1.18101   1.22034    0.004
 6488.00    1.21188   1.22135    0.004
 6489.00    1.26078   1.22174    0.004
 6490.00    1.27468   1.22252    0.004
 6491.00    1.23139   1.22418    0.004
 6492.00    1.19194   1.22505    0.004
 6493.00    1.15801   1.22646    0.004
 6494.00    1.13302   1.22816    0.004
 6495.00    1.11932   1.22905    0.004
 6496.00    1.09504   1.23032    0.004
 6497.00    1.05902   1.23160    0.004
 6498.00    1.04584   1.23228    0.004
 6499.00    1.05503   1.23289    0.004
 6500.00    1.07624   1.23345    0.004
 6501.00    1.10784   1.23386    0.004
 6502.00    1.13371   1.23379    0.004
 6503.00    1.15523   1.23364    0.004
 6504.00    1.15412   1.23378    0.004
 6505.00    1.13787   1.23331    0.004
 6506.00    1.08801   1.23277    0.004
 6507.00    1.01845   1.23274    0.004
 6508.00    0.97148   1.23223    0.004
 6509.00    0.93606   1.23170    0.004
 6510.00    0.98577   1.23139    0.004
 6511.00    1.07315   1.23090    0.004
 6512.00    1.12919   1.23062    0.004
 6513.00    1.17331   1.23009    0.004
 6514.00    1.20541   1.22951    0.004
 6515.00    1.23364   1.22936    0.004
 6516.00    1.22688   1.22887    0.004
 6517.00    1.21067   1.22830    0.004
 6518.00    1.14312   1.22800    0.004
 6519.00    1.06419   1.22742    0.004
 6520.00    1.04710   1.22682    0.004
 6521.00    1.04091   1.22622    0.004
 6522.00    1.10210   1.22551    0.004
 6523.00    1.17237   1.22477    0.004
 6524.00    1.21347   1.22361    0.004
 6525.00    1.25179   1.22238    0.004
 6526.00    1.21482   1.22119    0.004
 6527.00    1.17340   1.21933    0.004
 6528.00    1.18828   1.21729    0.000
 6529.00    1.20445   1.21508    0.000
 6530.00    1.20169   1.21206    0.000
 6531.00    1.19778   1.20894    0.000
 6532.00    1.16501   1.20532    0.000
 6533.00    1.13580   1.20055    0.000
 6534.00    1.15421   1.19578    0.000
 6535.00    1.17504   1.19041    0.000
 6536.00    1.21736   1.18369    0.000
 6537.00    1.25164   1.17667    0.000
 6538.00    1.23312   1.16872    0.000
 6539.00    1.21938   1.15965    0.000
 6540.00    1.23002   1.15018    0.000
 6541.00    1.26029   1.13971    0.000
 6542.00    1.37163   1.12857    0.000
 6543.00    1.47002   1.11694    0.000
 6544.00    1.52414   1.10507    0.000
 6545.00    1.54055   1.09369    0.000
 6546.00    1.44834   1.08162    0.000
 6547.00    1.34896   1.07026    0.000
 6548.00    1.23193   1.06167    0.000
 6549.00    1.13017   1.05231    0.000
 6550.00    1.06079   1.04398    0.000
 6551.00    1.03195   1.04143    0.000
 6552.00    1.07781   1.03939    0.000
 6553.00    1.12369   1.03750    0.000
 6554.00    1.16959   1.04087    0.000
 6555.00    1.26344   1.04535    0.000
 6556.00    1.42499   1.05008    0.000
 6557.00    1.66790   1.05863    0.000
 6558.00    2.01190   1.06790    0.000
 6559.00    2.22921   1.07725    0.000
 6560.00    2.30777   1.08838    0.000
 6561.00    2.24921   1.09928    0.000
 6562.00    2.05821   1.11006    0.000
 6563.00    1.82790   1.12109    0.000
 6564.00    1.56411   1.13118    0.000
 6565.00    1.38492   1.14070    0.000
 6566.00    1.26918   1.14978    0.000
 6567.00    1.20709   1.15791    0.000
 6568.00    1.18035   1.16499    0.000
 6569.00    1.14032   1.17187    0.000
 6570.00    1.09261   1.17780    0.000
 6571.00    1.06867   1.18242    0.000
 6572.00    1.05667   1.18741    0.000
 6573.00    1.05259   1.19125    0.000
 6574.00    1.05194   1.19410    0.000
 6575.00    1.09412   1.19776    0.000
 6576.00    1.15229   1.20010    0.000
 6577.00    1.27341   1.20165    0.000
 6578.00    1.41446   1.20429    0.000
 6579.00    1.51087   1.20578    0.000
 6580.00    1.59548   1.20658    0.000
 6581.00    1.57035   1.20845    0.000
 6582.00    1.52150   1.20949    0.000
 6583.00    1.37350   1.21004    0.000
 6584.00    1.20850   1.21143    0.000
 6585.00    1.10823   1.21218    0.000
 6586.00    1.01638   1.21268    0.000
 6587.00    0.99468   1.21377    0.000
 6588.00    0.97938   1.21437    0.000
 6589.00    0.97940   1.21489    0.000
 6590.00    0.98027   1.21568    0.000
 6591.00    0.97180   1.21617    0.000
 6592.00    0.96387   1.21671    0.000
 6593.00    1.02579   1.21720    0.000
 6594.00    1.08639   1.21761    0.000
 6595.00    1.11713   1.21827    0.000
 6596.00    1.14552   1.21868    0.000
 6597.00    1.14427   1.21899    0.000
 6598.00    1.14703   1.21957    0.000
 6599.00    1.18419   1.22014    0.000
 6600.00    1.21475   1.22059    0.000
 6601.00    1.20337   1.22105    0.000
 6602.00    1.18431   1.22159    0.000
 6603.00    1.12695   1.22208    0.000
 6604.00    1.07448   1.22250    0.000
 6605.00    1.04178   1.22288    0.000
 6606.00    1.01314   1.22321    0.000
 6607.00    0.99809   1.22349    0.000
 6608.00    1.00231   1.22348    0.000
 6609.00    1.06102   1.22340    0.004
 6610.00    1.10261   1.22357    0.004
 6611.00    1.10279   1.22323    0.004
 6612.00    1.08839   1.22277    0.004
 6613.00    1.04356   1.22273    0.004
 6614.00    1.00349   1.22206    0.004
 6615.00    0.97204   1.22138    0.004
 6616.00    0.92818   1.22130    0.004
 6617.00    0.86462   1.22048    0.004
 6618.00    0.82025   1.21970    0.004
 6619.00    0.80259   1.21972    0.004
 6620.00    0.80234   1.21908    0.004
 6621.00    0.82339   1.21840    0.004
 6622.00    0.87506   1.21856    0.004
 6623.00    0.95980   1.21817    0.004
 6624.00    1.08346   1.21759    0.004
 6625.00    1.24418   1.21793    0.004
 6626.00    1.31018   1.21790    0.004
 6627.00    1.29663   1.21746    0.004
 6628.00    1.23028   1.21781    0.004
 6629.00    1.12488   1.21800    0.004
 6630.00    1.05662   1.21781    0.004
 6631.00    1.01247   1.21816    0.004
 6632.00    0.99188   1.21833    0.004
 6633.00    0.98467   1.21831    0.004
 6634.00    1.02110   1.21865    0.004
 6635.00    1.07913   1.21868    0.004
 6636.00    1.11737   1.21876    0.004
 6637.00    1.14714   1.21904    0.004
 6638.00    1.15789   1.21884    0.004
 6639.00    1.16168   1.21893    0.004
 6640.00    1.10907   1.21909    0.004
 6641.00    1.03895   1.21860    0.004
 6642.00    1.01504   1.21859    0.004
 6643.00    1.00308   1.21858    0.004
 6644.00    1.01558   1.21776    0.004
 6645.00    1.03323   1.21758    0.004
 6646.00    1.00298   1.21743    0.004
 6647.00    0.96475   1.21639    0.004
 6648.00    0.96888   1.21606    0.004
 6649.00    0.97832   1.21569    0.004
 6650.00    0.98846   1.21463    0.004
 6651.00    0.99866   1.21428    0.004
 6652.00    1.03497   1.21361    0.004
 6653.00    1.07261   1.21261    0.004
 6654.00    1.09070   1.21225    0.004
 6655.00    1.10864   1.21117    0.004
 6656.00    1.14066   1.21027    0.004
 6657.00    1.17076   1.20982    0.004
 6658.00    1.16040   1.20823    0.004
 6659.00    1.15011   1.20724    0.004
 6660.00    1.14061   1.20654    0.004
 6661.00    1.12651   1.20501    0.004
 6662.00    1.07435   1.20413    0.004
 6663.00    1.02516   1.20310    0.004
 6664.00    0.99423   1.20191    0.004
 6665.00    0.97303   1.20134    0.004
 6666.00    0.99913   1.20043    0.004
 6667.00    1.02215   1.20006    0.004
 6668.00    1.03296   1.20008    0.004
 6669.00    1.03898   1.19972    0.004
 6670.00    1.02928   1.20035    0.004
 6671.00    1.03240   1.20100    0.004
 6672.00    1.07112   1.20139    0.004
 6673.00    1.11342   1.20274    0.004
 6674.00    1.16423   1.20372    0.004
 6675.00    1.18965   1.20468    0.004
 6676.00    1.16293   1.20621    0.004
 6677.00    1.12958   1.20707    0.004
 6678.00    1.08439   1.20818    0.004
 6679.00    1.04277   1.20940    0.004
 6680.00    1.00673   1.20989    0.004
 6681.00    0.99082   1.21079    0.004
 6682.00    1.00251   1.21143    0.004
 6683.00    1.01212   1.21151    0.004
 6684.00    1.01921   1.21212    0.004
 6685.00    1.04325   1.21225    0.004
 6686.00    1.08534   1.21208    0.004
 6687.00    1.11219   1.21240    0.004
 6688.00    1.12475   1.21214    0.004
 6689.00    1.12167   1.21190    0.004
 6690.00    1.10564   1.21204    0.004
 6691.00    1.13290   1.21153    0.004
 6692.00    1.19170   1.21125    0.004
 6693.00    1.17759   1.21123    0.004
 6694.00    1.11683   1.21057    0.004
 6695.00    1.08970   1.21021    0.004
 6696.00    1.08139   1.20998    0.000
 6697.00    1.08251   1.20927    0.000
 6698.00    1.08822   1.20882    0.000
 6699.00    1.04469   1.20841    0.000
 6700.00    0.98043   1.20770    0.000
 6701.00    0.92840   1.20722    0.000
 6702.00    0.88078   1.20677    0.000
 6703.00    0.94977   1.20621    0.000
 6704.00    1.05427   1.20582    0.000
 6705.00    1.08637   1.20552    0.000
 6706.00    1.10013   1.20524    0.000
 6707.00    1.08658   1.20506    0.000
 6708.00    1.06740   1.20506    0.000
 6709.00    1.17199   1.20509    0.000
 6710.00    1.29662   1.20514    0.000
 6711.00    1.37155   1.20546    0.000
 6712.00    1.44047   1.20570    0.000
 6713.00    1.45648   1.20590    0.000
 6714.00    1.46810   1.20637    0.000
 6715.00    1.39302   1.20667    0.000
 6716.00    1.31384   1.20687    0.000
 6717.00    1.21246   1.20731    0.000
 6718.00    1.11143   1.20746    0.000
 6719.00    1.04824   1.20755    0.000
 6720.00    0.98785   1.20778    0.000
 6721.00    0.98197   1.20766    0.000
 6722.00    0.98321   1.20759    0.000
 6723.00    1.06614   1.20756    0.000
 6724.00    1.14774   1.20714    0.000
 6725.00    1.21864   1.20694    0.000
 6726.00    1.27654   1.20668    0.000
 6727.00    1.25647   1.20607    0.000
 6728.00    1.23534   1.20579    0.000
 6729.00    1.20917   1.20543    0.000
 6730.00    1.18371   1.20478    0.000
 6731.00    1.16098   1.20452    0.000
 6732.00    1.12880   1.20423    0.000
 6733.00    1.06619   1.20372    0.000
 6734.00    1.02348   1.20356    0.000
 6735.00    1.03506   1.20351    0.000
 6736.00    1.05076   1.20324    0.000
 6737.00    1.07607   1.20326    0.000
 6738.00    1.10682   1.20353    0.000
 6739.00    1.14858   1.20351    0.000
 6740.00    1.17655   1.20373    0.000
 6741.00    1.18028   1.20430    0.000
 6742.00    1.19687   1.20443    0.000
 6743.00    1.23327   1.20479    0.000
 6744.00    1.23636   1.20553    0.000
 6745.00    1.19443   1.20566    0.000
 6746.00    1.15136   1.20604    0.000
 6747.00    1.10696   1.20675    0.000
 6748.00    1.10133   1.20676    0.000
 6749.00    1.13639   1.20702    0.000
 6750.00    1.13643   1.20756    0.000
 6751.00    1.10404   1.20739    0.000
 6752.00    1.14113   1.20748    0.000
 6753.00    1.23494   1.20782    0.004
 6754.00    1.25448   1.20755    0.005
 6755.00    1.22069   1.20751    0.005
 6756.00    1.16224   1.20773    0.005
 6757.00    1.08825   1.20747    0.005
 6758.00    1.06191   1.20737    0.005
 6759.00    1.06184   1.20754    0.005
 6760.00    1.19333   1.20736    0.005
 6761.00    1.38786   1.20721    0.005
 6762.00    1.45637   1.20734    0.005
 6763.00    1.47275   1.20719    0.005
 6764.00    1.36703   1.20692    0.005
 6765.00    1.21811   1.20694    0.005
 6766.00    1.22136   1.20674    0.005
 6767.00    1.27002   1.20630    0.005
 6768.00    1.37002   1.20616    0.005
 6769.00    1.48274   1.20589    0.005
 6770.00    1.51140   1.20530    0.005
 6771.00    1.52318   1.20506    0.004
 6772.00    1.48051   1.20482    0.004
 6773.00    1.42928   1.20421    0.004
 6774.00    1.41086   1.20399    0.004
 6775.00    1.39626   1.20390    0.004
 6776.00    1.29546   1.20343    0.004
 6777.00    1.18787   1.20335    0.004
 6778.00    1.21340   1.20349    0.004
 6779.00    1.24472   1.20321    0.004
 6780.00    1.19068   1.20330    0.004
 6781.00    1.13606   1.20361    0.004
 6782.00    1.09631   1.20350    0.004
 6783.00    1.05633   1.20372    0.004
 6784.00    1.01215   1.20410    0.004
 6785.00    0.97636   1.20406    0.004
 6786.00    1.03242   1.20436    0.004
 6787.00    1.08906   1.20466    0.004
 6788.00    1.15015   1.20465    0.004
 6789.00    1.20494   1.20497    0.004
 6790.00    1.22295   1.20510    0.004
 6791.00    1.24252   1.20507    0.005
 6792.00    1.26932   1.20539    0.005
 6793.00    1.30172   1.20530    0.005
 6794.00    1.35524   1.20528    0.005
 6795.00    1.37422   1.20557    0.005
 6796.00    1.28408   1.20532    0.004
 6797.00    1.22341   1.20533    0.004
 6798.00    1.24162   1.20558    0.004
 6799.00    1.27458   1.20527    0.004
 6800.00    1.34141   1.20538    0.004
 6801.00    1.40394   1.20559    0.004
 6802.00    1.45791   1.20533    0.004
 6803.00    1.45452   1.20553    0.004
 6804.00    1.35174   1.20571    0.004
 6805.00    1.25305   1.20556    0.004
 6806.00    1.16057   1.20582    0.004
 6807.00    1.11152   1.20595    0.004
 6808.00    1.12034   1.20590    0.004
 6809.00    1.14490   1.20613    0.004
 6810.00    1.18793   1.20618    0.004
 6811.00    1.21996   1.20614    0.004
 6812.00    1.24061   1.20627    0.004
 6813.00    1.25559   1.20619    0.005
 6814.00    1.26540   1.20608    0.005
 6815.00    1.22867   1.20605    0.005
 6816.00    1.15451   1.20582    0.005
 6817.00    1.09840   1.20557    0.004
 6818.00    1.05506   1.20536    0.004
 6819.00    1.06496   1.20496    0.004
 6820.00    1.10793   1.20456    0.004
 6821.00    1.16584   1.20422    0.004
 6822.00    1.23187   1.20369    0.004
 6823.00    1.23529   1.20319    0.004
 6824.00    1.20919   1.20279    0.004
 6825.00    1.19129   1.20222    0.004
 6826.00    1.17674   1.20171    0.004
 6827.00    1.14646   1.20137    0.004
 6828.00    1.11073   1.20091    0.004
 6829.00    1.09046   1.20049    0.004
 6830.00    1.07470   1.20029    0.004
 6831.00    1.06860   1.20007    0.004
 6832.00    1.06484   1.19977    0.004
 6833.00    1.11637   1.19972    0.004
 6834.00    1.17871   1.19975    0.004
 6835.00    1.16702   1.19950    0.004
 6836.00    1.14404   1.19952    0.004
 6837.00    1.26818   1.19971    0.005
 6838.00    1.40884   1.19936    0.005
 6839.00    1.32409   1.19932    0.005
 6840.00    1.22249   1.19958    0.005
 6841.00    1.13316   1.19906    0.005
 6842.00    1.04432   1.19888    0.005
 6843.00    0.97302   1.19915    0.004
 6844.00    0.90907   1.19853    0.004
 6845.00    1.13285   1.19823    0.004
 6846.00    1.34077   1.19851    0.004
 6847.00    1.28073   1.19794    0.004
 6848.00    1.22475   1.19758    0.004
 6849.00    1.21123   1.19788    0.004
 6850.00    1.19794   1.19752    0.004
 6851.00    1.18636   1.19718    0.004
 6852.00    1.17251   1.19745    0.004
 6853.00    1.14573   1.19737    0.004
 6854.00    1.11920   1.19710    0.004
 6855.00    1.09383   1.19728    0.004
 6856.00    1.08436   1.19743    0.004
 6857.00    1.13379   1.19725    0.004
 6858.00    1.16824   1.19732    0.004
 6859.00    1.15633   1.19761    0.004
 6860.00    1.15833   1.19750    0.004
 6861.00    1.19696   1.19750    0.004
 6862.00    1.20787   1.19782    0.004
 6863.00    1.15614   1.19775    0.004
 6864.00    1.14507   1.19772    0.004
 6865.00    1.21356   1.19805    0.004
 6866.00    1.25944   1.19794    0.004
 6867.00    1.26675   1.19793    0.004
 6868.00    1.24135   1.19831    0.004
 6869.00    1.16708   1.19812    0.004
 6870.00    1.09373   1.19813    0.004
 6871.00    1.02161   1.19864    0.004
 6872.00    1.00927   1.19842    0.004
 6873.00    1.06612   1.19843    0.004
 6874.00    1.09361   1.19914    0.004
 6875.00    1.09112   1.19900    0.004
 6876.00    1.06312   1.19899    0.004
 6877.00    1.01217   1.19988    0.004
 6878.00    0.99008   1.19992    0.004
 6879.00    0.99088   1.19991    0.004
 6880.00    1.05166   1.20087    0.004
 6881.00    1.15429   1.20115    0.004
 6882.00    1.20493   1.20116    0.004
 6883.00    1.22377   1.20205    0.004
 6884.00    1.17649   1.20252    0.004
 6885.00    1.09387   1.20260    0.004
 6886.00    1.04109   1.20328    0.004
 6887.00    1.00215   1.20384    0.004
 6888.00    0.99961   1.20395    0.004
 6889.00    1.01162   1.20438    0.004
 6890.00    1.00364   1.20491    0.004
 6891.00    0.98884   1.20497    0.004
 6892.00    0.99649   1.20513    0.004
 6893.00    1.01057   1.20554    0.004
 6894.00    0.98560   1.20545    0.004
 6895.00    0.95138   1.20538    0.004
 6896.00    1.00340   1.20566    0.004
 6897.00    1.07185   1.20534    0.004
 6898.00    1.07246   1.20510    0.004
 6899.00    1.06305   1.20530    0.004
 6900.00    1.05865   1.20478    0.004
 6901.00    1.05478   1.20446    0.004
 6902.00    1.02941   1.20464    0.004
 6903.00    1.00252   1.20404    0.004
 6904.00    1.05202   1.20370    0.004
 6905.00    1.10426   1.20391    0.004
 6906.00    1.01488   1.20335    0.004
 6907.00    0.92866   1.20304    0.004
 6908.00    0.96834   1.20328    0.004
 6909.00    1.00904   1.20284    0.004
 6910.00    1.06589   1.20258    0.004
 6911.00    1.11660   1.20281    0.004
 6912.00    1.10586   1.20254    0.004
 6913.00    1.08658   1.20233    0.004
 6914.00    1.00593   1.20253    0.004
 6915.00    0.94048   1.20245    0.004
 6916.00    0.95889   1.20226    0.004
 6917.00    0.96788   1.20245    0.004
 6918.00    0.93533   1.20256    0.004
 6919.00    0.91642   1.20235    0.004
 6920.00    0.94693   1.20251    0.004
 6921.00    0.95813   1.20278    0.004
 6922.00    0.91067   1.20250    0.004
 6923.00    0.87796   1.20261    0.004
 6924.00    0.88338   1.20296    0.004
 6925.00    0.89176   1.20256    0.004
 6926.00    0.90673   1.20258    0.004
 6927.00    0.92980   1.20297    0.004
 6928.00    0.96848   1.20241    0.004
 6929.00    1.01102   1.20236    0.004
 6930.00    1.06003   1.20275    0.004
 6931.00    1.09833   1.20206    0.004
 6932.00    1.12084   1.20197    0.004
 6933.00    1.09245   1.20242    0.004
 6934.00    0.99813   1.20169    0.004
 6935.00    1.00081   1.20162    0.004
 6936.00    1.11412   1.20218    0.004
 6937.00    1.14379   1.20154    0.004
 6938.00    1.08928   1.20155    0.004
 6939.00    1.09175   1.20224    0.004
 6940.00    1.14477   1.20181    0.004
 6941.00    1.15390   1.20194    0.004
 6942.00    1.12872   1.20270    0.004
 6943.00    1.12709   1.20252    0.004
 6944.00    1.14165   1.20278    0.004
 6945.00    1.12768   1.20353    0.004
 6946.00    1.09653   1.20352    0.004
 6947.00    1.06137   1.20387    0.004
 6948.00    1.02410   1.20451    0.004
 6949.00    1.05150   1.20450    0.004
 6950.00    1.10842   1.20486    0.004
 6951.00    1.08429   1.20528    0.004
 6952.00    1.02832   1.20509    0.004
 6953.00    1.03849   1.20533    0.004
 6954.00    1.07078   1.20549    0.004
 6955.00    1.10069   1.20497    0.004
 6956.00    1.12992   1.20498    0.004
 6957.00    1.07841   1.20492    0.004
 6958.00    1.00823   1.20408    0.004
 6959.00    1.02318   1.20380    0.004
 6960.00    1.05393   1.20366    0.004
 6961.00    1.12716   1.20267    0.004
 6962.00    1.20645   1.20217    0.005
 6963.00    1.05376   1.20216    0.004
 6964.00    0.87704   1.20132    0.004
 6965.00    0.99109   1.20077    0.004
 6966.00    1.12451   1.20106    0.004
 6967.00    1.19731   1.20065    0.004
 6968.00    1.26814   1.20024    0.004
 6969.00    1.22909   1.20085    0.004
 6970.00    1.18629   1.20098    0.004
 6971.00    1.02823   1.20080    0.004
 6972.00    0.88592   1.20158    0.004
 6973.00    0.97799   1.20209    0.004
 6974.00    1.07432   1.20211    0.004
 6975.00    1.21165   1.20282    0.004
 6976.00    1.31799   1.20344    0.005
 6977.00    1.20882   1.20349    0.005
 6978.00    1.11596   1.20396    0.005
 6979.00    1.11068   1.20441    0.005
 6980.00    1.11320   1.20435    0.005
 6981.00    1.14936   1.20449    0.004
 6982.00    1.17353   1.20468    0.004
 6983.00    1.15511   1.20443    0.004
 6984.00    1.12204   1.20428    0.004
 6985.00    1.04531   1.20424    0.004
 6986.00    0.99833   1.20385    0.004
 6987.00    1.02694   1.20348    0.004
 6988.00    1.04717   1.20330    0.004
 6989.00    1.04905   1.20292    0.004
 6990.00    1.04858   1.20242    0.004
 6991.00    1.04364   1.20218    0.004
 6992.00    1.05547   1.20194    0.004
 6993.00    1.09507   1.20136    0.004
 6994.00    1.14744   1.20110    0.004
 6995.00    1.21835   1.20109    0.004
 6996.00    1.28309   1.20050    0.005
 6997.00    1.33997   1.20019    0.005
 6998.00    1.33857   1.20045    0.005
 6999.00    1.27162   1.19990    0.005
 7000.00    1.18905   1.19952    0.005
 7001.00    1.09098   1.20000    0.005
 7002.00    1.01975   1.19957    0.005
 7003.00    0.97200   1.19913    0.005
 7004.00    1.01661   1.19975    0.004
 7005.00    1.13241   1.19954    0.005
 7006.00    1.16372   1.19912    0.004
 7007.00    1.13780   1.19979    0.004
 7008.00    1.08937   1.19987    0.004
 7009.00    1.02757   1.19953    0.004
 7010.00    0.99700   1.20019    0.004
 7011.00    0.98261   1.20056    0.004
 7012.00    0.94804   1.20032    0.004
 7013.00    0.90441   1.20094    0.004
 7014.00    0.95969   1.20156    0.004
 7015.00    1.05314   1.20141    0.004
 7016.00    1.06068   1.20201    0.005
 7017.00    1.04003   1.20287    0.005
 7018.00    0.99321   1.20271    0.005
 7019.00    0.93920   1.20336    0.005
 7020.00    0.99676   1.20450    0.005
 7021.00    1.07954   1.20426    0.005
 7022.00    1.07302   1.20489    0.005
 7023.00    1.05037   1.20636    0.005
 7024.00    1.05334   1.20615    0.005
 7025.00    1.05986   1.20668    0.005
 7026.00    1.07517   1.20832    0.005
 7027.00    1.09136   1.20817    0.005
 7028.00    1.05508   1.20846    0.005
 7029.00    1.01551   1.20998    0.005
 7030.00    1.02556   1.20984    0.005
 7031.00    1.03709   1.20981    0.005
 7032.00    1.06617   1.21083    0.005
 7033.00    1.09575   1.21050    0.005
 7034.00    1.13878   1.21013    0.005
 7035.00    1.17032   1.21038    0.005
 7036.00    1.04041   1.20960    0.005
 7037.00    0.92227   1.20885    0.005
 7038.00    0.91269   1.20837    0.005
 7039.00    0.90897   1.20706    0.005
 7040.00    0.94480   1.20597    0.005
 7041.00    0.96903   1.20506    0.005
 7042.00    0.93263   1.20345    0.005
 7043.00    0.93814   1.20212    0.005
 7044.00    1.12012   1.20117    0.005
 7045.00    1.24900   1.19955    0.005
 7046.00    1.19317   1.19807    0.005
 7047.00    1.15631   1.19739    0.005
 7048.00    1.17497   1.19613    0.005
 7049.00    1.15728   1.19471    0.005
 7050.00    1.04889   1.19445   -2.000
 7051.00    1.01986   1.19369   -2.000
 7052.00    1.16153   1.19248   -2.000
 7053.00    1.21039   1.19261   -2.000
 7054.00    1.08596   1.19235   -2.000
 7055.00    1.08109   1.19144   -2.000
 7056.00    1.27122   1.19182   -2.000
 7057.00    1.32018   1.19194   -2.000
 7058.00    1.16719   1.19129   -2.000
 7059.00    1.12672   1.19167   -2.000
 7060.00    1.22782   1.19195   -2.000
 7061.00    1.21839   1.19142   -2.000
 7062.00    1.08639   1.19146   -2.000
 7063.00    1.03604   1.19159   -2.000
 7064.00    1.06555   1.19097   -2.000
 7065.00    1.12141   1.19047   -2.000
 7066.00    1.20001   1.19025   -2.000
 7067.00    1.24777   1.18931   -2.000
 7068.00    1.27211   1.18821   -2.000
 7069.00    1.23826   1.18764   -2.000
 7070.00    1.16556   1.18630   -2.000
 7071.00    1.22030   1.18473   -2.000
 7072.00    1.34959   1.18402   -2.000
 7073.00    1.28615   1.18241   -2.000
 7074.00    1.12444   1.18062   -2.000
 7075.00    1.07781   1.18009   -2.000
 7076.00    1.08199   1.17866   -2.000
 7077.00    1.06790   1.17702   -2.000
 7078.00    1.04688   1.17676   -2.000
 7079.00    1.00396   1.17581   -2.000
 7080.00    0.95398   1.17463   -2.000
 7081.00    1.12089   1.17470   -2.000
 7082.00    1.34623   1.17443   -2.000
 7083.00    1.30878   1.17377   -2.000
 7084.00    1.21331   1.17404   -2.000
 7085.00    1.24620   1.17441   -2.000
 7086.00    1.30164   1.17420   -2.000
 7087.00    1.21586   1.17450   -2.000
 7088.00    1.11116   1.17529   -2.000
 7089.00    1.17033   1.17534   -2.000
 7090.00    1.24506   1.17556   -2.000
 7091.00    1.17612   1.17638   -2.000
 7092.00    1.09875   1.17654   -2.000
 7093.00    1.19577   1.17665   -2.000
 7094.00    1.29553   1.17728   -2.000
 7095.00    1.18296   1.17747   -2.000
 7096.00    1.07487   1.17744   -2.000
 7097.00    1.07809   1.17780   -2.000
 7098.00    1.07282   1.17798   -2.000
 7099.00    0.95492   1.17791   -2.000
 7100.00    0.86871   1.17801   -2.000
 7101.00    1.06329   1.17810   -2.000
 7102.00    1.22350   1.17803   -2.000
 7103.00    1.15912   1.17802   -2.000
 7104.00    1.12168   1.17799   -2.000
 7105.00    1.22144   1.17781   -2.000
 7106.00    1.27426   1.17777   -2.000
 7107.00    1.13384   1.17769   -2.000
 7108.00    1.03244   1.17729   -2.000
 7109.00    1.06403   1.17717   -2.000
 7110.00    1.07902   1.17712   -2.000
 7111.00    1.04630   1.17658   -2.000
 7112.00    1.04022   1.17635   -2.000
 7113.00    1.09954   1.17636   -2.000
 7114.00    1.11391   1.17591   -2.000
 7115.00    1.03316   1.17567   -2.000
 7116.00    0.97433   1.17567   -2.000
 7117.00    0.95578   1.17555   -2.000
 7118.00    0.97629   1.17549   -2.000
 7119.00    1.05956   1.17536   -2.000
 7120.00    1.10317   1.17562   -2.000
 7121.00    1.09088   1.17596   -2.000
 7122.00    1.10788   1.17567   -2.000
 7123.00    1.16122   1.17618   -2.000
 7124.00    1.19237   1.17684   -2.000
 7125.00    1.19926   1.17643   -2.000
 7126.00    1.17366   1.17712   -2.000
 7127.00    1.11673   1.17796   -2.000
 7128.00    1.06625   1.17727   -2.000
 7129.00    1.02127   1.17798   -2.000
 7130.00    1.12345   1.17900   -2.000
 7131.00    1.33584   1.17806   -2.000
 7132.00    1.37387   1.17862   -2.000
 7133.00    1.29718   1.17985   -2.000
 7134.00    1.17558   1.17883   -2.000
 7135.00    1.02812   1.17923   -2.000
 7136.00    1.08660   1.18060   -2.000
 7137.00    1.24841   1.17964   -2.000
 7138.00    1.17725   1.17987   -2.000
 7139.00    1.00492   1.18134   -2.000
 7140.00    0.97897   1.18061   -2.000
 7141.00    1.00755   1.18053   -2.000
 7142.00    0.99173   1.18195   -2.000
 7143.00    0.96187   1.18174   -2.000
 7144.00    1.07301   1.18133   -2.000
 7145.00    1.22134   1.18235   -2.000
 7146.00    1.27783   1.18262   -2.000
 7147.00    1.31452   1.18201   -2.000
 7148.00    1.22564   1.18250   -2.000
 7149.00    1.11531   1.18312   -2.000
 7150.00    1.12312   1.18261   -2.000
 7151.00    1.14623   1.18271   -2.000
 7152.00    1.16965   1.18340   -2.000
 7153.00    1.19311   1.18308   -2.000
 7154.00    1.13073   1.18308   -2.000
 7155.00    1.06365   1.18381   -2.000
 7156.00    1.12612   1.18361   -2.000
 7157.00    1.18917   1.18349   -2.000
 7158.00    1.05760   1.18418   -2.000
 7159.00    0.94655   1.18412   -2.000
 7160.00    1.30130   1.18394   -2.000
 7161.00    1.64486   1.18443   -2.000
 7162.00    1.84753   1.18425   -2.000
 7163.00    1.99856   1.18393   -2.000
 7164.00    1.70904   1.18417   -2.000
 7165.00    1.40261   1.18385   -2.000
 7166.00    0.98897   1.18334   -2.000
 7167.00    0.68525   1.18322   -2.000
 7168.00    0.92732   1.18287   -2.000
 7169.00    1.15838   1.18232   -2.000
 7170.00    1.34517   1.18183   -2.000
 7171.00    1.46436   1.18161   -2.000
 7172.00    1.35769   1.18128   -2.000
 7173.00    1.28633   1.18039   -2.000
 7174.00    1.31455   1.18030   -2.000
 7175.00    1.27996   1.18053   -2.000
 7176.00    1.09383   1.17952   -2.000
 7177.00    0.99255   1.17943   -2.000
 7178.00    1.06793   1.18017   -2.000
 7179.00    1.17544   1.17934   -2.000
 7180.00    1.34112   1.17916   -2.000
 7181.00    1.43434   1.18023   -2.000
 7182.00    1.41286   1.17982   -2.000
 7183.00    1.30519   1.17951   -2.000
 7184.00    1.07778   1.18068   -2.000
 7185.00    0.93432   1.18075   -2.000
 7186.00    0.89349   1.18023   -2.000
 7187.00    1.01076   1.18126   -2.000
 7188.00    1.29843   1.18179   -2.000
 7189.00    1.36679   1.18108   -2.000
 7190.00    1.22663   1.18171   -2.000
 7191.00    1.12076   1.18263   -2.000
 7192.00    1.04364   1.18203   -2.000
 7193.00    1.03302   1.18213   -2.000
 7194.00    1.07149   1.18326   -2.000
 7195.00    1.15336   1.18301   -2.000
 7196.00    1.26336   1.18273   -2.000
 7197.00    1.22075   1.18401   -2.000
 7198.00    1.09158   1.18417   -2.000
 7199.00    1.14464   1.18366   -2.000
 7200.00    1.28770   1.18503   -2.000
 7201.00    1.34134   1.18569   -2.000
 7202.00    1.35679   1.18516   -2.000
 7203.00    1.39439   1.18643   -2.000
 7204.00    1.44009   1.18753   -2.000
 7205.00    1.24811   1.18726   -2.000
 7206.00    0.98250   1.18829   -2.000
 7207.00    0.99944   1.18964   -2.000
 7208.00    1.08931   1.18969   -2.000
 7209.00    1.06450   1.19038   -2.000
 7210.00    1.01558   1.19185   -2.000
 7211.00    1.04613   1.19232   -2.000
 7212.00    1.08988   1.19271   -2.000
 7213.00    1.13587   1.19407   -2.000
 7214.00    1.18214   1.19489   -2.000
 7215.00    1.27543   1.19504   -2.000
 7216.00    1.37278   1.19607   -2.000
 7217.00    1.31812   1.19709   -2.000
 7218.00    1.25573   1.19716   -2.000
