###################################################################
## OUTPUT of StarlightChains_v04.for    [Cid@UFSC - 01/Apr/2007] ##
###################################################################

## Some input info
KUG0210-078._42_28.txt                   [arq_obs]
Base.CB07.vall.4m                        [arq_base]
Masks.EmLines.NEW.gm                     [arq_masks]
StCv04.C11.config                        [arq_config]
   66                                    [N_base]
    0                                    [N_YAV_components = # of components with extra extinction!]
    0                                    [i_FitPowerLaw (1/0 = Yes/No)]
-9.99                                    [alpha_PowerLaw]
CCM                                      [red_law_option]
 1.458241                                [q_norm = A(l_norm)/A(V)]

## (Re)Sampling Parameters
 3741.00                                 [l_ini (A)]
 7218.00                                 [l_fin (A)]
    1.00                                 [dl    (A)]     (OBS: dl_cushion =    50.00 A)

## Normalization info
 4020.00                                 [l_norm (A) - for base]
 4010.00                                 [llow_norm (A) - window for f_obs]
 4060.00                                 [lupp_norm (A) - window for f_obs]
9.918839E-18                             [fobs_norm (in input units)]

## S/N
 3691.00                                 [llow_SN (A) - window for S/N]
 7268.00                                 [lupp_SN (A) - window for S/N]
   3.092                                 [S/N in S/N window]
   3.748                                 [S/N in norm. window]
   0.011                                 [S/N_err in S/N window]
   0.013                                 [S/N_err in norm. window]
  1.0000                                 [fscale_chi2]

## etc...
    -2007769                             [idum_orig]
  2400                                   [NOl_eff]
  2025                                   [Nl_eff]
   375    NSIGMA                         [Ntot_cliped & clip_method]
 11356940                                [Nglobal_steps]
   7                                     [N_chains]
  20                                     [NEX0s_base = N_base in EX0s-fits]
 0   1   1      376   2.0   8.629E+03    [Clip-Bug, RC-Crash & Burn-In warning-flags, n_censored_weights, wei_nsig_threshold & wei_limit]
    91     90.797     90.117      0.679  [idt_all, wdt_TotTime, wdt_UsrTime & wdt_SysTime (sec)]

## Synthesis Results - Best model ##

 3.92844E-02                             [chi2/Nl_eff]
    16.03206                             [adev (%)]

    94.78158                             [sum-of-x (%)]
 2.47541E-18                             [Flux_tot (units of input spectrum!)]
 1.60198E-13                             [Mini_tot (???)]
 8.13682E-14                             [Mcor_tot (???)]

-303.14                                  [v0_min  (km/s)]
 150.00                                  [vd_min  (km/s)]
-0.9936                                  [AV_min  (mag)]
 0.0000                                  [YAV_min (mag)]

# j     x_j(%)      Mini_j(%)     Mcor_j(%)     age_j(yr)     Z_j      (L/M)_j    YAV?  Mstars   component_j        a/Fe...       SSP_chi2r SSP_adev(%)   SSP_AV   SSP_x(%)
  1      0.0000     0.0000E+00    0.0000E+00    1.000000E+06  0.00400  1.094E-02    0   1.0000   age020_m42            0.0000     1.5892E-05    16.9501   2.8914    82.0274
  2      0.0000     0.0000E+00    0.0000E+00    3.160000E+06  0.00400  4.007E-02    0   0.9999   age045_m42            0.0000     1.6022E-05    17.5859   2.2587    84.0470
  3      0.0000     0.0000E+00    0.0000E+00    5.010000E+06  0.00400  2.539E-02    0   0.9488   age055_m42            0.0000     1.5922E-05    17.2817   2.5306    83.7616
  4      0.0000     0.0000E+00    0.0000E+00    6.610000E+06  0.00400  2.620E-02    0   0.9220   age061_m42            0.0000     1.6143E-05    17.7124   2.1929    83.8636
  5      0.0000     0.0000E+00    0.0000E+00    1.000000E+07  0.00400  1.322E-02    0   0.8862   age070_m42            0.0000     1.7027E-05    18.9398   1.9586    83.7733
  6      0.0000     0.0000E+00    0.0000E+00    1.445000E+07  0.00400  7.883E-03    0   0.8571   age078_m42            0.0000     1.6852E-05    18.5579   2.2550    82.7828
  7      0.0000     0.0000E+00    0.0000E+00    2.512000E+07  0.00400  5.251E-03    0   0.8174   age090_m42            0.0000     1.7268E-05    19.2946   1.8499    83.4068
  8      0.0000     0.0000E+00    0.0000E+00    4.000000E+07  0.00400  3.649E-03    0   0.7851   age104_m42            0.0000     1.7266E-05    19.3434   1.6399    83.4696
  9      0.0000     0.0000E+00    0.0000E+00    5.500000E+07  0.00400  3.098E-03    0   0.7629   age110_m42            0.0000     1.6983E-05    18.9018   1.7915    83.4969
 10      0.4563     3.3390E-03    4.7377E-03    1.015200E+08  0.00400  2.228E-03    0   0.7207   age116_m42            0.0000     1.6740E-05    18.6358   1.8087    83.8328
 11      0.0000     0.0000E+00    0.0000E+00    2.861200E+08  0.00400  1.093E-03    0   0.6648   age125_m42            0.0000     1.7034E-05    19.3510   1.2698    85.1291
 12     23.1075     5.7105E-01    7.1560E-01    5.088000E+08  0.00400  6.597E-04    0   0.6365   age130_m42            0.0000     1.6535E-05    18.7377   1.2469    86.2325
 13      0.0000     0.0000E+00    0.0000E+00    1.434000E+09  0.00400  2.132E-04    0   0.5798   age139_m42            0.0000     1.5947E-05    18.3387   0.2874    87.5521
 14      0.0000     0.0000E+00    0.0000E+00    4.250000E+09  0.00400  5.895E-05    0   0.5377   age158_m42            0.0000     1.5024E-05    16.9636  -0.2374    87.3360
 15      0.0000     0.0000E+00    0.0000E+00    7.500000E+09  0.00400  3.510E-05    0   0.5212   age171_m42            0.0000     1.4696E-05    16.5988  -0.4511    87.7750
 16      0.0000     0.0000E+00    0.0000E+00    1.300000E+10  0.00400  2.005E-05    0   0.5034   age193_m42            0.0000     1.4592E-05    16.3552  -0.6274    87.6589
 17      0.0000     0.0000E+00    0.0000E+00    1.800000E+10  0.00400  1.525E-05    0   0.4967   age213_m42            0.0000     1.4596E-05    16.3787  -0.6482    87.1890
 18      0.0000     0.0000E+00    0.0000E+00    1.000000E+06  0.00800  1.238E-02    0   1.0000   age020_m52            0.0000     1.5567E-05    16.7962   2.8544    83.4699
 19      0.0000     0.0000E+00    0.0000E+00    3.160000E+06  0.00800  3.074E-02    0   0.9966   age045_m52            0.0000     1.5470E-05    16.7413   2.7753    84.2907
 20      0.0000     0.0000E+00    0.0000E+00    5.010000E+06  0.00800  2.668E-02    0   0.9443   age055_m52            0.0000     1.5851E-05    17.1550   2.5935    83.7594
 21      0.0000     0.0000E+00    0.0000E+00    6.610000E+06  0.00800  2.136E-02    0   0.9177   age061_m52            0.0000     1.6512E-05    18.4160   1.4228    86.0668
 22      0.0000     0.0000E+00    0.0000E+00    1.000000E+07  0.00800  1.215E-02    0   0.8827   age070_m52            0.0000     1.7100E-05    19.1048   2.1235    84.1226
 23      0.0000     0.0000E+00    0.0000E+00    1.445000E+07  0.00800  8.717E-03    0   0.8552   age078_m52            0.0000     1.6913E-05    18.7263   2.2336    83.5526
 24      0.0000     0.0000E+00    0.0000E+00    2.512000E+07  0.00800  5.592E-03    0   0.8162   age090_m52            0.0000     1.7300E-05    19.4405   1.9216    84.1274
 25      0.0000     0.0000E+00    0.0000E+00    4.000000E+07  0.00800  3.896E-03    0   0.7841   age104_m52            0.0000     1.7206E-05    19.3777   1.8471    84.2665
 26      0.0000     0.0000E+00    0.0000E+00    1.015200E+08  0.00800  2.148E-03    0   0.7226   age116_m52            0.0000     1.6830E-05    18.8369   1.7754    84.4697
 27      0.0000     0.0000E+00    0.0000E+00    2.861200E+08  0.00800  9.925E-04    0   0.6683   age125_m52            0.0000     1.6742E-05    18.8707   1.3296    86.3614
 28      3.1808     1.6509E-01    1.9951E-01    9.047900E+08  0.00800  3.141E-04    0   0.6138   age135_m52            0.0000     1.5538E-05    18.0175   0.5087    90.8266
 29      2.7053     2.5657E-01    2.9566E-01    1.434000E+09  0.00800  1.719E-04    0   0.5853   age139_m52            0.0000     1.5221E-05    17.5902  -0.1023    90.2457
 30      0.0000     0.0000E+00    0.0000E+00    2.500000E+09  0.00800  7.872E-05    0   0.5600   age150_m52            0.0000     1.4496E-05    16.4935  -0.4408    90.5084
 31      0.0000     0.0000E+00    0.0000E+00    4.250000E+09  0.00800  4.336E-05    0   0.5426   age158_m52            0.0000     1.4433E-05    16.3962  -0.4652    90.0188
 32      0.0000     0.0000E+00    0.0000E+00    6.250000E+09  0.00800  3.159E-05    0   0.5319   age166_m52            0.0000     1.4114E-05    15.9253  -0.6998    91.1858
 33      0.1038     1.2428E-01    1.2413E-01    1.300000E+10  0.00800  1.361E-05    0   0.5073   age193_m52            0.0000     1.4511E-05    20.9048  -1.0000    91.6253
 34      2.8852     4.7580E+00    4.6744E+00    1.800000E+10  0.00800  9.886E-06    0   0.4990   age213_m52            0.0000     1.5656E-05    26.1473  -1.0000    92.2761
 35      0.0000     0.0000E+00    0.0000E+00    1.000000E+06  0.02000  1.544E-02    0   1.0000   age020_m62            0.0000     1.5374E-05    16.6899   2.8270    84.5582
 36      0.0000     0.0000E+00    0.0000E+00    3.160000E+06  0.02000  3.762E-02    0   0.9858   age045_m62            0.0000     1.5549E-05    16.7390   2.7863    84.4865
 37      0.6075     3.0051E-04    5.5272E-04    5.010000E+06  0.02000  3.296E-02    0   0.9342   age055_m62            0.0000     1.5961E-05    17.2762   2.5040    84.3125
 38      0.0000     0.0000E+00    0.0000E+00    8.710000E+06  0.02000  1.154E-02    0   0.8861   age067_m62            0.0000     1.8597E-05    21.6634   1.6055    85.2699
 39      0.0000     0.0000E+00    0.0000E+00    1.445000E+07  0.02000  7.663E-03    0   0.8472   age078_m62            0.0000     1.7652E-05    19.9925   1.8011    84.7450
 40      0.0000     0.0000E+00    0.0000E+00    2.512000E+07  0.02000  4.532E-03    0   0.8099   age090_m62            0.0000     1.7890E-05    20.2997   1.8093    83.9135
 41      0.0000     0.0000E+00    0.0000E+00    5.500000E+07  0.02000  2.733E-03    0   0.7595   age110_m62            0.0000     1.7140E-05    19.2198   1.8147    84.2512
 42      0.0000     0.0000E+00    0.0000E+00    1.609000E+08  0.02000  1.369E-03    0   0.6985   age120_m62            0.0000     1.6864E-05    18.9058   1.6726    85.7687
 43      0.0000     0.0000E+00    0.0000E+00    2.861200E+08  0.02000  9.013E-04    0   0.6714   age125_m62            0.0000     1.6768E-05    18.8809   1.4471    87.2133
 44      1.4623     4.7415E-02    6.0202E-02    5.088000E+08  0.02000  5.028E-04    0   0.6449   age130_m62            0.0000     1.5927E-05    18.1194   1.0546    90.0680
 45      0.0075     5.0106E-04    6.0955E-04    9.047900E+08  0.02000  2.428E-04    0   0.6179   age135_m62            0.0000     1.5090E-05    17.2819   0.4220    91.3856
 46     14.0216     1.8099E+00    2.1052E+00    1.434000E+09  0.02000  1.263E-04    0   0.5908   age139_m62            0.0000     1.4593E-05    16.6820  -0.0770    92.1530
 47      0.0000     0.0000E+00    0.0000E+00    2.500000E+09  0.02000  5.985E-05    0   0.5673   age150_m62            0.0000     1.4133E-05    15.9457  -0.4996    93.1371
 48      0.6148     3.0644E-01    3.2989E-01    4.250000E+09  0.02000  3.271E-05    0   0.5468   age158_m62            0.0000     1.3565E-05    15.1659  -0.8792    95.2177
 49      0.0003     3.5839E-04    3.6459E-04    1.000000E+10  0.02000  1.360E-05    0   0.5167   age181_m62            0.0000     1.4771E-05    23.5449  -1.0000    97.2898
 50     19.0104     4.3505E+01    4.2937E+01    1.800000E+10  0.02000  7.124E-06    0   0.5013   age213_m62            0.0000     1.9307E-05    35.5963  -1.0000    98.5986
 51      0.0000     0.0000E+00    0.0000E+00    1.000000E+06  0.05000  2.592E-02    0   0.9998   age020_m72            0.0000     1.5011E-05    16.5047   2.7694    86.4796
 52      0.0000     0.0000E+00    0.0000E+00    3.160000E+06  0.05000  4.845E-02    0   0.9577   age045_m72            0.0000     1.5837E-05    16.9261   2.7178    83.7443
 53      0.0000     0.0000E+00    0.0000E+00    5.010000E+06  0.05000  3.072E-02    0   0.9147   age055_m72            0.0000     1.6824E-05    18.6944   2.3163    84.3480
 54      0.0000     0.0000E+00    0.0000E+00    6.610000E+06  0.05000  1.455E-02    0   0.8877   age061_m72            0.0000     1.9903E-05    23.3283   1.6845    84.7792
 55      0.0000     0.0000E+00    0.0000E+00    1.000000E+07  0.05000  9.074E-03    0   0.8524   age070_m72            0.0000     1.7058E-05    18.9258   2.5218    83.4600
 56      0.0000     0.0000E+00    0.0000E+00    2.512000E+07  0.05000  4.250E-03    0   0.7902   age090_m72            0.0000     1.7387E-05    19.3637   2.2660    83.0630
 57      0.0000     0.0000E+00    0.0000E+00    4.000000E+07  0.05000  3.087E-03    0   0.7618   age104_m72            0.0000     1.7611E-05    19.8063   2.0628    83.5329
 58      0.0000     0.0000E+00    0.0000E+00    1.015200E+08  0.05000  1.700E-03    0   0.7096   age116_m72            0.0000     1.7123E-05    19.2487   1.8143    85.3911
 59      0.0000     0.0000E+00    0.0000E+00    2.861200E+08  0.05000  7.384E-04    0   0.6633   age125_m72            0.0000     1.6044E-05    18.4064   1.2867    89.6180
 60      0.0001     3.8772E-06    4.8640E-06    5.088000E+08  0.05000  3.819E-04    0   0.6372   age130_m72            0.0000     1.5104E-05    17.3466   0.7509    92.6638
 61      0.3558     3.4607E-02    4.1630E-02    9.047900E+08  0.05000  1.676E-04    0   0.6110   age135_m72            0.0000     1.4327E-05    16.0945  -0.0220    94.0437
 62      1.1586     2.1374E-01    2.4719E-01    1.434000E+09  0.05000  8.837E-05    0   0.5874   age139_m72            0.0000     1.3983E-05    15.7960  -0.5200    95.2110
 63      1.2936     4.9822E-01    5.4910E-01    2.500000E+09  0.05000  4.233E-05    0   0.5598   age150_m72            0.0000     1.3471E-05    14.9752  -0.9064    96.9445
 64      8.7013     9.8854E+00    1.0216E+01    6.250000E+09  0.05000  1.435E-05    0   0.5249   age166_m72            0.0000     1.6557E-05    29.2519  -1.0000    98.3191
 65     15.1087     3.7819E+01    3.7497E+01    1.300000E+10  0.05000  6.513E-06    0   0.5036   age193_m72            0.0000     2.6433E-05    47.5840  -1.0000   102.1696
 66      0.0002     8.9310E-04    8.6950E-04    1.800000E+10  0.05000  4.527E-06    0   0.4945   age213_m72            0.0000     3.5734E-05    59.0524  -1.0000   103.1255


## Synthesis Results - Average & Chains ##

# j      x_j: min, <> & last-chain-values for 1 ...  7 chains
  1      0.0000      0.0517      0.0000      0.0000      0.0000      0.0000      0.0000      0.0000      0.0000
  2      0.0000      0.1350      0.0000      0.0000      0.0000      0.3085      0.0000      0.0000      0.0000
  3      0.0000      0.0495      0.0298      0.0000      0.4103      0.2850      0.1314      0.0000      0.0000
  4      0.0000      0.0547      0.0000      0.0000      0.0000      0.3923      0.0000      0.0000      0.0000
  5      0.0000      0.0403      0.0000      0.0000      0.0000      0.0000      0.0000      0.0000      0.1127
  6      0.0000      0.0545      0.0000      0.0000      0.0000      0.4033      0.1806      0.0000      0.0000
  7      0.0000      0.0872      0.4976      0.0000      0.1425      0.0000      0.0000      0.0000      0.0000
  8      0.0000      0.0368      0.0000      0.3821      0.0000      0.0000      0.3447      0.0000      0.0000
  9      0.0000      0.0509      0.0000      0.0000      0.0000      0.0000      0.0000      0.0381      0.0000
 10      0.4563      1.7629      2.8140      2.2568      1.5297      1.8334      2.0151      1.5369      1.5595
 11      0.0000      0.0880      0.0000      0.0000      0.0000      0.3768      0.0000      0.0000      0.0000
 12     23.1075     24.5908     20.6663     19.3214     23.5382     21.7304     19.4414     20.6519     21.7519
 13      0.0000      0.2350      0.0000      0.2831      0.2367      0.0000      0.8671      0.0000      0.0000
 14      0.0000      0.1492      0.0000      0.0000      0.0278      0.0000      0.0000      0.0000      0.0000
 15      0.0000      0.0683      0.5291      0.1352      0.0000      0.0618      0.0000      0.0000      0.0000
 16      0.0000      0.0932      0.0000      0.0000      0.0000      0.0000      0.0000      0.4759      0.5776
 17      0.0000      0.0558      0.0000      0.0000      0.0000      0.0000      0.0000      0.0000      0.0000
 18      0.0000      0.1281      0.0000      0.0000      1.3174      0.1417      0.1272      0.3014      0.0000
 19      0.0000      0.1866      0.0000      1.3244      0.0000      0.0000      0.0365      0.0000      0.0000
 20      0.0000      0.0561      0.0330      0.0000      0.0000      0.0000      0.0000      0.0000      0.0000
 21      0.0000      0.1355      0.0000      0.0000      0.0000      0.0000      0.1090      0.0000      0.0000
 22      0.0000      0.0922      0.0000      0.0000      0.6377      0.1316      0.0000      0.0000      0.0000
 23      0.0000      0.1297      0.8544      0.0000      0.0000      0.0000      0.0000      0.0000      0.0000
 24      0.0000      0.0483      0.0000      0.0374      0.0000      0.0000      0.3126      0.0000      0.0000
 25      0.0000      0.0605      0.2941      0.0000      0.0000      0.6085      0.0000      0.0000      0.0000
 26      0.0000      0.0502      0.0000      0.0000      0.0000      0.0078      0.0000      0.0000      0.0000
 27      0.0000      0.2159      0.0000      0.0000      0.8850      0.4169      0.0000      0.0000      0.0000
 28      3.1808      0.7708      0.5900      0.0000      0.0000      0.0000      0.8393      0.5789      0.9942
 29      2.7053      0.3772      0.2226      0.2287      0.5016      0.0000      0.0000      1.9838      0.6517
 30      0.0000      0.4693      0.0000      0.0000      1.3832      1.0871      0.7449      0.0000      2.9540
 31      0.0000      0.2830      1.9751      0.0000      1.2775      0.0000      0.0000      0.0000      0.3345
 32      0.0000      0.4874      0.1931      0.0000      2.8513      2.0660      0.0963      0.0000      0.6432
 33      0.1038      0.3963      0.0000      0.0000      0.0000      0.0000      1.6656      0.9427      0.0000
 34      2.8852      0.4198      0.6024      0.0000      0.0000      0.0000      1.2532      0.6601      0.0000
 35      0.0000      0.1125      0.0000      0.1623      0.0000      0.4905      0.0000      0.0000      0.0000
 36      0.0000      0.0650      0.1714      0.0000      0.0000      0.0000      0.0000      0.0000      0.0000
 37      0.6075      0.1214      0.7626      0.4969      0.0000      0.0000      0.0000      0.7417      0.3260
 38      0.0000      0.0899      0.1454      0.7180      0.0000      0.0000      0.0000      0.0000      0.2640
 39      0.0000      0.0939      0.0000      0.0000      0.0363      0.0449      0.4136      0.0000      0.0000
 40      0.0000      0.0903      0.0000      0.0000      0.0000      0.0000      0.0000      0.2365      0.0000
 41      0.0000      0.1180      0.0000      0.0000      0.0000      0.8297      0.0000      0.0000      0.0000
 42      0.0000      0.1203      1.7508      0.1132      0.0000      0.0000      0.3402      0.0000      0.0000
 43      0.0000      0.1402      0.0000      0.6358      0.0000      0.3200      0.0000      0.0000      0.0000
 44      1.4623      2.0621      1.0645      1.1027      1.7834      0.0000      5.2473      1.3081      1.4572
 45      0.0075      1.6441      1.1208      1.5967      0.0000      1.5288      2.4825      2.2243      3.0653
 46     14.0216      1.5700      2.1047      0.3114      3.9381      2.8604      3.9446      7.0684      1.0369
 47      0.0000      1.8154      3.0528      1.3538      2.0450      2.6308      0.0000      0.0000      0.1734
 48      0.6148      1.9489      2.5188      1.7279      2.9156      0.0000      1.8042      1.1390      2.7991
 49      0.0003      1.5174      0.5365      2.2156      1.5691      2.3895      0.7470      1.7157      4.8273
 50     19.0104     17.3687     19.7163     15.8320     15.0526     15.3347     16.5204     14.0499     16.1431
 51      0.0000      0.1999      0.0000      0.0000      0.0000      1.0855      0.8580      0.3363      0.0000
 52      0.0000      0.0633      0.0000      0.1924      0.0000      0.0000      0.3835      0.0000      0.0188
 53      0.0000      0.0660      0.0000      0.0372      0.0000      0.0000      0.0000      0.0000      0.0000
 54      0.0000      0.0763      0.0000      0.0000      0.0025      0.0000      0.0000      0.0000      0.0000
 55      0.0000      0.0654      0.0000      0.0000      0.0000      0.0000      0.0000      0.0000      0.0000
 56      0.0000      0.0476      0.0000      0.0000      0.0000      0.0485      0.2392      0.0000      0.0000
 57      0.0000      0.0491      0.3223      0.0000      0.1298      0.0000      0.0000      0.0000      0.4287
 58      0.0000      0.0843      0.0000      0.0000      0.4813      0.0000      0.0130      0.0774      0.0000
 59      0.0000      0.3778      0.0000      1.8671      0.1948      0.3240      0.2420      0.0000      0.0000
 60      0.0001      2.6448      5.4749      0.8836      0.0000      1.5670      0.0000      4.6934      2.0644
 61      0.3558      2.9405      1.5803     15.7028      5.7892      6.2820      5.2832      6.0491     11.3312
 62      1.1586      2.5084      2.5499      8.4134      3.1541      3.0738      2.7915      5.3798      2.6215
 63      1.2936      1.4554      1.2197      1.7134      0.0000      1.6156      3.4991      1.8824      0.0000
 64      8.7013      7.9827      8.2905      5.2712      7.2676      9.2849      8.0949      7.6451      6.8662
 65     15.1087     15.0990     12.9298     10.3627     15.4185     15.1535     13.6890     12.2471     11.6981
 66      0.0002      0.2455      0.0000      0.0000      0.0000      0.0000      0.0000      0.8176      0.0000

# j      m_j: min, <> & last-chain-values for 1 ...  7 chains
  1  0.0000E+00  1.5918E-04  0.0000E+00  0.0000E+00  0.0000E+00  0.0000E+00  0.0000E+00  0.0000E+00  0.0000E+00
  2  0.0000E+00  1.1354E-04  0.0000E+00  0.0000E+00  0.0000E+00  2.6943E-04  0.0000E+00  0.0000E+00  0.0000E+00
  3  0.0000E+00  6.2350E-05  3.7952E-05  0.0000E+00  5.4592E-04  3.7269E-04  1.7248E-04  0.0000E+00  0.0000E+00
  4  0.0000E+00  6.4884E-05  0.0000E+00  0.0000E+00  0.0000E+00  4.8312E-04  0.0000E+00  0.0000E+00  0.0000E+00
  5  0.0000E+00  9.1085E-05  0.0000E+00  0.0000E+00  0.0000E+00  0.0000E+00  0.0000E+00  0.0000E+00  2.8231E-04
  6  0.0000E+00  1.9958E-04  0.0000E+00  0.0000E+00  0.0000E+00  1.5349E-03  6.8964E-04  0.0000E+00  0.0000E+00
  7  0.0000E+00  4.5722E-04  2.6398E-03  0.0000E+00  7.8964E-04  0.0000E+00  0.0000E+00  0.0000E+00  0.0000E+00
  8  0.0000E+00  2.6689E-04  0.0000E+00  3.4200E-03  0.0000E+00  0.0000E+00  2.6047E-03  0.0000E+00  0.0000E+00
  9  0.0000E+00  4.2211E-04  0.0000E+00  0.0000E+00  0.0000E+00  0.0000E+00  0.0000E+00  3.5739E-04  0.0000E+00
 10  4.7377E-03  1.9217E-02  3.1024E-02  3.0372E-02  1.7618E-02  2.0756E-02  2.2891E-02  1.8913E-02  1.8848E-02
 11  0.0000E+00  1.8041E-03  0.0000E+00  0.0000E+00  0.0000E+00  8.0204E-03  0.0000E+00  0.0000E+00  0.0000E+00
 12  7.1560E-01  7.9954E-01  6.7958E-01  7.7558E-01  8.0860E-01  7.3378E-01  6.5873E-01  7.5803E-01  7.8412E-01
 13  0.0000E+00  2.1537E-02  0.0000E+00  3.2036E-02  2.2919E-02  0.0000E+00  8.2815E-02  0.0000E+00  0.0000E+00
 14  0.0000E+00  4.5873E-02  0.0000E+00  0.0000E+00  9.0187E-03  0.0000E+00  0.0000E+00  0.0000E+00  0.0000E+00
 15  0.0000E+00  3.4156E-02  2.6779E-01  8.3538E-02  0.0000E+00  3.2109E-02  0.0000E+00  0.0000E+00  0.0000E+00
 16  0.0000E+00  7.8819E-02  0.0000E+00  0.0000E+00  0.0000E+00  0.0000E+00  0.0000E+00  4.5459E-01  5.4186E-01
 17  0.0000E+00  6.1293E-02  0.0000E+00  0.0000E+00  0.0000E+00  0.0000E+00  0.0000E+00  0.0000E+00  0.0000E+00
 18  0.0000E+00  3.4871E-04  0.0000E+00  0.0000E+00  3.7887E-03  4.0053E-04  3.6095E-04  9.2620E-04  0.0000E+00
 19  0.0000E+00  2.0388E-04  0.0000E+00  1.7864E-03  0.0000E+00  0.0000E+00  4.1588E-05  0.0000E+00  0.0000E+00
 20  0.0000E+00  6.6946E-05  3.9852E-05  0.0000E+00  0.0000E+00  0.0000E+00  0.0000E+00  0.0000E+00  0.0000E+00
 21  0.0000E+00  1.9621E-04  0.0000E+00  0.0000E+00  0.0000E+00  0.0000E+00  1.6447E-04  0.0000E+00  0.0000E+00
 22  0.0000E+00  2.2575E-04  0.0000E+00  0.0000E+00  1.6496E-03  3.3468E-04  0.0000E+00  0.0000E+00  0.0000E+00
 23  0.0000E+00  4.2881E-04  2.8567E-03  0.0000E+00  0.0000E+00  0.0000E+00  0.0000E+00  0.0000E+00  0.0000E+00
 24  0.0000E+00  2.3738E-04  0.0000E+00  2.2723E-04  0.0000E+00  0.0000E+00  1.6021E-03  0.0000E+00  0.0000E+00
 25  0.0000E+00  4.1041E-04  2.0174E-03  0.0000E+00  0.0000E+00  4.2863E-03  0.0000E+00  0.0000E+00  0.0000E+00
 26  0.0000E+00  5.6854E-04  0.0000E+00  0.0000E+00  0.0000E+00  9.1863E-05  0.0000E+00  0.0000E+00  0.0000E+00
 27  0.0000E+00  4.8980E-03  0.0000E+00  0.0000E+00  2.1217E-02  9.8241E-03  0.0000E+00  0.0000E+00  0.0000E+00
 28  1.9951E-01  5.0762E-02  3.9296E-02  0.0000E+00  0.0000E+00  0.0000E+00  5.7599E-02  4.3036E-02  7.2592E-02
 29  2.9566E-01  4.3279E-02  2.5833E-02  3.2391E-02  6.0806E-02  0.0000E+00  0.0000E+00  2.5696E-01  8.2909E-02
 30  0.0000E+00  1.1251E-01  0.0000E+00  0.0000E+00  3.5035E-01  2.7067E-01  1.8609E-01  0.0000E+00  7.8514E-01
 31  0.0000E+00  1.1936E-01  8.4235E-01  0.0000E+00  5.6917E-01  0.0000E+00  0.0000E+00  0.0000E+00  1.5640E-01
 32  0.0000E+00  2.7655E-01  1.1084E-01  0.0000E+00  1.7094E+00  1.2175E+00  5.6955E-02  0.0000E+00  4.0460E-01
 33  1.2413E-01  4.9779E-01  0.0000E+00  0.0000E+00  0.0000E+00  0.0000E+00  2.1803E+00  1.3367E+00  0.0000E+00
 34  4.6744E+00  7.1415E-01  1.0364E+00  0.0000E+00  0.0000E+00  0.0000E+00  2.2214E+00  1.2676E+00  0.0000E+00
 35  0.0000E+00  2.4546E-04  0.0000E+00  4.3742E-04  0.0000E+00  1.1118E-03  0.0000E+00  0.0000E+00  0.0000E+00
 36  0.0000E+00  5.7404E-05  1.5308E-04  0.0000E+00  0.0000E+00  0.0000E+00  0.0000E+00  0.0000E+00  0.0000E+00
 37  5.5272E-04  1.1599E-04  7.3671E-04  5.8596E-04  0.0000E+00  0.0000E+00  0.0000E+00  7.9970E-04  3.4523E-04
 38  0.0000E+00  2.3252E-04  3.8044E-04  2.2936E-03  0.0000E+00  0.0000E+00  0.0000E+00  0.0000E+00  7.5735E-04
 39  0.0000E+00  3.4995E-04  0.0000E+00  0.0000E+00  1.4286E-04  1.7360E-04  1.6059E-03  0.0000E+00  0.0000E+00
 40  0.0000E+00  5.4365E-04  0.0000E+00  0.0000E+00  0.0000E+00  0.0000E+00  0.0000E+00  1.6079E-03  0.0000E+00
 41  0.0000E+00  1.1053E-03  0.0000E+00  0.0000E+00  0.0000E+00  8.0700E-03  0.0000E+00  0.0000E+00  0.0000E+00
 42  0.0000E+00  2.0689E-03  3.0446E-02  2.4028E-03  0.0000E+00  0.0000E+00  6.0958E-03  0.0000E+00  0.0000E+00
 43  0.0000E+00  3.5191E-03  0.0000E+00  1.9704E-02  0.0000E+00  8.3433E-03  0.0000E+00  0.0000E+00  0.0000E+00
 44  6.0202E-02  8.9130E-02  4.6532E-02  5.8841E-02  8.1441E-02  0.0000E+00  2.3635E-01  6.3828E-02  6.9832E-02
 45  6.0955E-04  1.4099E-01  9.7210E-02  1.6906E-01  0.0000E+00  1.3617E-01  2.2186E-01  2.1534E-01  2.9146E-01
 46  2.1052E+00  2.4748E-01  3.3554E-01  6.0605E-02  6.5589E-01  4.6829E-01  6.4799E-01  1.2579E+00  1.8121E-01
 47  0.0000E+00  5.7987E-01  9.8623E-01  5.3389E-01  6.9015E-01  8.7274E-01  0.0000E+00  0.0000E+00  6.1399E-02
 48  3.2989E-01  1.0979E+00  1.4351E+00  1.2017E+00  1.7354E+00  0.0000E+00  1.0591E+00  7.2436E-01  1.7482E+00
 49  3.6459E-04  1.9428E+00  6.9473E-01  3.5020E+00  2.1225E+00  3.1773E+00  9.9670E-01  2.4798E+00  6.8523E+00
 50  4.2937E+01  4.1187E+01  4.7285E+01  4.6349E+01  3.7713E+01  3.7766E+01  4.0825E+01  3.7612E+01  4.2442E+01
 51  0.0000E+00  2.5990E-04  0.0000E+00  0.0000E+00  0.0000E+00  1.4654E-03  1.1622E-03  4.9354E-04  0.0000E+00
 52  0.0000E+00  4.2180E-05  0.0000E+00  1.5826E-04  0.0000E+00  0.0000E+00  2.6625E-04  0.0000E+00  1.3873E-05
 53  0.0000E+00  6.6244E-05  0.0000E+00  4.6038E-05  0.0000E+00  0.0000E+00  0.0000E+00  0.0000E+00  0.0000E+00
 54  0.0000E+00  1.5685E-04  0.0000E+00  0.0000E+00  5.4226E-06  0.0000E+00  0.0000E+00  0.0000E+00  0.0000E+00
 55  0.0000E+00  2.0712E-04  0.0000E+00  0.0000E+00  0.0000E+00  0.0000E+00  0.0000E+00  0.0000E+00  0.0000E+00
 56  0.0000E+00  2.9800E-04  0.0000E+00  0.0000E+00  0.0000E+00  3.1539E-04  1.5620E-03  0.0000E+00  0.0000E+00
 57  0.0000E+00  4.0828E-04  2.7107E-03  0.0000E+00  1.1404E-03  0.0000E+00  0.0000E+00  0.0000E+00  3.9526E-03
 58  0.0000E+00  1.1852E-03  0.0000E+00  0.0000E+00  7.1530E-03  0.0000E+00  1.9095E-04  1.2299E-03  0.0000E+00
 59  0.0000E+00  1.1437E-02  0.0000E+00  6.9778E-02  6.2293E-03  1.0185E-02  7.6347E-03  0.0000E+00  0.0000E+00
 60  4.8640E-06  1.4871E-01  3.1133E-01  6.1338E-02  0.0000E+00  9.1505E-02  0.0000E+00  2.9791E-01  1.2869E-01
 61  4.1630E-02  3.6125E-01  1.9635E-01  2.3817E+00  7.5144E-01  8.0151E-01  6.7638E-01  8.3895E-01  1.5434E+00
 62  2.4719E-01  5.6187E-01  5.7766E-01  2.3267E+00  7.4647E-01  7.1508E-01  6.5163E-01  1.3604E+00  6.5105E-01
 63  5.4910E-01  6.4861E-01  5.4975E-01  9.4272E-01  0.0000E+00  7.4776E-01  1.6251E+00  9.4703E-01  0.0000E+00
 64  1.0216E+01  9.8398E+00  1.0336E+01  8.0217E+00  9.4650E+00  1.1886E+01  1.0398E+01  1.0639E+01  9.3836E+00
 65  3.7497E+01  3.9343E+01  3.4074E+01  3.3336E+01  4.2448E+01  4.1008E+01  3.7171E+01  3.6026E+01  3.3795E+01
 66  8.6950E-04  9.0362E-01  0.0000E+00  0.0000E+00  0.0000E+00  0.0000E+00  0.0000E+00  3.3975E+00  0.0000E+00

# AV, chi2 & Mass for <> & i_chain = 1 ...  7 solutions
AV      -0.9936     -0.9734     -0.9616     -0.9507     -0.9805     -0.9450     -0.9798     -0.9705     -0.9434
chi2 3.9284E-02  7.0343E-05  3.8329E-05  3.8524E-05  1.6738E-05  1.4118E-04  5.0111E-05  1.6443E-05  9.4518E-05
Mass 8.1368E-14  7.9624E-14  7.9990E-14  6.6494E-14  7.4652E-14  7.9648E-14  7.5756E-14  7.0810E-14  7.4771E-14
-303.14                                  [v0_min (km/s) before EX0s...]
 150.00                                  [vd_min (km/s) before EX0s...]


## Synthetic spectrum (Best Model) ##l_obs f_obs f_syn wei
 3478    [Nl_obs]
 3741.00   -0.78183   0.42352    0.000
 3742.00   -0.61389   0.39210    0.000
 3743.00   -0.51312   0.36491    0.000
 3744.00   -0.11765   0.34741    0.000
 3745.00    0.44951   0.34398   -1.000
 3746.00    0.71671   0.36000   -1.000
 3747.00    0.83159   0.39666   -1.000
 3748.00    0.59343   0.44607   -1.000
 3749.00    0.20003   0.49534   -1.000
 3750.00    0.05033   0.53377   -1.000
 3751.00   -0.00736   0.55395    0.000
 3752.00    0.03200   0.55264   -1.000
 3753.00    0.10245   0.53532   -1.000
 3754.00    0.20414   0.51419   -1.000
 3755.00    0.31420   0.50212   -1.000
 3756.00    0.52726   0.50403   -1.000
 3757.00    0.76292   0.51343   -1.000
 3758.00    0.93924   0.52172   -1.000
 3759.00    1.10521   0.52412   -1.000
 3760.00    1.14501   0.51838   -1.000
 3761.00    1.16805   0.50743   -1.000
 3762.00    1.33149   0.49548   -1.000
 3763.00    1.50811   0.48398   -1.000
 3764.00    1.22653   0.47721   -1.000
 3765.00    0.91852   0.47914   -1.000
 3766.00    0.59258   0.48850   -1.000
 3767.00    0.26964   0.50389   -1.000
 3768.00    0.36245   0.52517   -1.000
 3769.00    0.45863   0.54874   -1.000
 3770.00    0.63691   0.56995   -1.000
 3771.00    0.81772   0.58754   -1.000
 3772.00    1.03158   0.60352   -1.000
 3773.00    1.20245   0.62088   -1.000
 3774.00    0.99592   0.64020   -1.000
 3775.00    0.75562   0.65988   -1.000
 3776.00    0.29638   0.67861   -1.000
 3777.00   -0.13218   0.69381    0.000
 3778.00   -0.40548   0.70231    0.000
 3779.00   -0.67272   0.70176    0.000
 3780.00   -0.91519   0.69012    0.000
 3781.00   -1.03714   0.66625    0.000
 3782.00   -0.75031   0.63232    0.000
 3783.00   -0.52607   0.59669    0.000
 3784.00   -0.48084   0.56862    0.000
 3785.00   -0.30862   0.55099    0.000
 3786.00    0.17385   0.54118   -1.000
 3787.00    0.53547   0.53381   -1.000
 3788.00    0.64234   0.52235   -1.000
 3789.00    0.68207   0.50244   -1.000
 3790.00    0.59881   0.47537   -1.000
 3791.00    0.48913   0.44656   -1.000
 3792.00    0.33715   0.42218   -1.000
 3793.00    0.28192   0.40679   -1.000
 3794.00    0.36260   0.40406   -1.000
 3795.00    0.45064   0.41768   -1.000
 3796.00    0.54779   0.44816   -1.000
 3797.00    0.43693   0.48942   -1.000
 3798.00    0.09947   0.53153   -1.000
 3799.00   -0.15786   0.56673    0.000
 3800.00   -0.33817   0.59069    0.000
 3801.00   -0.18241   0.60297    0.000
 3802.00    0.25812   0.60835   -1.000
 3803.00    0.35772   0.61381   -1.000
 3804.00    0.20291   0.62414   -1.000
 3805.00    0.07786   0.63780   -1.000
 3806.00   -0.02767   0.64740    0.000
 3807.00    0.12008   0.64591   -1.000
 3808.00    0.41317   0.63128   -1.000
 3809.00    0.33223   0.60771   -1.000
 3810.00    0.06433   0.58390   -1.000
 3811.00   -0.04221   0.56689    0.000
 3812.00   -0.07898   0.55756    0.000
 3813.00    0.26709   0.55257   -1.000
 3814.00    0.75513   0.54721   -1.000
 3815.00    0.69771   0.53836   -1.000
 3816.00    0.46882   0.52788   -1.000
 3817.00    0.24248   0.51989   -1.000
 3818.00    0.01682   0.51416   -1.000
 3819.00   -0.03543   0.50578    0.000
 3820.00   -0.05053   0.49113    0.000
 3821.00    0.20745   0.47231   -1.000
 3822.00    0.51178   0.45472   -1.000
 3823.00    0.28349   0.44128   -1.000
 3824.00   -0.01315   0.43097    0.000
 3825.00    0.11154   0.42064   -1.000
 3826.00    0.27406   0.40703   -1.000
 3827.00    0.30192   0.38814   -1.000
 3828.00    0.32255   0.36516   -1.000
 3829.00    0.27612   0.34378   -1.000
 3830.00    0.22328   0.32986   -1.000
 3831.00   -0.25723   0.32556    0.000
 3832.00   -0.71704   0.32998    0.000
 3833.00   -0.71688   0.33996    0.000
 3834.00   -0.68554   0.35366    0.000
 3835.00   -0.26643   0.37276    0.000
 3836.00    0.10539   0.39891   -1.000
 3837.00    0.07758   0.43212   -1.000
 3838.00    0.09691   0.47010   -1.000
 3839.00    0.41280   0.50719   -1.000
 3840.00    0.66549   0.53779   -1.000
 3841.00    0.60634   0.55970   -1.000
 3842.00    0.51359   0.57352   -1.000
 3843.00    0.28637   0.58139   -1.000
 3844.00    0.19004   0.58553   -1.000
 3845.00    0.52888   0.58730   -1.000
 3846.00    0.81177   0.58922   -1.000
 3847.00    0.93758   0.59365    0.000
 3848.00    1.01403   0.59856    0.000
 3849.00    0.97194   0.59974    0.000
 3850.00    0.79709   0.59559    0.000
 3851.00    0.34691   0.58682    0.000
 3852.00   -0.08120   0.57497    0.000
 3853.00   -0.46951   0.56259    0.000
 3854.00   -0.60283   0.55276    0.000
 3855.00   -0.33404   0.54862    0.000
 3856.00   -0.10669   0.55381    0.000
 3857.00    0.06331   0.56952    0.000
 3858.00    0.17319   0.59066    0.000
 3859.00    0.20982   0.60904    0.000
 3860.00    0.28070   0.61946    0.000
 3861.00    0.38834   0.62147    0.000
 3862.00    0.41084   0.61779    0.000
 3863.00    0.35267   0.61098    0.000
 3864.00    0.27740   0.60135    0.000
 3865.00    0.18785   0.58872    0.000
 3866.00    0.42863   0.57487    0.000
 3867.00    0.91237   0.56394    0.000
 3868.00    0.92344   0.56031    0.000
 3869.00    0.62919   0.56529    0.000
 3870.00    0.62856   0.57497    0.000
 3871.00    0.79385   0.58162    0.000
 3872.00    0.80039   0.57898    0.000
 3873.00    0.72885   0.56636    0.000
 3874.00    0.51467   0.54874    0.000
 3875.00    0.23985   0.53333    0.000
 3876.00    0.38125   0.52322    0.000
 3877.00    0.67425   0.51558    0.000
 3878.00    0.70165   0.50702    0.000
 3879.00    0.64717   0.49681    0.000
 3880.00    0.41288   0.48283    0.000
 3881.00    0.13244   0.46154   -1.000
 3882.00    0.17124   0.43668   -1.000
 3883.00    0.27678   0.41883   -1.000
 3884.00    0.15896   0.41557   -1.000
 3885.00    0.00430   0.42928   -1.000
 3886.00    0.17907   0.45835   -1.000
 3887.00    0.39463   0.49553   -1.000
 3888.00    0.29695   0.53071   -1.000
 3889.00    0.17246   0.55746   -1.000
 3890.00    0.13750   0.57530   -1.000
 3891.00    0.10700   0.58688   -1.000
 3892.00    0.73464   0.59662   -1.000
 3893.00    1.36335   0.60706   -1.000
 3894.00    1.36501   0.61650   -1.000
 3895.00    1.34044   0.62424   -1.000
 3896.00    0.77921   0.63216   -1.000
 3897.00    0.25605   0.63978   -1.000
 3898.00    0.18313   0.64306   -1.000
 3899.00    0.14269   0.64182   -1.000
 3900.00    0.36687   0.64021   -1.000
 3901.00    0.52104   0.64126   -1.000
 3902.00    0.24761   0.64909   -1.000
 3903.00    0.04951   0.66700   -1.000
 3904.00    0.21393   0.69171   -1.000
 3905.00    0.37938   0.71612   -1.000
 3906.00    0.54892   0.73537   -1.000
 3907.00    0.64975   0.74808   -1.000
 3908.00    0.52665   0.75386   -1.000
 3909.00    0.50882   0.75285   -1.000
 3910.00    0.78131   0.74698   -1.000
 3911.00    0.91512   0.73769   -1.000
 3912.00    0.72143   0.72420   -1.000
 3913.00    0.55082   0.70717   -1.000
 3914.00    0.42727   0.68785   -1.000
 3915.00    0.41470   0.66741   -1.000
 3916.00    0.59925   0.64893   -1.000
 3917.00    0.55165   0.63656   -1.000
 3918.00    0.14334   0.63100   -1.000
 3919.00    0.06155   0.62819   -1.000
 3920.00    0.42530   0.62282   -1.000
 3921.00    0.65919   0.60953   -1.000
 3922.00    0.73711   0.58573   -1.000
 3923.00    0.78211   0.55305   -1.000
 3924.00    0.79224   0.51453   -1.000
 3925.00    0.71475   0.47368   -1.000
 3926.00    0.55540   0.43447   -1.000
 3927.00    0.69095   0.39985   -1.000
 3928.00    1.06938   0.37288   -1.000
 3929.00    1.09005   0.35823   -1.000
 3930.00    0.85138   0.35965   -1.000
 3931.00    0.62116   0.37773   -1.000
 3932.00    0.39632   0.40995   -1.000
 3933.00    0.63194   0.45011   -1.000
 3934.00    1.12383   0.49121   -1.000
 3935.00    1.30532   0.52735   -1.000
 3936.00    1.33655   0.55489   -1.000
 3937.00    1.10215   0.57336   -1.000
 3938.00    0.75670   0.58572   -1.000
 3939.00    0.69487   0.59629   -1.000
 3940.00    0.73451   0.60978   -1.000
 3941.00    0.77325   0.62885   -1.000
 3942.00    0.81171   0.65004   -1.000
 3943.00    0.51129   0.66806   -1.000
 3944.00    0.12574   0.68230   -1.000
 3945.00    0.10632   0.69463   -1.000
 3946.00    0.16156   0.70514   -1.000
 3947.00    0.14972   0.71181   -1.000
 3948.00    0.12714   0.71375   -1.000
 3949.00    0.32848   0.71321   -1.000
 3950.00    0.55656   0.71132   -1.000
 3951.00    0.84054   0.70425   -1.000
 3952.00    1.12907   0.69099   -1.000
 3953.00    0.92453   0.67484   -1.000
 3954.00    0.69732   0.65588   -1.000
 3955.00    0.71664   0.63013   -1.000
 3956.00    0.73031   0.59424   -1.000
 3957.00    0.28475   0.55023   -1.000
 3958.00   -0.12725   0.50512    0.000
 3959.00    0.09626   0.46239   -1.000
 3960.00    0.30703   0.42005    0.000
 3961.00    0.37415   0.37630    0.000
 3962.00    0.45083   0.33260    0.000
 3963.00    0.60266   0.29433    0.000
 3964.00    0.76029   0.26875    0.000
 3965.00    0.95239   0.26144    0.000
 3966.00    1.09901   0.27430    0.000
 3967.00    1.03211   0.30520    0.000
 3968.00    0.89809   0.34873    0.000
 3969.00    0.50685   0.39932    0.000
 3970.00    0.14498   0.45287    0.000
 3971.00   -0.12299   0.50626    0.000
 3972.00   -0.13079   0.55693    0.000
 3973.00    0.56606   0.60385    0.000
 3974.00    1.03876   0.64596    0.000
 3975.00    0.99098   0.68082    0.000
 3976.00    0.86831   0.70632    0.000
 3977.00    0.59522   0.72218    0.000
 3978.00    0.32935   0.73175    0.000
 3979.00    0.07610   0.74028    0.000
 3980.00    0.14602   0.75109    0.000
 3981.00    0.71071   0.76462   -1.000
 3982.00    1.08170   0.77926   -1.000
 3983.00    1.19219   0.79375   -1.000
 3984.00    1.16361   0.80649   -1.000
 3985.00    0.97033   0.81541   -1.000
 3986.00    0.69444   0.82226   -1.000
 3987.00    0.33229   0.82965   -1.000
 3988.00   -0.04249   0.83602    0.000
 3989.00   -0.42890   0.83820    0.000
 3990.00   -0.05994   0.83489    0.000
 3991.00    0.92228   0.82804   -1.000
 3992.00    1.53764   0.82159   -1.000
 3993.00    1.89089   0.82063   -1.000
 3994.00    1.78720   0.82944   -1.000
 3995.00    1.39701   0.84682   -1.000
 3996.00    0.92945   0.86499   -1.000
 3997.00    0.41948   0.87628   -1.000
 3998.00    0.32655   0.87740   -1.000
 3999.00    0.43228   0.86710   -1.000
 4000.00    0.67392   0.84788   -1.000
 4001.00    0.97141   0.82969   -1.000
 4002.00    0.61579   0.82397   -1.000
 4003.00    0.03079   0.83280   -1.000
 4004.00    0.06205   0.84971   -1.000
 4005.00    0.27590   0.86771   -1.000
 4006.00    0.31776   0.88292   -1.000
 4007.00    0.31738   0.89412   -1.000
 4008.00    0.67916   0.90177   -1.000
 4009.00    1.11294   0.90721   -1.000
 4010.00    1.03368   0.91151   -1.000
 4011.00    0.87471   0.91487   -1.000
 4012.00    0.23917   0.91633   -1.000
 4013.00   -0.45116   0.91685    0.000
 4014.00    0.07006   0.91896   -1.000
 4015.00    0.68494   0.92165   -1.000
 4016.00    0.81429   0.92121   -1.000
 4017.00    0.92319   0.91716   -1.000
 4018.00    1.11692   0.91174   -1.000
 4019.00    1.31587   0.90666   -1.000
 4020.00    1.70967   0.90412   -1.000
 4021.00    2.05858   0.90665   -1.000
 4022.00    1.61599   0.91224   -1.000
 4023.00    1.20547   0.91389   -1.000
 4024.00    1.13991   0.90429   -1.000
 4025.00    1.09816   0.87999   -1.000
 4026.00    1.23721   0.84585   -1.000
 4027.00    1.33158   0.81368   -1.000
 4028.00    1.16818   0.79374   -1.000
 4029.00    1.00669   0.79119   -1.000
 4030.00    0.85395   0.80723   -1.000
 4031.00    0.82715   0.83798   -1.000
 4032.00    1.27278   0.87473   -1.000
 4033.00    1.53539   0.90689   -1.000
 4034.00    1.22424   0.92648   -1.000
 4035.00    0.98428   0.93128   -1.000
 4036.00    0.93371   0.92360   -1.000
 4037.00    0.92222   0.90640   -1.000
 4038.00    1.00000   0.88005   -1.000
 4039.00    0.95349   0.84446   -1.000
 4040.00    0.66130   0.80621   -1.000
 4041.00    0.59466   0.77975   -1.000
 4042.00    0.91659   0.77754   -1.000
 4043.00    1.15846   0.79944   -1.000
 4044.00    1.27958   0.83399   -1.000
 4045.00    1.31624   0.86813   -1.000
 4046.00    1.24097   0.89247   -1.000
 4047.00    0.96641   0.90210   -1.000
 4048.00    0.45916   0.89782   -1.000
 4049.00    0.30580   0.88446   -1.000
 4050.00    0.51677   0.86759   -1.000
 4051.00    0.68733   0.85196   -1.000
 4052.00    0.82118   0.84008   -1.000
 4053.00    1.05585   0.83308   -1.000
 4054.00    1.37119   0.83185   -1.000
 4055.00    1.39953   0.83393   -1.000
 4056.00    1.22577   0.83224   -1.000
 4057.00    1.01411   0.82052   -1.000
 4058.00    0.77904   0.80045   -1.000
 4059.00    0.70896   0.78253   -1.000
 4060.00    0.72791   0.77727   -1.000
 4061.00    0.71402   0.78556   -1.000
 4062.00    0.68475   0.80169   -1.000
 4063.00    0.82172   0.82069 8628.529
 4064.00    1.02586   0.83714   -1.000
 4065.00    1.04877   0.84376   -1.000
 4066.00    1.00920   0.83853   -1.000
 4067.00    0.84813   0.82921   -1.000
 4068.00    0.65178   0.82432   -1.000
 4069.00    0.73005   0.82277   -1.000
 4070.00    0.87429   0.81770   -1.000
 4071.00    0.91930   0.80635   -1.000
 4072.00    0.94509   0.79347   -1.000
 4073.00    0.87459   0.78831   -1.000
 4074.00    0.78958   0.79744   -1.000
 4075.00    0.68197   0.81964   -1.000
 4076.00    0.57185   0.84643   -1.000
 4077.00    0.75956   0.86698   -1.000
 4078.00    0.96908   0.87561   -1.000
 4079.00    1.03061   0.87519   -1.000
 4080.00    1.08647   0.87317   -1.000
 4081.00    0.96217   0.87639   -1.000
 4082.00    0.84934   0.88720   -1.000
 4083.00    1.20644   0.90179   -1.000
 4084.00    1.52692   0.91285   -1.000
 4085.00    1.24380   0.91497   -1.000
 4086.00    0.97501   0.90738   -1.000
 4087.00    0.85359   0.89224   -1.000
 4088.00    0.75072   0.87278   -1.000
 4089.00    0.78388   0.85020   -1.000
 4090.00    0.83958   0.82281   -1.000
 4091.00    1.02173   0.79115   -1.000
 4092.00    1.13299   0.75839    0.000
 4093.00    0.92700   0.72627    0.000
 4094.00    0.69631   0.69446    0.000
 4095.00    0.37486   0.66290    0.000
 4096.00    0.21767   0.63541    0.000
 4097.00    0.56566   0.62031    0.000
 4098.00    0.71171   0.62378    0.000
 4099.00    0.33000   0.64471    0.000
 4100.00    0.05486   0.67723    0.000
 4101.00    0.01907   0.71346    0.000
 4102.00    0.12654   0.74500    0.000
 4103.00    0.51280   0.76705    0.000
 4104.00    0.57265   0.77973    0.000
 4105.00    0.07865   0.78649    0.000
 4106.00    0.04598   0.79229    0.000
 4107.00    0.69905   0.80132    0.000
 4108.00    1.02126   0.81497    0.000
 4109.00    0.91114   0.83100    0.000
 4110.00    0.74661   0.84570    0.000
 4111.00    0.51943   0.85580    0.000
 4112.00    0.41675   0.85858    0.000
 4113.00    0.44045   0.85379   -1.000
 4114.00    0.59182   0.84570   -1.000
 4115.00    0.85750   0.83994   -1.000
 4116.00    0.80907   0.83827   -1.000
 4117.00    0.51281   0.84003   -1.000
 4118.00    0.30355   0.84492   -1.000
 4119.00    0.15465   0.85243   -1.000
 4120.00    0.52761   0.85954    0.087
 4121.00    1.21813   0.86204    0.033
 4122.00    1.47143   0.85844    0.028
 4123.00    1.49244   0.84983    0.028
 4124.00    1.54507   0.83792    0.028
 4125.00    1.61227   0.82349    0.028
 4126.00    1.58689   0.80763    0.028
 4127.00    1.52475   0.79344    0.028
 4128.00    0.95842   0.78636    0.027
 4129.00    0.22146   0.79009    0.027
 4130.00    0.65482   0.80524    0.027
 4131.00    1.42116   0.82770    0.027
 4132.00    1.03998   0.85021    0.026
 4133.00    0.38937   0.86803    0.026
 4134.00    0.36942   0.87749    0.026
 4135.00    0.46851   0.87527    0.026
 4136.00    1.06795   0.86001    0.027
 4137.00    1.74046   0.83357    0.027
 4138.00    1.33958   0.80440    0.027
 4139.00    0.82463   0.78504    0.026
 4140.00    0.62179   0.78225    0.026
 4141.00    0.44053   0.79268    0.026
 4142.00    0.66698   0.80831    0.026
 4143.00    0.90748   0.82149    0.026
 4144.00    0.74208   0.82745    0.026
 4145.00    0.58962   0.82639    0.026
 4146.00    0.89148   0.82144    0.026
 4147.00    1.15963   0.81499    0.025
 4148.00    0.90665   0.80843    0.025
 4149.00    0.70282   0.80279    0.025
 4150.00    0.98351   0.79960    0.025
 4151.00    1.24018   0.80031    0.025
 4152.00    1.32629   0.80649    0.025
 4153.00    1.31321   0.81887    0.025
 4154.00    0.75868   0.83520    0.025
 4155.00    0.38350   0.85199    0.024
 4156.00    0.79221   0.86682    0.024
 4157.00    1.14344   0.87835    0.024
 4158.00    1.28792   0.88432    0.024
 4159.00    1.36334   0.88315    0.024
 4160.00    1.23036   0.87595    0.024
 4161.00    1.11073   0.86511    0.025
 4162.00    1.02537   0.85378    0.024
 4163.00    0.92506   0.84522    0.024
 4164.00    0.79171   0.83933    0.024
 4165.00    0.64821   0.83183    0.024
 4166.00    0.48526   0.81870    0.024
 4167.00    0.39440   0.80071    0.025
 4168.00    0.42400   0.78367    0.025
 4169.00    0.62713   0.77298    0.025
 4170.00    1.08443   0.77006    0.025
 4171.00    1.26067   0.77299    0.025
 4172.00    1.07491   0.77875    0.025
 4173.00    0.94735   0.78583    0.025
 4174.00    0.88583   0.79355    0.025
 4175.00    0.74820   0.80054    0.025
 4176.00    0.53438   0.80600    0.025
 4177.00    0.51724   0.81116    0.025
 4178.00    0.67369   0.81753    0.025
 4179.00    0.64473   0.82457    0.025
 4180.00    0.47157   0.82932    0.025
 4181.00    0.68666   0.82876    0.025
 4182.00    1.16726   0.82439    0.026
 4183.00    1.49509   0.82141    0.026
 4184.00    1.73134   0.82294    0.025
 4185.00    1.51482   0.82854    0.025
 4186.00    1.06147   0.83693    0.026
 4187.00    0.96464   0.84637    0.026
 4188.00    1.02953   0.85257    0.025
 4189.00    1.14238   0.85031    0.025
 4190.00    1.27394   0.83814    0.025
 4191.00    1.51892   0.81901    0.025
 4192.00    1.80156   0.79759    0.025
 4193.00    1.43160   0.77889    0.025
 4194.00    0.87975   0.76687    0.025
 4195.00    0.55609   0.76193    0.025
 4196.00    0.28479   0.76248    0.025
 4197.00    0.59471   0.76835    0.025
 4198.00    1.01144   0.77970    0.025
 4199.00    1.10832   0.79558    0.025
 4200.00    1.15998   0.81460    0.025
 4201.00    1.10962   0.83457    0.024
 4202.00    1.04886   0.85252    0.024
 4203.00    1.26098   0.86549    0.024
 4204.00    1.49088   0.87219    0.023
 4205.00    1.45535   0.87411    0.023
 4206.00    1.41104   0.87303    0.023
 4207.00    0.96289   0.86845    0.023
 4208.00    0.52294   0.85909    0.023
 4209.00    0.32361   0.84581    0.023
 4210.00    0.15367   0.83423    0.023
 4211.00    0.41152   0.83211    0.023
 4212.00    0.67171   0.84255    0.023
 4213.00    0.95398   0.86235    0.023
 4214.00    1.15517   0.88441    0.023
 4215.00    0.79893   0.90022    0.023
 4216.00    0.49630   0.90187    0.023
 4217.00    0.47857   0.88488    0.022
 4218.00    0.51982   0.84948    0.022
 4219.00    0.81293   0.80035    0.022
 4220.00    0.97554   0.74679    0.022
 4221.00    0.67831   0.70312    0.023
 4222.00    0.46942   0.68391    0.023
 4223.00    0.52213   0.69458    0.022
 4224.00    0.57366   0.72889    0.022
 4225.00    0.62221   0.77342    0.022
 4226.00    0.60387   0.81260    0.023
 4227.00    0.44020   0.83602    0.023
 4228.00    0.37050   0.84289    0.023
 4229.00    0.47805   0.83794    0.022
 4230.00    0.56320   0.82770    0.022
 4231.00    0.61148   0.81930    0.022
 4232.00    0.67224   0.81661    0.021
 4233.00    0.75099   0.82021    0.021
 4234.00    0.80673   0.83004    0.021
 4235.00    0.83324   0.84516    0.021
 4236.00    0.77031   0.86317    0.021
 4237.00    0.60730   0.88208    0.020
 4238.00    0.63154   0.90033    0.020
 4239.00    0.84056   0.91399    0.021
 4240.00    0.87813   0.91802    0.021
 4241.00    0.76650   0.91004    0.021
 4242.00    0.77237   0.89146    0.021
 4243.00    0.86832   0.86626    0.021
 4244.00    0.98385   0.83980    0.022
 4245.00    1.11257   0.81903    0.023
 4246.00    1.01384   0.80803    0.023
 4247.00    0.78082   0.80455    0.022
 4248.00    0.72358   0.80480    0.022
 4249.00    0.75683   0.80811    0.023
 4250.00    0.75167   0.81534    0.023
 4251.00    0.72935   0.82467    0.023
 4252.00    0.96666   0.83095    0.023
 4253.00    1.30351   0.83030    0.023
 4254.00    1.30970   0.82341    0.023
 4255.00    1.20813   0.81643    0.022
 4256.00    1.36753   0.81801    0.023
 4257.00    1.59817   0.83265    0.023
 4258.00    1.61542   0.85807    0.023
 4259.00    1.58485   0.88721    0.023
 4260.00    1.21501   0.91071    0.023
 4261.00    0.78449   0.92031    0.023
 4262.00    0.63657   0.91276    0.023
 4263.00    0.52731   0.88922    0.023
 4264.00    0.45825   0.85294    0.022
 4265.00    0.39312   0.80988    0.022
 4266.00    0.70809   0.76920    0.022
 4267.00    1.04630   0.73946    0.022
 4268.00    1.18813   0.72512    0.022
 4269.00    1.32410   0.72836    0.022
 4270.00    1.35204   0.74854    0.022
 4271.00    1.38288   0.78017    0.022
 4272.00    1.49026   0.81452    0.022
 4273.00    1.58760   0.84232    0.022
 4274.00    1.54688   0.85805    0.022
 4275.00    1.49488   0.86219    0.022
 4276.00    1.34049   0.85864    0.022
 4277.00    1.19497   0.85220    0.022
 4278.00    1.10856   0.84590    0.022
 4279.00    1.04926   0.83952    0.022
 4280.00    1.13033   0.83195    0.022
 4281.00    1.16381   0.82150    0.021
 4282.00    0.99859   0.80623   -2.000
 4283.00    1.02396   0.78658   -2.000
 4284.00    1.70729   0.76719   -2.000
 4285.00    2.23477   0.75461   -2.000
 4286.00    2.30926   0.75291   -2.000
 4287.00    2.13504   0.76092   -2.000
 4288.00    1.34392   0.77334   -2.000
 4289.00    0.66034   0.78403   -2.000
 4290.00    0.20662   0.78722   -2.000
 4291.00    0.06438   0.77904   -2.000
 4292.00    0.50046   0.75892   -2.000
 4293.00    0.95742   0.72998   -2.000
 4294.00    1.44826   0.69894   -2.000
 4295.00    1.57424   0.67271   -2.000
 4296.00    1.18117   0.65543   -2.000
 4297.00    0.86232   0.64828   -2.000
 4298.00    0.63637   0.64852    0.020
 4299.00    0.63418   0.65052    0.021
 4300.00    0.87880   0.64913    0.021
 4301.00    0.84769   0.64200    0.020
 4302.00    0.54830   0.63140    0.020
 4303.00    0.39549   0.62329    0.020
 4304.00    0.36843   0.62357    0.020
 4305.00    0.53319   0.63576    0.020
 4306.00    0.84290   0.66008    0.020
 4307.00    0.84294   0.69407    0.020
 4308.00    0.63734   0.73538    0.021
 4309.00    0.67656   0.78284    0.021
 4310.00    0.85816   0.83398    0.020
 4311.00    0.94178   0.88363    0.020
 4312.00    0.97574   0.92522    0.020
 4313.00    0.85764   0.95251    0.020
 4314.00    0.67281   0.96183    0.019
 4315.00    0.74565   0.95324    0.019
 4316.00    0.91556   0.92846    0.019
 4317.00    1.17875   0.89017    0.020
 4318.00    1.47176   0.84334    0.020
 4319.00    1.34825   0.79673    0.020
 4320.00    1.11341   0.76242    0.020
 4321.00    1.19957   0.75066    0.020
 4322.00    1.35597   0.76377    0.020
 4323.00    1.20701   0.79498    0.020
 4324.00    1.00494   0.83266    0.020
 4325.00    0.89350   0.86588    0.020
 4326.00    0.79404   0.88861    0.020
 4327.00    1.16673   0.90049    0.020
 4328.00    1.58353   0.90359    0.021
 4329.00    1.35571   0.89760    0.020
 4330.00    1.09101   0.87908    0.000
 4331.00    1.21202   0.84572    0.000
 4332.00    1.33701   0.79914    0.000
 4333.00    0.88850   0.74604    0.000
 4334.00    0.48822   0.69849    0.000
 4335.00    1.24599   0.66855    0.000
 4336.00    1.92663   0.66187    0.000
 4337.00    1.60329   0.67752    0.000
 4338.00    1.31823   0.70971    0.000
 4339.00    1.36757   0.74927    0.000
 4340.00    1.36869   0.78832    0.000
 4341.00    1.05835   0.82303    0.000
 4342.00    0.82418   0.85102    0.000
 4343.00    0.97437   0.86886    0.000
 4344.00    1.11125   0.87343    0.000
 4345.00    1.19379   0.86505    0.000
 4346.00    1.25417   0.84885    0.000
 4347.00    1.23955   0.83303    0.000
 4348.00    1.20682   0.82575    0.000
 4349.00    1.12240   0.83155    0.000
 4350.00    1.02220   0.84826    0.000
 4351.00    0.88352   0.86889    0.060
 4352.00    0.87708   0.88675   -1.000
 4353.00    1.14880   0.89934   -1.000
 4354.00    1.38864   0.90829   -1.000
 4355.00    1.57018   0.91713   -1.000
 4356.00    1.48204   0.92867   -1.000
 4357.00    0.96299   0.94339   -1.000
 4358.00    0.69811   0.95873    0.095
 4359.00    0.78957   0.97016    0.028
 4360.00    1.08354   0.97383    0.020
 4361.00    1.62736   0.96856    0.021
 4362.00    1.82198   0.95631    0.020
 4363.00    1.63683   0.94114    0.020
 4364.00    1.38843   0.92720    0.020
 4365.00    1.07935   0.91616    0.020
 4366.00    1.05801   0.90631    0.020
 4367.00    1.28006   0.89485    0.020
 4368.00    1.16039   0.88103    0.020
 4369.00    0.78619   0.86782    0.019
 4370.00    0.75444   0.86044    0.019
 4371.00    0.94676   0.86243    0.019
 4372.00    0.87239   0.87255    0.020
 4373.00    0.64528   0.88435    0.020
 4374.00    0.82981   0.88849    0.020
 4375.00    1.21967   0.87663    0.020
 4376.00    1.43548   0.84628    0.020
 4377.00    1.57619   0.80355    0.019
 4378.00    1.34474   0.76100    0.019
 4379.00    0.97557   0.73204    0.020
 4380.00    0.87183   0.72484    0.019
 4381.00    0.85133   0.73871    0.019
 4382.00    0.93484   0.76524    0.019
 4383.00    1.04556   0.79369    0.019
 4384.00    1.30886   0.81688    0.019
 4385.00    1.60475   0.83290    0.019
 4386.00    1.46994   0.84357    0.019
 4387.00    1.26230   0.85190    0.019
 4388.00    1.39122   0.86050    0.019
 4389.00    1.56314   0.87095    0.019
 4390.00    1.45575   0.88363    0.019
 4391.00    1.32343   0.89739    0.019
 4392.00    1.15005   0.90911    0.019
 4393.00    0.97449   0.91503    0.019
 4394.00    1.17733   0.91315    0.019
 4395.00    1.38532   0.90347    0.019
 4396.00    1.41075   0.88710    0.019
 4397.00    1.43744   0.86613    0.019
 4398.00    1.49193   0.84310    0.019
 4399.00    1.52505   0.82088    0.019
 4400.00    1.29424   0.80363    0.019
 4401.00    1.07731   0.79657    0.018
 4402.00    0.97718   0.80288    0.018
 4403.00    0.88935   0.82202    0.018
 4404.00    0.87864   0.85060    0.018
 4405.00    0.89416   0.88250    0.018
 4406.00    1.03868   0.90939    0.018
 4407.00    1.20836   0.92415    0.018
 4408.00    1.47844   0.92429    0.019
 4409.00    1.70059   0.91267    0.019
 4410.00    1.76377   0.89716    0.019
 4411.00    1.70985   0.88765    0.019
 4412.00    1.32783   0.89010    0.019
 4413.00    1.10372   0.90314    0.019
 4414.00    1.25809   0.91978    0.018
 4415.00    1.38372   0.93224    0.018
 4416.00    1.44991   0.93591    0.018
 4417.00    1.40213   0.93124    0.018
 4418.00    1.14919   0.92286    0.018
 4419.00    0.94339   0.91582    0.018
 4420.00    0.81181   0.91273    0.018
 4421.00    0.80198   0.91313    0.018
 4422.00    0.96041   0.91490    0.018
 4423.00    1.22085   0.91625    0.018
 4424.00    1.60537   0.91598    0.019
 4425.00    1.69809   0.91333    0.019
 4426.00    1.47791   0.90791    0.018
 4427.00    1.31347   0.89961    0.018
 4428.00    1.20175   0.88924    0.018
 4429.00    1.06273   0.87965    0.018
 4430.00    0.90095   0.87567    0.018
 4431.00    0.92354   0.88141    0.019
 4432.00    1.08149   0.89669    0.019
 4433.00    1.30340   0.91604    0.019
 4434.00    1.56656   0.93125    0.019
 4435.00    1.45206   0.93607    0.019
 4436.00    1.12456   0.93029    0.019
 4437.00    0.91332   0.91988    0.019
 4438.00    0.75915   0.91315    0.019
 4439.00    0.86460   0.91576    0.019
 4440.00    1.08021   0.92782    0.019
 4441.00    1.12767   0.94446    0.019
 4442.00    1.11403   0.95941    0.019
 4443.00    1.37129   0.96857    0.019
 4444.00    1.71188   0.97064    0.019
 4445.00    1.63128   0.96590    0.019
 4446.00    1.44286   0.95495    0.019
 4447.00    1.36896   0.93832    0.019
 4448.00    1.31892   0.91681    0.019
 4449.00    1.60542   0.89256    0.019
 4450.00    1.94721   0.86934    0.020
 4451.00    1.56929   0.85089    0.019
 4452.00    1.10264   0.83863    0.018
 4453.00    1.20833   0.83169    0.019
 4454.00    1.36271   0.82859    0.019
 4455.00    1.27908   0.82880    0.019
 4456.00    1.18371   0.83306    0.018
 4457.00    1.28905   0.84257    0.018
 4458.00    1.39098   0.85719    0.019
 4459.00    1.07945   0.87422    0.018
 4460.00    0.79717   0.88943    0.018
 4461.00    1.10766   0.89970    0.000
 4462.00    1.38174   0.90459    0.000
 4463.00    1.22796   0.90613    0.000
 4464.00    1.07656   0.90798    0.000
 4465.00    0.94439   0.91382    0.000
 4466.00    0.86250   0.92544    0.000
 4467.00    1.08649   0.94212    0.000
 4468.00    1.29828   0.96129    0.000
 4469.00    1.45149   0.97970    0.000
 4470.00    1.56228   0.99439    0.000
 4471.00    1.50743   1.00296    0.000
 4472.00    1.52735   1.00337    0.000
 4473.00    1.79040   0.99422    0.000
 4474.00    1.85503   0.97643    0.000
 4475.00    1.37369   0.95461    0.000
 4476.00    1.01986   0.93639    0.000
 4477.00    0.96649   0.92896    0.000
 4478.00    0.99132   0.93525    0.000
 4479.00    1.17544   0.95190    0.000
 4480.00    1.37464   0.97085    0.000
 4481.00    1.60058   0.98355    0.000
 4482.00    1.63964   0.98516    0.019
 4483.00    1.38883   0.97654    0.018
 4484.00    1.28054   0.96291    0.018
 4485.00    1.36634   0.95032    0.018
 4486.00    1.33342   0.94205    0.018
 4487.00    1.15815   0.93735    0.018
 4488.00    1.11091   0.93359    0.018
 4489.00    1.19902   0.92955    0.018
 4490.00    1.25613   0.92689    0.018
 4491.00    1.28432   0.92878    0.018
 4492.00    1.30256   0.93704    0.018
 4493.00    1.31262   0.95058    0.018
 4494.00    1.31825   0.96631    0.018
 4495.00    1.32067   0.98152    0.018
 4496.00    1.38200   0.99574    0.018
 4497.00    1.48075   1.01014    0.018
 4498.00    1.53206   1.02517    0.018
 4499.00    1.55703   1.03905    0.018
 4500.00    1.49188   1.04875    0.018
 4501.00    1.38319   1.05249    0.018
 4502.00    1.32990   1.05091    0.018
 4503.00    1.29972   1.04632    0.017
 4504.00    1.23519   1.04084    0.017
 4505.00    1.15841   1.03491    0.017
 4506.00    1.24431   1.02743    0.017
 4507.00    1.37927   1.01745    0.017
 4508.00    1.35835   1.00559    0.017
 4509.00    1.29838   0.99401    0.017
 4510.00    1.23581   0.98510    0.017
 4511.00    1.17270   0.98028    0.017
 4512.00    1.12967   0.97975    0.017
 4513.00    1.08984   0.98272    0.017
 4514.00    0.99205   0.98762    0.017
 4515.00    0.88736   0.99190    0.017
 4516.00    1.12750   0.99245    0.017
 4517.00    1.39554   0.98672    0.017
 4518.00    1.35200   0.97369    0.017
 4519.00    1.29428   0.95403    0.017
 4520.00    1.33234   0.92978    0.017
 4521.00    1.37196   0.90396    0.017
 4522.00    1.43169   0.88032    0.017
 4523.00    1.48341   0.86252    0.017
 4524.00    1.38458   0.85287    0.017
 4525.00    1.29808   0.85140    0.016
 4526.00    1.34967   0.85577    0.016
 4527.00    1.39202   0.86250    0.017
 4528.00    1.36212   0.86941    0.017
 4529.00    1.32960   0.87714    0.017
 4530.00    1.28161   0.88834    0.016
 4531.00    1.22663   0.90475    0.016
 4532.00    1.13892   0.92468    0.016
 4533.00    1.05763   0.94344    0.016
 4534.00    1.00085   0.95647    0.016
 4535.00    0.97875   0.96216    0.016
 4536.00    1.06721   0.96221    0.016
 4537.00    1.16537   0.95946    0.016
 4538.00    1.28976   0.95591    0.016
 4539.00    1.31832   0.95200    0.016
 4540.00    1.12487   0.94735    0.016
 4541.00    0.98323   0.94183    0.016
 4542.00    0.94547   0.93585    0.016
 4543.00    0.96450   0.93017    0.016
 4544.00    1.08269   0.92573    0.016
 4545.00    1.15839   0.92298    0.016
 4546.00    1.16913   0.92153    0.016
 4547.00    1.15422   0.92066    0.016
 4548.00    1.10485   0.92043    0.016
 4549.00    1.14623   0.92246    0.016
 4550.00    1.29486   0.92900    0.000
 4551.00    1.33639   0.94130    0.000
 4552.00    1.26627   0.95831    0.000
 4553.00    1.23591   0.97657    0.000
 4554.00    1.24212   0.99157    0.000
 4555.00    1.28956   0.99979    0.000
 4556.00    1.37042   0.99970    0.000
 4557.00    1.22323   0.99216    0.000
 4558.00    0.91339   0.98037    0.000
 4559.00    0.89818   0.96921    0.000
 4560.00    1.06738   0.96340    0.000
 4561.00    1.15251   0.96512    0.000
 4562.00    1.19166   0.97271    0.000
 4563.00    1.15681   0.98157    0.000
 4564.00    1.08679   0.98713    0.000
 4565.00    1.11885   0.98767    0.000
 4566.00    1.19276   0.98516    0.000
 4567.00    1.11460   0.98329    0.000
 4568.00    0.98315   0.98446    0.000
 4569.00    0.84113   0.98802    0.000
 4570.00    0.69599   0.99080    0.000
 4571.00    0.76571   0.98948    0.000
 4572.00    0.88806   0.98218    0.000
 4573.00    0.99821   0.96926    0.000
 4574.00    1.10593   0.95348    0.000
 4575.00    1.35426   0.93877    0.000
 4576.00    1.62435   0.92827    0.000
 4577.00    1.53969   0.92317    0.000
 4578.00    1.41443   0.92280    0.000
 4579.00    1.26453   0.92584    0.000
 4580.00    1.11273   0.93154    0.000
 4581.00    1.18456   0.93982    0.000
 4582.00    1.26570   0.95017    0.000
 4583.00    1.20559   0.96063    0.000
 4584.00    1.14572   0.96807    0.000
 4585.00    1.14816   0.96965    0.000
 4586.00    1.15236   0.96473    0.000
 4587.00    1.18725   0.95515    0.000
 4588.00    1.22539   0.94412    0.000
 4589.00    1.29834   0.93471    0.000
 4590.00    1.36157   0.92866    0.000
 4591.00    1.35128   0.92625    0.000
 4592.00    1.31747   0.92668    0.000
 4593.00    1.14847   0.92859    0.000
 4594.00    0.96831   0.93069    0.000
 4595.00    0.73719   0.93235    0.000
 4596.00    0.60188   0.93359    0.000
 4597.00    0.82504   0.93497    0.000
 4598.00    0.99630   0.93735    0.000
 4599.00    1.00524   0.94183    0.000
 4600.00    0.95138   0.94970    0.000
 4601.00    0.73084   0.96174    0.000
 4602.00    0.68632   0.97710    0.000
 4603.00    1.04290   0.99305    0.000
 4604.00    1.26804   1.00574    0.000
 4605.00    1.23383   1.01223    0.000
 4606.00    1.20616   1.01220    0.000
 4607.00    1.18974   1.00804    0.000
 4608.00    1.13746   1.00335    0.000
 4609.00    1.03119   1.00084    0.000
 4610.00    1.01199   1.00115    0.000
 4611.00    1.10800   1.00310    0.000
 4612.00    1.15676   1.00498    0.000
 4613.00    1.15047   1.00592    0.000
 4614.00    1.19346   1.00615    0.000
 4615.00    1.28711   1.00641    0.000
 4616.00    1.30756   1.00713    0.000
 4617.00    1.26164   1.00785    0.000
 4618.00    1.21430   1.00773    0.000
 4619.00    1.16583   1.00634    0.000
 4620.00    1.23017   1.00378    0.000
 4621.00    1.37382   1.00063    0.000
 4622.00    1.37098   0.99778    0.000
 4623.00    1.27782   0.99579    0.000
 4624.00    1.31801   0.99459    0.000
 4625.00    1.43001   0.99358    0.000
 4626.00    1.34545   0.99168    0.000
 4627.00    1.16896   0.98766    0.000
 4628.00    0.95599   0.98099    0.000
 4629.00    0.72831   0.97214    0.000
 4630.00    0.82412   0.96204    0.000
 4631.00    1.03121   0.95162    0.000
 4632.00    1.12269   0.94189    0.000
 4633.00    1.18069   0.93412    0.000
 4634.00    1.09719   0.92941    0.000
 4635.00    0.97981   0.92806    0.000
 4636.00    1.11431   0.92884    0.000
 4637.00    1.29745   0.92897    0.000
 4638.00    1.17412   0.92533    0.000
 4639.00    1.00478   0.91634    0.000
 4640.00    0.93052   0.90337    0.000
 4641.00    0.86672   0.89032    0.000
 4642.00    1.09577   0.88201    0.000
 4643.00    1.34612   0.88192    0.000
 4644.00    1.23149   0.89032    0.000
 4645.00    1.10306   0.90417    0.000
 4646.00    0.98613   0.91873    0.000
 4647.00    0.87462   0.92964    0.000
 4648.00    0.96126   0.93488    0.000
 4649.00    1.04540   0.93572    0.000
 4650.00    1.08852   0.93603    0.000
 4651.00    1.13249   0.94007    0.000
 4652.00    1.18516   0.94995    0.000
 4653.00    1.23144   0.96405    0.000
 4654.00    1.23105   0.97767    0.000
 4655.00    1.21116   0.98526    0.000
 4656.00    1.08226   0.98317    0.000
 4657.00    0.98249   0.97094    0.000
 4658.00    1.01270   0.95077    0.000
 4659.00    1.05066   0.92598    0.000
 4660.00    1.11705   0.90014    0.000
 4661.00    1.17257   0.87714    0.000
 4662.00    1.19478   0.86125    0.000
 4663.00    1.18140   0.85605    0.000
 4664.00    1.07522   0.86243    0.000
 4665.00    1.02731   0.87761    0.000
 4666.00    1.11000   0.89638    0.000
 4667.00    1.14311   0.91371    0.000
 4668.00    1.07995   0.92683    0.000
 4669.00    1.01930   0.93545    0.000
 4670.00    0.96288   0.94046    0.000
 4671.00    0.92249   0.94210    0.000
 4672.00    0.90588   0.93987    0.000
 4673.00    0.90388   0.93367    0.000
 4674.00    0.92092   0.92493    0.000
 4675.00    0.94545   0.91655    0.000
 4676.00    0.97859   0.91154    0.000
 4677.00    1.05196   0.91146    0.000
 4678.00    1.16609   0.91567    0.000
 4679.00    1.19465   0.92169    0.000
 4680.00    1.14673   0.92671    0.000
 4681.00    1.10508   0.92902    0.000
 4682.00    1.06839   0.92845    0.000
 4683.00    1.07827   0.92602    0.000
 4684.00    1.12043   0.92322    0.000
 4685.00    1.08019   0.92144    0.000
 4686.00    0.98991   0.92162    0.000
 4687.00    1.01260   0.92425    0.000
 4688.00    1.09518   0.92902    0.000
 4689.00    1.09034   0.93435    0.000
 4690.00    1.04526   0.93774    0.000
 4691.00    1.00407   0.93673    0.000
 4692.00    0.96441   0.93010    0.000
 4693.00    1.03874   0.91886    0.000
 4694.00    1.15155   0.90573    0.000
 4695.00    1.21765   0.89377    0.000
 4696.00    1.27050   0.88512    0.000
 4697.00    1.13946   0.88064    0.000
 4698.00    0.96538   0.88001    0.000
 4699.00    0.90530   0.88185    0.000
 4700.00    0.86667   0.88430    0.000
 4701.00    0.93535   0.88601    0.000
 4702.00    1.01965   0.88692    0.000
 4703.00    1.14220   0.88826    0.000
 4704.00    1.26879   0.89147    0.000
 4705.00    1.24766   0.89692    0.000
 4706.00    1.21639   0.90345    0.000
 4707.00    1.06282   0.90928    0.000
 4708.00    0.90509   0.91367    0.000
 4709.00    1.01783   0.91788    0.000
 4710.00    1.12782   0.92429    0.000
 4711.00    1.13513   0.93441    0.000
 4712.00    1.14824   0.94776    0.000
 4713.00    1.25038   0.96202    0.000
 4714.00    1.32168   0.97437    0.000
 4715.00    1.09066   0.98283    0.000
 4716.00    0.89438   0.98689    0.000
 4717.00    0.94371   0.98716    0.000
 4718.00    0.97839   0.98424    0.000
 4719.00    0.93334   0.97763    0.000
 4720.00    0.87504   0.96615    0.000
 4721.00    0.75901   0.94938    0.000
 4722.00    0.70975   0.92909    0.000
 4723.00    0.90003   0.90926    0.000
 4724.00    1.06220   0.89453    0.000
 4725.00    1.13977   0.88800    0.000
 4726.00    1.16555   0.88985    0.000
 4727.00    1.05864   0.89769    0.000
 4728.00    0.97415   0.90784    0.000
 4729.00    0.93907   0.91712    0.000
 4730.00    0.93556   0.92409    0.000
 4731.00    0.99240   0.92908    0.000
 4732.00    1.03421   0.93319    0.000
 4733.00    1.05094   0.93727    0.000
 4734.00    1.05904   0.94140    0.000
 4735.00    1.05450   0.94509    0.000
 4736.00    1.01498   0.94825    0.000
 4737.00    0.93047   0.95124    0.000
 4738.00    0.90570   0.95444    0.000
 4739.00    0.94862   0.95818    0.000
 4740.00    1.01801   0.96249    0.000
 4741.00    1.11384   0.96692    0.000
 4742.00    1.11395   0.97065    0.000
 4743.00    1.02972   0.97270    0.000
 4744.00    0.98469   0.97229    0.000
 4745.00    0.97009   0.96892    0.000
 4746.00    1.00844   0.96257    0.000
 4747.00    1.08292   0.95405    0.000
 4748.00    1.10839   0.94489    0.000
 4749.00    1.10453   0.93683    0.000
 4750.00    1.04209   0.93125    0.000
 4751.00    0.94906   0.92874    0.000
 4752.00    0.99577   0.92876    0.000
 4753.00    1.10575   0.92958    0.000
 4754.00    1.15722   0.92892    0.000
 4755.00    1.18592   0.92474    0.000
 4756.00    1.24851   0.91621    0.000
 4757.00    1.32232   0.90422    0.000
 4758.00    1.41018   0.89113    0.000
 4759.00    1.50194   0.87997    0.000
 4760.00    1.29563   0.87353    0.000
 4761.00    1.02114   0.87356    0.014
 4762.00    1.02845   0.88003    0.014
 4763.00    1.08737   0.89095    0.014
 4764.00    1.01764   0.90327    0.014
 4765.00    0.92981   0.91437    0.013
 4766.00    1.00839   0.92319    0.014
 4767.00    1.10386   0.93039    0.014
 4768.00    1.31641   0.93737    0.014
 4769.00    1.53654   0.94479    0.014
 4770.00    1.25513   0.95204    0.014
 4771.00    0.95925   0.95780    0.014
 4772.00    1.01515   0.96072    0.013
 4773.00    1.06890   0.96006    0.013
 4774.00    1.06011   0.95581    0.013
 4775.00    1.05254   0.94858    0.013
 4776.00    1.06266   0.93935    0.013
 4777.00    1.08195   0.92930    0.013
 4778.00    1.18750   0.91976    0.013
 4779.00    1.25800   0.91187    0.013
 4780.00    1.08853   0.90618    0.013
 4781.00    0.96696   0.90277    0.013
 4782.00    1.09911   0.90167    0.013
 4783.00    1.19552   0.90300    0.013
 4784.00    1.13971   0.90711    0.013
 4785.00    1.08842   0.91451    0.013
 4786.00    1.05304   0.92541    0.013
 4787.00    1.04752   0.93897    0.013
 4788.00    1.13018   0.95298    0.013
 4789.00    1.18047   0.96440    0.013
 4790.00    1.14923   0.97026    0.013
 4791.00    1.13397   0.96916    0.013
 4792.00    1.15337   0.96225    0.013
 4793.00    1.13810   0.95285    0.013
 4794.00    1.05757   0.94502    0.013
 4795.00    1.02860   0.94152    0.013
 4796.00    1.08436   0.94247    0.013
 4797.00    1.08295   0.94542    0.013
 4798.00    0.99914   0.94700    0.013
 4799.00    0.94017   0.94495    0.013
 4800.00    0.91267   0.93921    0.013
 4801.00    0.94682   0.93174    0.013
 4802.00    1.04980   0.92520    0.013
 4803.00    1.08518   0.92159    0.013
 4804.00    1.05395   0.92153    0.013
 4805.00    1.05609   0.92430    0.013
 4806.00    1.08721   0.92858    0.013
 4807.00    1.10397   0.93341    0.013
 4808.00    1.10975   0.93847    0.013
 4809.00    1.16791   0.94400    0.013
 4810.00    1.26129   0.95029    0.013
 4811.00    1.26670   0.95708    0.013
 4812.00    1.22027   0.96334    0.013
 4813.00    1.14776   0.96739    0.013
 4814.00    1.06185   0.96754    0.013
 4815.00    1.02165   0.96274    0.013
 4816.00    1.00180   0.95338    0.013
 4817.00    1.01247   0.94152    0.013
 4818.00    1.03481   0.93033    0.013
 4819.00    1.09445   0.92260    0.013
 4820.00    1.16622   0.91937    0.013
 4821.00    1.09842   0.91945    0.013
 4822.00    0.99262   0.92047    0.013
 4823.00    0.93068   0.92036    0.013
 4824.00    0.87854   0.91832    0.013
 4825.00    0.99583   0.91505    0.013
 4826.00    1.14332   0.91215    0.013
 4827.00    1.12145   0.91105    0.013
 4828.00    1.07650   0.91225    0.013
 4829.00    0.97070   0.91493    0.013
 4830.00    0.85898   0.91727    0.013
 4831.00    0.82697   0.91743    0.013
 4832.00    0.79979   0.91432    0.013
 4833.00    0.92919   0.90822    0.013
 4834.00    1.06197   0.90080    0.013
 4835.00    1.05539   0.89422    0.013
 4836.00    1.04788   0.89024    0.013
 4837.00    1.01603   0.88959    0.013
 4838.00    0.98078   0.89193    0.013
 4839.00    0.89904   0.89583    0.013
 4840.00    0.83188   0.89922    0.013
 4841.00    0.89649   0.90033    0.013
 4842.00    0.94457   0.89859    0.013
 4843.00    0.88305   0.89467    0.013
 4844.00    0.82671   0.88972    0.013
 4845.00    0.79712   0.88429    0.013
 4846.00    0.77626   0.87764    0.013
 4847.00    0.79174   0.86830    0.013
 4848.00    0.81140   0.85527    0.000
 4849.00    0.84547   0.83878    0.000
 4850.00    0.87060   0.82006    0.000
 4851.00    0.86984   0.80000    0.000
 4852.00    0.87260   0.77822    0.000
 4853.00    0.88407   0.75419    0.000
 4854.00    0.89095   0.72920    0.000
 4855.00    0.88803   0.70723    0.000
 4856.00    0.92104   0.69395    0.000
 4857.00    1.02062   0.69371    0.000
 4858.00    1.05484   0.70694    0.000
 4859.00    0.98329   0.72968    0.000
 4860.00    0.92247   0.75564    0.000
 4861.00    0.87690   0.77858    0.000
 4862.00    0.91513   0.79426    0.000
 4863.00    1.05806   0.80131    0.000
 4864.00    1.00620   0.80088    0.000
 4865.00    0.73986   0.79625    0.000
 4866.00    0.75752   0.79202    0.000
 4867.00    1.05099   0.79236    0.000
 4868.00    1.14386   0.79920    0.000
 4869.00    1.06491   0.81194    0.000
 4870.00    1.03183   0.82827    0.000
 4871.00    1.03334   0.84537    0.000
 4872.00    0.89249   0.86084    0.000
 4873.00    0.65728   0.87309    0.000
 4874.00    0.68747   0.88100    0.000
 4875.00    0.87171   0.88384    0.014
 4876.00    0.89107   0.88176    0.014
 4877.00    0.82705   0.87575    0.014
 4878.00    0.86439   0.86711    0.014
 4879.00    0.94612   0.85722    0.013
 4880.00    1.01244   0.84731    0.013
 4881.00    1.07298   0.83822    0.013
 4882.00    1.03291   0.83045    0.013
 4883.00    0.96075   0.82455    0.013
 4884.00    0.92578   0.82167    0.013
 4885.00    0.90072   0.82388    0.013
 4886.00    0.89550   0.83367    0.013
 4887.00    0.89460   0.85218    0.013
 4888.00    0.82961   0.87763    0.013
 4889.00    0.75350   0.90530    0.013
 4890.00    0.70874   0.92935    0.013
 4891.00    0.66811   0.94517    0.013
 4892.00    0.70908   0.95127    0.013
 4893.00    0.75764   0.94908    0.014
 4894.00    0.82262   0.94167    0.014
 4895.00    0.88852   0.93251    0.014
 4896.00    0.87679   0.92444    0.014
 4897.00    0.86407   0.91934    0.014
 4898.00    0.93712   0.91784    0.014
 4899.00    1.00316   0.91908    0.014
 4900.00    0.90255   0.92083    0.013
 4901.00    0.81216   0.92037    0.013
 4902.00    0.85385   0.91568    0.013
 4903.00    0.90450   0.90684    0.013
 4904.00    1.03309   0.89648    0.013
 4905.00    1.13798   0.88856    0.014
 4906.00    1.09031   0.88609    0.014
 4907.00    1.06224   0.88942    0.014
 4908.00    1.13273   0.89581    0.014
 4909.00    1.17831   0.90048    0.014
 4910.00    1.12250   0.89842    0.014
 4911.00    1.06525   0.88664    0.013
 4912.00    1.00318   0.86565    0.013
 4913.00    0.94180   0.83986    0.013
 4914.00    0.88237   0.81619    0.013
 4915.00    0.85686   0.80124    0.013
 4916.00    0.91389   0.79839    0.013
 4917.00    0.93672   0.80690    0.013
 4918.00    0.88779   0.82321    0.013
 4919.00    0.87311   0.84337    0.013
 4920.00    0.92092   0.86469    0.013
 4921.00    0.94083   0.88575    0.013
 4922.00    0.91623   0.90522    0.013
 4923.00    0.90707   0.92105    0.013
 4924.00    0.91953   0.93106    0.013
 4925.00    0.91043   0.93376    0.013
 4926.00    0.87478   0.92904    0.013
 4927.00    0.83564   0.91851    0.013
 4928.00    0.79272   0.90480    0.013
 4929.00    0.75771   0.89038    0.013
 4930.00    0.73028   0.87692    0.013
 4931.00    0.79958   0.86518    0.013
 4932.00    0.95056   0.85620    0.013
 4933.00    0.96675   0.85223    0.013
 4934.00    0.88271   0.85566    0.013
 4935.00    0.88925   0.86707    0.013
 4936.00    0.95496   0.88403    0.013
 4937.00    0.93114   0.90218    0.013
 4938.00    0.85615   0.91758    0.013
 4939.00    0.83426   0.92835    0.012
 4940.00    0.83879   0.93491    0.000
 4941.00    0.90251   0.93914    0.000
 4942.00    0.99172   0.94285    0.000
 4943.00    0.98712   0.94653    0.000
 4944.00    0.94789   0.94942    0.000
 4945.00    0.91635   0.94999    0.000
 4946.00    0.88722   0.94653    0.000
 4947.00    0.96325   0.93773    0.000
 4948.00    1.06670   0.92311    0.000
 4949.00    1.01695   0.90338    0.000
 4950.00    0.93458   0.88099    0.000
 4951.00    0.90202   0.86054    0.000
 4952.00    0.87785   0.84752    0.000
 4953.00    0.94198   0.84546    0.000
 4954.00    1.01735   0.85394    0.000
 4955.00    0.96902   0.86858    0.000
 4956.00    0.90972   0.88307    0.000
 4957.00    0.93617   0.89213    0.000
 4958.00    0.96714   0.89359    0.000
 4959.00    0.92280   0.88846    0.000
 4960.00    0.87862   0.87991    0.000
 4961.00    0.95940   0.87166    0.000
 4962.00    1.03392   0.86670    0.000
 4963.00    0.97257   0.86652    0.000
 4964.00    0.91339   0.87109    0.000
 4965.00    0.88086   0.87920    0.000
 4966.00    0.84990   0.88899    0.000
 4967.00    0.83210   0.89833    0.000
 4968.00    0.81844   0.90514    0.000
 4969.00    0.83066   0.90772    0.000
 4970.00    0.84611   0.90504    0.000
 4971.00    0.87738   0.89695    0.000
 4972.00    0.92375   0.88409    0.000
 4973.00    1.03026   0.86753    0.000
 4974.00    1.10852   0.84859    0.000
 4975.00    1.09337   0.82884    0.000
 4976.00    1.05032   0.81053    0.000
 4977.00    0.92926   0.79663    0.000
 4978.00    0.81492   0.79007    0.000
 4979.00    0.71662   0.79246    0.000
 4980.00    0.70372   0.80297    0.000
 4981.00    0.86723   0.81842    0.000
 4982.00    0.94997   0.83450    0.000
 4983.00    0.88760   0.84757    0.000
 4984.00    0.84910   0.85594    0.000
 4985.00    0.84811   0.86006    0.000
 4986.00    0.87289   0.86166    0.000
 4987.00    0.93322   0.86252    0.000
 4988.00    0.96547   0.86358    0.000
 4989.00    0.96362   0.86468    0.000
 4990.00    0.97569   0.86472    0.000
 4991.00    1.00265   0.86228    0.000
 4992.00    0.92394   0.85636    0.000
 4993.00    0.74547   0.84698    0.000
 4994.00    0.77384   0.83533    0.000
 4995.00    0.97440   0.82321    0.000
 4996.00    1.05281   0.81208    0.000
 4997.00    1.04171   0.80258    0.000
 4998.00    0.97820   0.79478    0.000
 4999.00    0.88098   0.78900    0.000
 5000.00    0.87226   0.78620    0.000
 5001.00    0.91338   0.78736    0.000
 5002.00    0.94085   0.79221    0.000
 5003.00    0.96164   0.79841    0.000
 5004.00    1.02118   0.80234    0.000
 5005.00    1.09713   0.80109    0.000
 5006.00    1.02788   0.79408    0.000
 5007.00    0.90598   0.78356    0.000
 5008.00    0.95904   0.77321    0.000
 5009.00    1.06578   0.76627    0.000
 5010.00    1.03534   0.76408    0.000
 5011.00    0.96988   0.76605    0.000
 5012.00    0.99489   0.77052    0.000
 5013.00    1.03871   0.77593    0.000
 5014.00    1.01777   0.78138    0.000
 5015.00    0.98624   0.78664    0.000
 5016.00    1.02615   0.79191    0.000
 5017.00    1.07482   0.79742    0.000
 5018.00    0.99289   0.80310    0.000
 5019.00    0.89992   0.80851    0.000
 5020.00    0.83851   0.81324    0.000
 5021.00    0.77864   0.81744    0.000
 5022.00    0.72515   0.82213    0.000
 5023.00    0.67429   0.82859    0.000
 5024.00    0.77728   0.83737    0.000
 5025.00    0.87699   0.84752    0.000
 5026.00    0.91084   0.85672    0.000
 5027.00    0.93934   0.86206    0.000
 5028.00    0.90537   0.86126    0.000
 5029.00    0.87275   0.85356    0.012
 5030.00    0.85100   0.83987    0.012
 5031.00    0.81909   0.82227    0.012
 5032.00    0.72556   0.80306    0.012
 5033.00    0.68154   0.78468    0.012
 5034.00    0.87431   0.77004    0.012
 5035.00    1.00163   0.76256    0.013
 5036.00    0.87403   0.76516    0.013
 5037.00    0.77902   0.77838    0.013
 5038.00    0.78972   0.79921    0.012
 5039.00    0.80607   0.82172    0.012
 5040.00    0.83793   0.83940    0.012
 5041.00    0.84822   0.84788    0.012
 5042.00    0.80783   0.84646    0.012
 5043.00    0.79586   0.83811    0.012
 5044.00    0.84168   0.82781    0.012
 5045.00    0.89801   0.82035    0.012
 5046.00    0.97291   0.81872    0.012
 5047.00    1.00645   0.82344    0.012
 5048.00    0.97599   0.83301    0.012
 5049.00    0.94504   0.84495    0.012
 5050.00    0.91345   0.85689    0.012
 5051.00    0.87497   0.86728    0.012
 5052.00    0.82826   0.87552    0.012
 5053.00    0.85389   0.88146    0.012
 5054.00    0.95586   0.88482    0.012
 5055.00    0.93589   0.88482    0.012
 5056.00    0.80243   0.88043    0.012
 5057.00    0.81509   0.87123    0.012
 5058.00    0.94766   0.85815    0.012
 5059.00    0.97006   0.84363    0.012
 5060.00    0.91287   0.83072    0.012
 5061.00    0.97853   0.82173    0.012
 5062.00    1.12209   0.81738    0.012
 5063.00    1.08050   0.81681    0.012
 5064.00    0.93627   0.81834    0.012
 5065.00    0.85035   0.82034    0.012
 5066.00    0.79253   0.82185    0.012
 5067.00    0.81902   0.82253    0.012
 5068.00    0.88061   0.82231    0.012
 5069.00    0.87869   0.82080    0.012
 5070.00    0.85417   0.81714    0.012
 5071.00    0.81158   0.81040    0.012
 5072.00    0.76356   0.80037    0.012
 5073.00    0.77633   0.78828    0.012
 5074.00    0.80428   0.77675    0.012
 5075.00    0.81831   0.76891    0.012
 5076.00    0.82951   0.76696    0.012
 5077.00    0.78534   0.77131    0.012
 5078.00    0.73237   0.78060    0.012
 5079.00    0.82675   0.79253    0.012
 5080.00    0.93855   0.80486    0.012
 5081.00    0.89130   0.81609    0.012
 5082.00    0.83125   0.82560    0.012
 5083.00    0.80512   0.83352    0.012
 5084.00    0.78052   0.84027    0.012
 5085.00    0.85274   0.84608    0.011
 5086.00    0.92430   0.85058    0.011
 5087.00    0.90642   0.85272    0.011
 5088.00    0.89324   0.85111    0.012
 5089.00    0.96739   0.84473    0.011
 5090.00    1.03025   0.83377    0.011
 5091.00    0.96726   0.81998    0.012
 5092.00    0.91684   0.80644    0.012
 5093.00    0.96430   0.79642    0.012
 5094.00    0.99470   0.79208    0.012
 5095.00    0.92456   0.79341    0.012
 5096.00    0.86223   0.79825    0.012
 5097.00    0.83634   0.80343    0.012
 5098.00    0.83228   0.80619    0.012
 5099.00    0.91144   0.80529    0.012
 5100.00    0.98831   0.80112    0.012
 5101.00    1.05787   0.79528    0.012
 5102.00    1.08286   0.78976    0.012
 5103.00    0.98765   0.78644    0.012
 5104.00    0.89786   0.78663    0.012
 5105.00    0.82061   0.79079    0.012
 5106.00    0.79260   0.79848    0.012
 5107.00    0.86311   0.80854    0.012
 5108.00    0.92721   0.81954    0.012
 5109.00    0.98014   0.83013    0.012
 5110.00    1.00264   0.83913    0.012
 5111.00    0.97872   0.84543    0.012
 5112.00    0.94365   0.84788    0.012
 5113.00    0.89364   0.84549    0.012
 5114.00    0.88494   0.83780    0.012
 5115.00    0.92498   0.82534    0.012
 5116.00    0.89398   0.80970    0.012
 5117.00    0.78906   0.79327    0.012
 5118.00    0.77649   0.77855    0.012
 5119.00    0.84868   0.76745    0.012
 5120.00    0.91805   0.76078    0.012
 5121.00    0.98514   0.75834    0.012
 5122.00    1.02579   0.75937    0.012
 5123.00    1.04763   0.76309    0.012
 5124.00    1.04753   0.76892    0.012
 5125.00    1.03374   0.77635    0.012
 5126.00    0.95292   0.78459    0.012
 5127.00    0.83551   0.79248    0.012
 5128.00    0.84550   0.79860    0.012
 5129.00    0.91594   0.80164    0.012
 5130.00    0.87346   0.80083    0.012
 5131.00    0.78478   0.79634    0.012
 5132.00    0.80076   0.78937    0.012
 5133.00    0.85333   0.78170    0.012
 5134.00    0.86403   0.77503    0.012
 5135.00    0.86238   0.77024    0.012
 5136.00    0.82548   0.76730    0.012
 5137.00    0.77996   0.76562    0.012
 5138.00    0.80390   0.76457    0.012
 5139.00    0.84157   0.76367    0.012
 5140.00    0.86569   0.76276    0.012
 5141.00    0.88772   0.76185    0.012
 5142.00    0.96914   0.76109    0.012
 5143.00    1.05732   0.76051    0.012
 5144.00    0.99235   0.76002    0.012
 5145.00    0.91569   0.75964    0.012
 5146.00    0.84893   0.75986    0.012
 5147.00    0.78257   0.76167    0.012
 5148.00    0.87891   0.76624    0.012
 5149.00    0.97216   0.77413    0.012
 5150.00    0.87854   0.78480    0.012
 5151.00    0.78927   0.79657    0.012
 5152.00    0.77537   0.80708    0.012
 5153.00    0.76770   0.81400    0.012
 5154.00    0.82629   0.81552    0.012
 5155.00    0.88736   0.81045    0.012
 5156.00    0.96719   0.79814    0.012
 5157.00    1.02420   0.77837    0.012
 5158.00    0.95053   0.75165    0.012
 5159.00    0.89321   0.71972    0.012
 5160.00    0.91041   0.68585    0.012
 5161.00    0.92147   0.65436    0.012
 5162.00    0.90962   0.62915    0.012
 5163.00    0.88974   0.61231    0.012
 5164.00    0.84477   0.60357    0.012
 5165.00    0.75621   0.60155    0.012
 5166.00    0.55223   0.60539    0.012
 5167.00    0.47175   0.61568    0.012
 5168.00    0.67211   0.63328    0.012
 5169.00    0.79425   0.65733    0.012
 5170.00    0.76238   0.68426    0.012
 5171.00    0.74177   0.70852    0.012
 5172.00    0.74048   0.72464    0.012
 5173.00    0.77288   0.72901    0.012
 5174.00    0.85588   0.72096    0.012
 5175.00    0.86928   0.70299    0.012
 5176.00    0.79075   0.68047    0.012
 5177.00    0.79083   0.66061    0.012
 5178.00    0.88235   0.65040    0.012
 5179.00    0.95565   0.65386    0.012
 5180.00    1.01026   0.67035    0.012
 5181.00    1.00997   0.69477    0.012
 5182.00    0.96002   0.71983    0.011
 5183.00    0.92049   0.73921    0.011
 5184.00    0.88927   0.74963    0.011
 5185.00    0.83167   0.75149    0.011
 5186.00    0.75554   0.74795    0.011
 5187.00    0.77280   0.74329    0.011
 5188.00    0.84752   0.74124    0.011
 5189.00    0.80360   0.74381    0.011
 5190.00    0.69591   0.75106    0.000
 5191.00    0.72378   0.76148    0.000
 5192.00    0.81493   0.77278    0.000
 5193.00    0.90333   0.78245    0.000
 5194.00    0.99063   0.78819    0.000
 5195.00    0.92309   0.78820    0.000
 5196.00    0.80242   0.78157    0.000
 5197.00    0.79160   0.76859    0.000
 5198.00    0.81251   0.75091    0.000
 5199.00    0.78414   0.73137    0.000
 5200.00    0.74400   0.71351    0.000
 5201.00    0.68242   0.70081    0.000
 5202.00    0.61671   0.69586    0.000
 5203.00    0.71081   0.69975    0.000
 5204.00    0.82880   0.71172    0.000
 5205.00    0.88036   0.72929    0.000
 5206.00    0.92464   0.74873    0.000
 5207.00    0.91713   0.76624    0.000
 5208.00    0.90588   0.77924    0.000
 5209.00    0.91812   0.78728    0.000
 5210.00    0.93123   0.79199    0.000
 5211.00    1.01044   0.79588    0.013
 5212.00    1.08872   0.80076    0.013
 5213.00    1.12202   0.80662    0.012
 5214.00    1.14043   0.81157    0.012
 5215.00    0.91760   0.81276    0.012
 5216.00    0.72290   0.80774    0.012
 5217.00    0.81456   0.79575    0.012
 5218.00    0.89705   0.77836    0.012
 5219.00    0.91287   0.75928    0.012
 5220.00    0.90975   0.74337    0.012
 5221.00    0.80108   0.73488    0.012
 5222.00    0.74460   0.73570    0.012
 5223.00    0.92027   0.74452    0.012
 5224.00    1.01157   0.75749    0.012
 5225.00    0.79460   0.77021    0.012
 5226.00    0.67170   0.77981    0.012
 5227.00    0.83673   0.78608    0.012
 5228.00    0.93791   0.79094    0.012
 5229.00    0.87294   0.79682    0.012
 5230.00    0.82577   0.80503    0.012
 5231.00    0.81843   0.81512    0.012
 5232.00    0.81278   0.82541    0.012
 5233.00    0.81039   0.83407    0.012
 5234.00    0.83030   0.84004    0.012
 5235.00    0.88790   0.84321    0.012
 5236.00    0.92975   0.84390    0.012
 5237.00    0.94825   0.84234    0.012
 5238.00    0.95306   0.83833    0.012
 5239.00    0.94005   0.83154    0.012
 5240.00    0.90687   0.82202    0.012
 5241.00    0.85057   0.81070    0.012
 5242.00    0.85199   0.79923    0.012
 5243.00    0.91178   0.78953    0.012
 5244.00    0.93682   0.78303    0.012
 5245.00    0.93084   0.78032    0.012
 5246.00    0.96716   0.78120    0.012
 5247.00    1.03673   0.78510    0.012
 5248.00    1.07835   0.79149    0.012
 5249.00    1.10065   0.79986    0.012
 5250.00    1.09471   0.80937    0.012
 5251.00    1.07166   0.81840    0.012
 5252.00    0.98636   0.82441    0.012
 5253.00    0.86810   0.82443    0.012
 5254.00    0.86712   0.81616    0.012
 5255.00    0.91999   0.79915    0.012
 5256.00    0.95803   0.77520    0.012
 5257.00    0.99020   0.74780    0.012
 5258.00    0.96830   0.72106    0.012
 5259.00    0.92818   0.69830    0.012
 5260.00    0.96695   0.68132    0.012
 5261.00    1.02805   0.67039    0.012
 5262.00    1.00138   0.66501    0.012
 5263.00    0.95424   0.66483    0.012
 5264.00    0.90636   0.67004    0.012
 5265.00    0.85835   0.68091    0.012
 5266.00    0.78308   0.69688    0.012
 5267.00    0.70386   0.71633    0.012
 5268.00    0.75311   0.73705    0.012
 5269.00    0.81588   0.75712    0.012
 5270.00    0.78880   0.77535    0.012
 5271.00    0.75561   0.79095    0.012
 5272.00    0.73459   0.80285    0.012
 5273.00    0.71398   0.80991    0.012
 5274.00    0.87344   0.81169    0.012
 5275.00    1.02634   0.80928    0.013
 5276.00    0.96285   0.80540    0.012
 5277.00    0.90312   0.80349    0.012
 5278.00    0.90076   0.80630    0.012
 5279.00    0.88706   0.81468    0.012
 5280.00    0.76277   0.82739    0.012
 5281.00    0.66938   0.84174    0.012
 5282.00    0.79362   0.85488    0.012
 5283.00    0.90559   0.86468    0.012
 5284.00    0.95101   0.87015    0.012
 5285.00    0.96808   0.87112    0.012
 5286.00    0.86200   0.86763    0.012
 5287.00    0.78795   0.85974    0.012
 5288.00    0.82849   0.84772    0.012
 5289.00    0.86877   0.83246    0.012
 5290.00    0.90832   0.81575    0.012
 5291.00    0.95534   0.80023    0.012
 5292.00    1.02147   0.78874    0.012
 5293.00    1.05132   0.78346    0.012
 5294.00    1.00133   0.78526    0.012
 5295.00    0.94990   0.79337    0.012
 5296.00    0.89575   0.80598    0.012
 5297.00    0.86492   0.82075    0.012
 5298.00    0.87291   0.83552    0.012
 5299.00    0.88434   0.84853    0.012
 5300.00    0.90077   0.85875    0.012
 5301.00    0.95503   0.86591    0.012
 5302.00    1.05784   0.87041    0.012
 5303.00    1.04475   0.87292    0.012
 5304.00    0.90062   0.87384    0.012
 5305.00    0.86755   0.87321    0.012
 5306.00    0.94523   0.87086    0.012
 5307.00    0.96482   0.86680    0.012
 5308.00    0.93330   0.86144    0.012
 5309.00    0.92055   0.85550    0.012
 5310.00    0.92235   0.84980    0.012
 5311.00    0.90018   0.84490    0.012
 5312.00    0.86169   0.84087    0.012
 5313.00    0.86490   0.83720    0.012
 5314.00    0.89302   0.83291    0.012
 5315.00    0.94584   0.82688    0.012
 5316.00    1.01155   0.81821    0.012
 5317.00    0.93897   0.80643    0.012
 5318.00    0.80394   0.79168    0.011
 5319.00    0.81648   0.77482    0.011
 5320.00    0.88636   0.75759    0.011
 5321.00    0.89781   0.74259    0.011
 5322.00    0.88996   0.73292    0.011
 5323.00    0.84782   0.73119    0.011
 5324.00    0.79617   0.73836    0.011
 5325.00    0.81882   0.75314    0.011
 5326.00    0.85842   0.77238    0.011
 5327.00    0.85118   0.79209    0.011
 5328.00    0.83539   0.80886    0.011
 5329.00    0.89841   0.82053    0.011
 5330.00    0.97249   0.82618    0.011
 5331.00    0.98951   0.82596    0.011
 5332.00    1.00077   0.82105    0.011
 5333.00    0.97395   0.81356    0.011
 5334.00    0.94469   0.80610    0.012
 5335.00    0.89081   0.80094    0.011
 5336.00    0.83614   0.79924    0.011
 5337.00    0.75492   0.80066    0.011
 5338.00    0.67997   0.80373    0.011
 5339.00    0.78425   0.80665    0.011
 5340.00    0.88234   0.80838    0.011
 5341.00    0.89174   0.80911    0.011
 5342.00    0.89551   0.81005    0.011
 5343.00    0.84668   0.81272    0.011
 5344.00    0.81617   0.81825    0.012
 5345.00    0.91057   0.82692    0.012
 5346.00    0.96773   0.83810    0.012
 5347.00    0.82827   0.85050    0.011
 5348.00    0.73108   0.86262    0.011
 5349.00    0.81340   0.87310    0.012
 5350.00    0.88246   0.88095    0.012
 5351.00    0.90500   0.88552    0.012
 5352.00    0.91754   0.88642    0.012
 5353.00    0.90057   0.88364    0.012
 5354.00    0.89873   0.87754    0.012
 5355.00    0.93493   0.86885    0.012
 5356.00    0.96797   0.85851    0.012
 5357.00    0.99419   0.84748    0.012
 5358.00    1.04814   0.83649    0.012
 5359.00    1.15421   0.82579    0.012
 5360.00    1.18797   0.81516    0.012
 5361.00    1.10314   0.80427    0.012
 5362.00    1.02276   0.79323    0.012
 5363.00    0.94875   0.78307    0.011
 5364.00    0.94856   0.77570    0.011
 5365.00    1.04174   0.77337    0.012
 5366.00    1.04475   0.77756    0.012
 5367.00    0.94723   0.78802    0.011
 5368.00    0.92309   0.80267   -2.000
 5369.00    0.97111   0.81827   -2.000
 5370.00    0.97965   0.83171   -2.000
 5371.00    0.95395   0.84102   -2.000
 5372.00    0.92902   0.84573   -2.000
 5373.00    0.90465   0.84652   -2.000
 5374.00    0.88330   0.84463   -2.000
 5375.00    0.86397   0.84144   -2.000
 5376.00    0.89792   0.83812   -2.000
 5377.00    0.96321   0.83546   -2.000
 5378.00    1.03676   0.83368   -2.000
 5379.00    1.11455   0.83240   -2.000
 5380.00    1.03129   0.83074   -2.000
 5381.00    0.87647   0.82777   -2.000
 5382.00    0.88369   0.82290   -2.000
 5383.00    0.95276   0.81618    0.011
 5384.00    0.94649   0.80821    0.011
 5385.00    0.91577   0.79983    0.011
 5386.00    0.94339   0.79168    0.011
 5387.00    0.98685   0.78408    0.011
 5388.00    0.95753   0.77715    0.011
 5389.00    0.91200   0.77119    0.011
 5390.00    0.86546   0.76683    0.011
 5391.00    0.81874   0.76483    0.011
 5392.00    0.86764   0.76553    0.011
 5393.00    0.92951   0.76834    0.011
 5394.00    0.94607   0.77157    0.011
 5395.00    0.95825   0.77300    0.012
 5396.00    0.87555   0.77076    0.011
 5397.00    0.78715   0.76439    0.011
 5398.00    0.77689   0.75518    0.011
 5399.00    0.76898   0.74561    0.011
 5400.00    0.81321   0.73840    0.011
 5401.00    0.85650   0.73549    0.012
 5402.00    0.87519   0.73756    0.011
 5403.00    0.89323   0.74411    0.011
 5404.00    0.90227   0.75403    0.011
 5405.00    0.91739   0.76607    0.011
 5406.00    0.98728   0.77907    0.012
 5407.00    1.02662   0.79201    0.012
 5408.00    0.86403   0.80396    0.012
 5409.00    0.72954   0.81413    0.012
 5410.00    0.73960   0.82193    0.012
 5411.00    0.75485   0.82698    0.011
 5412.00    0.79162   0.82914    0.011
 5413.00    0.82772   0.82864    0.011
 5414.00    0.86148   0.82612    0.011
 5415.00    0.90256   0.82250    0.011
 5416.00    0.96476   0.81878    0.011
 5417.00    0.99312   0.81574    0.011
 5418.00    0.93789   0.81365    0.011
 5419.00    0.92591   0.81210    0.011
 5420.00    1.00599   0.81010    0.011
 5421.00    1.02820   0.80655    0.011
 5422.00    0.94340   0.80089    0.011
 5423.00    0.89536   0.79334    0.011
 5424.00    0.90670   0.78486    0.011
 5425.00    0.93113   0.77678    0.011
 5426.00    0.97412   0.77034    0.011
 5427.00    0.94441   0.76656    0.011
 5428.00    0.82404   0.76629    0.011
 5429.00    0.79471   0.77019    0.011
 5430.00    0.86543   0.77859    0.011
 5431.00    0.95567   0.79101    0.011
 5432.00    1.06482   0.80593    0.011
 5433.00    1.08103   0.82097    0.011
 5434.00    1.01780   0.83345    0.011
 5435.00    0.96826   0.84088    0.011
 5436.00    0.92902   0.84176    0.011
 5437.00    0.97605   0.83601    0.011
 5438.00    1.08014   0.82506    0.011
 5439.00    1.10328   0.81163    0.011
 5440.00    1.07952   0.79912    0.011
 5441.00    1.05802   0.79043    0.011
 5442.00    1.03764   0.78697    0.011
 5443.00    0.99286   0.78806    0.011
 5444.00    0.93741   0.79129    0.011
 5445.00    0.91977   0.79378    0.011
 5446.00    0.91630   0.79349    0.011
 5447.00    0.91941   0.79008    0.011
 5448.00    0.92463   0.78502    0.011
 5449.00    0.98866   0.78070    0.011
 5450.00    1.06833   0.77915    0.011
 5451.00    1.03925   0.78102    0.011
 5452.00    0.98651   0.78521    0.011
 5453.00    1.00465   0.78976    0.011
 5454.00    1.03503   0.79276    0.011
 5455.00    1.06573   0.79335    0.011
 5456.00    1.09646   0.79209    0.011
 5457.00    1.07602   0.79045    0.011
 5458.00    1.05086   0.78977    0.011
 5459.00    0.97209   0.79065    0.011
 5460.00    0.89030   0.79282    0.012
 5461.00    0.88293   0.79527    0.012
 5462.00    0.87665   0.79677    0.012
 5463.00    0.80967   0.79642    0.011
 5464.00    0.74675   0.79391    0.011
 5465.00    0.77892   0.78915    0.011
 5466.00    0.80895   0.78240    0.011
 5467.00    0.81132   0.77437    0.011
 5468.00    0.81976   0.76604    0.011
 5469.00    0.88074   0.75852    0.011
 5470.00    0.93756   0.75283    0.011
 5471.00    0.96780   0.74982    0.011
 5472.00    0.98224   0.74969    0.011
 5473.00    0.91745   0.75204    0.011
 5474.00    0.87234   0.75629    0.011
 5475.00    0.90703   0.76181    0.011
 5476.00    0.93394   0.76798    0.011
 5477.00    0.93463   0.77431    0.011
 5478.00    0.96028   0.78026   -2.000
 5479.00    1.05681   0.78517   -2.000
 5480.00    1.06639   0.78850   -2.000
 5481.00    0.86489   0.79028   -2.000
 5482.00    0.90360   0.79098   -2.000
 5483.00    1.44553   0.79118   -2.000
 5484.00    1.72051   0.79147   -2.000
 5485.00    1.50933   0.79209   -2.000
 5486.00    1.06578   0.79276   -2.000
 5487.00    0.25233   0.79310   -2.000
 5488.00   -0.03206   0.79307   -2.000
 5489.00    0.42262   0.79281   -2.000
 5490.00    0.97812   0.79241   -2.000
 5491.00    1.65756   0.79190   -2.000
 5492.00    2.05350   0.79125   -2.000
 5493.00    2.14220   0.79020   -2.000
 5494.00    1.93319   0.78844   -2.000
 5495.00    1.43962   0.78580   -2.000
 5496.00    1.10686   0.78228   -2.000
 5497.00    0.90964   0.77842   -2.000
 5498.00    0.81997   0.77498   -2.000
 5499.00    0.81010   0.77243   -2.000
 5500.00    0.84974   0.77094   -2.000
 5501.00    0.92165   0.77030   -2.000
 5502.00    0.91406   0.76981    0.011
 5503.00    0.86111   0.76876    0.011
 5504.00    0.92012   0.76671    0.011
 5505.00    1.03476   0.76380    0.012
 5506.00    1.02729   0.76086    0.012
 5507.00    0.96735   0.75920    0.011
 5508.00    0.85919   0.76012    0.011
 5509.00    0.73325   0.76421    0.011
 5510.00    0.77745   0.77119    0.011
 5511.00    0.87474   0.78005    0.011
 5512.00    0.95385   0.78931    0.011
 5513.00    1.02823   0.79750    0.011
 5514.00    1.00686   0.80348    0.011
 5515.00    0.96516   0.80662    0.011
 5516.00    0.89635   0.80669    0.011
 5517.00    0.82299   0.80375    0.011
 5518.00    0.84879   0.79815    0.011
 5519.00    0.88714   0.79087    0.011
 5520.00    0.88252   0.78332    0.011
 5521.00    0.87410   0.77693    0.011
 5522.00    0.83150   0.77287    0.011
 5523.00    0.78712   0.77169    0.011
 5524.00    0.86061   0.77309    0.011
 5525.00    0.93466   0.77601    0.011
 5526.00    0.88504   0.77927    0.011
 5527.00    0.83577   0.78199    0.011
 5528.00    0.79417   0.78382    0.011
 5529.00    0.75716   0.78514    0.011
 5530.00    0.77625   0.78671    0.011
 5531.00    0.80167   0.78907    0.011
 5532.00    0.87983   0.79227    0.011
 5533.00    0.94547   0.79579    0.011
 5534.00    0.93328   0.79892    0.011
 5535.00    0.92404   0.80108    0.011
 5536.00    0.92922   0.80199    0.011
 5537.00    0.92905   0.80189    0.011
 5538.00    0.90763   0.80160    0.011
 5539.00    0.88843   0.80202    0.011
 5540.00    0.87653   0.80366    0.011
 5541.00    0.85982   0.80651    0.011
 5542.00    0.82971   0.81004    0.011
 5543.00    0.82095   0.81325    0.011
 5544.00    0.86309   0.81514    0.011
 5545.00    0.87923   0.81513    0.011
 5546.00    0.84173   0.81332    0.011
 5547.00    0.82689   0.81023    0.011
 5548.00    0.85271   0.80658    0.011
 5549.00    0.90112   0.80310    0.011
 5550.00    0.98496   0.80031    0.011
 5551.00    1.06349   0.79819    0.011
 5552.00    1.13470   0.79636    0.011
 5553.00    1.11056   0.79430    0.011
 5554.00    0.97084   0.79168    0.011
 5555.00    0.90660   0.78848    0.011
 5556.00    0.92302   0.78469    0.011
 5557.00    0.96903   0.78052    0.011
 5558.00    1.04291   0.77649    0.011
 5559.00    1.06932   0.77297    0.011
 5560.00    1.05628   0.77007    0.011
 5561.00    1.00126   0.76812    0.011
 5562.00    0.91551   0.76723    0.011
 5563.00    0.91674   0.76690    0.011
 5564.00    0.97382   0.76702    0.011
 5565.00    0.98686   0.76796    0.011
 5566.00    0.97515   0.76960    0.011
 5567.00    0.94414   0.77177    0.011
 5568.00    0.90369   0.77462    0.011
 5569.00    0.89786   0.77792    0.011
 5570.00    0.90665   0.78133    0.011
 5571.00    0.88804   0.78457    0.011
 5572.00    0.85951   0.78700    0.011
 5573.00    0.82013   0.78814    0.011
 5574.00    0.77744   0.78780    0.010
 5575.00    0.82070   0.78555    0.010
 5576.00    0.88584   0.78086    0.011
 5577.00    0.85588   0.77341    0.010
 5578.00    0.80622   0.76331    0.010
 5579.00    0.87151   0.75153    0.010
 5580.00    0.95556   0.73963    0.011
 5581.00    0.90584   0.72946    0.011
 5582.00    0.83978   0.72265    0.011
 5583.00    0.87964   0.71990    0.011
 5584.00    0.92840   0.72104    0.011
 5585.00    0.94344   0.72525    0.011
 5586.00    0.95685   0.73167    0.011
 5587.00    0.91472   0.73930    0.011
 5588.00    0.87206   0.74655    0.011
 5589.00    0.84735   0.75189    0.011
 5590.00    0.82601   0.75470    0.011
 5591.00    0.87149   0.75491    0.011
 5592.00    0.90939   0.75265    0.011
 5593.00    0.85924   0.74882    0.011
 5594.00    0.80899   0.74506    0.011
 5595.00    0.75789   0.74346    0.011
 5596.00    0.72386   0.74551    0.011
 5597.00    0.79303   0.75158    0.012
 5598.00    0.83951   0.76098    0.012
 5599.00    0.77786   0.77223    0.012
 5600.00    0.75242   0.78349    0.012
 5601.00    0.86762   0.79311    0.012
 5602.00    0.97197   0.80007    0.012
 5603.00    1.04124   0.80389    0.012
 5604.00    1.08107   0.80424    0.012
 5605.00    1.04026   0.80060    0.011
 5606.00    1.01630   0.79275    0.011
 5607.00    1.03188   0.78192    0.011
 5608.00    1.05227   0.77055    0.011
 5609.00    1.08243   0.76065    0.011
 5610.00    1.06036   0.75335    0.011
 5611.00    0.94607   0.74937    0.011
 5612.00    0.85405   0.74884    0.011
 5613.00    0.79645   0.75091    0.011
 5614.00    0.79910   0.75376    0.010
 5615.00    0.88349   0.75539    0.010
 5616.00    0.91739   0.75501    0.010
 5617.00    0.89095   0.75340    0.010
 5618.00    0.89007   0.75192    0.010
 5619.00    0.91612   0.75172    0.010
 5620.00    0.92123   0.75376    0.010
 5621.00    0.90690   0.75839    0.010
 5622.00    0.94015   0.76491    0.010
 5623.00    1.01240   0.77198    0.010
 5624.00    0.99838   0.77811    0.010
 5625.00    0.92216   0.78211    0.010
 5626.00    0.86166   0.78329    0.010
 5627.00    0.81110   0.78159    0.010
 5628.00    0.83868   0.77755    0.010
 5629.00    0.90950   0.77220    0.011
 5630.00    0.92967   0.76679    0.011
 5631.00    0.92547   0.76216    0.011
 5632.00    0.88991   0.75844    0.011
 5633.00    0.84133   0.75566    0.011
 5634.00    0.89230   0.75414    0.011
 5635.00    0.97864   0.75392    0.011
 5636.00    0.94631   0.75475    0.011
 5637.00    0.87839   0.75651    0.011
 5638.00    0.87289   0.75900    0.011
 5639.00    0.88294   0.76191    0.011
 5640.00    0.91217   0.76474    0.011
 5641.00    0.94527   0.76714    0.011
 5642.00    0.91226   0.76915    0.011
 5643.00    0.86878   0.77096    0.011
 5644.00    0.88186   0.77238    0.011
 5645.00    0.90161   0.77280    0.011
 5646.00    0.87002   0.77158    0.011
 5647.00    0.83433   0.76876    0.011
 5648.00    0.95950   0.76461    0.011
 5649.00    1.09184   0.75857    0.011
 5650.00    1.06831   0.75060    0.011
 5651.00    1.04253   0.74287    0.011
 5652.00    0.99342   0.73728    0.011
 5653.00    0.94241   0.73381    0.011
 5654.00    0.85628   0.73235    0.011
 5655.00    0.77904   0.73349    0.011
 5656.00    0.80023   0.73724    0.010
 5657.00    0.82507   0.74248    0.010
 5658.00    0.87835   0.74778    0.010
 5659.00    0.91700   0.75221    0.010
 5660.00    0.86988   0.75565    0.010
 5661.00    0.82894   0.75837    0.010
 5662.00    0.81681   0.76078    0.010
 5663.00    0.81255   0.76355    0.010
 5664.00    0.83822   0.76736    0.010
 5665.00    0.85287   0.77224    0.010
 5666.00    0.83257   0.77745    0.010
 5667.00    0.81288   0.78221    0.010
 5668.00    0.79487   0.78626    0.010
 5669.00    0.79441   0.78917    0.010
 5670.00    0.83446   0.79024    0.010
 5671.00    0.86724   0.78931    0.010
 5672.00    0.88550   0.78680    0.010
 5673.00    0.93710   0.78290    0.010
 5674.00    1.04669   0.77763    0.011
 5675.00    1.06487   0.77186    0.011
 5676.00    0.94388   0.76672    0.011
 5677.00    0.87409   0.76256    0.011
 5678.00    0.87278   0.75907    0.011
 5679.00    0.89533   0.75624    0.011
 5680.00    0.94600   0.75460    0.011
 5681.00    0.90707   0.75474    0.011
 5682.00    0.77508   0.75688    0.011
 5683.00    0.74848   0.76076    0.011
 5684.00    0.81844   0.76587    0.011
 5685.00    0.85559   0.77131    0.011
 5686.00    0.86623   0.77597    0.011
 5687.00    0.89141   0.77914    0.011
 5688.00    0.92691   0.78049    0.011
 5689.00    0.87468   0.77963    0.010
 5690.00    0.76776   0.77634    0.010
 5691.00    0.77098   0.77122    0.010
 5692.00    0.83421   0.76519    0.010
 5693.00    0.83007   0.75873    0.010
 5694.00    0.79402   0.75256    0.010
 5695.00    0.81657   0.74757    0.010
 5696.00    0.86304   0.74394    0.010
 5697.00    0.85901   0.74084    0.010
 5698.00    0.83735   0.73723    0.011
 5699.00    0.85770   0.73271    0.011
 5700.00    0.89040   0.72737    0.010
 5701.00    0.87154   0.72172    0.010
 5702.00    0.84011   0.71701    0.010
 5703.00    0.85817   0.71441    0.010
 5704.00    0.88598   0.71457    0.010
 5705.00    0.91682   0.71822    0.010
 5706.00    0.94812   0.72535    0.010
 5707.00    0.90079   0.73471    0.010
 5708.00    0.84456   0.74493    0.010
 5709.00    0.85714   0.75497    0.010
 5710.00    0.87493   0.76399    0.010
 5711.00    0.87128   0.77177    0.010
 5712.00    0.86676   0.77839    0.010
 5713.00    0.88220   0.78394    0.010
 5714.00    0.89781   0.78854    0.010
 5715.00    0.91425   0.79217    0.010
 5716.00    0.92927   0.79451    0.010
 5717.00    0.91997   0.79526    0.010
 5718.00    0.91292   0.79425    0.011
 5719.00    0.92967   0.79158    0.011
 5720.00    0.94593   0.78809    0.011
 5721.00    0.95854   0.78501    0.011
 5722.00    0.96514   0.78267    0.011
 5723.00    0.93743   0.78059    0.011
 5724.00    0.91472   0.77900    0.011
 5725.00    0.91470   0.77879    0.011
 5726.00    0.91174   0.78008    0.011
 5727.00    0.89786   0.78209    0.010
 5728.00    0.89390   0.78402    0.010
 5729.00    0.92083   0.78538    0.010
 5730.00    0.94299   0.78601    0.010
 5731.00    0.95250   0.78604    0.010
 5732.00    0.93022   0.78565    0.010
 5733.00    0.83580   0.78497    0.010
 5734.00    0.80352   0.78414    0.010
 5735.00    0.89339   0.78335    0.010
 5736.00    0.93737   0.78297    0.010
 5737.00    0.90277   0.78326    0.010
 5738.00    0.85580   0.78384    0.010
 5739.00    0.79027   0.78375    0.010
 5740.00    0.78279   0.78237    0.000
 5741.00    0.85185   0.78019    0.000
 5742.00    0.90227   0.77818    0.000
 5743.00    0.93103   0.77626    0.000
 5744.00    0.92506   0.77357    0.000
 5745.00    0.88352   0.76987    0.000
 5746.00    0.89135   0.76598    0.000
 5747.00    0.94378   0.76345    0.000
 5748.00    1.00587   0.76345    0.000
 5749.00    1.07566   0.76558    0.000
 5750.00    1.03344   0.76834    0.000
 5751.00    0.91278   0.77040    0.000
 5752.00    0.88964   0.77079    0.000
 5753.00    0.92641   0.76925    0.000
 5754.00    0.97618   0.76641    0.000
 5755.00    1.03294   0.76358    0.000
 5756.00    1.02351   0.76256    0.000
 5757.00    0.98325   0.76460    0.000
 5758.00    0.96752   0.76902    0.000
 5759.00    0.96163   0.77446    0.000
 5760.00    0.91351   0.77995    0.000
 5761.00    0.85092   0.78444    0.000
 5762.00    0.83419   0.78714    0.000
 5763.00    0.83067   0.78789    0.000
 5764.00    0.81841   0.78691    0.000
 5765.00    0.80407   0.78469    0.000
 5766.00    0.96491   0.78210    0.000
 5767.00    1.15935   0.77951    0.000
 5768.00    1.08000   0.77710    0.000
 5769.00    0.95987   0.77492    0.000
 5770.00    0.94378   0.77218    0.000
 5771.00    0.93903   0.76794    0.000
 5772.00    0.96420   0.76151    0.000
 5773.00    0.99151   0.75266    0.000
 5774.00    0.99921   0.74234    0.000
 5775.00    1.00618   0.73289    0.000
 5776.00    0.98163   0.72573    0.000
 5777.00    0.95540   0.72089    0.000
 5778.00    0.87363   0.71869    0.000
 5779.00    0.79782   0.72025    0.000
 5780.00    0.81780   0.72535    0.000
 5781.00    0.83719   0.73227    0.000
 5782.00    0.85049   0.73960    0.000
 5783.00    0.86305   0.74617    0.000
 5784.00    0.87022   0.75163    0.000
 5785.00    0.88357   0.75683    0.000
 5786.00    0.93129   0.76183    0.000
 5787.00    0.97886   0.76624    0.000
 5788.00    1.02578   0.76994    0.000
 5789.00    1.04749   0.77254    0.000
 5790.00    0.97734   0.77393    0.000
 5791.00    0.92310   0.77517   -2.000
 5792.00    0.91740   0.77757   -2.000
 5793.00    0.91384   0.78082   -2.000
 5794.00    0.91580   0.78371   -2.000
 5795.00    0.90962   0.78552   -2.000
 5796.00    0.88524   0.78562   -2.000
 5797.00    0.89597   0.78384   -2.000
 5798.00    0.97461   0.78114   -2.000
 5799.00    1.02090   0.77864   -2.000
 5800.00    1.01257   0.77689   -2.000
 5801.00    1.00539   0.77606   -2.000
 5802.00    0.99988   0.77615   -2.000
 5803.00    0.98786   0.77697   -2.000
 5804.00    0.96739   0.77797   -2.000
 5805.00    0.93990   0.77845   -2.000
 5806.00    0.90438   0.77805   -2.000
 5807.00    0.90059   0.77676   -2.000
 5808.00    0.92883   0.77487   -2.000
 5809.00    0.89464   0.77327   -2.000
 5810.00    0.80485   0.77326   -2.000
 5811.00    0.78084   0.77537    0.000
 5812.00    0.80844   0.77879    0.000
 5813.00    0.81761   0.78249    0.000
 5814.00    0.81405   0.78581    0.000
 5815.00    0.84871   0.78826    0.000
 5816.00    0.90649   0.78974    0.000
 5817.00    0.90827   0.79052    0.000
 5818.00    0.88049   0.79097    0.000
 5819.00    0.88108   0.79118    0.000
 5820.00    0.89469   0.79122    0.000
 5821.00    0.89847   0.79126    0.000
 5822.00    0.89838   0.79137    0.000
 5823.00    0.94335   0.79128    0.000
 5824.00    1.00346   0.79062    0.000
 5825.00    1.01679   0.78940    0.000
 5826.00    1.01692   0.78774    0.000
 5827.00    1.01311   0.78568    0.000
 5828.00    1.00839   0.78364    0.000
 5829.00    1.00807   0.78234    0.000
 5830.00    1.00858   0.78187    0.000
 5831.00    1.00403   0.78186    0.000
 5832.00    0.99876   0.78253    0.000
 5833.00    0.96107   0.78420    0.000
 5834.00    0.91998   0.78635    0.000
 5835.00    0.85810   0.78808    0.000
 5836.00    0.79481   0.78874    0.000
 5837.00    0.76274   0.78796    0.000
 5838.00    0.73170   0.78567    0.000
 5839.00    0.72788   0.78211    0.000
 5840.00    0.72611   0.77770    0.000
 5841.00    0.78870   0.77304    0.000
 5842.00    0.85232   0.76866    0.000
 5843.00    0.93142   0.76453    0.000
 5844.00    0.99016   0.76018    0.000
 5845.00    0.85128   0.75520    0.000
 5846.00    0.73593   0.74961    0.000
 5847.00    0.78569   0.74416    0.000
 5848.00    0.83187   0.73950    0.000
 5849.00    0.85876   0.73532    0.000
 5850.00    0.88682   0.73123    0.000
 5851.00    0.91996   0.72819    0.000
 5852.00    0.94202   0.72762    0.000
 5853.00    0.92450   0.72962    0.000
 5854.00    0.90131   0.73304    0.000
 5855.00    0.86115   0.73667    0.000
 5856.00    0.85139   0.73997    0.000
 5857.00    0.91922   0.74316    0.000
 5858.00    0.96538   0.74620    0.000
 5859.00    0.96396   0.74855    0.000
 5860.00    0.93933   0.75029    0.000
 5861.00    0.87052   0.75240    0.000
 5862.00    0.82825   0.75528    0.000
 5863.00    0.83007   0.75830    0.000
 5864.00    0.84455   0.76068    0.000
 5865.00    0.87746   0.76200    0.000
 5866.00    0.90007   0.76224    0.000
 5867.00    0.90949   0.76172    0.000
 5868.00    0.89515   0.76063    0.000
 5869.00    0.85401   0.75863    0.000
 5870.00    0.82395   0.75548    0.000
 5871.00    0.80493   0.75158    0.000
 5872.00    0.79320   0.74732    0.000
 5873.00    0.78789   0.74286    0.000
 5874.00    0.79308   0.73857    0.000
 5875.00    0.80641   0.73471    0.000
 5876.00    0.84168   0.73023    0.000
 5877.00    0.89187   0.72344    0.000
 5878.00    0.88923   0.71355    0.000
 5879.00    0.85509   0.70026    0.000
 5880.00    0.82485   0.68301    0.000
 5881.00    0.79664   0.66167    0.000
 5882.00    0.81436   0.63729    0.000
 5883.00    0.85279   0.61316    0.000
 5884.00    0.82075   0.59516    0.000
 5885.00    0.76139   0.58676    0.000
 5886.00    0.71631   0.58538    0.000
 5887.00    0.67594   0.58726    0.000
 5888.00    0.72892   0.59070    0.000
 5889.00    0.80772   0.59549    0.000
 5890.00    0.77396   0.60450    0.000
 5891.00    0.71461   0.62000    0.000
 5892.00    0.72846   0.63894    0.000
 5893.00    0.75563   0.65782    0.000
 5894.00    0.78126   0.67595    0.000
 5895.00    0.80666   0.69248    0.000
 5896.00    0.78607   0.70615    0.000
 5897.00    0.76086   0.71661    0.000
 5898.00    0.77190   0.72394    0.000
 5899.00    0.78526   0.72856    0.000
 5900.00    0.76347   0.73174    0.000
 5901.00    0.74085   0.73435    0.009
 5902.00    0.78867   0.73622    0.009
 5903.00    0.83530   0.73698    0.009
 5904.00    0.84855   0.73673    0.010
 5905.00    0.85767   0.73565    0.010
 5906.00    0.80780   0.73352    0.010
 5907.00    0.76179   0.73031    0.009
 5908.00    0.75173   0.72709    0.009
 5909.00    0.74042   0.72527    0.009
 5910.00    0.72059   0.72518    0.009
 5911.00    0.70359   0.72668    0.009
 5912.00    0.70141   0.72916    0.009
 5913.00    0.70553   0.73192    0.009
 5914.00    0.73627   0.73471    0.009
 5915.00    0.74999   0.73694    0.009
 5916.00    0.70423   0.73840    0.009
 5917.00    0.67925   0.73952    0.009
 5918.00    0.71539   0.74022    0.009
 5919.00    0.75493   0.74028    0.009
 5920.00    0.80302   0.73981    0.009
 5921.00    0.85043   0.73857    0.009
 5922.00    0.89639   0.73667    0.009
 5923.00    0.91570   0.73467    0.009
 5924.00    0.88504   0.73331    0.009
 5925.00    0.88579   0.73331    0.009
 5926.00    0.93793   0.73404    0.009
 5927.00    0.95562   0.73442    0.009
 5928.00    0.92386   0.73438    0.009
 5929.00    0.90448   0.73487    0.009
 5930.00    0.90075   0.73631    0.009
 5931.00    0.87062   0.73769    0.009
 5932.00    0.81111   0.73845    0.009
 5933.00    0.78463   0.73869    0.009
 5934.00    0.79057   0.73819    0.009
 5935.00    0.80734   0.73721    0.009
 5936.00    0.83348   0.73680    0.009
 5937.00    0.84461   0.73713    0.009
 5938.00    0.84427   0.73768    0.009
 5939.00    0.83438   0.73809    0.009
 5940.00    0.81808   0.73782    0.009
 5941.00    0.80259   0.73639    0.009
 5942.00    0.78758   0.73401    0.009
 5943.00    0.77970   0.73166    0.009
 5944.00    0.77549   0.73020    0.009
 5945.00    0.76652   0.72915    0.009
 5946.00    0.75545   0.72759    0.009
 5947.00    0.80322   0.72617    0.009
 5948.00    0.87341   0.72615    0.009
 5949.00    0.86632   0.72700    0.009
 5950.00    0.83422   0.72776    0.009
 5951.00    0.81756   0.72889    0.009
 5952.00    0.80509   0.73120    0.009
 5953.00    0.83165   0.73454    0.009
 5954.00    0.86687   0.73824    0.009
 5955.00    0.82806   0.74156    0.009
 5956.00    0.77615   0.74402    0.009
 5957.00    0.81284   0.74558    0.009
 5958.00    0.86151   0.74651    0.009
 5959.00    0.82543   0.74696    0.009
 5960.00    0.78120   0.74746    0.009
 5961.00    0.75670   0.74869    0.009
 5962.00    0.73337   0.75030    0.009
 5963.00    0.71473   0.75164    0.009
 5964.00    0.69650   0.75238    0.009
 5965.00    0.72332   0.75215    0.009
 5966.00    0.74877   0.75060    0.009
 5967.00    0.73943   0.74780    0.009
 5968.00    0.73218   0.74404    0.009
 5969.00    0.75311   0.73970    0.009
 5970.00    0.77603   0.73554    0.009
 5971.00    0.81671   0.73236    0.009
 5972.00    0.85557   0.73031    0.009
 5973.00    0.88247   0.72917    0.009
 5974.00    0.90402   0.72850    0.009
 5975.00    0.89805   0.72748    0.009
 5976.00    0.89187   0.72566    0.009
 5977.00    0.88483   0.72329    0.009
 5978.00    0.88611   0.72131    0.009
 5979.00    0.91590   0.72103    0.009
 5980.00    0.93855   0.72264    0.009
 5981.00    0.94057   0.72513    0.009
 5982.00    0.92205   0.72804    0.009
 5983.00    0.85289   0.73131    0.009
 5984.00    0.80534   0.73434    0.009
 5985.00    0.80370   0.73644    0.009
 5986.00    0.80633   0.73771    0.009
 5987.00    0.81684   0.73861    0.009
 5988.00    0.82734   0.73884    0.009
 5989.00    0.83781   0.73787    0.009
 5990.00    0.85728   0.73569    0.009
 5991.00    0.88950   0.73284    0.009
 5992.00    0.90652   0.73030    0.009
 5993.00    0.90462   0.72871    0.009
 5994.00    0.88477   0.72776    0.009
 5995.00    0.84524   0.72671    0.009
 5996.00    0.82173   0.72495    0.009
 5997.00    0.81373   0.72275    0.009
 5998.00    0.81135   0.72101    0.009
 5999.00    0.81377   0.71965    0.009
 6000.00    0.83526   0.71796    0.009
 6001.00    0.87108   0.71605    0.009
 6002.00    0.90838   0.71467    0.009
 6003.00    0.94667   0.71493    0.009
 6004.00    0.93369   0.71662    0.009
 6005.00    0.89108   0.71789    0.009
 6006.00    0.86101   0.71769    0.009
 6007.00    0.83724   0.71660    0.009
 6008.00    0.82802   0.71564    0.009
 6009.00    0.82514   0.71493    0.009
 6010.00    0.84580   0.71378    0.009
 6011.00    0.87526   0.71230    0.009
 6012.00    0.91039   0.71132    0.009
 6013.00    0.94731   0.71083    0.009
 6014.00    0.92760   0.71068    0.009
 6015.00    0.89288   0.71135    0.009
 6016.00    0.88237   0.71321    0.009
 6017.00    0.87711   0.71608    0.009
 6018.00    0.88418   0.71959    0.009
 6019.00    0.89338   0.72359    0.009
 6020.00    0.91164   0.72776    0.009
 6021.00    0.93109   0.73166    0.009
 6022.00    0.90239   0.73541    0.009
 6023.00    0.86928   0.73904    0.009
 6024.00    0.84476   0.74206    0.009
 6025.00    0.82072   0.74437    0.009
 6026.00    0.83062   0.74630    0.009
 6027.00    0.84102   0.74795    0.009
 6028.00    0.82816   0.74900    0.009
 6029.00    0.81422   0.74932    0.009
 6030.00    0.77556   0.74910    0.009
 6031.00    0.74366   0.74857    0.009
 6032.00    0.79811   0.74790    0.009
 6033.00    0.84780   0.74718    0.009
 6034.00    0.85655   0.74664    0.009
 6035.00    0.85356   0.74667    0.009
 6036.00    0.77565   0.74744    0.009
 6037.00    0.71862   0.74887    0.009
 6038.00    0.76593   0.75071    0.009
 6039.00    0.80405   0.75248    0.009
 6040.00    0.80495   0.75383    0.009
 6041.00    0.80424   0.75460    0.009
 6042.00    0.79812   0.75460    0.009
 6043.00    0.79122   0.75376    0.009
 6044.00    0.78209   0.75229    0.009
 6045.00    0.78154   0.75017    0.009
 6046.00    0.80179   0.74732    0.009
 6047.00    0.81255   0.74402    0.009
 6048.00    0.80347   0.74097    0.009
 6049.00    0.79764   0.73864    0.009
 6050.00    0.79771   0.73702    0.009
 6051.00    0.81130   0.73605    0.009
 6052.00    0.84638   0.73573    0.009
 6053.00    0.87291   0.73558    0.009
 6054.00    0.88751   0.73483    0.009
 6055.00    0.88671   0.73332    0.009
 6056.00    0.86701   0.73147    0.009
 6057.00    0.85006   0.72980    0.009
 6058.00    0.83608   0.72886    0.009
 6059.00    0.85356   0.72918    0.009
 6060.00    0.90108   0.73148    0.009
 6061.00    0.91014   0.73626    0.009
 6062.00    0.88685   0.74222    0.009
 6063.00    0.88605   0.74756    0.009
 6064.00    0.90191   0.75164    0.009
 6065.00    0.89970   0.75441    0.009
 6066.00    0.88575   0.75576    0.009
 6067.00    0.85851   0.75535    0.009
 6068.00    0.82370   0.75317    0.009
 6069.00    0.79623   0.74972    0.009
 6070.00    0.77240   0.74525    0.009
 6071.00    0.77818   0.73994    0.009
 6072.00    0.79666   0.73443    0.009
 6073.00    0.81223   0.72948    0.009
 6074.00    0.82674   0.72576    0.009
 6075.00    0.82628   0.72313    0.009
 6076.00    0.82116   0.72107    0.009
 6077.00    0.80269   0.71997    0.009
 6078.00    0.78076   0.72004    0.009
 6079.00    0.77677   0.72031    0.008
 6080.00    0.77658   0.72019    0.008
 6081.00    0.79546   0.72000    0.008
 6082.00    0.81753   0.71985    0.009
 6083.00    0.81161   0.71945    0.009
 6084.00    0.80216   0.71882    0.009
 6085.00    0.80568   0.71860    0.009
 6086.00    0.81034   0.71942    0.009
 6087.00    0.83013   0.72100    0.009
 6088.00    0.85069   0.72297    0.009
 6089.00    0.90430   0.72519    0.009
 6090.00    0.95697   0.72670    0.009
 6091.00    0.89648   0.72601    0.009
 6092.00    0.83720   0.72325    0.009
 6093.00    0.80368   0.71981    0.009
 6094.00    0.77475   0.71637    0.009
 6095.00    0.80143   0.71267    0.009
 6096.00    0.82134   0.70856    0.009
 6097.00    0.78498   0.70545    0.009
 6098.00    0.75319   0.70597    0.009
 6099.00    0.74969   0.71026    0.009
 6100.00    0.75919   0.71521    0.009
 6101.00    0.83210   0.71904    0.009
 6102.00    0.88780   0.72223    0.009
 6103.00    0.87542   0.72555    0.009
 6104.00    0.84914   0.72881    0.009
 6105.00    0.77713   0.73075    0.009
 6106.00    0.72975   0.73119    0.009
 6107.00    0.75090   0.73139    0.009
 6108.00    0.76786   0.73145    0.009
 6109.00    0.77483   0.73013    0.009
 6110.00    0.77314   0.72666    0.009
 6111.00    0.75365   0.72149    0.009
 6112.00    0.75778   0.71609    0.008
 6113.00    0.80421   0.71121    0.008
 6114.00    0.83722   0.70651    0.008
 6115.00    0.84920   0.70237    0.008
 6116.00    0.85304   0.69971    0.009
 6117.00    0.84567   0.69933    0.009
 6118.00    0.83461   0.70181    0.009
 6119.00    0.81908   0.70562    0.009
 6120.00    0.80417   0.70874    0.009
 6121.00    0.78993   0.71121    0.009
 6122.00    0.80189   0.71342    0.009
 6123.00    0.83851   0.71514    0.009
 6124.00    0.89041   0.71583    0.009
 6125.00    0.95498   0.71453    0.009
 6126.00    0.98436   0.71031    0.009
 6127.00    0.98804   0.70367    0.009
 6128.00    0.94868   0.69644    0.009
 6129.00    0.88174   0.68961    0.009
 6130.00    0.87452   0.68344    0.009
 6131.00    0.90080   0.67889    0.009
 6132.00    0.87094   0.67832    0.009
 6133.00    0.81370   0.68349    0.009
 6134.00    0.75336   0.69195    0.009
 6135.00    0.69172   0.69956    0.009
 6136.00    0.68654   0.70519    0.009
 6137.00    0.70175   0.71031    0.009
 6138.00    0.75663   0.71538    0.009
 6139.00    0.82363   0.71861    0.009
 6140.00    0.82188   0.71904    0.009
 6141.00    0.80267   0.71777    0.009
 6142.00    0.79113   0.71592    0.009
 6143.00    0.78117   0.71374    0.009
 6144.00    0.79333   0.71136    0.009
 6145.00    0.80908   0.70929    0.009
 6146.00    0.84547   0.70790    0.009
 6147.00    0.88438   0.70659    0.009
 6148.00    0.87828   0.70434    0.009
 6149.00    0.86842   0.70039    0.009
 6150.00    0.83967   0.69468    0.009
 6151.00    0.81001   0.68721    0.009
 6152.00    0.78423   0.67787    0.009
 6153.00    0.75914   0.66774    0.009
 6154.00    0.77027   0.65816    0.009
 6155.00    0.77944   0.64940    0.009
 6156.00    0.75011   0.64219    0.009
 6157.00    0.71964   0.63893    0.009
 6158.00    0.67608   0.64022    0.009
 6159.00    0.63850   0.64368    0.009
 6160.00    0.64877   0.64738    0.009
 6161.00    0.66646   0.65112    0.009
 6162.00    0.72872   0.65505    0.009
 6163.00    0.78494   0.65803    0.009
 6164.00    0.81246   0.65994    0.009
 6165.00    0.83605   0.66316    0.009
 6166.00    0.84443   0.66852    0.009
 6167.00    0.84474   0.67384    0.009
 6168.00    0.81901   0.67788    0.008
 6169.00    0.79544   0.68150    0.008
 6170.00    0.77777   0.68491    0.008
 6171.00    0.77446   0.68783    0.008
 6172.00    0.80474   0.69049    0.008
 6173.00    0.81982   0.69307    0.008
 6174.00    0.80413   0.69498    0.008
 6175.00    0.79005   0.69572    0.009
 6176.00    0.77881   0.69554    0.008
 6177.00    0.78043   0.69424    0.008
 6178.00    0.80188   0.69144    0.008
 6179.00    0.80296   0.68744    0.009
 6180.00    0.77644   0.68231    0.009
 6181.00    0.75091   0.67582    0.009
 6182.00    0.72658   0.66973    0.008
 6183.00    0.71048   0.66592    0.008
 6184.00    0.70304   0.66419    0.009
 6185.00    0.71613   0.66369    0.009
 6186.00    0.74826   0.66453    0.009
 6187.00    0.74551   0.66823    0.009
 6188.00    0.71423   0.67405    0.009
 6189.00    0.72609   0.67872    0.009
 6190.00    0.76898   0.68139    0.009
 6191.00    0.81393   0.68336    0.009
 6192.00    0.86019   0.68509    0.009
 6193.00    0.87408   0.68598    0.009
 6194.00    0.87011   0.68606    0.008
 6195.00    0.86572   0.68686    0.009
 6196.00    0.86112   0.68939   -2.000
 6197.00    0.44414   0.69253   -2.000
 6198.00   -0.14379   0.69483   -2.000
 6199.00   -0.48899   0.69593   -2.000
 6200.00   -0.74817   0.69599   -2.000
 6201.00   -0.27489   0.69503   -2.000
 6202.00    0.41759   0.69256   -2.000
 6203.00    1.08896   0.68809   -2.000
 6204.00    1.75508   0.68192   -2.000
 6205.00    1.76820   0.67481   -2.000
 6206.00    1.64982   0.66764   -2.000
 6207.00    1.32552   0.66120   -2.000
 6208.00    0.96874   0.65546    0.009
 6209.00    0.81495   0.65082    0.009
 6210.00    0.68495   0.64807    0.009
 6211.00    0.68271   0.64747    0.009
 6212.00    0.69061   0.64864    0.009
 6213.00    0.66757   0.65031    0.009
 6214.00    0.64316   0.65145    0.009
 6215.00    0.65821   0.65282    0.009
 6216.00    0.67409   0.65501    0.009
 6217.00    0.70915   0.65728    0.018
 6218.00    0.74257   0.65849   -1.000
 6219.00    0.74621   0.65792   -1.000
 6220.00    0.74960   0.65578   -1.000
 6221.00    0.75031   0.65274   -1.000
 6222.00    0.75428   0.64953   -1.000
 6223.00    0.78337   0.64671   -1.000
 6224.00    0.81314   0.64472   -1.000
 6225.00    0.84691   0.64415   -1.000
 6226.00    0.87104   0.64590   -1.000
 6227.00    0.85046   0.64978   -1.000
 6228.00    0.82503   0.65402    0.080
 6229.00    0.78120   0.65736    0.014
 6230.00    0.74364   0.65884    0.008
 6231.00    0.72596   0.65813    0.008
 6232.00    0.73040   0.65552    0.009
 6233.00    0.79422   0.65136    0.009
 6234.00    0.84488   0.64668    0.009
 6235.00    0.86520   0.64270    0.009
 6236.00    0.87787   0.64020    0.009
 6237.00    0.87526   0.63911    0.009
 6238.00    0.85079   0.63918    0.009
 6239.00    0.78839   0.64093    0.008
 6240.00    0.72665   0.64376    0.008
 6241.00    0.66592   0.64623    0.008
 6242.00    0.62459   0.64772    0.008
 6243.00    0.60919   0.64782    0.008
 6244.00    0.61543   0.64612    0.008
 6245.00    0.64711   0.64274    0.008
 6246.00    0.67491   0.63798    0.008
 6247.00    0.69870   0.63233    0.008
 6248.00    0.72257   0.62716    0.008
 6249.00    0.74652   0.62380    0.008
 6250.00    0.73719   0.62267    0.008
 6251.00    0.70104   0.62329    0.008
 6252.00    0.64551   0.62544    0.008
 6253.00    0.57624   0.62966    0.008
 6254.00    0.55488   0.63582    0.008
 6255.00    0.56336   0.64250    0.008
 6256.00    0.59325   0.64824    0.008
 6257.00    0.63480   0.65320    0.008
 6258.00    0.64140   0.65744    0.009
 6259.00    0.63150   0.65986    0.009
 6260.00    0.44255   0.66058    0.010
 6261.00    0.18063   0.66126    0.010
 6262.00    0.13565   0.66265    0.010
 6263.00    0.16615   0.66397    0.011
 6264.00    0.45528   0.66476    0.011
 6265.00    0.82027   0.66554    0.011
 6266.00    1.06735   0.66671    0.010
 6267.00    1.28579   0.66786    0.010
 6268.00    1.19710   0.66839    0.009
 6269.00    1.04814   0.66802    0.009
 6270.00    0.91943   0.66691    0.009
 6271.00    0.79383   0.66542    0.009
 6272.00    0.75854   0.66403    0.008
 6273.00    0.73345   0.66317    0.008
 6274.00    0.70260   0.66299    0.008
 6275.00    0.67132   0.66346    0.008
 6276.00    0.65866   0.66496    0.008
 6277.00    0.64675   0.66782    0.008
 6278.00    0.64776   0.67150    0.008
 6279.00    0.65051   0.67508    0.008
 6280.00    0.72009   0.67771    0.000
 6281.00    0.78368   0.67923    0.000
 6282.00    0.74528   0.67988    0.000
 6283.00    0.70985   0.67949    0.000
 6284.00    0.70561   0.67799    0.000
 6285.00    0.70786   0.67551    0.000
 6286.00    0.75854   0.67222    0.000
 6287.00    0.79785   0.66835    0.000
 6288.00    0.77256   0.66453    0.000
 6289.00    0.74897   0.66145    0.000
 6290.00    0.73306   0.65886    0.000
 6291.00    0.72201   0.65587    0.000
 6292.00    0.72898   0.65284    0.000
 6293.00    0.72208   0.65124    0.000
 6294.00    0.67211   0.65160    0.000
 6295.00    0.64183   0.65282    0.000
 6296.00    0.66343   0.65409    0.000
 6297.00    0.68353   0.65631    0.000
 6298.00    0.70023   0.66034    0.000
 6299.00    0.70420   0.66495    0.000
 6300.00    0.68325   0.66840    0.000
 6301.00    0.67232   0.67036    0.000
 6302.00    0.67854   0.67144    0.000
 6303.00    0.69126   0.67156    0.000
 6304.00    0.71370   0.67003    0.000
 6305.00    0.72448   0.66657    0.000
 6306.00    0.71990   0.66216    0.000
 6307.00    0.71083   0.65827    0.000
 6308.00    0.69654   0.65482    0.000
 6309.00    0.69428   0.65111    0.000
 6310.00    0.70433   0.64826    0.000
 6311.00    0.71845   0.64771    0.000
 6312.00    0.73625   0.64877    0.000
 6313.00    0.74615   0.65030    0.000
 6314.00    0.74979   0.65310    0.000
 6315.00    0.74059   0.65777    0.000
 6316.00    0.72240   0.66276    0.000
 6317.00    0.70720   0.66681    0.000
 6318.00    0.69383   0.67016    0.000
 6319.00    0.68657   0.67352    0.000
 6320.00    0.68257   0.67625    0.000
 6321.00    0.70363   0.67743    0.008
 6322.00    0.73633   0.67758    0.008
 6323.00    0.73811   0.67758    0.008
 6324.00    0.72751   0.67717    0.008
 6325.00    0.70707   0.67515    0.008
 6326.00    0.68327   0.67148    0.008
 6327.00    0.69205   0.66780    0.008
 6328.00    0.71021   0.66505    0.008
 6329.00    0.75832   0.66252    0.008
 6330.00    0.81356   0.65979    0.008
 6331.00    0.82849   0.65838    0.008
 6332.00    0.83570   0.65910    0.008
 6333.00    0.82418   0.66052    0.008
 6334.00    0.80988   0.66117    0.008
 6335.00    0.79258   0.66141    0.008
 6336.00    0.77496   0.66225    0.008
 6337.00    0.78487   0.66315    0.008
 6338.00    0.79673   0.66357    0.008
 6339.00    0.79485   0.66439    0.008
 6340.00    0.79247   0.66639    0.008
 6341.00    0.77575   0.66896    0.008
 6342.00    0.75836   0.67113    0.008
 6343.00    0.71971   0.67260    0.008
 6344.00    0.68367   0.67298    0.008
 6345.00    0.68932   0.67164    0.008
 6346.00    0.69222   0.66886    0.008
 6347.00    0.66741   0.66554    0.008
 6348.00    0.65144   0.66131    0.008
 6349.00    0.69927   0.65546    0.008
 6350.00    0.74075   0.64917    0.008
 6351.00    0.74706   0.64401    0.009
 6352.00    0.75237   0.63959    0.009
 6353.00    0.75325   0.63516    0.008
 6354.00    0.75017   0.63190    0.008
 6355.00    0.73264   0.63123    0.008
 6356.00    0.72254   0.63278    0.008
 6357.00    0.73501   0.63564    0.008
 6358.00    0.74234   0.64005    0.008
 6359.00    0.73635   0.64619    0.008
 6360.00    0.71383   0.65279    0.008
 6361.00    0.65447   0.65869    0.008
 6362.00    0.62111   0.66410    0.008
 6363.00    0.63796   0.66941    0.008
 6364.00    0.66417   0.67389    0.008
 6365.00    0.70616   0.67678    0.008
 6366.00    0.71988   0.67862    0.008
 6367.00    0.69187   0.68019    0.008
 6368.00    0.68018   0.68113    0.008
 6369.00    0.68966   0.68057    0.009
 6370.00    0.69656   0.67895    0.009
 6371.00    0.70051   0.67726    0.008
 6372.00    0.70762   0.67573    0.008
 6373.00    0.71791   0.67437    0.008
 6374.00    0.74186   0.67328    0.008
 6375.00    0.77794   0.67261    0.008
 6376.00    0.79159   0.67266    0.008
 6377.00    0.78769   0.67354    0.008
 6378.00    0.76576   0.67468    0.008
 6379.00    0.73141   0.67524    0.008
 6380.00    0.71739   0.67520    0.008
 6381.00    0.71565   0.67503    0.008
 6382.00    0.72985   0.67433    0.008
 6383.00    0.75247   0.67213    0.008
 6384.00    0.74346   0.66849    0.008
 6385.00    0.71998   0.66523    0.008
 6386.00    0.68252   0.66329    0.008
 6387.00    0.63956   0.66179    0.008
 6388.00    0.63504   0.66038    0.008
 6389.00    0.64340   0.65978    0.008
 6390.00    0.65900   0.65973    0.008
 6391.00    0.67664   0.65943    0.008
 6392.00    0.65785   0.65981    0.008
 6393.00    0.63062   0.66135    0.008
 6394.00    0.61646   0.66272    0.009
 6395.00    0.60475   0.66369    0.009
 6396.00    0.64453   0.66561    0.009
 6397.00    0.69172   0.66855    0.009
 6398.00    0.68239   0.67016    0.009
 6399.00    0.66717   0.66962    0.009
 6400.00    0.66844   0.66874    0.009
 6401.00    0.67082   0.66780    0.009
 6402.00    0.72317   0.66566    0.009
 6403.00    0.77715   0.66320    0.009
 6404.00    0.76103   0.66229    0.018
 6405.00    0.74494   0.66261   -1.000
 6406.00    0.73007   0.66264   -1.000
 6407.00    0.71592   0.66249   -1.000
 6408.00    0.71273   0.66294   -1.000
 6409.00    0.71127   0.66347   -1.000
 6410.00    0.72651   0.66308   -1.000
 6411.00    0.73971   0.66179   -1.000
 6412.00    0.73867   0.66053   -1.000
 6413.00    0.73787   0.66028   -1.000
 6414.00    0.73832   0.66136   -1.000
 6415.00    0.73381   0.66304   -1.000
 6416.00    0.70784   0.66504   -1.000
 6417.00    0.69535   0.66795    0.075
 6418.00    0.73086   0.67152    0.014
 6419.00    0.75701   0.67416    0.008
 6420.00    0.75513   0.67456    0.008
 6421.00    0.74541   0.67291    0.008
 6422.00    0.71573   0.67041    0.008
 6423.00    0.68945   0.66830    0.008
 6424.00    0.67066   0.66670    0.008
 6425.00    0.65585   0.66514    0.008
 6426.00    0.64863   0.66400    0.008
 6427.00    0.64811   0.66435    0.009
 6428.00    0.65869   0.66586    0.009
 6429.00    0.64841   0.66659    0.009
 6430.00    0.60781   0.66625    0.009
 6431.00    0.59065   0.66667    0.009
 6432.00    0.60349   0.66856    0.009
 6433.00    0.63712   0.67070    0.008
 6434.00    0.69419   0.67262    0.008
 6435.00    0.71019   0.67522    0.008
 6436.00    0.68538   0.67840    0.008
 6437.00    0.63075   0.68038    0.008
 6438.00    0.54999   0.68015    0.008
 6439.00    0.51665   0.67767    0.008
 6440.00    0.51993   0.67277    0.008
 6441.00    0.54622   0.66639    0.008
 6442.00    0.58814   0.66081    0.008
 6443.00    0.59845   0.65704    0.008
 6444.00    0.58995   0.65454    0.008
 6445.00    0.57775   0.65331    0.008
 6446.00    0.56363   0.65429    0.009
 6447.00    0.51989   0.65748    0.009
 6448.00    0.46283   0.66142    0.009
 6449.00    0.47511   0.66492    0.009
 6450.00    0.51422   0.66742    0.009
 6451.00    0.57642   0.66893    0.009
 6452.00    0.64622   0.66956    0.009
 6453.00    0.64443   0.66880    0.009
 6454.00    0.62290   0.66682    0.009
 6455.00    0.60772   0.66528    0.009
 6456.00    0.59397   0.66473    0.009
 6457.00    0.60355   0.66431    0.008
 6458.00    0.61735   0.66425    0.008
 6459.00    0.65681   0.66584    0.008
 6460.00    0.69983   0.66852    0.008
 6461.00    0.68504   0.67029    0.008
 6462.00    0.66447   0.67078    0.008
 6463.00    0.64981   0.67077    0.008
 6464.00    0.63551   0.67080    0.008
 6465.00    0.65794   0.67054    0.008
 6466.00    0.68126   0.66972    0.008
 6467.00    0.65514   0.66896    0.008
 6468.00    0.63116   0.66906    0.008
 6469.00    0.66634   0.66927    0.008
 6470.00    0.69816   0.66839    0.008
 6471.00    0.68220   0.66688    0.009
 6472.00    0.66602   0.66525    0.009
 6473.00    0.64772   0.66287    0.009
 6474.00    0.63650   0.65989    0.009
 6475.00    0.67313   0.65782    0.009
 6476.00    0.70829   0.65688    0.009
 6477.00    0.73570   0.65619    0.009
 6478.00    0.74925   0.65591    0.009
 6479.00    0.70431   0.65655    0.009
 6480.00    0.65797   0.65700    0.008
 6481.00    0.60676   0.65538    0.008
 6482.00    0.57463   0.65133    0.008
 6483.00    0.59849   0.64552    0.008
 6484.00    0.62778   0.63782    0.008
 6485.00    0.67064   0.62765    0.008
 6486.00    0.69867   0.61624    0.008
 6487.00    0.69477   0.60646    0.008
 6488.00    0.69056   0.59966    0.008
 6489.00    0.68580   0.59546    0.008
 6490.00    0.68047   0.59409    0.008
 6491.00    0.67421   0.59675    0.008
 6492.00    0.68042   0.60337    0.008
 6493.00    0.70452   0.61203    0.008
 6494.00    0.72045   0.62104    0.008
 6495.00    0.72608   0.62966    0.008
 6496.00    0.74332   0.63784    0.009
 6497.00    0.77345   0.64506    0.009
 6498.00    0.77696   0.65060    0.009
 6499.00    0.75438   0.65432    0.009
 6500.00    0.71933   0.65663    0.009
 6501.00    0.67349   0.65826    0.009
 6502.00    0.66696   0.65945    0.009
 6503.00    0.69036   0.65976    0.009
 6504.00    0.69997   0.65926    0.009
 6505.00    0.70035   0.65858    0.009
 6506.00    0.70370   0.65764    0.008
 6507.00    0.70879   0.65597    0.008
 6508.00    0.67770   0.65392    0.008
 6509.00    0.62812   0.65212    0.008
 6510.00    0.64827   0.65056    0.008
 6511.00    0.69927   0.64970    0.008
 6512.00    0.73121   0.65026    0.008
 6513.00    0.75591   0.65170    0.008
 6514.00    0.73688   0.65310    0.008
 6515.00    0.70374   0.65471    0.008
 6516.00    0.69556   0.65678    0.008
 6517.00    0.69413   0.65820    0.008
 6518.00    0.66434   0.65816    0.008
 6519.00    0.62828   0.65743    0.008
 6520.00    0.63598   0.65704    0.008
 6521.00    0.65142   0.65671    0.009
 6522.00    0.66662   0.65581    0.009
 6523.00    0.68179   0.65477    0.009
 6524.00    0.68027   0.65424    0.009
 6525.00    0.67716   0.65426    0.009
 6526.00    0.64251   0.65477    0.009
 6527.00    0.60599   0.65568    0.009
 6528.00    0.62746   0.65659    0.000
 6529.00    0.65020   0.65746    0.000
 6530.00    0.64556   0.65873    0.000
 6531.00    0.64088   0.66017    0.000
 6532.00    0.63503   0.66059    0.000
 6533.00    0.63023   0.65934    0.000
 6534.00    0.63944   0.65712    0.000
 6535.00    0.64829   0.65456    0.000
 6536.00    0.65401   0.65134    0.000
 6537.00    0.66622   0.64702    0.000
 6538.00    0.72105   0.64235    0.000
 6539.00    0.76137   0.63886    0.000
 6540.00    0.72751   0.63662    0.000
 6541.00    0.69515   0.63446    0.000
 6542.00    0.66894   0.63191    0.000
 6543.00    0.65592   0.62967    0.000
 6544.00    0.68791   0.62768    0.000
 6545.00    0.72109   0.62485    0.000
 6546.00    0.75769   0.62056    0.000
 6547.00    0.80013   0.61535    0.000
 6548.00    0.85694   0.61004    0.000
 6549.00    0.88463   0.60392    0.000
 6550.00    0.85059   0.59549    0.000
 6551.00    0.80169   0.58531    0.000
 6552.00    0.72544   0.57510    0.000
 6553.00    0.68931   0.56393    0.000
 6554.00    0.71776   0.55090    0.000
 6555.00    0.74031   0.54095    0.000
 6556.00    0.75452   0.53913    0.000
 6557.00    0.76712   0.54232    0.000
 6558.00    0.77771   0.54707    0.000
 6559.00    0.84531   0.55609    0.000
 6560.00    0.97536   0.56974    0.000
 6561.00    1.07765   0.58239    0.000
 6562.00    1.15314   0.59158    0.000
 6563.00    1.18133   0.59865    0.000
 6564.00    1.16921   0.60357    0.000
 6565.00    1.10324   0.60625    0.000
 6566.00    0.99687   0.60832    0.000
 6567.00    0.90114   0.61086    0.000
 6568.00    0.81242   0.61392    0.000
 6569.00    0.75885   0.61726    0.000
 6570.00    0.72556   0.62083    0.000
 6571.00    0.69146   0.62443    0.000
 6572.00    0.65695   0.62762    0.000
 6573.00    0.63834   0.63002    0.000
 6574.00    0.62665   0.63200    0.000
 6575.00    0.65157   0.63372    0.000
 6576.00    0.69016   0.63496    0.000
 6577.00    0.73828   0.63579    0.000
 6578.00    0.78941   0.63673    0.000
 6579.00    0.77750   0.63782    0.000
 6580.00    0.74892   0.63818    0.000
 6581.00    0.80423   0.63710    0.000
 6582.00    0.87768   0.63523    0.000
 6583.00    0.88373   0.63291    0.000
 6584.00    0.87821   0.62918    0.000
 6585.00    0.85207   0.62458    0.000
 6586.00    0.82326   0.62165    0.000
 6587.00    0.77398   0.62084    0.000
 6588.00    0.72284   0.62056    0.000
 6589.00    0.73080   0.62097    0.000
 6590.00    0.74202   0.62320    0.000
 6591.00    0.74264   0.62680    0.000
 6592.00    0.74238   0.63038    0.000
 6593.00    0.68031   0.63310    0.000
 6594.00    0.62041   0.63483    0.000
 6595.00    0.61016   0.63571    0.000
 6596.00    0.60187   0.63556    0.000
 6597.00    0.61835   0.63415    0.000
 6598.00    0.62667   0.63208    0.000
 6599.00    0.56508   0.62999    0.000
 6600.00    0.50843   0.62782    0.000
 6601.00    0.48319   0.62591    0.000
 6602.00    0.47709   0.62577    0.000
 6603.00    0.56629   0.62764    0.000
 6604.00    0.63846   0.62981    0.000
 6605.00    0.64185   0.63162    0.000
 6606.00    0.65483   0.63426    0.000
 6607.00    0.69993   0.63792    0.000
 6608.00    0.71477   0.64073    0.000
 6609.00    0.64408   0.64201    0.009
 6610.00    0.60618   0.64298    0.009
 6611.00    0.64756   0.64408    0.009
 6612.00    0.68321   0.64424    0.009
 6613.00    0.70691   0.64320    0.009
 6614.00    0.70492   0.64177    0.009
 6615.00    0.65636   0.63991    0.009
 6616.00    0.63098   0.63722    0.009
 6617.00    0.64235   0.63443    0.009
 6618.00    0.63241   0.63246    0.009
 6619.00    0.59281   0.63073    0.009
 6620.00    0.56382   0.62868    0.009
 6621.00    0.54783   0.62674    0.009
 6622.00    0.53330   0.62522    0.009
 6623.00    0.52034   0.62370    0.009
 6624.00    0.52902   0.62182    0.009
 6625.00    0.55830   0.61974    0.009
 6626.00    0.59046   0.61822    0.009
 6627.00    0.62503   0.61800    0.009
 6628.00    0.62527   0.61866    0.009
 6629.00    0.60013   0.61974    0.009
 6630.00    0.59515   0.62117    0.009
 6631.00    0.60326   0.62252    0.009
 6632.00    0.58617   0.62352    0.009
 6633.00    0.55475   0.62457    0.009
 6634.00    0.56561   0.62499    0.009
 6635.00    0.59739   0.62397    0.009
 6636.00    0.62110   0.62298    0.009
 6637.00    0.64135   0.62342    0.009
 6638.00    0.64851   0.62395    0.009
 6639.00    0.65087   0.62359    0.009
 6640.00    0.65457   0.62368    0.009
 6641.00    0.65868   0.62483    0.009
 6642.00    0.63383   0.62574    0.009
 6643.00    0.60150   0.62580    0.009
 6644.00    0.57950   0.62571    0.009
 6645.00    0.55970   0.62580    0.009
 6646.00    0.57636   0.62573    0.009
 6647.00    0.59910   0.62538    0.009
 6648.00    0.62841   0.62473    0.009
 6649.00    0.65854   0.62386    0.009
 6650.00    0.64782   0.62286    0.009
 6651.00    0.63355   0.62133    0.009
 6652.00    0.58625   0.61906    0.009
 6653.00    0.53727   0.61662    0.009
 6654.00    0.59349   0.61417    0.009
 6655.00    0.65149   0.61128    0.009
 6656.00    0.70368   0.60891    0.009
 6657.00    0.75011   0.60805    0.009
 6658.00    0.67525   0.60804    0.009
 6659.00    0.60857   0.60836    0.009
 6660.00    0.64035   0.60987    0.009
 6661.00    0.66574   0.61258    0.009
 6662.00    0.63828   0.61540    0.009
 6663.00    0.61863   0.61770    0.009
 6664.00    0.64723   0.61951    0.009
 6665.00    0.66270   0.62046    0.009
 6666.00    0.61437   0.62009    0.009
 6667.00    0.57703   0.61873    0.009
 6668.00    0.58309   0.61672    0.009
 6669.00    0.59289   0.61363    0.009
 6670.00    0.61494   0.61003    0.010
 6671.00    0.63456   0.60801    0.010
 6672.00    0.64745   0.60774    0.010
 6673.00    0.63911   0.60767    0.009
 6674.00    0.58033   0.60812    0.009
 6675.00    0.56516   0.61026    0.009
 6676.00    0.63953   0.61308    0.010
 6677.00    0.67867   0.61512    0.010
 6678.00    0.65486   0.61664    0.010
 6679.00    0.62614   0.61799    0.010
 6680.00    0.58976   0.61884    0.009
 6681.00    0.57342   0.61914    0.009
 6682.00    0.58456   0.61917    0.009
 6683.00    0.58057   0.61878    0.009
 6684.00    0.55831   0.61776    0.009
 6685.00    0.55924   0.61641    0.009
 6686.00    0.58483   0.61498    0.009
 6687.00    0.59352   0.61318    0.009
 6688.00    0.58634   0.61106    0.009
 6689.00    0.60771   0.60944    0.009
 6690.00    0.65272   0.60867    0.010
 6691.00    0.69997   0.60832    0.010
 6692.00    0.74883   0.60829    0.010
 6693.00    0.71187   0.60876    0.010
 6694.00    0.61999   0.60940    0.010
 6695.00    0.60365   0.60971    0.010
 6696.00    0.62960   0.60970    0.000
 6697.00    0.64187   0.60962    0.000
 6698.00    0.64747   0.60956    0.000
 6699.00    0.65333   0.60923    0.000
 6700.00    0.65931   0.60872    0.000
 6701.00    0.65308   0.60816    0.000
 6702.00    0.64246   0.60712    0.000
 6703.00    0.60169   0.60547    0.000
 6704.00    0.55173   0.60342    0.000
 6705.00    0.54285   0.60070    0.000
 6706.00    0.54438   0.59736    0.000
 6707.00    0.57855   0.59427    0.000
 6708.00    0.61944   0.59179    0.000
 6709.00    0.57525   0.58958    0.000
 6710.00    0.51727   0.58827    0.000
 6711.00    0.45130   0.58879    0.000
 6712.00    0.38435   0.59060    0.000
 6713.00    0.45243   0.59251    0.000
 6714.00    0.53171   0.59459    0.000
 6715.00    0.63614   0.59732    0.000
 6716.00    0.74177   0.59995    0.000
 6717.00    0.75655   0.60157    0.000
 6718.00    0.76702   0.60245    0.000
 6719.00    0.60748   0.60351    0.000
 6720.00    0.45609   0.60468    0.000
 6721.00    0.46337   0.60538    0.000
 6722.00    0.47496   0.60579    0.000
 6723.00    0.53609   0.60641    0.000
 6724.00    0.59314   0.60692    0.000
 6725.00    0.61757   0.60688    0.000
 6726.00    0.63461   0.60640    0.000
 6727.00    0.60725   0.60565    0.000
 6728.00    0.60812   0.60469    0.000
 6729.00    0.74277   0.60347    0.000
 6730.00    0.85221   0.60191    0.000
 6731.00    0.86423   0.60018    0.000
 6732.00    0.85611   0.59880    0.000
 6733.00    0.78313   0.59789    0.000
 6734.00    0.71969   0.59688    0.000
 6735.00    0.68231   0.59567    0.000
 6736.00    0.60733   0.59500    0.000
 6737.00    0.44448   0.59480    0.000
 6738.00    0.34410   0.59410    0.000
 6739.00    0.36995   0.59302    0.000
 6740.00    0.43981   0.59238    0.000
 6741.00    0.58710   0.59185    0.000
 6742.00    0.66821   0.59102    0.000
 6743.00    0.64745   0.59074    0.000
 6744.00    0.63198   0.59121    0.000
 6745.00    0.62364   0.59187    0.000
 6746.00    0.63709   0.59309    0.000
 6747.00    0.67646   0.59532    0.000
 6748.00    0.69407   0.59780    0.000
 6749.00    0.68884   0.60026    0.000
 6750.00    0.66051   0.60294    0.000
 6751.00    0.61082   0.60530    0.000
 6752.00    0.61391   0.60702    0.000
 6753.00    0.66008   0.60815    0.011
 6754.00    0.62860   0.60846    0.011
 6755.00    0.54132   0.60784    0.011
 6756.00    0.55522   0.60662    0.012
 6757.00    0.63291   0.60503    0.012
 6758.00    0.74038   0.60306    0.012
 6759.00    0.86427   0.60078    0.012
 6760.00    0.79060   0.59869    0.012
 6761.00    0.62225   0.59751    0.012
 6762.00    0.68116   0.59714    0.013
 6763.00    0.83407   0.59710    0.013
 6764.00    0.76555   0.59785    0.013
 6765.00    0.61874   0.59984    0.013
 6766.00    0.64041   0.60229    0.012
 6767.00    0.71237   0.60452    0.012
 6768.00    0.82000   0.60672    0.012
 6769.00    0.93645   0.60858    0.012
 6770.00    0.80674   0.60948    0.012
 6771.00    0.62762   0.60936    0.011
 6772.00    0.54552   0.60823    0.011
 6773.00    0.47865   0.60600    0.011
 6774.00    0.53391   0.60303    0.011
 6775.00    0.60341   0.59972    0.011
 6776.00    0.54212   0.59647    0.011
 6777.00    0.47053   0.59394    0.011
 6778.00    0.47152   0.59227    0.011
 6779.00    0.47567   0.59147    0.011
 6780.00    0.54385   0.59182    0.011
 6781.00    0.61275   0.59288    0.012
 6782.00    0.68390   0.59371    0.012
 6783.00    0.75133   0.59450    0.012
 6784.00    0.75152   0.59541    0.012
 6785.00    0.74558   0.59568    0.012
 6786.00    0.67259   0.59536    0.012
 6787.00    0.60646   0.59530    0.012
 6788.00    0.59299   0.59549    0.012
 6789.00    0.58324   0.59564    0.012
 6790.00    0.59522   0.59614    0.012
 6791.00    0.59954   0.59700    0.012
 6792.00    0.56839   0.59778    0.012
 6793.00    0.53505   0.59848    0.012
 6794.00    0.49344   0.59925    0.012
 6795.00    0.51796   0.59960    0.011
 6796.00    0.75131   0.59937    0.011
 6797.00    0.88545   0.59920    0.011
 6798.00    0.75389   0.59908    0.011
 6799.00    0.65736   0.59840    0.011
 6800.00    0.64135   0.59771    0.011
 6801.00    0.63180   0.59760    0.011
 6802.00    0.63511   0.59731    0.012
 6803.00    0.63260   0.59663    0.012
 6804.00    0.62000   0.59634    0.012
 6805.00    0.61370   0.59647    0.012
 6806.00    0.61695   0.59645    0.012
 6807.00    0.62167   0.59630    0.011
 6808.00    0.62835   0.59642    0.011
 6809.00    0.66261   0.59699    0.011
 6810.00    0.72925   0.59770    0.012
 6811.00    0.70976   0.59833    0.012
 6812.00    0.60112   0.59902    0.012
 6813.00    0.54868   0.59981    0.012
 6814.00    0.54753   0.60072    0.012
 6815.00    0.56934   0.60158    0.012
 6816.00    0.60960   0.60201    0.012
 6817.00    0.65198   0.60195    0.012
 6818.00    0.69585   0.60178    0.011
 6819.00    0.69377   0.60152    0.011
 6820.00    0.66314   0.60082    0.011
 6821.00    0.66385   0.59984    0.011
 6822.00    0.68158   0.59931    0.011
 6823.00    0.70072   0.59942    0.011
 6824.00    0.72051   0.59954    0.011
 6825.00    0.75479   0.59936    0.011
 6826.00    0.79496   0.59911    0.012
 6827.00    0.75095   0.59875    0.012
 6828.00    0.67771   0.59756    0.012
 6829.00    0.60093   0.59536    0.012
 6830.00    0.52311   0.59257    0.012
 6831.00    0.56313   0.58958    0.012
 6832.00    0.63169   0.58655    0.012
 6833.00    0.64622   0.58401    0.012
 6834.00    0.65017   0.58236    0.011
 6835.00    0.72266   0.58186    0.012
 6836.00    0.80560   0.58272    0.012
 6837.00    0.63500   0.58468    0.012
 6838.00    0.43594   0.58710    0.012
 6839.00    0.50270   0.58946    0.012
 6840.00    0.58933   0.59161    0.012
 6841.00    0.65264   0.59323    0.012
 6842.00    0.71503   0.59397    0.012
 6843.00    0.64472   0.59367    0.011
 6844.00    0.57584   0.59246    0.011
 6845.00    0.60013   0.59092    0.011
 6846.00    0.61880   0.58916    0.011
 6847.00    0.54253   0.58672    0.011
 6848.00    0.47740   0.58424    0.011
 6849.00    0.52877   0.58274    0.011
 6850.00    0.57609   0.58151    0.012
 6851.00    0.59324   0.58032    0.012
 6852.00    0.61681   0.58027    0.012
 6853.00    0.67685   0.58087    0.012
 6854.00    0.72802   0.58107    0.012
 6855.00    0.73910   0.58173    0.012
 6856.00    0.71350   0.58306    0.012
 6857.00    0.55214   0.58375    0.011
 6858.00    0.45083   0.58375    0.011
 6859.00    0.53554   0.58393    0.012
 6860.00    0.58006   0.58364    0.012
 6861.00    0.51889   0.58254    0.011
 6862.00    0.50717   0.58202    0.011
 6863.00    0.60723   0.58226    0.011
 6864.00    0.65424   0.58201    0.011
 6865.00    0.59742   0.58176    0.011
 6866.00    0.55320   0.58265    0.011
 6867.00    0.53047   0.58398    0.011
 6868.00    0.47088   0.58470    0.012
 6869.00    0.35621   0.58542    0.011
 6870.00    0.33236   0.58655    0.012
 6871.00    0.42780   0.58712    0.012
 6872.00    0.52727   0.58686    0.012
 6873.00    0.63141   0.58666    0.012
 6874.00    0.64138   0.58652    0.012
 6875.00    0.55527   0.58592    0.011
 6876.00    0.54244   0.58584    0.011
 6877.00    0.59556   0.58706    0.011
 6878.00    0.57615   0.58852    0.012
 6879.00    0.49922   0.58985    0.012
 6880.00    0.50957   0.59214    0.011
 6881.00    0.58085   0.59473    0.011
 6882.00    0.59837   0.59638    0.011
 6883.00    0.58301   0.59776    0.011
 6884.00    0.53061   0.59912    0.011
 6885.00    0.45843   0.59943    0.011
 6886.00    0.44067   0.59907    0.011
 6887.00    0.44817   0.59905    0.011
 6888.00    0.47060   0.59874    0.011
 6889.00    0.49901   0.59791    0.011
 6890.00    0.47237   0.59758    0.011
 6891.00    0.42698   0.59794    0.011
 6892.00    0.51573   0.59808    0.011
 6893.00    0.64294   0.59798    0.011
 6894.00    0.55199   0.59851    0.011
 6895.00    0.40937   0.59955    0.011
 6896.00    0.48266   0.60023    0.011
 6897.00    0.59709   0.60063    0.012
 6898.00    0.52325   0.60121    0.012
 6899.00    0.42158   0.60184    0.012
 6900.00    0.50991   0.60206    0.012
 6901.00    0.61874   0.60161    0.012
 6902.00    0.65948   0.60083    0.012
 6903.00    0.69540   0.59966    0.012
 6904.00    0.67572   0.59796    0.012
 6905.00    0.65405   0.59620    0.011
 6906.00    0.61196   0.59446    0.011
 6907.00    0.57039   0.59282    0.011
 6908.00    0.54882   0.59212    0.011
 6909.00    0.52924   0.59220    0.011
 6910.00    0.54125   0.59226    0.011
 6911.00    0.55132   0.59282    0.011
 6912.00    0.54213   0.59371    0.011
 6913.00    0.52574   0.59411    0.011
 6914.00    0.45770   0.59385    0.011
 6915.00    0.40219   0.59329    0.011
 6916.00    0.41576   0.59243    0.011
 6917.00    0.43864   0.59115    0.012
 6918.00    0.50250   0.58996    0.012
 6919.00    0.54112   0.58938    0.011
 6920.00    0.48825   0.58950    0.012
 6921.00    0.48157   0.58983    0.012
 6922.00    0.61526   0.59000    0.012
 6923.00    0.65831   0.59043    0.012
 6924.00    0.46706   0.59119    0.011
 6925.00    0.37729   0.59162    0.011
 6926.00    0.51306   0.59161    0.011
 6927.00    0.62432   0.59217    0.012
 6928.00    0.68837   0.59323    0.012
 6929.00    0.71459   0.59383    0.012
 6930.00    0.67723   0.59423    0.012
 6931.00    0.64980   0.59470    0.012
 6932.00    0.63696   0.59488    0.012
 6933.00    0.62341   0.59451    0.012
 6934.00    0.60890   0.59359    0.012
 6935.00    0.60448   0.59229    0.012
 6936.00    0.61157   0.59109    0.012
 6937.00    0.60837   0.58989    0.012
 6938.00    0.59484   0.58874    0.012
 6939.00    0.55796   0.58847    0.012
 6940.00    0.50034   0.58871    0.012
 6941.00    0.54705   0.58859    0.012
 6942.00    0.67534   0.58872    0.012
 6943.00    0.68483   0.58899    0.012
 6944.00    0.61263   0.58863    0.012
 6945.00    0.58648   0.58846    0.012
 6946.00    0.58808   0.58890    0.012
 6947.00    0.59693   0.58927    0.012
 6948.00    0.60959   0.58991    0.012
 6949.00    0.58603   0.59132    0.012
 6950.00    0.54593   0.59287    0.012
 6951.00    0.54577   0.59417    0.012
 6952.00    0.56130   0.59554    0.012
 6953.00    0.58508   0.59689    0.012
 6954.00    0.61161   0.59803    0.011
 6955.00    0.56718   0.59874    0.012
 6956.00    0.50282   0.59929    0.012
 6957.00    0.52739   0.59996    0.012
 6958.00    0.57255   0.60040    0.012
 6959.00    0.56728   0.60045    0.012
 6960.00    0.55264   0.60059    0.012
 6961.00    0.62110   0.60067    0.012
 6962.00    0.70146   0.60031    0.012
 6963.00    0.68606   0.59941    0.012
 6964.00    0.66074   0.59761    0.012
 6965.00    0.64117   0.59531    0.012
 6966.00    0.62200   0.59282    0.012
 6967.00    0.57370   0.58928    0.012
 6968.00    0.52429   0.58489    0.012
 6969.00   -0.24803   0.58139    0.000
 6970.00   -0.97184   0.57913    0.000
 6971.00   -0.20857   0.57724    0.000
 6972.00    0.50072   0.57688   -1.000
 6973.00    0.40659   0.57921   -1.000
 6974.00    0.33731   0.58261   -1.000
 6975.00    0.50674   0.58597   -1.000
 6976.00    0.64822   0.58977   -1.000
 6977.00    0.59536   0.59343   -1.000
 6978.00    0.54989   0.59583   -1.000
 6979.00    0.54408   0.59713   -1.000
 6980.00    0.55609   0.59794   -1.000
 6981.00    0.64492   0.59824   -1.000
 6982.00    0.68704   0.59800   -1.000
 6983.00    0.56333   0.59778   -1.000
 6984.00    0.48607   0.59783   -1.000
 6985.00    0.54733   0.59787   -1.000
 6986.00    0.60628   0.59770   -1.000
 6987.00    0.65932   0.59729   -1.000
 6988.00    0.66868   0.59665   -1.000
 6989.00    0.58252   0.59557   -1.000
 6990.00    0.50192   0.59412   -1.000
 6991.00    0.43186   0.59267   -1.000
 6992.00    0.40208   0.59107   -1.000
 6993.00    0.43896   0.58933   -1.000
 6994.00    0.41357   0.58805   -1.000
 6995.00    0.29778   0.58739   -1.000
 6996.00    0.29509   0.58678   -1.000
 6997.00    0.43675   0.58619   -1.000
 6998.00    0.47557   0.58619   -1.000
 6999.00    0.39874   0.58672   -1.000
 7000.00    0.44161   0.58714   -1.000
 7001.00    0.60324   0.58733   -1.000
 7002.00    0.63918   0.58760   -1.000
 7003.00    0.56515   0.58760   -1.000
 7004.00    0.55619   0.58690   -1.000
 7005.00    0.59740   0.58555   -1.000
 7006.00    0.62826   0.58388   -1.000
 7007.00    0.65212   0.58258   -1.000
 7008.00    0.63967   0.58165   -1.000
 7009.00    0.60567   0.58067   -1.000
 7010.00    0.59300   0.58062   -1.000
 7011.00    0.59138   0.58204   -1.000
 7012.00    0.53569   0.58332   -1.000
 7013.00    0.45572   0.58383   -1.000
 7014.00    0.43103   0.58450   -1.000
 7015.00    0.42768   0.58523   -1.000
 7016.00    0.45320   0.58518   -1.000
 7017.00    0.48821   0.58478   -1.000
 7018.00    0.44106   0.58507   -1.000
 7019.00    0.37132   0.58596   -1.000
 7020.00    0.45065   0.58687   -1.000
 7021.00    0.56369   0.58793   -1.000
 7022.00    0.55519   0.58932   -1.000
 7023.00    0.52473   0.59065   -1.000
 7024.00    0.50798   0.59141   -1.000
 7025.00    0.49314   0.59175   -1.000
 7026.00    0.40188   0.59221   -1.000
 7027.00    0.30302   0.59231   -1.000
 7028.00    0.28342   0.59182   -1.000
 7029.00    0.26878   0.59219   -1.000
 7030.00    0.49694   0.59357   -1.000
 7031.00    0.73044   0.59467   -1.000
 7032.00    0.55248   0.59640   -1.000
 7033.00    0.38665   0.59962   -1.000
 7034.00    0.55376   0.60264   -1.000
 7035.00    0.70623   0.60483   -1.000
 7036.00    0.65308   0.60722   -1.000
 7037.00    0.59802   0.60927   -1.000
 7038.00    0.52522   0.61007   -1.000
 7039.00    0.46052   0.61005   -1.000
 7040.00    0.45032   0.60942   -1.000
 7041.00    0.42853   0.60775   -1.000
 7042.00    0.34616   0.60459   -1.000
 7043.00    0.31274   0.60031   -1.000
 7044.00    0.48541   0.59556   -1.000
 7045.00    0.60525   0.59015   -1.000
 7046.00    0.54138   0.58441   -1.000
 7047.00    0.48545   0.57936   -1.000
 7048.00    0.45278   0.57513   -1.000
 7049.00    0.43083   0.57130   -1.000
 7050.00    0.43562   0.56818   -2.000
 7051.00    0.47271   0.56614   -2.000
 7052.00    0.57925   0.56440   -2.000
 7053.00    0.63216   0.56265   -2.000
 7054.00    0.58493   0.56161   -2.000
 7055.00    0.52211   0.56090   -2.000
 7056.00    0.43389   0.55979   -2.000
 7057.00    0.40533   0.55887   -2.000
 7058.00    0.46212   0.55823   -2.000
 7059.00    0.54683   0.55765   -2.000
 7060.00    0.66668   0.55767   -2.000
 7061.00    0.66931   0.55832   -2.000
 7062.00    0.54196   0.55930   -2.000
 7063.00    0.43437   0.56114   -2.000
 7064.00    0.34609   0.56366   -2.000
 7065.00    0.28753   0.56591   -2.000
 7066.00    0.25460   0.56801   -2.000
 7067.00    0.26928   0.57015   -2.000
 7068.00    0.32014   0.57176   -2.000
 7069.00    0.31730   0.57244   -2.000
 7070.00    0.27861   0.57257   -2.000
 7071.00    0.35787   0.57217   -2.000
 7072.00    0.50612   0.57066   -2.000
 7073.00    0.65065   0.56804   -2.000
 7074.00    0.79327   0.56443   -2.000
 7075.00    0.74080   0.56014   -2.000
 7076.00    0.60218   0.55563   -2.000
 7077.00   -0.28854   0.55058   -2.000
 7078.00   -1.46446   0.54557   -2.000
 7079.00   -0.88936   0.54158   -2.000
 7080.00    0.24960   0.53807   -2.000
 7081.00    0.50852   0.53497   -2.000
 7082.00    0.53038   0.53301   -2.000
 7083.00    0.45602   0.53169   -2.000
 7084.00    0.36042   0.53081   -2.000
 7085.00    0.42890   0.53065   -2.000
 7086.00    0.52622   0.53103   -2.000
 7087.00    0.48158   0.53172   -2.000
 7088.00    0.41793   0.53287   -2.000
 7089.00    0.47749   0.53452   -2.000
 7090.00    0.54877   0.53609   -2.000
 7091.00    0.51167   0.53765   -2.000
 7092.00    0.46821   0.53922   -2.000
 7093.00    0.53912   0.54047   -2.000
 7094.00    0.61238   0.54144   -2.000
 7095.00    0.62337   0.54226   -2.000
 7096.00    0.63124   0.54262   -2.000
 7097.00    0.56172   0.54245   -2.000
 7098.00    0.50048   0.54230   -2.000
 7099.00    0.54921   0.54204   -2.000
 7100.00    0.59391   0.54117   -2.000
 7101.00    0.60280   0.54018   -2.000
 7102.00    0.60477   0.53968   -2.000
 7103.00    0.56144   0.53939   -2.000
 7104.00    0.54360   0.53906   -2.000
 7105.00    0.65560   0.53920   -2.000
 7106.00    0.74636   0.54004   -2.000
 7107.00    0.74968   0.54094   -2.000
 7108.00    0.72724   0.54162   -2.000
 7109.00    0.61697   0.54229   -2.000
 7110.00    0.52961   0.54283   -2.000
 7111.00    0.50804   0.54288   -2.000
 7112.00    0.49156   0.54218   -2.000
 7113.00    0.48754   0.54128   -2.000
 7114.00    0.47786   0.54034   -2.000
 7115.00    0.45617   0.53869   -2.000
 7116.00    0.45492   0.53657   -2.000
 7117.00    0.49125   0.53461   -2.000
 7118.00    0.53013   0.53261   -2.000
 7119.00    0.57310   0.53022   -2.000
 7120.00    0.55233   0.52788   -2.000
 7121.00    0.44171   0.52615   -2.000
 7122.00    0.44158   0.52509   -2.000
 7123.00    0.57853   0.52446   -2.000
 7124.00    0.67451   0.52465   -2.000
 7125.00    0.72568   0.52587   -2.000
 7126.00    0.65713   0.52747   -2.000
 7127.00    0.47313   0.52944   -2.000
 7128.00    0.43466   0.53164   -2.000
 7129.00    0.51996   0.53329   -2.000
 7130.00    0.59249   0.53465   -2.000
 7131.00    0.65546   0.53607   -2.000
 7132.00    0.63705   0.53664   -2.000
 7133.00    0.56510   0.53657   -2.000
 7134.00    0.55992   0.53670   -2.000
 7135.00    0.59321   0.53629   -2.000
 7136.00    0.53283   0.53534   -2.000
 7137.00    0.42544   0.53442   -2.000
 7138.00    0.43767   0.53311   -2.000
 7139.00    0.50183   0.53197   -2.000
 7140.00    0.47551   0.53158   -2.000
 7141.00    0.41548   0.53126   -2.000
 7142.00    0.44900   0.53149   -2.000
 7143.00    0.51206   0.53316   -2.000
 7144.00    0.54250   0.53522   -2.000
 7145.00    0.56434   0.53687   -2.000
 7146.00    0.52816   0.53901   -2.000
 7147.00    0.47949   0.54132   -2.000
 7148.00    0.44828   0.54254   -2.000
 7149.00    0.42005   0.54301   -2.000
 7150.00    0.41926   0.54329   -2.000
 7151.00    0.42202   0.54279   -2.000
 7152.00    0.49803   0.54143   -2.000
 7153.00    0.58069   0.53989   -2.000
 7154.00    0.64310   0.53814   -2.000
 7155.00    0.70441   0.53623   -2.000
 7156.00    0.62651   0.53494   -2.000
 7157.00    0.54717   0.53423   -2.000
 7158.00    0.60168   0.53411   -2.000
 7159.00    0.64756   0.53508   -2.000
 7160.00    0.49752   0.53686   -2.000
 7161.00    0.36318   0.53891   -2.000
 7162.00    0.42657   0.54116   -2.000
 7163.00    0.48411   0.54321   -2.000
 7164.00    0.49179   0.54478   -2.000
 7165.00    0.52614   0.54592   -2.000
 7166.00    0.72962   0.54610   -2.000
 7167.00    0.85890   0.54542   -2.000
 7168.00    0.61982   0.54457   -2.000
 7169.00    0.42516   0.54329   -2.000
 7170.00    0.40930   0.54147   -2.000
 7171.00    0.40520   0.53978   -2.000
 7172.00    0.44039   0.53848   -2.000
 7173.00    0.47989   0.53728   -2.000
 7174.00    0.53157   0.53613   -2.000
 7175.00    0.56147   0.53530   -2.000
 7176.00    0.53883   0.53478   -2.000
 7177.00    0.52954   0.53389   -2.000
 7178.00    0.54805   0.53260   -2.000
 7179.00    0.54112   0.53148   -2.000
 7180.00    0.48813   0.53035   -2.000
 7181.00    0.46184   0.52921   -2.000
 7182.00    0.47779   0.52871   -2.000
 7183.00    0.48893   0.52859   -2.000
 7184.00    0.49341   0.52878   -2.000
 7185.00    0.49256   0.52977   -2.000
 7186.00    0.48520   0.53092   -2.000
 7187.00    0.39881   0.53174   -2.000
 7188.00    0.22723   0.53292   -2.000
 7189.00    0.22506   0.53420   -2.000
 7190.00    0.38397   0.53494   -2.000
 7191.00    0.45652   0.53555   -2.000
 7192.00    0.45667   0.53635   -2.000
 7193.00    0.45776   0.53678   -2.000
 7194.00    0.45956   0.53665   -2.000
 7195.00    0.49005   0.53639   -2.000
 7196.00    0.53914   0.53578   -2.000
 7197.00    0.60945   0.53459   -2.000
 7198.00    0.69180   0.53340   -2.000
 7199.00    0.56203   0.53246   -2.000
 7200.00    0.32750   0.53157   -2.000
 7201.00    0.42468   0.53131   -2.000
 7202.00    0.66348   0.53206   -2.000
 7203.00    0.61878   0.53301   -2.000
 7204.00    0.47035   0.53420   -2.000
 7205.00    0.54026   0.53602   -2.000
 7206.00    0.67779   0.53756   -2.000
 7207.00    0.61834   0.53879   -2.000
 7208.00    0.50804   0.54029   -2.000
 7209.00    0.46809   0.54146   -2.000
 7210.00    0.44295   0.54218   -2.000
 7211.00    0.42261   0.54307   -2.000
 7212.00    0.40308   0.54397   -2.000
 7213.00    0.36356   0.54445   -2.000
 7214.00    0.32156   0.54503   -2.000
 7215.00    0.36425   0.54604   -2.000
 7216.00    0.41429   0.54698   -2.000
 7217.00    0.48221   0.54800   -2.000
 7218.00    0.55105   0.54952   -2.000
