###################################################################
## OUTPUT of StarlightChains_v04.for    [Cid@UFSC - 01/Apr/2007] ##
###################################################################

## Some input info
KUG0210-078._40_6.txt                    [arq_obs]
Base.CB07.vall.4m                        [arq_base]
Masks.EmLines.NEW.gm                     [arq_masks]
StCv04.C11.config                        [arq_config]
   66                                    [N_base]
    0                                    [N_YAV_components = # of components with extra extinction!]
    0                                    [i_FitPowerLaw (1/0 = Yes/No)]
-9.99                                    [alpha_PowerLaw]
CCM                                      [red_law_option]
 1.458241                                [q_norm = A(l_norm)/A(V)]

## (Re)Sampling Parameters
 3741.00                                 [l_ini (A)]
 7218.00                                 [l_fin (A)]
    1.00                                 [dl    (A)]     (OBS: dl_cushion =    50.00 A)

## Normalization info
 4020.00                                 [l_norm (A) - for base]
 4010.00                                 [llow_norm (A) - window for f_obs]
 4060.00                                 [lupp_norm (A) - window for f_obs]
6.543252E-18                             [fobs_norm (in input units)]

## S/N
 3691.00                                 [llow_SN (A) - window for S/N]
 7268.00                                 [lupp_SN (A) - window for S/N]
   2.051                                 [S/N in S/N window]
   2.843                                 [S/N in norm. window]
   0.006                                 [S/N_err in S/N window]
   0.008                                 [S/N_err in norm. window]
  1.0000                                 [fscale_chi2]

## etc...
    -2007710                             [idum_orig]
  2388                                   [NOl_eff]
  2382                                   [Nl_eff]
     6    NSIGMA                         [Ntot_cliped & clip_method]
   774410                                [Nglobal_steps]
   7                                     [N_chains]
  25                                     [NEX0s_base = N_base in EX0s-fits]
 0   0   1        6   2.0   6.612E+02    [Clip-Bug, RC-Crash & Burn-In warning-flags, n_censored_weights, wei_nsig_threshold & wei_limit]
    20     19.122     18.135      0.987  [idt_all, wdt_TotTime, wdt_UsrTime & wdt_SysTime (sec)]

## Synthesis Results - Best model ##

 1.48455E-05                             [chi2/Nl_eff]
    52.11766                             [adev (%)]

   120.64039                             [sum-of-x (%)]
 2.07179E-18                             [Flux_tot (units of input spectrum!)]
 6.09149E-14                             [Mini_tot (???)]
 3.10491E-14                             [Mcor_tot (???)]

-164.39                                  [v0_min  (km/s)]
 451.84                                  [vd_min  (km/s)]
-0.9960                                  [AV_min  (mag)]
 0.0000                                  [YAV_min (mag)]

# j     x_j(%)      Mini_j(%)     Mcor_j(%)     age_j(yr)     Z_j      (L/M)_j    YAV?  Mstars   component_j        a/Fe...       SSP_chi2r SSP_adev(%)   SSP_AV   SSP_x(%)
  1      0.0000     0.0000E+00    0.0000E+00    1.000000E+06  0.00400  1.094E-02    0   1.0000   age020_m42            0.0000     1.5302E-05    53.5805   1.8714   104.1584
  2      3.7831     2.6617E-03    5.2214E-03    3.160000E+06  0.00400  4.007E-02    0   0.9999   age045_m42            0.0000     1.5179E-05    52.3150   1.1058   111.7658
  3      0.0000     0.0000E+00    0.0000E+00    5.010000E+06  0.00400  2.539E-02    0   0.9488   age055_m42            0.0000     1.5215E-05    53.0377   1.4488   108.7265
  4      0.0000     0.0000E+00    0.0000E+00    6.610000E+06  0.00400  2.620E-02    0   0.9220   age061_m42            0.0000     1.5211E-05    52.4077   1.0400   111.7983
  5     18.1412     3.8687E-02    6.7262E-02    1.000000E+07  0.00400  1.322E-02    0   0.8862   age070_m42            0.0000     1.5301E-05    53.9121   0.8418   112.0184
  6      0.0000     0.0000E+00    0.0000E+00    1.445000E+07  0.00400  7.883E-03    0   0.8571   age078_m42            0.0000     1.5305E-05    54.1470   1.1693   109.3563
  7      0.0000     0.0000E+00    0.0000E+00    2.512000E+07  0.00400  5.251E-03    0   0.8174   age090_m42            0.0000     1.5315E-05    54.1498   0.7244   112.3031
  8      0.0000     0.0000E+00    0.0000E+00    4.000000E+07  0.00400  3.649E-03    0   0.7851   age104_m42            0.0000     1.5280E-05    53.7356   0.4806   113.5878
  9      0.0000     0.0000E+00    0.0000E+00    5.500000E+07  0.00400  3.098E-03    0   0.7629   age110_m42            0.0000     1.5303E-05    52.6843   0.5909   114.6084
 10      0.0000     0.0000E+00    0.0000E+00    1.015200E+08  0.00400  2.228E-03    0   0.7207   age116_m42            0.0000     1.5363E-05    51.9643   0.5809   115.4986
 11      0.0000     0.0000E+00    0.0000E+00    2.861200E+08  0.00400  1.093E-03    0   0.6648   age125_m42            0.0000     1.5434E-05    51.9120  -0.0001   118.6661
 12      0.0000     0.0000E+00    0.0000E+00    5.088000E+08  0.00400  6.597E-04    0   0.6365   age130_m42            0.0000     1.5521E-05    51.1536  -0.0213   120.2762
 13      0.0000     0.0000E+00    0.0000E+00    1.434000E+09  0.00400  2.132E-04    0   0.5798   age139_m42            0.0000     1.5283E-05    50.9379  -1.0000   123.0370
 14      3.6746     1.7573E+00    1.8538E+00    4.250000E+09  0.00400  5.895E-05    0   0.5377   age158_m42            0.0000     1.5661E-05    57.2804  -1.0000   111.0555
 15      0.0000     0.0000E+00    0.0000E+00    7.500000E+09  0.00400  3.510E-05    0   0.5212   age171_m42            0.0000     1.6391E-05    60.5853  -1.0000   106.4459
 16      0.0000     0.0000E+00    0.0000E+00    1.300000E+10  0.00400  2.005E-05    0   0.5034   age193_m42            0.0000     1.7274E-05    63.6334  -1.0000   102.1594
 17      2.1849     4.0391E+00    3.9360E+00    1.800000E+10  0.00400  1.525E-05    0   0.4967   age213_m42            0.0000     1.7345E-05    64.2424  -1.0000   101.1865
 18      3.4309     7.8131E-03    1.5328E-02    1.000000E+06  0.00800  1.238E-02    0   1.0000   age020_m52            0.0000     1.5311E-05    53.5863   1.8654   104.3950
 19      0.0000     0.0000E+00    0.0000E+00    3.160000E+06  0.00800  3.074E-02    0   0.9966   age045_m52            0.0000     1.5299E-05    53.5466   1.7855   105.3970
 20      3.5796     3.7825E-03    7.0075E-03    5.010000E+06  0.00800  2.668E-02    0   0.9443   age055_m52            0.0000     1.5234E-05    53.2748   1.5357   107.6964
 21      0.0000     0.0000E+00    0.0000E+00    6.610000E+06  0.00800  2.136E-02    0   0.9177   age061_m52            0.0000     1.5115E-05    53.9981   0.3334   113.6142
 22      0.0000     0.0000E+00    0.0000E+00    1.000000E+07  0.00800  1.215E-02    0   0.8827   age070_m52            0.0000     1.5336E-05    54.6610   1.0470   111.1984
 23      0.8370     2.7071E-03    4.5419E-03    1.445000E+07  0.00800  8.717E-03    0   0.8552   age078_m52            0.0000     1.5295E-05    54.0726   1.1318   110.8810
 24      1.1402     5.7483E-03    9.2047E-03    2.512000E+07  0.00800  5.592E-03    0   0.8162   age090_m52            0.0000     1.5313E-05    54.1507   0.7842   113.6537
 25      7.9211     5.7319E-02    8.8174E-02    4.000000E+07  0.00800  3.896E-03    0   0.7841   age104_m52            0.0000     1.5272E-05    53.5444   0.6755   115.0232
 26      0.0000     0.0000E+00    0.0000E+00    1.015200E+08  0.00800  2.148E-03    0   0.7226   age116_m52            0.0000     1.5274E-05    52.4856   0.5685   115.9523
 27      0.0000     0.0000E+00    0.0000E+00    2.861200E+08  0.00800  9.925E-04    0   0.6683   age125_m52            0.0000     1.5488E-05    50.8133  -0.0001   122.1042
 28      0.0000     0.0000E+00    0.0000E+00    9.047900E+08  0.00800  3.141E-04    0   0.6138   age135_m52            0.0000     1.5409E-05    49.9695  -0.8460   128.6831
 29      0.0000     0.0000E+00    0.0000E+00    1.434000E+09  0.00800  1.719E-04    0   0.5853   age139_m52            0.0000     1.5462E-05    55.3451  -1.0000   118.3783
 30      0.0000     0.0000E+00    0.0000E+00    2.500000E+09  0.00800  7.872E-05    0   0.5600   age150_m52            0.0000     1.6400E-05    59.7020  -1.0000   109.9477
 31      0.0000     0.0000E+00    0.0000E+00    4.250000E+09  0.00800  4.336E-05    0   0.5426   age158_m52            0.0000     1.6486E-05    60.0445  -1.0000   108.6094
 32      0.0000     0.0000E+00    0.0000E+00    6.250000E+09  0.00800  3.159E-05    0   0.5319   age166_m52            0.0000     1.7683E-05    63.4490  -1.0000   103.9017
 33      0.0000     0.0000E+00    0.0000E+00    1.300000E+10  0.00800  1.361E-05    0   0.5073   age193_m52            0.0000     2.1196E-05    71.6541  -1.0000    91.1668
 34      0.0000     0.0000E+00    0.0000E+00    1.800000E+10  0.00800  9.886E-06    0   0.4990   age213_m52            0.0000     2.2489E-05    72.7461  -1.0000    87.6826
 35      0.0000     0.0000E+00    0.0000E+00    1.000000E+06  0.02000  1.544E-02    0   1.0000   age020_m62            0.0000     1.5336E-05    53.6265   1.8604   104.6467
 36      0.0000     0.0000E+00    0.0000E+00    3.160000E+06  0.02000  3.762E-02    0   0.9858   age045_m62            0.0000     1.5360E-05    53.6362   1.7969   105.6265
 37      0.0000     0.0000E+00    0.0000E+00    5.010000E+06  0.02000  3.296E-02    0   0.9342   age055_m62            0.0000     1.5215E-05    52.6879   1.3931   110.4206
 38      3.9794     9.7218E-03    1.6901E-02    8.710000E+06  0.02000  1.154E-02    0   0.8861   age067_m62            0.0000     1.5804E-05    58.9188   0.6442   110.5492
 39      2.6860     9.8817E-03    1.6425E-02    1.445000E+07  0.02000  7.663E-03    0   0.8472   age078_m62            0.0000     1.5398E-05    55.8236   0.7303   112.6581
 40      0.0000     0.0000E+00    0.0000E+00    2.512000E+07  0.02000  4.532E-03    0   0.8099   age090_m62            0.0000     1.5416E-05    55.9441   0.7272   112.1827
 41      0.0000     0.0000E+00    0.0000E+00    5.500000E+07  0.02000  2.733E-03    0   0.7595   age110_m62            0.0000     1.5266E-05    53.7193   0.6617   114.1692
 42      0.0000     0.0000E+00    0.0000E+00    1.609000E+08  0.02000  1.369E-03    0   0.6985   age120_m62            0.0000     1.5431E-05    51.8491   0.4379   118.7303
 43      0.0000     0.0000E+00    0.0000E+00    2.861200E+08  0.02000  9.013E-04    0   0.6714   age125_m62            0.0000     1.5649E-05    50.7249   0.1516   122.9408
 44      0.0000     0.0000E+00    0.0000E+00    5.088000E+08  0.02000  5.028E-04    0   0.6449   age130_m62            0.0000     1.5714E-05    49.4058  -0.3131   128.3569
 45      0.0000     0.0000E+00    0.0000E+00    9.047900E+08  0.02000  2.428E-04    0   0.6179   age135_m62            0.0000     1.5274E-05    49.6802  -0.9481   129.1261
 46     18.5756     4.1464E+00    4.8060E+00    1.434000E+09  0.02000  1.263E-04    0   0.5908   age139_m62            0.0000     1.5455E-05    53.4514  -1.0000   120.2744
 47     24.3928     1.1490E+01    1.2788E+01    2.500000E+09  0.02000  5.985E-05    0   0.5673   age150_m62            0.0000     1.6682E-05    59.4016  -1.0000   110.9959
 48      0.0000     0.0000E+00    0.0000E+00    4.250000E+09  0.02000  3.271E-05    0   0.5468   age158_m62            0.0000     1.8619E-05    64.4482  -1.0000   102.6228
 49      0.0000     0.0000E+00    0.0000E+00    1.000000E+10  0.02000  1.360E-05    0   0.5167   age181_m62            0.0000     2.1737E-05    69.6640  -1.0000    92.7617
 50      0.0000     0.0000E+00    0.0000E+00    1.800000E+10  0.02000  7.124E-06    0   0.5013   age213_m62            0.0000     2.4096E-05    72.2155  -1.0000    86.0302
 51      0.0000     0.0000E+00    0.0000E+00    1.000000E+06  0.05000  2.592E-02    0   0.9998   age020_m72            0.0000     1.5380E-05    53.8516   1.8618   104.5078
 52      0.0000     0.0000E+00    0.0000E+00    3.160000E+06  0.05000  4.845E-02    0   0.9577   age045_m72            0.0000     1.5275E-05    53.2537   1.6622   107.3796
 53      0.0000     0.0000E+00    0.0000E+00    5.010000E+06  0.05000  3.072E-02    0   0.9147   age055_m72            0.0000     1.5374E-05    55.0810   1.2734   109.5807
 54      0.8916     1.7276E-03    3.0087E-03    6.610000E+06  0.05000  1.455E-02    0   0.8877   age061_m72            0.0000     1.6137E-05    60.9563   0.7382   110.0463
 55      5.6361     1.7511E-02    2.9284E-02    1.000000E+07  0.05000  9.074E-03    0   0.8524   age070_m72            0.0000     1.5411E-05    55.2758   1.4502   109.2438
 56      0.0000     0.0000E+00    0.0000E+00    2.512000E+07  0.05000  4.250E-03    0   0.7902   age090_m72            0.0000     1.5343E-05    54.7079   1.1464   111.3853
 57      0.0000     0.0000E+00    0.0000E+00    4.000000E+07  0.05000  3.087E-03    0   0.7618   age104_m72            0.0000     1.5384E-05    54.6900   0.9231   113.0027
 58      0.0000     0.0000E+00    0.0000E+00    1.015200E+08  0.05000  1.700E-03    0   0.7096   age116_m72            0.0000     1.5456E-05    52.5667   0.6089   117.5138
 59      0.0000     0.0000E+00    0.0000E+00    2.861200E+08  0.05000  7.384E-04    0   0.6633   age125_m72            0.0000     1.5658E-05    49.8611  -0.0236   125.7798
 60      0.0000     0.0000E+00    0.0000E+00    5.088000E+08  0.05000  3.819E-04    0   0.6372   age130_m72            0.0000     1.5383E-05    49.3104  -0.6010   130.1899
 61      7.3955     1.2440E+00    1.4912E+00    9.047900E+08  0.05000  1.676E-04    0   0.6110   age135_m72            0.0000     1.5413E-05    51.6409  -1.0000   123.3754
 62      0.0000     0.0000E+00    0.0000E+00    1.434000E+09  0.05000  8.837E-05    0   0.5874   age139_m72            0.0000     1.6823E-05    59.2554  -1.0000   112.6460
 63      0.0000     0.0000E+00    0.0000E+00    2.500000E+09  0.05000  4.233E-05    0   0.5598   age150_m72            0.0000     1.8779E-05    64.1127  -1.0000   103.5490
 64      0.0000     0.0000E+00    0.0000E+00    6.250000E+09  0.05000  1.435E-05    0   0.5249   age166_m72            0.0000     2.2657E-05    71.0492  -1.0000    89.7142
 65      0.0000     0.0000E+00    0.0000E+00    1.300000E+10  0.05000  6.513E-06    0   0.5036   age193_m72            0.0000     2.5910E-05    74.3287  -1.0000    82.3441
 66     12.3909     7.7165E+01    7.4862E+01    1.800000E+10  0.05000  4.527E-06    0   0.4945   age213_m72            0.0000     2.7947E-05    75.8622  -1.0000    77.4045


## Synthesis Results - Average & Chains ##

# j      x_j: min, <> & last-chain-values for 1 ...  7 chains
  1      0.0000      1.3753      4.9912     11.3264      0.2514      3.5485      0.0928      1.5756      0.0000
  2      3.7831      1.1137      0.0000      0.0000      2.8802      0.8270      0.0000      3.7661      0.5269
  3      0.0000      1.1498      0.0458      0.8989      0.0000      1.5899      0.2641      1.5680      6.9386
  4      0.0000      1.3660      6.1429      0.0000      0.0000      4.1646      0.0000      0.1390      0.0000
  5     18.1412      1.6265      0.0000      7.0809      6.0046      1.8279      0.0000      0.0000      2.9673
  6      0.0000      1.3445      0.0000      0.0000      0.0000      2.3230      1.9568      0.0000      0.0000
  7      0.0000      1.1990      0.8739      0.0000      0.0000      0.9257      0.0000      0.0000      6.7651
  8      0.0000      1.1252      0.5713      0.9685      0.0000      0.0000      0.0000      2.5348      0.0630
  9      0.0000      1.8422      0.0000      0.0000      0.0000      0.0000      1.1622      4.6063      1.6402
 10      0.0000      1.3693      2.9862      0.0000      1.0463      0.6114      0.9274      1.0127      0.9553
 11      0.0000      1.2792      3.8832      0.9540      0.0000      0.0000      0.0000      0.0000      0.9424
 12      0.0000      1.7263      0.0000      1.0096      0.0000      0.0000      0.0000      0.8673      0.6480
 13      0.0000      1.2429      0.0000      0.0000      0.0000      1.6049      0.0954      0.0000      0.0000
 14      3.6746      1.3237      0.0000      0.4254      9.1394      1.1896      0.1396      1.2928      1.6921
 15      0.0000      1.4195      0.0418      9.8212      0.0000      0.0000      0.1514      0.0000      3.6420
 16      0.0000      1.1043      0.2873      0.0000      0.0000      0.8654      0.0933      0.6951      0.0000
 17      2.1849      1.3541      0.0000      0.2104      4.9488      0.0000      0.0000      0.1873      1.6742
 18      3.4309      1.1514      0.0000      0.0914      1.6710      1.6555      6.0413      2.1789      0.0000
 19      0.0000      1.3046      0.0000      4.7903      0.0000      0.0000      0.0000      2.2411      0.0000
 20      3.5796      0.9895      0.0000      0.0000      3.2898      0.0000     21.5584      1.0844      0.0000
 21      0.0000      1.2401      0.0000      3.1136      0.0000      0.8946      0.0618      1.2243      0.7929
 22      0.0000      1.7544     15.2245      1.4849      0.0000      3.2522      1.2530      6.0479      2.9073
 23      0.8370      1.6179      0.2887      0.0000      5.9194      0.0000      0.1771      0.0000      1.0937
 24      1.1402      1.4601      4.2628      0.0000      8.3233      0.5633      1.1404      5.1810      2.5198
 25      7.9211      1.5356      1.2777      0.0799      7.3284      0.5095      0.2336      0.2237      0.0000
 26      0.0000      1.0009      6.4363      0.0000      0.0000      0.8814      0.2949      2.1449      0.0000
 27      0.0000      1.2601      0.0000      6.2686      0.0000      0.0000      3.2123      3.2907      0.0000
 28      0.0000      1.3603      0.0000      0.0000      0.0000      2.1120      0.0316      6.1492      0.0000
 29      0.0000      0.7220      0.0000      0.9532      0.0000      0.3222      0.6892      0.8137      0.6976
 30      0.0000      1.1127      8.9470      0.0000      0.8000      1.2044      0.0000      1.4308      1.4183
 31      0.0000      1.2336      0.0000      0.0000      0.0000      0.6901      0.0000      1.4879      1.4747
 32      0.0000      1.1449      0.3228      0.1900      0.0000      1.3306      0.3424      0.0000      1.5991
 33      0.0000      1.5250      0.0000      0.0000      0.0000      3.1282      0.0642      0.0000      0.7090
 34      0.0000      1.3523      6.4568      0.0000      0.0000      4.6980      0.0584      0.1277      0.7997
 35      0.0000      1.0218      5.2373      0.0000      2.2356      0.0000      0.2502      3.4101      4.3246
 36      0.0000      1.6256      8.8296      0.0000      0.0000      2.5370      0.0000      1.8487      2.3620
 37      0.0000      2.2402      6.1699      0.3295      6.0269      0.0000      0.0000      1.2455      0.0000
 38      3.9794      1.3613      0.9668      3.1986      4.6721      5.9023      0.0000      4.8067      0.1250
 39      2.6860      1.6113      0.6628      6.1716      0.9836      2.7172      8.8564      0.0174      2.2305
 40      0.0000      1.9886      0.8398      1.8676      1.8775      0.0000      3.0330      3.9406      4.0061
 41      0.0000      1.5206      0.0000      0.3600      0.0000      4.7284      1.3274      0.7477      0.0000
 42      0.0000      1.4557      0.0000      0.7628      3.1356      1.6867      3.2694      0.0000      0.1186
 43      0.0000      0.9817      1.6391      0.0000      0.3223      0.0000      0.0000      1.0998      0.8294
 44      0.0000      1.5312      0.0000      1.1035      9.5318      0.3559      0.0000      0.5712      0.8025
 45      0.0000      1.2175      1.1490      0.3796      0.0000      6.8562      0.0000      1.8716      0.5707
 46     18.5756      1.2592      0.0019      0.0000      1.3832      2.0184      0.0937      0.0000      0.0000
 47     24.3928      1.2957      0.0000      0.0000     10.1178      0.5656      0.0000      0.0000      0.0000
 48      0.0000      1.4149      1.2050      0.0000      0.0000      3.3519      5.9808      7.9892      0.0000
 49      0.0000      1.2814      0.1532      0.3918      0.0000      0.0000      2.5205      2.6655      0.0000
 50      0.0000      0.9526      3.1321      0.3198      0.0000      0.0000      0.8855      0.0000      1.6872
 51      0.0000      0.9967      0.0000      0.7641      0.0000      2.7985      0.1135      2.4636      1.8630
 52      0.0000      1.2937      0.6989      5.3256      0.4689      3.2211      0.0000      1.4414      0.0507
 53      0.0000      1.3763      0.0000      3.4223      0.0000      1.0735      0.0000      2.7357      0.0000
 54      0.8916      1.7319      1.6834      1.8130      1.9516      0.6669      5.8018      0.0000      6.7721
 55      5.6361      1.5261      0.0001      0.9441      9.1352      0.2292      1.1084      3.3180      1.2181
 56      0.0000      1.4764      0.0000      0.7956      3.3709      0.3282      0.0000      0.0000      2.1788
 57      0.0000      1.5911      0.0000      0.0000      0.0000      1.9891      3.0358      6.0867      0.0000
 58      0.0000      1.6214      0.2649      3.7692      3.9431      0.0000      5.9838      0.6340      0.8610
 59      0.0000      1.4413      0.0000      0.0000      0.0000      3.6524      0.0000      0.3618      5.6514
 60      0.0000      1.1011      1.4619      0.8518      0.0000      0.0000      0.2747      0.0000      0.1123
 61      7.3955      1.6956      0.0000      0.0000      1.2142      1.2808      2.2553      0.5684      7.5060
 62      0.0000      2.1088      0.0000      0.0000      0.0000      1.0239      0.7798      0.7792      1.4978
 63      0.0000      1.4284      0.0141      0.0000      0.0000      0.0119      0.0000      0.9355      1.0091
 64      0.0000      1.7307      0.0000      4.5507      0.1009      1.9512      0.0000      1.2612      1.8173
 65      0.0000      1.3983      0.0000      0.2463      0.0000      0.0000      7.8753      1.9608      2.1128
 66     12.3909      1.3833      0.6305      6.1290      1.3795      3.0818      0.0000      0.0000      0.0000

# j      m_j: min, <> & last-chain-values for 1 ...  7 chains
  1  0.0000E+00  1.5341E-02  6.2110E-02  9.6664E-02  4.3010E-03  3.4031E-02  9.2882E-04  2.5915E-02  0.0000E+00
  2  5.2214E-03  3.3916E-03  0.0000E+00  0.0000E+00  1.3454E-02  2.1652E-03  0.0000E+00  1.6910E-02  1.9827E-03
  3  0.0000E+00  5.2434E-03  2.3283E-04  3.1363E-03  0.0000E+00  6.2334E-03  1.0811E-03  1.0544E-02  3.9097E-02
  4  0.0000E+00  5.8662E-03  2.9429E-02  0.0000E+00  0.0000E+00  1.5376E-02  0.0000E+00  8.8034E-04  0.0000E+00
  5  6.7262E-02  1.3305E-02  0.0000E+00  4.4317E-02  7.5348E-02  1.2856E-02  0.0000E+00  0.0000E+00  2.9993E-02
  6  0.0000E+00  1.7840E-02  0.0000E+00  0.0000E+00  0.0000E+00  2.6499E-02  2.3306E-02  0.0000E+00  0.0000E+00
  7  0.0000E+00  2.2776E-02  1.8519E-02  0.0000E+00  0.0000E+00  1.5119E-02  0.0000E+00  0.0000E+00  1.5879E-01
  8  0.0000E+00  2.9543E-02  1.6733E-02  1.9454E-02  0.0000E+00  0.0000E+00  0.0000E+00  9.8132E-02  2.0442E-03
  9  0.0000E+00  5.5362E-02  0.0000E+00  0.0000E+00  0.0000E+00  0.0000E+00  3.1353E-02  2.0411E-01  6.0904E-02
 10  0.0000E+00  5.4053E-02  1.3150E-01  0.0000E+00  6.3356E-02  2.0750E-02  3.2862E-02  5.8945E-02  4.6594E-02
 11  0.0000E+00  9.4948E-02  3.2154E-01  5.4173E-02  0.0000E+00  0.0000E+00  0.0000E+00  0.0000E+00  8.6431E-02
 12  0.0000E+00  2.0326E-01  0.0000E+00  9.0944E-02  0.0000E+00  0.0000E+00  0.0000E+00  1.5057E-01  9.4275E-02
 13  0.0000E+00  4.1248E-01  0.0000E+00  0.0000E+00  0.0000E+00  4.5792E-01  2.8428E-02  0.0000E+00  0.0000E+00
 14  1.8538E+00  1.4735E+00  0.0000E+00  3.6229E-01  1.5605E+01  1.1385E+00  1.3948E-01  2.1218E+00  2.3273E+00
 15  0.0000E+00  2.5723E+00  8.4462E-02  1.3616E+01  0.0000E+00  0.0000E+00  2.4620E-01  0.0000E+00  8.1547E+00
 16  0.0000E+00  3.3834E+00  9.8209E-01  0.0000E+00  0.0000E+00  2.2795E+00  2.5658E-01  3.1404E+00  0.0000E+00
 17  3.9360E+00  5.3822E+00  0.0000E+00  6.3975E-01  3.0172E+01  0.0000E+00  0.0000E+00  1.0979E+00  8.2223E+00
 18  1.5328E-02  1.1350E-02  0.0000E+00  6.8964E-04  2.5266E-02  1.4030E-02  5.3458E-02  3.1669E-02  0.0000E+00
 19  0.0000E+00  5.1617E-03  0.0000E+00  1.4500E-02  0.0000E+00  0.0000E+00  0.0000E+00  1.3074E-02  0.0000E+00
 20  7.0075E-03  4.2740E-03  0.0000E+00  0.0000E+00  2.1796E-02  0.0000E+00  8.3587E-02  6.9064E-03  0.0000E+00
 21  0.0000E+00  6.5019E-03  0.0000E+00  1.2490E-02  0.0000E+00  4.0325E-03  2.9072E-04  9.4651E-03  5.1367E-03
 22  0.0000E+00  1.5554E-02  1.5058E-01  1.0072E-02  0.0000E+00  2.4789E-02  9.9724E-03  7.9062E-02  3.1848E-02
 23  4.5419E-03  1.9370E-02  3.8563E-03  0.0000E+00  1.0871E-01  0.0000E+00  1.9030E-03  0.0000E+00  1.6179E-02
 24  9.2047E-03  2.6007E-02  8.4703E-02  0.0000E+00  2.2741E-01  8.6255E-03  1.8234E-02  1.3607E-01  5.5456E-02
 25  8.8174E-02  3.7715E-02  3.5006E-02  1.5007E-03  2.7609E-01  1.0758E-02  5.1509E-03  8.1011E-03  0.0000E+00
 26  0.0000E+00  4.1088E-02  2.9476E-01  0.0000E+00  0.0000E+00  3.1109E-02  1.0869E-02  1.2983E-01  0.0000E+00
 27  0.0000E+00  1.0354E-01  0.0000E+00  3.9409E-01  0.0000E+00  0.0000E+00  2.3695E-01  3.9870E-01  0.0000E+00
 28  0.0000E+00  3.2438E-01  0.0000E+00  0.0000E+00  0.0000E+00  4.3301E-01  6.7696E-03  2.1622E+00  0.0000E+00
 29  0.0000E+00  3.0000E-01  0.0000E+00  3.0301E-01  0.0000E+00  1.1510E-01  2.5707E-01  4.9855E-01  3.5816E-01
 30  0.0000E+00  9.6598E-01  8.6647E+00  0.0000E+00  1.0654E+00  8.9892E-01  0.0000E+00  1.8315E+00  1.5214E+00
 31  0.0000E+00  1.8839E+00  0.0000E+00  0.0000E+00  0.0000E+00  9.0598E-01  0.0000E+00  3.3504E+00  2.7827E+00
 32  0.0000E+00  2.3525E+00  7.3987E-01  2.9873E-01  0.0000E+00  2.3505E+00  6.3155E-01  0.0000E+00  4.0600E+00
 33  0.0000E+00  6.9368E+00  0.0000E+00  0.0000E+00  0.0000E+00  1.2233E+01  2.6230E-01  0.0000E+00  3.9848E+00
 34  0.0000E+00  8.3296E+00  4.4368E+01  0.0000E+00  0.0000E+00  2.4879E+01  3.2290E-01  1.1600E+00  6.0866E+00
 35  0.0000E+00  8.0759E-03  4.6178E-02  0.0000E+00  2.7104E-02  0.0000E+00  1.7754E-03  3.9741E-02  4.2234E-02
 36  0.0000E+00  5.1985E-03  3.1498E-02  0.0000E+00  0.0000E+00  6.9748E-03  0.0000E+00  8.7168E-03  9.3328E-03
 37  0.0000E+00  7.7484E-03  2.3807E-02  8.7193E-04  3.1977E-02  0.0000E+00  0.0000E+00  6.3521E-03  0.0000E+00
 38  1.6901E-02  1.2756E-02  1.0106E-02  2.2931E-02  6.7155E-02  4.7549E-02  0.0000E+00  6.6412E-02  1.4469E-03
 39  1.6425E-02  2.1739E-02  9.9756E-03  6.3705E-02  2.0355E-02  3.1517E-02  1.0726E-01  3.4680E-04  3.7184E-02
 40  0.0000E+00  4.3367E-02  2.0430E-02  3.1162E-02  6.2806E-02  0.0000E+00  5.9377E-02  1.2671E-01  1.0795E-01
 41  0.0000E+00  5.1567E-02  0.0000E+00  9.3417E-03  0.0000E+00  1.3786E-01  4.0409E-02  3.7386E-02  0.0000E+00
 42  0.0000E+00  9.0638E-02  0.0000E+00  3.6337E-02  2.9948E-01  9.0289E-02  1.8274E-01  0.0000E+00  9.1224E-03
 43  0.0000E+00  8.9244E-02  1.6622E-01  0.0000E+00  4.4943E-02  0.0000E+00  0.0000E+00  1.4742E-01  9.3160E-02
 44  0.0000E+00  2.3966E-01  0.0000E+00  1.3215E-01  2.2885E+00  4.7899E-02  0.0000E+00  1.3182E-01  1.5521E-01
 45  0.0000E+00  3.7811E-01  3.9807E-01  9.0189E-02  0.0000E+00  1.8306E+00  0.0000E+00  8.5705E-01  2.1900E-01
 46  4.8060E+00  7.1878E-01  1.2103E-03  0.0000E+00  1.2111E+00  9.9058E-01  4.7994E-02  0.0000E+00  0.0000E+00
 47  1.2788E+01  1.4988E+00  0.0000E+00  0.0000E+00  1.7952E+01  5.6251E-01  0.0000E+00  0.0000E+00  0.0000E+00
 48  0.0000E+00  2.8864E+00  2.7422E+00  0.0000E+00  0.0000E+00  5.8786E+00  1.0952E+01  2.4031E+01  0.0000E+00
 49  0.0000E+00  5.9412E+00  7.9224E-01  1.3898E+00  0.0000E+00  0.0000E+00  1.0490E+01  1.8222E+01  0.0000E+00
 50  0.0000E+00  8.1799E+00  3.0005E+01  2.1008E+00  0.0000E+00  0.0000E+00  6.8258E+00  0.0000E+00  1.7902E+01
 51  0.0000E+00  4.6915E-03  0.0000E+00  2.7517E-03  0.0000E+00  1.1325E-02  4.7947E-04  1.7099E-02  1.0835E-02
 52  0.0000E+00  3.1206E-03  1.8808E-03  9.8287E-03  1.7350E-03  6.6801E-03  0.0000E+00  5.1267E-03  1.5124E-04
 53  0.0000E+00  5.0009E-03  0.0000E+00  9.5141E-03  0.0000E+00  3.3537E-03  0.0000E+00  1.4657E-02  0.0000E+00
 54  3.0087E-03  1.2894E-02  1.3982E-02  1.0327E-02  2.2289E-02  4.2690E-03  3.8776E-02  0.0000E+00  6.2300E-02
 55  2.9284E-02  1.7494E-02  1.0379E-06  8.2801E-03  1.6064E-01  2.2585E-03  1.1406E-02  5.6085E-02  1.7255E-02
 56  0.0000E+00  3.3498E-02  0.0000E+00  1.3812E-02  1.1732E-01  6.4032E-03  0.0000E+00  0.0000E+00  6.1086E-02
 57  0.0000E+00  4.7916E-02  0.0000E+00  0.0000E+00  0.0000E+00  5.1498E-02  8.2067E-02  2.7028E-01  0.0000E+00
 58  0.0000E+00  8.2591E-02  1.5052E-02  1.4689E-01  3.0809E-01  0.0000E+00  2.7362E-01  4.7615E-02  5.4191E-02
 59  0.0000E+00  1.5799E-01  0.0000E+00  0.0000E+00  0.0000E+00  3.4422E-01  0.0000E+00  5.8488E-02  7.6549E-01
 60  0.0000E+00  2.2419E-01  3.3205E-01  1.3269E-01  0.0000E+00  0.0000E+00  5.0215E-02  0.0000E+00  2.8263E-02
 61  1.4912E+00  7.5434E-01  0.0000E+00  0.0000E+00  8.2858E-01  4.8989E-01  9.0068E-01  3.7283E-01  4.1261E+00
 62  0.0000E+00  1.7106E+00  0.0000E+00  0.0000E+00  0.0000E+00  7.1405E-01  5.6780E-01  9.3195E-01  1.5012E+00
 63  0.0000E+00  2.3052E+00  2.5390E-02  0.0000E+00  0.0000E+00  1.6502E-02  0.0000E+00  2.2262E+00  2.0122E+00
 64  0.0000E+00  7.7253E+00  0.0000E+00  1.5541E+01  6.9118E-01  7.4880E+00  0.0000E+00  8.3013E+00  1.0024E+01
 65  0.0000E+00  1.3195E+01  0.0000E+00  1.7780E+00  0.0000E+00  0.0000E+00  6.6706E+01  2.7282E+01  2.4634E+01
 66  7.4862E+01  1.8439E+01  9.3766E+00  6.2507E+01  2.8206E+01  3.5319E+01  0.0000E+00  0.0000E+00  0.0000E+00

# AV, chi2 & Mass for <> & i_chain = 1 ...  7 solutions
AV      -0.9960      0.1670      0.2851      0.1573     -0.0335      0.0301      0.2913      0.1027      0.2230
chi2 1.4845E-05  1.7856E-05  1.6472E-05  1.7275E-05  1.5199E-05  1.7564E-05  1.7258E-05  1.5712E-05  1.7578E-05
Mass 3.1049E-14  6.7098E-14  7.0487E-14  8.6570E-14  3.3417E-14  6.4942E-14  8.8331E-14  4.1743E-14  5.8546E-14
-164.39                                  [v0_min (km/s) before EX0s...]
 451.84                                  [vd_min (km/s) before EX0s...]


## Synthetic spectrum (Best Model) ##l_obs f_obs f_syn wei
 3478    [Nl_obs]
 3741.00    1.08588   0.81627    0.000
 3742.00    1.01124   0.81431    0.000
 3743.00    0.93926   0.81223    0.000
 3744.00    1.01974   0.80942    0.000
 3745.00    1.18907   0.80883    0.017
 3746.00    1.30008   0.80775    0.017
 3747.00    1.38149   0.80894    0.017
 3748.00    0.99137   0.81259    0.017
 3749.00    0.39391   0.81929    0.017
 3750.00    0.67928   0.82854    0.017
 3751.00    1.29795   0.83870    0.017
 3752.00    1.51333   0.85029    0.017
 3753.00    1.59947   0.86088    0.017
 3754.00    1.52747   0.87086    0.017
 3755.00    1.41309   0.87814    0.017
 3756.00    0.72296   0.88380    0.017
 3757.00   -0.09354   0.88823    0.000
 3758.00   -0.47943   0.89092    0.000
 3759.00   -0.79016   0.89148    0.000
 3760.00   -0.53800   0.88992    0.000
 3761.00   -0.21107   0.88653    0.000
 3762.00   -0.13191   0.88210    0.000
 3763.00   -0.07603   0.87826    0.000
 3764.00    0.08522   0.87358    0.016
 3765.00    0.25255   0.87018    0.016
 3766.00    0.19659   0.86919    0.015
 3767.00    0.14059   0.87038    0.015
 3768.00    0.72091   0.87380    0.015
 3769.00    1.27183   0.88052    0.015
 3770.00    1.10884   0.89103    0.015
 3771.00    0.94066   0.90385    0.015
 3772.00    0.70452   0.91833    0.015
 3773.00    0.53095   0.93397    0.014
 3774.00    0.90673   0.94967    0.015
 3775.00    1.20270   0.96582    0.015
 3776.00    0.98115   0.98001    0.015
 3777.00    0.77475   0.99217    0.015
 3778.00    0.64506   1.00249    0.015
 3779.00    0.49643   1.00914    0.015
 3780.00    0.27035   1.01260    0.015
 3781.00    0.00910   1.01184    0.015
 3782.00   -0.37140   1.00830    0.000
 3783.00   -0.58594   1.00050    0.000
 3784.00   -0.32582   0.98881    0.000
 3785.00    0.02704   0.97514    0.015
 3786.00    0.60646   0.95882    0.015
 3787.00    0.96968   0.94158    0.015
 3788.00    0.87721   0.92279    0.016
 3789.00    0.83298   0.90450    0.016
 3790.00    0.87712   0.88715    0.015
 3791.00    0.89024   0.87132    0.015
 3792.00    0.85370   0.85779    0.015
 3793.00    0.86761   0.84688    0.015
 3794.00    0.95237   0.84054    0.015
 3795.00    0.87196   0.83728    0.015
 3796.00    0.58738   0.83867    0.015
 3797.00    0.26127   0.84459    0.015
 3798.00   -0.11007   0.85501    0.000
 3799.00    0.30345   0.86906    0.016
 3800.00    1.47124   0.88491    0.017
 3801.00    2.20978   0.90269    0.018
 3802.00    2.58459   0.91990    0.019
 3803.00    2.09548   0.93657    0.018
 3804.00    0.96169   0.95113    0.016
 3805.00    0.86291   0.96424    0.016
 3806.00    1.44265   0.97592    0.016
 3807.00    1.65025   0.98485    0.016
 3808.00    1.64431   0.99151    0.016
 3809.00    1.31458   0.99448    0.016
 3810.00    0.82303   0.99368    0.015
 3811.00    0.43827   0.98985    0.015
 3812.00    0.09970   0.98525    0.015
 3813.00    0.19860   0.97945    0.015
 3814.00    0.45973   0.97237    0.015
 3815.00    0.55770   0.96430    0.015
 3816.00    0.60439   0.95498    0.015
 3817.00    0.46700   0.94395    0.014
 3818.00    0.28133   0.93203    0.014
 3819.00    0.41994   0.92067    0.014
 3820.00    0.62804   0.90881    0.014
 3821.00    0.60499   0.89650    0.014
 3822.00    0.54270   0.88228    0.014
 3823.00    0.21711   0.86670    0.015
 3824.00   -0.14226   0.85037    0.000
 3825.00   -0.21886   0.83327    0.000
 3826.00   -0.27008   0.81658    0.000
 3827.00    0.31332   0.80067    0.016
 3828.00    0.93082   0.78597    0.018
 3829.00    1.09942   0.77245    0.017
 3830.00    1.25924   0.76073    0.016
 3831.00    1.43727   0.75210    0.016
 3832.00    1.59144   0.74726    0.016
 3833.00    1.21584   0.74680    0.015
 3834.00    0.82855   0.75141    0.015
 3835.00    0.29584   0.76047    0.015
 3836.00   -0.17095   0.77290    0.000
 3837.00   -0.08059   0.78911    0.000
 3838.00    0.01375   0.80770    0.018
 3839.00    0.13313   0.82845    0.017
 3840.00    0.27800   0.85054    0.015
 3841.00    0.54864   0.87249    0.015
 3842.00    0.75582   0.89455    0.015
 3843.00    0.70901   0.91468    0.016
 3844.00    0.62773   0.93322    0.016
 3845.00    0.43184   0.94993    0.015
 3846.00    0.29554   0.96397    0.015
 3847.00    0.32660   0.97558    0.000
 3848.00    0.36918   0.98502    0.000
 3849.00    0.43944   0.99263    0.000
 3850.00    0.58845   0.99835    0.000
 3851.00    0.90079   1.00236    0.000
 3852.00    0.89138   1.00547    0.000
 3853.00    0.30165   1.00761    0.000
 3854.00    0.00349   1.00874    0.000
 3855.00    0.16514   1.01042    0.000
 3856.00    0.41728   1.01100    0.000
 3857.00    0.79470   1.01149    0.000
 3858.00    0.89536   1.01194    0.000
 3859.00    0.65879   1.01273    0.000
 3860.00    0.41899   1.01373    0.000
 3861.00    0.17573   1.01374    0.000
 3862.00    0.16803   1.01361    0.000
 3863.00    0.38353   1.01169    0.000
 3864.00    0.74639   1.00948    0.000
 3865.00    1.23236   1.00678    0.000
 3866.00    1.55515   1.00391    0.000
 3867.00    1.75793   1.00066    0.000
 3868.00    1.57668   0.99550    0.000
 3869.00    1.14737   0.98918    0.000
 3870.00    0.81711   0.98179    0.000
 3871.00    0.54281   0.97404    0.000
 3872.00    0.68065   0.96611    0.000
 3873.00    1.02122   0.95736    0.000
 3874.00    1.15140   0.94704    0.000
 3875.00    1.19210   0.93513    0.000
 3876.00    1.00576   0.92112    0.000
 3877.00    0.73671   0.90733    0.000
 3878.00    0.66444   0.89297    0.000
 3879.00    0.65283   0.87738    0.000
 3880.00    0.21501   0.86221    0.000
 3881.00   -0.33223   0.84739    0.000
 3882.00    0.30125   0.83430    0.015
 3883.00    1.18158   0.82304    0.015
 3884.00    1.21207   0.81431    0.015
 3885.00    1.10241   0.80918    0.016
 3886.00    0.94136   0.80616    0.016
 3887.00    0.77394   0.80725    0.015
 3888.00    0.37206   0.81332    0.015
 3889.00   -0.04990   0.82265    0.000
 3890.00    0.19267   0.83556    0.015
 3891.00    0.46835   0.84943    0.015
 3892.00    0.12940   0.86538    0.015
 3893.00   -0.21253   0.88185    0.000
 3894.00   -0.09626   0.89911    0.000
 3895.00    0.03637   0.91742    0.014
 3896.00    0.50365   0.93346    0.015
 3897.00    0.93570   0.94961    0.015
 3898.00    0.95105   0.96367    0.014
 3899.00    0.97737   0.97718    0.014
 3900.00    1.09319   0.98992    0.014
 3901.00    1.18561   1.00091    0.014
 3902.00    1.13512   1.01206    0.013
 3903.00    1.08573   1.02033    0.013
 3904.00    1.04161   1.02809    0.013
 3905.00    0.90426   1.03571    0.012
 3906.00    0.40179   1.04191    0.012
 3907.00   -0.01351   1.04721    0.000
 3908.00   -0.14468   1.05081    0.000
 3909.00   -0.07420   1.05270    0.000
 3910.00    0.55234   1.05314    0.013
 3911.00    1.06882   1.05112    0.014
 3912.00    1.32542   1.04797    0.014
 3913.00    1.53673   1.04361    0.014
 3914.00    1.65561   1.03646    0.014
 3915.00    1.52977   1.02901    0.015
 3916.00    0.96926   1.01889    0.015
 3917.00    0.49912   1.00748    0.015
 3918.00    0.16936   0.99430    0.015
 3919.00    0.16229   0.97904    0.015
 3920.00    0.59548   0.96423    0.015
 3921.00    0.83993   0.94709    0.015
 3922.00    0.85764   0.92996    0.015
 3923.00    0.64964   0.91169    0.015
 3924.00    0.20261   0.89245    0.015
 3925.00    0.33621   0.87419    0.015
 3926.00    1.01224   0.85615    0.016
 3927.00    1.20916   0.84087    0.016
 3928.00    1.01152   0.82782    0.016
 3929.00    0.91007   0.81744    0.016
 3930.00    0.87836   0.81042    0.016
 3931.00    1.00363   0.80646    0.016
 3932.00    1.22879   0.80704    0.016
 3933.00    1.35221   0.81154    0.016
 3934.00    1.41900   0.81926    0.016
 3935.00    0.91132   0.83038    0.016
 3936.00    0.12555   0.84372    0.016
 3937.00    0.27723   0.85859    0.016
 3938.00    0.82085   0.87510    0.016
 3939.00    1.19322   0.89220    0.016
 3940.00    1.50434   0.90883    0.016
 3941.00    0.96137   0.92414    0.016
 3942.00    0.16024   0.93855    0.016
 3943.00   -0.41257   0.95245    0.000
 3944.00   -0.92804   0.96469    0.000
 3945.00   -0.02476   0.97408    0.000
 3946.00    1.16783   0.98125    0.015
 3947.00    1.63434   0.98685    0.016
 3948.00    1.98458   0.98945    0.016
 3949.00    1.29328   0.98886    0.016
 3950.00    0.47763   0.98614    0.015
 3951.00    0.53614   0.98132    0.015
 3952.00    0.66583   0.97314    0.015
 3953.00    1.22006   0.96063    0.015
 3954.00    1.79380   0.94429    0.015
 3955.00    2.13126   0.92588    0.015
 3956.00    2.45185   0.90502    0.016
 3957.00    2.04837   0.88127    0.016
 3958.00    1.65521   0.85573    0.016
 3959.00    1.45757   0.82839    0.016
 3960.00    1.26261   0.80040    0.000
 3961.00    1.09805   0.77255    0.000
 3962.00    0.93619   0.74692    0.000
 3963.00    0.79563   0.72555    0.000
 3964.00    0.68217   0.70800    0.000
 3965.00    0.72954   0.69476    0.000
 3966.00    0.67431   0.68635    0.000
 3967.00    0.13737   0.68413    0.000
 3968.00   -0.14403   0.68945    0.000
 3969.00    0.55390   0.70042    0.000
 3970.00    0.98088   0.71677    0.000
 3971.00    0.54184   0.73843    0.000
 3972.00    0.21748   0.76342    0.000
 3973.00    0.20370   0.79162    0.000
 3974.00    0.10003   0.82051    0.000
 3975.00   -0.21241   0.84997    0.000
 3976.00   -0.34369   0.88049    0.000
 3977.00   -0.11111   0.90918    0.000
 3978.00    0.14559   0.93690    0.000
 3979.00    0.44448   0.96149    0.000
 3980.00    0.56469   0.98356    0.000
 3981.00    0.41134   1.00458    0.017
 3982.00    0.40456   1.02133    0.017
 3983.00    0.59491   1.03692    0.017
 3984.00    0.98831   1.05084    0.017
 3985.00    1.62217   1.06245    0.017
 3986.00    1.76275   1.07328    0.017
 3987.00    1.38823   1.08070    0.017
 3988.00    1.30953   1.08783    0.016
 3989.00    1.50331   1.09403    0.016
 3990.00    1.72588   1.09838    0.016
 3991.00    1.97185   1.10311    0.016
 3992.00    2.13182   1.10694    0.016
 3993.00    2.23034   1.11031    0.016
 3994.00    1.76235   1.11229    0.016
 3995.00    0.93917   1.11364    0.016
 3996.00    0.49213   1.11614    0.016
 3997.00    0.25122   1.11774    0.015
 3998.00    0.41458   1.11799    0.015
 3999.00    0.77049   1.11915    0.015
 4000.00    0.83543   1.12092    0.015
 4001.00    0.78077   1.12275    0.015
 4002.00    1.03116   1.12360    0.015
 4003.00    1.38869   1.12450    0.015
 4004.00    1.31565   1.12697    0.015
 4005.00    1.11504   1.12902    0.015
 4006.00    0.72886   1.13213    0.015
 4007.00    0.29710   1.13535    0.015
 4008.00    0.94732   1.13913    0.015
 4009.00    1.81267   1.14260    0.015
 4010.00    2.05556   1.14419    0.015
 4011.00    2.20172   1.14778    0.015
 4012.00    1.33342   1.15114    0.015
 4013.00    0.34847   1.15346    0.015
 4014.00    0.52312   1.15458    0.015
 4015.00    0.78742   1.15423    0.016
 4016.00    0.88010   1.15452    0.016
 4017.00    0.96556   1.15284    0.015
 4018.00    0.73324   1.14985    0.015
 4019.00    0.50545   1.14714    0.015
 4020.00    0.60372   1.14390    0.015
 4021.00    0.70924   1.14063    0.015
 4022.00    0.94272   1.13619    0.015
 4023.00    1.18926   1.13063    0.015
 4024.00    1.57618   1.12671    0.016
 4025.00    1.82066   1.12362    0.016
 4026.00    0.98381   1.12077    0.016
 4027.00    0.16844   1.11922    0.016
 4028.00   -0.52306   1.11689    0.000
 4029.00   -0.75748   1.11618    0.000
 4030.00    1.10287   1.11708    0.016
 4031.00    2.42932   1.11794    0.017
 4032.00    1.75303   1.12027    0.016
 4033.00    1.08550   1.12092    0.016
 4034.00    0.44544   1.12227    0.016
 4035.00    0.19087   1.12531    0.015
 4036.00    0.96181   1.12675    0.016
 4037.00    1.46258   1.12781    0.016
 4038.00    1.34639   1.12659    0.016
 4039.00    1.16290   1.12507    0.016
 4040.00    0.84638   1.12570    0.016
 4041.00    0.84783   1.12500    0.017
 4042.00    1.39707   1.12410    0.016
 4043.00    1.40129   1.12231    0.016
 4044.00    0.58331   1.11976    0.016
 4045.00    0.08452   1.11869    0.016
 4046.00    0.00883   1.11762    0.016
 4047.00    0.46786   1.11742    0.016
 4048.00    1.55115   1.11703    0.016
 4049.00    1.69151   1.11523    0.017
 4050.00    0.86107   1.11260    0.016
 4051.00    1.00000   1.11004    0.016
 4052.00    2.01921   1.10842    0.017
 4053.00    2.00775   1.10692    0.016
 4054.00    1.17139   1.10426    0.016
 4055.00    0.93542   1.10010    0.016
 4056.00    1.12224   1.09606    0.016
 4057.00    1.17262   1.09305    0.016
 4058.00    1.13873   1.09083    0.016
 4059.00    1.12884   1.08797    0.016
 4060.00    1.13189   1.08498    0.016
 4061.00    1.26733   1.08253    0.016
 4062.00    1.46483   1.08039    0.015
 4063.00    1.21238   1.07912    0.015
 4064.00    0.77815   1.07696    0.015
 4065.00    0.85695   1.07526    0.015
 4066.00    1.11264   1.07450    0.015
 4067.00    1.21498   1.07298    0.015
 4068.00    1.27280   1.07250    0.015
 4069.00    0.95939   1.07121    0.015
 4070.00    0.55681   1.06936    0.015
 4071.00    1.11652   1.06889    0.015
 4072.00    1.86269   1.06811    0.015
 4073.00    2.06763   1.06927    0.015
 4074.00    2.19101   1.07071    0.016
 4075.00    1.46707   1.07055    0.015
 4076.00    0.64941   1.07166    0.015
 4077.00    0.84212   1.07299    0.015
 4078.00    1.10882   1.07560    0.015
 4079.00    1.29111   1.07883    0.015
 4080.00    1.47016   1.07981    0.015
 4081.00    0.73365   1.08068    0.015
 4082.00    0.01666   1.08060    0.015
 4083.00    0.22641   1.07908    0.015
 4084.00    0.46597   1.07693    0.015
 4085.00    1.19671   1.07190    0.015
 4086.00    1.80154   1.06553    0.015
 4087.00    1.11073   1.05722    0.015
 4088.00    0.52060   1.04548    0.015
 4089.00    0.66928   1.03226    0.016
 4090.00    0.75745   1.01660    0.016
 4091.00    0.50618   1.00034    0.016
 4092.00    0.34923   0.98401    0.000
 4093.00    0.61432   0.96612    0.000
 4094.00    0.77367   0.94839    0.000
 4095.00    0.54464   0.93152    0.000
 4096.00    0.50776   0.91730    0.000
 4097.00    1.06181   0.90653    0.000
 4098.00    1.42895   0.89878    0.000
 4099.00    1.30755   0.89343    0.000
 4100.00    1.18925   0.89126    0.000
 4101.00    1.07794   0.89360    0.000
 4102.00    1.01625   0.89937    0.000
 4103.00    1.05110   0.90882    0.000
 4104.00    1.12490   0.91993    0.000
 4105.00    1.26480   0.93178    0.000
 4106.00    1.38058   0.94572    0.000
 4107.00    1.46048   0.95978    0.000
 4108.00    1.33068   0.97412    0.000
 4109.00    0.92688   0.98798    0.000
 4110.00    0.85867   1.00008    0.000
 4111.00    1.17673   1.01119    0.000
 4112.00    1.29049   1.02093    0.000
 4113.00    1.19686   1.02913    0.016
 4114.00    1.18270   1.03616    0.016
 4115.00    1.23970   1.04199    0.016
 4116.00    0.79437   1.04577    0.016
 4117.00   -0.04728   1.04884    0.000
 4118.00   -0.05342   1.05107    0.000
 4119.00    0.52024   1.05247    0.016
 4120.00    1.08906   1.05375    0.016
 4121.00    1.65492   1.05341    0.016
 4122.00    1.45429   1.05283    0.016
 4123.00    0.84645   1.05269    0.016
 4124.00    1.07906   1.05233    0.016
 4125.00    1.69920   1.05181    0.016
 4126.00    1.40036   1.05100    0.016
 4127.00    0.73661   1.04963    0.016
 4128.00    0.81223   1.04973    0.016
 4129.00    1.13809   1.05052    0.015
 4130.00    1.19135   1.05024    0.015
 4131.00    1.16706   1.05080    0.015
 4132.00    1.14024   1.04996    0.015
 4133.00    1.11283   1.05021    0.015
 4134.00    0.99272   1.05171    0.015
 4135.00    0.85511   1.05123    0.015
 4136.00    0.27967   1.05094    0.015
 4137.00   -0.35970   1.04909    0.000
 4138.00   -0.05257   1.04758    0.000
 4139.00    0.35514   1.04735    0.015
 4140.00    1.26143   1.04619    0.015
 4141.00    2.20221   1.04445    0.015
 4142.00    2.13556   1.04187    0.015
 4143.00    2.03417   1.04051    0.015
 4144.00    2.01658   1.03985    0.015
 4145.00    1.98473   1.03967    0.015
 4146.00    1.47636   1.03946    0.015
 4147.00    0.97439   1.03830    0.015
 4148.00    0.57116   1.03918    0.015
 4149.00    0.20625   1.03997    0.015
 4150.00    0.21903   1.04121    0.015
 4151.00    0.24995   1.04318    0.015
 4152.00    0.40968   1.04405    0.014
 4153.00    0.62379   1.04676    0.015
 4154.00    1.13478   1.04870    0.015
 4155.00    1.53741   1.05068    0.015
 4156.00    1.46643   1.05312    0.015
 4157.00    1.24984   1.05407    0.015
 4158.00    0.50954   1.05618    0.015
 4159.00   -0.00128   1.05674    0.000
 4160.00    0.18039   1.05650    0.014
 4161.00    0.35766   1.05610    0.014
 4162.00    0.52361   1.05340    0.015
 4163.00    0.60118   1.05155    0.015
 4164.00    0.48351   1.04890    0.015
 4165.00    0.53403   1.04480    0.015
 4166.00    0.90673   1.04079    0.015
 4167.00    0.82914   1.03525    0.015
 4168.00   -0.00102   1.03104    0.000
 4169.00   -0.30252   1.02811    0.000
 4170.00    0.17038   1.02418    0.015
 4171.00    0.33422   1.02065    0.015
 4172.00    0.10000   1.01721    0.015
 4173.00   -0.09209   1.01586    0.000
 4174.00   -0.23637   1.01620    0.000
 4175.00    0.03861   1.01624    0.015
 4176.00    0.73321   1.01614    0.016
 4177.00    1.15781   1.01600    0.016
 4178.00    1.34409   1.01866    0.016
 4179.00    1.21943   1.02158    0.015
 4180.00    0.85293   1.02344    0.015
 4181.00    0.88749   1.02504    0.015
 4182.00    1.19634   1.02567    0.015
 4183.00    1.03338   1.02899    0.015
 4184.00    0.58762   1.03148    0.015
 4185.00    0.40156   1.03152    0.015
 4186.00    0.35132   1.03170    0.015
 4187.00    0.61462   1.03132    0.015
 4188.00    1.02013   1.03209    0.015
 4189.00    1.45465   1.03157    0.015
 4190.00    1.90049   1.02926    0.015
 4191.00    1.28537   1.02701    0.015
 4192.00    0.31787   1.02514    0.015
 4193.00   -0.32178   1.02388    0.000
 4194.00   -0.87006   1.02135    0.000
 4195.00   -0.45712   1.01943    0.000
 4196.00    0.17635   1.01810    0.016
 4197.00    0.62627   1.01715    0.015
 4198.00    1.04245   1.01820    0.015
 4199.00    0.97135   1.01831    0.015
 4200.00    0.83135   1.01892    0.015
 4201.00    0.61045   1.02169    0.015
 4202.00    0.38131   1.02421    0.015
 4203.00    0.52415   1.02778    0.014
 4204.00    0.69122   1.03087    0.014
 4205.00    0.75272   1.03210    0.014
 4206.00    0.81094   1.03579    0.014
 4207.00    0.84925   1.03964    0.014
 4208.00    0.88877   1.04138    0.015
 4209.00    0.96364   1.04299    0.015
 4210.00    1.05950   1.04262    0.015
 4211.00    1.46079   1.04302    0.015
 4212.00    1.77948   1.04413    0.015
 4213.00    1.31705   1.04217    0.015
 4214.00    0.92138   1.03983    0.015
 4215.00    0.98468   1.03693    0.014
 4216.00    1.01830   1.03314    0.014
 4217.00    0.89416   1.02913    0.014
 4218.00    0.78602   1.02478    0.014
 4219.00    0.74613   1.02027    0.014
 4220.00    0.69088   1.01524    0.014
 4221.00    0.58145   1.01068    0.014
 4222.00    0.38071   1.00557    0.014
 4223.00   -0.09044   1.00227    0.000
 4224.00   -0.27048   1.00107    0.000
 4225.00    0.28408   0.99866    0.014
 4226.00    0.77754   0.99824    0.013
 4227.00    1.13822   0.99890    0.013
 4228.00    1.28408   0.99963    0.013
 4229.00    1.02482   1.00299    0.013
 4230.00    0.89382   1.00547    0.013
 4231.00    0.97396   1.00849    0.013
 4232.00    0.92585   1.01319    0.013
 4233.00    0.69260   1.01616    0.013
 4234.00    0.55010   1.02036    0.013
 4235.00    0.52282   1.02441    0.013
 4236.00    0.81156   1.02697    0.013
 4237.00    1.45387   1.03016    0.013
 4238.00    1.74980   1.03254    0.013
 4239.00    1.70394   1.03512    0.013
 4240.00    1.53733   1.03589    0.013
 4241.00    1.26565   1.03560    0.013
 4242.00    1.20646   1.03626    0.013
 4243.00    1.31016   1.03537    0.013
 4244.00    1.21915   1.03429    0.013
 4245.00    0.99692   1.03111    0.014
 4246.00    0.90319   1.02858    0.014
 4247.00    0.88532   1.02902    0.014
 4248.00    0.89215   1.02604    0.014
 4249.00    0.91170   1.02271    0.014
 4250.00    0.98958   1.02030    0.014
 4251.00    1.09349   1.01909    0.014
 4252.00    0.87648   1.02113    0.014
 4253.00    0.53643   1.01977    0.014
 4254.00    0.49340   1.01803    0.014
 4255.00    0.54716   1.01914    0.014
 4256.00    0.16802   1.01955    0.014
 4257.00   -0.32930   1.02104    0.000
 4258.00   -0.09730   1.02126    0.000
 4259.00    0.29814   1.02056    0.014
 4260.00    0.49754   1.02175    0.014
 4261.00    0.66189   1.02032    0.014
 4262.00    0.95132   1.01761    0.014
 4263.00    1.25787   1.01646    0.014
 4264.00    1.33720   1.01368    0.014
 4265.00    1.39433   1.01093    0.014
 4266.00    1.14981   1.00724    0.014
 4267.00    0.88684   1.00241    0.014
 4268.00    0.93525   1.00141    0.014
 4269.00    0.99161   0.99818    0.014
 4270.00    0.95988   0.99372    0.014
 4271.00    0.93105   0.99360    0.014
 4272.00    0.97912   0.99211    0.014
 4273.00    1.00589   0.99240    0.014
 4274.00    0.73983   0.99251    0.014
 4275.00    0.48415   0.98926    0.014
 4276.00    0.32276   0.99103    0.014
 4277.00    0.31788   0.99157    0.015
 4278.00    1.35553   0.98966    0.015
 4279.00    2.22982   0.98931    0.015
 4280.00    2.25842   0.98543    0.015
 4281.00    2.16050   0.98320    0.014
 4282.00    1.53438   0.98201   -2.000
 4283.00    0.96366   0.97714   -2.000
 4284.00    0.58416   0.97150   -2.000
 4285.00    0.19010   0.96610   -2.000
 4286.00   -0.24624   0.96151   -2.000
 4287.00   -0.18819   0.95760   -2.000
 4288.00    1.09611   0.95216   -2.000
 4289.00    2.04447   0.94327   -2.000
 4290.00    2.27465   0.93710   -2.000
 4291.00    2.30930   0.93330   -2.000
 4292.00    1.98092   0.92571   -2.000
 4293.00    1.46788   0.91906   -2.000
 4294.00    0.65534   0.91116   -2.000
 4295.00    0.31366   0.90380   -2.000
 4296.00    0.64184   0.90097   -2.000
 4297.00    0.96051   0.89313   -2.000
 4298.00    1.26728   0.88617    0.015
 4299.00    1.28604   0.88420    0.015
 4300.00    0.98709   0.88042    0.014
 4301.00    0.81992   0.87971    0.014
 4302.00    0.78096   0.87896    0.015
 4303.00    0.94891   0.87804    0.015
 4304.00    1.29439   0.88318    0.014
 4305.00    1.12146   0.88843    0.014
 4306.00    0.55677   0.89474    0.014
 4307.00    0.56678   0.90296    0.014
 4308.00    0.95842   0.91080    0.014
 4309.00    1.25110   0.92069    0.014
 4310.00    1.48623   0.93077    0.014
 4311.00    1.62733   0.94177    0.014
 4312.00    1.72077   0.95203    0.014
 4313.00    1.68807   0.95958    0.014
 4314.00    1.60002   0.96788    0.014
 4315.00    1.38401   0.97353    0.014
 4316.00    1.11981   0.97735    0.014
 4317.00    1.01587   0.98184    0.014
 4318.00    0.96316   0.98271    0.014
 4319.00    0.98560   0.98289    0.014
 4320.00    1.02814   0.98060    0.014
 4321.00    1.09846   0.97600    0.014
 4322.00    1.17487   0.97512    0.014
 4323.00    1.01539   0.97223    0.014
 4324.00    0.81488   0.96633    0.014
 4325.00    0.88859   0.96031    0.014
 4326.00    0.99856   0.95315    0.014
 4327.00    1.46421   0.94665    0.014
 4328.00    1.96309   0.93878    0.014
 4329.00    2.02582   0.92918    0.014
 4330.00    2.06361   0.92096    0.000
 4331.00    1.67644   0.91238    0.000
 4332.00    1.27834   0.90088    0.000
 4333.00    0.76014   0.88971    0.000
 4334.00    0.28266   0.88102    0.000
 4335.00    0.78285   0.87196    0.000
 4336.00    1.23551   0.86598    0.000
 4337.00    1.06970   0.86392    0.000
 4338.00    0.90803   0.86078    0.000
 4339.00    0.78257   0.86017    0.000
 4340.00    0.72522   0.86369    0.000
 4341.00    1.10776   0.86813    0.000
 4342.00    1.42058   0.87503    0.000
 4343.00    1.38164   0.88373    0.000
 4344.00    1.19850   0.89446    0.000
 4345.00    0.42674   0.90694    0.000
 4346.00   -0.05815   0.91564    0.000
 4347.00    0.42749   0.92480    0.000
 4348.00    0.87936   0.93901    0.000
 4349.00    1.23487   0.95100    0.000
 4350.00    1.45539   0.96003    0.000
 4351.00    1.34679   0.97018    0.013
 4352.00    1.24887   0.98088    0.013
 4353.00    1.17344   0.99025    0.013
 4354.00    1.15152   0.99635    0.013
 4355.00    1.22742   1.00281    0.013
 4356.00    1.28352   1.01229    0.013
 4357.00    1.30799   1.01942    0.013
 4358.00    1.46931   1.02273    0.014
 4359.00    1.82252   1.02659    0.013
 4360.00    1.82501   1.03136    0.013
 4361.00    1.39478   1.03366    0.013
 4362.00    1.07845   1.03258    0.013
 4363.00    0.88600   1.03197    0.013
 4364.00    0.93625   1.03303    0.014
 4365.00    1.21932   1.03159    0.013
 4366.00    1.39159   1.02757    0.013
 4367.00    1.47013   1.02393    0.013
 4368.00    1.57590   1.02094    0.013
 4369.00    1.70196   1.01604    0.013
 4370.00    1.42201   1.00877    0.013
 4371.00    0.87637   1.00334    0.013
 4372.00    0.50891   1.00006    0.013
 4373.00    0.24349   0.99524    0.013
 4374.00    0.62369   0.98791    0.013
 4375.00    1.32594   0.98068    0.013
 4376.00    1.37558   0.97657    0.013
 4377.00    1.14358   0.97142    0.013
 4378.00    1.15200   0.96352    0.013
 4379.00    1.24938   0.95804    0.013
 4380.00    1.11020   0.95585    0.013
 4381.00    0.89684   0.95501    0.013
 4382.00    0.75600   0.95150    0.013
 4383.00    0.63414   0.94821    0.013
 4384.00    0.51743   0.95011    0.013
 4385.00    0.40181   0.95172    0.013
 4386.00    0.57677   0.95266    0.013
 4387.00    0.80088   0.95484    0.013
 4388.00    1.22043   0.95864    0.013
 4389.00    1.66496   0.96459    0.013
 4390.00    1.13025   0.96683    0.013
 4391.00    0.50817   0.96902    0.013
 4392.00    0.30289   0.97431    0.013
 4393.00    0.11982   0.97715    0.013
 4394.00    0.32051   0.97946    0.013
 4395.00    0.52710   0.97974    0.013
 4396.00    0.60287   0.97984    0.013
 4397.00    0.69760   0.98362    0.013
 4398.00    1.20923   0.98346    0.013
 4399.00    1.65567   0.98066    0.013
 4400.00    1.29676   0.98096    0.013
 4401.00    0.97224   0.98198    0.013
 4402.00    0.93715   0.98266    0.013
 4403.00    0.95027   0.98145    0.013
 4404.00    1.26567   0.98082    0.013
 4405.00    1.47275   0.98475    0.013
 4406.00    1.14711   0.98707    0.013
 4407.00    0.93951   0.98656    0.013
 4408.00    1.20314   0.98917    0.013
 4409.00    1.36567   0.99159    0.013
 4410.00    1.19293   0.99301    0.013
 4411.00    1.07693   0.99617    0.013
 4412.00    1.11992   0.99799    0.013
 4413.00    1.21656   1.00085    0.013
 4414.00    1.44180   1.00329    0.013
 4415.00    1.60737   1.00384    0.013
 4416.00    1.64943   1.00685    0.013
 4417.00    1.58848   1.00667    0.013
 4418.00    1.34211   1.00573    0.013
 4419.00    1.14326   1.00867    0.013
 4420.00    1.01921   1.00914    0.013
 4421.00    1.02950   1.00881    0.013
 4422.00    1.22542   1.00762    0.013
 4423.00    1.32467   1.00732    0.013
 4424.00    1.30635   1.00887    0.013
 4425.00    1.11001   1.00530    0.013
 4426.00    0.72279   1.00366    0.013
 4427.00    0.68178   1.00491    0.013
 4428.00    0.96822   1.00332    0.013
 4429.00    1.37296   1.00289    0.013
 4430.00    1.87635   1.00072    0.013
 4431.00    1.84263   1.00044    0.013
 4432.00    1.41459   1.00353    0.013
 4433.00    1.56237   1.00177    0.013
 4434.00    2.08142   1.00147    0.013
 4435.00    1.98986   1.00382    0.014
 4436.00    1.55390   1.00366    0.014
 4437.00    1.28731   1.00487    0.014
 4438.00    1.10389   1.00534    0.013
 4439.00    1.19346   1.00521    0.013
 4440.00    1.39889   1.00874    0.014
 4441.00    1.34128   1.00951    0.014
 4442.00    1.18807   1.00685    0.014
 4443.00    1.04327   1.00775    0.014
 4444.00    0.90105   1.00753    0.014
 4445.00    1.09737   1.00433    0.014
 4446.00    1.38037   1.00245    0.014
 4447.00    0.84436   0.99927    0.014
 4448.00    0.13765   0.99691    0.013
 4449.00    0.80502   0.99445    0.014
 4450.00    1.69813   0.98741    0.014
 4451.00    1.64352   0.98358    0.014
 4452.00    1.47206   0.98216    0.014
 4453.00    1.01576   0.97594    0.014
 4454.00    0.53522   0.97130    0.013
 4455.00    0.82570   0.97043    0.013
 4456.00    1.15422   0.96771    0.013
 4457.00    0.75475   0.96515    0.013
 4458.00    0.35782   0.96472    0.013
 4459.00    0.84757   0.96482    0.013
 4460.00    1.31832   0.96646    0.013
 4461.00    1.40421   0.96752    0.000
 4462.00    1.44822   0.96867    0.000
 4463.00    1.00009   0.97300    0.000
 4464.00    0.60219   0.97584    0.000
 4465.00    0.61166   0.97831    0.000
 4466.00    0.74180   0.98363    0.000
 4467.00    1.60629   0.98788    0.000
 4468.00    2.22413   0.99176    0.000
 4469.00    1.65876   0.99633    0.000
 4470.00    1.14681   1.00010    0.000
 4471.00    0.84348   1.00367    0.000
 4472.00    0.69248   1.00657    0.000
 4473.00    1.03678   1.00928    0.000
 4474.00    1.34868   1.01186    0.000
 4475.00    1.57143   1.01368    0.000
 4476.00    1.64690   1.01532    0.000
 4477.00    1.37532   1.01673    0.000
 4478.00    1.12402   1.01765    0.000
 4479.00    0.91404   1.01793    0.000
 4480.00    0.88512   1.01787    0.000
 4481.00    1.17717   1.01792    0.000
 4482.00    1.36045   1.01752    0.013
 4483.00    1.37504   1.01687    0.013
 4484.00    1.40650   1.01671    0.013
 4485.00    1.46097   1.01629    0.013
 4486.00    1.63742   1.01625    0.013
 4487.00    1.96013   1.01753    0.013
 4488.00    1.78201   1.01777    0.013
 4489.00    1.07440   1.01768    0.013
 4490.00    0.94286   1.01946    0.013
 4491.00    1.34852   1.02087    0.013
 4492.00    1.38386   1.02280    0.013
 4493.00    1.11475   1.02509    0.013
 4494.00    1.27561   1.02781    0.013
 4495.00    1.74762   1.03322    0.013
 4496.00    1.44429   1.03645    0.013
 4497.00    0.64843   1.03876    0.013
 4498.00    0.55212   1.04388    0.013
 4499.00    0.84438   1.04733    0.013
 4500.00    0.98603   1.05060    0.013
 4501.00    1.05491   1.05368    0.013
 4502.00    1.12073   1.05583    0.013
 4503.00    1.18526   1.05883    0.013
 4504.00    1.19075   1.05845    0.013
 4505.00    1.17518   1.05823    0.013
 4506.00    1.07103   1.05930    0.013
 4507.00    0.94018   1.05702    0.013
 4508.00    1.14398   1.05563    0.013
 4509.00    1.43160   1.05298    0.013
 4510.00    1.36237   1.04872    0.013
 4511.00    1.22061   1.04647    0.013
 4512.00    0.99726   1.04157    0.013
 4513.00    0.76088   1.03771    0.013
 4514.00    0.88832   1.03374    0.013
 4515.00    1.05899   1.02639    0.013
 4516.00    0.87188   1.02312    0.013
 4517.00    0.65583   1.01726    0.013
 4518.00    1.00675   1.00915    0.013
 4519.00    1.38346   1.00590    0.013
 4520.00    0.96756   0.99890    0.013
 4521.00    0.55501   0.99227    0.012
 4522.00    0.80991   0.98831    0.013
 4523.00    1.04382   0.98125    0.013
 4524.00    0.88358   0.97849    0.013
 4525.00    0.76869   0.97464    0.013
 4526.00    1.16185   0.96858    0.013
 4527.00    1.45464   0.96818    0.013
 4528.00    0.96199   0.96635    0.012
 4529.00    0.60700   0.96553    0.012
 4530.00    1.06591   0.96673    0.012
 4531.00    1.37513   0.96609    0.012
 4532.00    0.98363   0.96895    0.013
 4533.00    0.65102   0.97071    0.013
 4534.00    0.54352   0.97185    0.013
 4535.00    0.54169   0.97658    0.013
 4536.00    0.87676   0.97751    0.013
 4537.00    1.05545   0.97888    0.013
 4538.00    0.81155   0.98159    0.013
 4539.00    0.75045   0.98197    0.013
 4540.00    1.11289   0.98499    0.013
 4541.00    1.32956   0.98446    0.013
 4542.00    1.25402   0.98330    0.013
 4543.00    1.03486   0.98644    0.013
 4544.00    0.56499   0.98388    0.013
 4545.00    0.45486   0.98291    0.012
 4546.00    0.89444   0.98600    0.012
 4547.00    1.09058   0.98367    0.012
 4548.00    0.95992   0.98404    0.013
 4549.00    0.77065   0.98643    0.013
 4550.00    0.51210   0.98618    0.000
 4551.00    0.42460   0.98943    0.000
 4552.00    0.51538   0.98994    0.000
 4553.00    0.76705   0.99053    0.000
 4554.00    1.16666   0.99637    0.000
 4555.00    1.23470   0.99680    0.000
 4556.00    1.03402   0.99759    0.000
 4557.00    1.04051   1.00196    0.000
 4558.00    1.19475   1.00239    0.000
 4559.00    1.13796   1.00523    0.000
 4560.00    0.94910   1.00777    0.000
 4561.00    0.64040   1.00743    0.000
 4562.00    0.26613   1.01088    0.000
 4563.00    0.45901   1.00991    0.000
 4564.00    0.92150   1.00826    0.000
 4565.00    0.79026   1.01247    0.000
 4566.00    0.41551   1.01060    0.000
 4567.00    0.60417   1.00821    0.000
 4568.00    0.99025   1.00968    0.000
 4569.00    1.11656   1.00719    0.000
 4570.00    1.16608   1.00678    0.000
 4571.00    0.99488   1.00579    0.000
 4572.00    0.76960   1.00120    0.000
 4573.00    0.81826   1.00124    0.000
 4574.00    0.92120   0.99919    0.000
 4575.00    1.00283   0.99379    0.000
 4576.00    1.08116   0.99399    0.000
 4577.00    0.64914   0.99273    0.000
 4578.00    0.15871   0.98802    0.000
 4579.00    0.26144   0.98729    0.000
 4580.00    0.40973   0.98629    0.000
 4581.00    0.58703   0.98373    0.000
 4582.00    0.76553   0.98347    0.000
 4583.00    1.51626   0.98176    0.000
 4584.00    2.23509   0.97982    0.000
 4585.00    1.37140   0.98119    0.000
 4586.00    0.57452   0.98011    0.000
 4587.00    0.94555   0.97833    0.000
 4588.00    1.26489   0.97990    0.000
 4589.00    1.03130   0.97873    0.000
 4590.00    0.80146   0.97774    0.000
 4591.00    0.60004   0.97966    0.000
 4592.00    0.42052   0.97839    0.000
 4593.00    0.36688   0.97831    0.000
 4594.00    0.37948   0.98001    0.000
 4595.00    0.69472   0.97900    0.000
 4596.00    0.90942   0.98074    0.000
 4597.00    0.74799   0.98286    0.000
 4598.00    0.68358   0.98312    0.000
 4599.00    0.92258   0.98610    0.000
 4600.00    1.14763   0.98838    0.000
 4601.00    1.33563   0.99057    0.000
 4602.00    1.41441   0.99398    0.000
 4603.00    1.24427   0.99592    0.000
 4604.00    1.21482   0.99916    0.000
 4605.00    1.46294   1.00152    0.000
 4606.00    1.36044   1.00395    0.000
 4607.00    0.65503   1.00789    0.000
 4608.00    0.38914   1.00792    0.000
 4609.00    0.78503   1.01035    0.000
 4610.00    1.14171   1.01384    0.000
 4611.00    1.44650   1.01238    0.000
 4612.00    1.52545   1.01471    0.000
 4613.00    1.34121   1.01671    0.000
 4614.00    1.14741   1.01428    0.000
 4615.00    0.94379   1.01596    0.000
 4616.00    1.04139   1.01615    0.000
 4617.00    1.41204   1.01424    0.000
 4618.00    1.47342   1.01535    0.000
 4619.00    1.28771   1.01359    0.000
 4620.00    1.03086   1.01233    0.000
 4621.00    0.72399   1.01277    0.000
 4622.00    1.07444   1.00933    0.000
 4623.00    1.83016   1.00758    0.000
 4624.00    1.69661   1.00760    0.000
 4625.00    1.08415   1.00405    0.000
 4626.00    0.91490   1.00071    0.000
 4627.00    0.95294   0.99933    0.000
 4628.00    0.87316   0.99653    0.000
 4629.00    0.74588   0.99172    0.000
 4630.00    0.91772   0.98900    0.000
 4631.00    1.19246   0.98720    0.000
 4632.00    1.07652   0.98158    0.000
 4633.00    0.84742   0.97783    0.000
 4634.00    1.01587   0.97635    0.000
 4635.00    1.27953   0.97109    0.000
 4636.00    1.08845   0.96738    0.000
 4637.00    0.80953   0.96497    0.000
 4638.00    0.89444   0.96074    0.000
 4639.00    1.03396   0.95908    0.000
 4640.00    0.90727   0.95612    0.000
 4641.00    0.75128   0.95302    0.000
 4642.00    0.74686   0.95362    0.000
 4643.00    0.75347   0.95074    0.000
 4644.00    0.91329   0.94930    0.000
 4645.00    1.07891   0.95172    0.000
 4646.00    1.57358   0.94968    0.000
 4647.00    2.03858   0.95001    0.000
 4648.00    1.34287   0.95326    0.000
 4649.00    0.70220   0.95225    0.000
 4650.00    0.96113   0.95354    0.000
 4651.00    1.18652   0.95612    0.000
 4652.00    1.06851   0.95562    0.000
 4653.00    0.95409   0.95717    0.000
 4654.00    0.86600   0.95841    0.000
 4655.00    0.84295   0.95715    0.000
 4656.00    1.18352   0.95709    0.000
 4657.00    1.43158   0.95642    0.000
 4658.00    1.26696   0.95443    0.000
 4659.00    1.08981   0.95305    0.000
 4660.00    0.86681   0.95141    0.000
 4661.00    0.64440   0.94885    0.000
 4662.00    0.42376   0.94701    0.000
 4663.00    0.23872   0.94534    0.000
 4664.00    0.14651   0.94258    0.000
 4665.00    0.17399   0.94168    0.000
 4666.00    0.46973   0.94108    0.000
 4667.00    0.73859   0.93871    0.000
 4668.00    0.95526   0.93926    0.000
 4669.00    1.02216   0.94020    0.000
 4670.00    0.83541   0.93843    0.000
 4671.00    0.68932   0.93962    0.000
 4672.00    0.60355   0.94181    0.000
 4673.00    0.55321   0.94118    0.000
 4674.00    0.54907   0.94217    0.000
 4675.00    0.74140   0.94396    0.000
 4676.00    1.15946   0.94373    0.000
 4677.00    1.30990   0.94417    0.000
 4678.00    1.18915   0.94521    0.000
 4679.00    1.12441   0.94510    0.000
 4680.00    1.10971   0.94526    0.000
 4681.00    0.94123   0.94563    0.000
 4682.00    0.65163   0.94510    0.000
 4683.00    0.69519   0.94535    0.000
 4684.00    0.96951   0.94544    0.000
 4685.00    1.01302   0.94425    0.000
 4686.00    0.91634   0.94459    0.000
 4687.00    0.76506   0.94435    0.000
 4688.00    0.58481   0.94232    0.000
 4689.00    0.53899   0.94222    0.000
 4690.00    0.55503   0.94156    0.000
 4691.00    0.79723   0.93901    0.000
 4692.00    1.12905   0.93794    0.000
 4693.00    1.08612   0.93668    0.000
 4694.00    0.91666   0.93420    0.000
 4695.00    1.02780   0.93223    0.000
 4696.00    1.21856   0.93056    0.000
 4697.00    1.29203   0.92884    0.000
 4698.00    1.33802   0.92654    0.000
 4699.00    1.23451   0.92508    0.000
 4700.00    1.10286   0.92455    0.000
 4701.00    1.15899   0.92269    0.000
 4702.00    1.24244   0.92224    0.000
 4703.00    1.14981   0.92296    0.000
 4704.00    1.03857   0.92242    0.000
 4705.00    0.81500   0.92380    0.000
 4706.00    0.58371   0.92545    0.000
 4707.00    0.86370   0.92635    0.000
 4708.00    1.16108   0.92965    0.000
 4709.00    0.98470   0.93194    0.000
 4710.00    0.81041   0.93368    0.000
 4711.00    0.72819   0.93790    0.000
 4712.00    0.65541   0.94047    0.000
 4713.00    0.72752   0.94228    0.000
 4714.00    0.80346   0.94582    0.000
 4715.00    0.91691   0.94790    0.000
 4716.00    1.01169   0.94915    0.000
 4717.00    0.97444   0.95085    0.000
 4718.00    0.96140   0.95177    0.000
 4719.00    1.08001   0.95173    0.000
 4720.00    1.08676   0.95129    0.000
 4721.00    0.60599   0.95111    0.000
 4722.00    0.25398   0.94945    0.000
 4723.00    0.36388   0.94762    0.000
 4724.00    0.57794   0.94719    0.000
 4725.00    1.10556   0.94450    0.000
 4726.00    1.45177   0.94246    0.000
 4727.00    1.33315   0.94257    0.000
 4728.00    1.30903   0.93986    0.000
 4729.00    1.49323   0.93919    0.000
 4730.00    1.54245   0.94028    0.000
 4731.00    1.33358   0.93800    0.000
 4732.00    1.17975   0.93938    0.000
 4733.00    1.11773   0.94152    0.000
 4734.00    1.06084   0.93960    0.000
 4735.00    1.01148   0.94250    0.000
 4736.00    0.85986   0.94528    0.000
 4737.00    0.57679   0.94373    0.000
 4738.00    0.54520   0.94706    0.000
 4739.00    0.79848   0.94934    0.000
 4740.00    1.06378   0.94781    0.000
 4741.00    1.34109   0.95057    0.000
 4742.00    1.43235   0.95166    0.000
 4743.00    1.35968   0.95006    0.000
 4744.00    1.13846   0.95140    0.000
 4745.00    0.80192   0.95090    0.000
 4746.00    0.68653   0.94928    0.000
 4747.00    0.72209   0.94907    0.000
 4748.00    0.99886   0.94665    0.000
 4749.00    1.41995   0.94475    0.000
 4750.00    1.53552   0.94361    0.000
 4751.00    1.49163   0.93997    0.000
 4752.00    1.22550   0.93749    0.000
 4753.00    0.85878   0.93574    0.000
 4754.00    0.81039   0.93195    0.000
 4755.00    0.88594   0.92930    0.000
 4756.00    1.05098   0.92718    0.000
 4757.00    1.24567   0.92414    0.000
 4758.00    1.12470   0.92225    0.000
 4759.00    0.91598   0.92025    0.000
 4760.00    0.96200   0.91846    0.000
 4761.00    1.06629   0.91811    0.011
 4762.00    0.95551   0.91685    0.011
 4763.00    0.80533   0.91657    0.011
 4764.00    0.82445   0.91790    0.011
 4765.00    0.86742   0.91761    0.010
 4766.00    1.01331   0.91846    0.011
 4767.00    1.16964   0.92100    0.011
 4768.00    1.19767   0.92142    0.011
 4769.00    1.21740   0.92242    0.011
 4770.00    1.15254   0.92524    0.011
 4771.00    1.08495   0.92606    0.011
 4772.00    0.93276   0.92639    0.011
 4773.00    0.78072   0.92837    0.012
 4774.00    0.63342   0.92893    0.012
 4775.00    0.49556   0.92834    0.012
 4776.00    0.49421   0.92920    0.012
 4777.00    0.50318   0.92902    0.011
 4778.00    0.60922   0.92760    0.011
 4779.00    0.72434   0.92791    0.011
 4780.00    0.90162   0.92732    0.011
 4781.00    1.06645   0.92596    0.010
 4782.00    1.16533   0.92675    0.010
 4783.00    1.17565   0.92584    0.010
 4784.00    0.80878   0.92501    0.010
 4785.00    0.54716   0.92712    0.010
 4786.00    0.65541   0.92629    0.010
 4787.00    0.78491   0.92596    0.010
 4788.00    0.97720   0.92915    0.010
 4789.00    1.11762   0.92862    0.011
 4790.00    1.12742   0.92839    0.010
 4791.00    1.13625   0.93162    0.010
 4792.00    1.14300   0.93139    0.010
 4793.00    1.10558   0.93079    0.010
 4794.00    0.98506   0.93296    0.011
 4795.00    0.88378   0.93287    0.011
 4796.00    0.81413   0.93174    0.011
 4797.00    0.88815   0.93253    0.011
 4798.00    1.16917   0.93247    0.011
 4799.00    1.29508   0.93097    0.011
 4800.00    1.22442   0.93085    0.011
 4801.00    1.06204   0.93093    0.011
 4802.00    0.79723   0.92938    0.011
 4803.00    0.75615   0.92900    0.011
 4804.00    0.93545   0.92938    0.011
 4805.00    0.98213   0.92818    0.011
 4806.00    0.91359   0.92800    0.011
 4807.00    0.87393   0.92876    0.011
 4808.00    0.85637   0.92808    0.011
 4809.00    0.86657   0.92802    0.011
 4810.00    0.89545   0.92891    0.011
 4811.00    0.94883   0.92842    0.011
 4812.00    1.01664   0.92791    0.011
 4813.00    0.93074   0.92867    0.011
 4814.00    0.76586   0.92799    0.011
 4815.00    0.76466   0.92651    0.011
 4816.00    0.83633   0.92689    0.011
 4817.00    1.01331   0.92569    0.011
 4818.00    1.23057   0.92316    0.011
 4819.00    1.10870   0.92314    0.011
 4820.00    0.87659   0.92128    0.011
 4821.00    0.99266   0.91812    0.011
 4822.00    1.20352   0.91794    0.011
 4823.00    1.13011   0.91553    0.011
 4824.00    0.99317   0.91238    0.011
 4825.00    0.93457   0.91222    0.011
 4826.00    0.88995   0.90954    0.011
 4827.00    0.84200   0.90681    0.011
 4828.00    0.79360   0.90659    0.011
 4829.00    0.74985   0.90382    0.011
 4830.00    0.70655   0.90163    0.011
 4831.00    0.68352   0.90102    0.011
 4832.00    0.66171   0.89828    0.011
 4833.00    1.00877   0.89640    0.011
 4834.00    1.36141   0.89499    0.011
 4835.00    0.95821   0.89218    0.011
 4836.00    0.57815   0.89033    0.011
 4837.00    0.80215   0.88758    0.011
 4838.00    1.01577   0.88424    0.011
 4839.00    1.08763   0.88191    0.011
 4840.00    1.13068   0.87742    0.011
 4841.00    0.91335   0.87308    0.011
 4842.00    0.74025   0.86960    0.011
 4843.00    0.86052   0.86280    0.011
 4844.00    0.89661   0.85689    0.011
 4845.00    0.49836   0.85185    0.011
 4846.00    0.24653   0.84243    0.011
 4847.00    0.60427   0.83456    0.011
 4848.00    0.88162   0.82812    0.000
 4849.00    0.88223   0.81667    0.000
 4850.00    0.84926   0.80732    0.000
 4851.00    0.71890   0.80057    0.000
 4852.00    0.71101   0.78874    0.000
 4853.00    1.00621   0.77944    0.000
 4854.00    1.17356   0.77419    0.000
 4855.00    1.06811   0.76434    0.000
 4856.00    1.03539   0.75725    0.000
 4857.00    1.13744   0.75538    0.000
 4858.00    1.14452   0.74962    0.000
 4859.00    0.99787   0.74635    0.000
 4860.00    0.92769   0.74883    0.000
 4861.00    0.96610   0.74811    0.000
 4862.00    1.00369   0.74900    0.000
 4863.00    1.04025   0.75508    0.000
 4864.00    1.01054   0.75881    0.000
 4865.00    0.90787   0.76296    0.000
 4866.00    0.91512   0.77073    0.000
 4867.00    1.02914   0.77720    0.000
 4868.00    0.99441   0.78317    0.000
 4869.00    0.83228   0.79055    0.000
 4870.00    1.00573   0.79769    0.000
 4871.00    1.43232   0.80412    0.000
 4872.00    1.50958   0.80978    0.000
 4873.00    1.35528   0.81589    0.000
 4874.00    1.07421   0.82181    0.000
 4875.00    0.71955   0.82539    0.010
 4876.00    0.77817   0.82956    0.010
 4877.00    1.04582   0.83453    0.010
 4878.00    0.93804   0.83652    0.010
 4879.00    0.66585   0.83863    0.010
 4880.00    0.57307   0.84275    0.010
 4881.00    0.54772   0.84441    0.010
 4882.00    0.71533   0.84512    0.010
 4883.00    0.94449   0.84891    0.010
 4884.00    1.21905   0.85148    0.010
 4885.00    1.50571   0.85170    0.010
 4886.00    1.42851   0.85572    0.010
 4887.00    1.27193   0.85986    0.010
 4888.00    0.91597   0.86014    0.010
 4889.00    0.52545   0.86440    0.010
 4890.00    0.73142   0.86972    0.010
 4891.00    1.01596   0.86998    0.010
 4892.00    0.90415   0.87394    0.010
 4893.00    0.75552   0.87932    0.010
 4894.00    0.85084   0.87904    0.010
 4895.00    0.96000   0.88187    0.010
 4896.00    1.15895   0.88607    0.010
 4897.00    1.35451   0.88488    0.010
 4898.00    0.95563   0.88596    0.010
 4899.00    0.58107   0.88823    0.010
 4900.00    0.78378   0.88616    0.010
 4901.00    0.97744   0.88540    0.010
 4902.00    1.05406   0.88557    0.010
 4903.00    1.11891   0.88290    0.010
 4904.00    1.08137   0.88064    0.010
 4905.00    1.04991   0.87904    0.010
 4906.00    1.05754   0.87601    0.010
 4907.00    1.06150   0.87278    0.010
 4908.00    1.04704   0.87002    0.010
 4909.00    1.02937   0.86682    0.010
 4910.00    0.99870   0.86325    0.010
 4911.00    1.00619   0.86027    0.010
 4912.00    1.14246   0.85720    0.010
 4913.00    1.16988   0.85398    0.010
 4914.00    0.88743   0.85200    0.010
 4915.00    0.64179   0.84962    0.010
 4916.00    0.48568   0.84737    0.010
 4917.00    0.49246   0.84747    0.010
 4918.00    0.84112   0.84634    0.010
 4919.00    1.05627   0.84526    0.010
 4920.00    1.02779   0.84784    0.010
 4921.00    0.96505   0.84810    0.010
 4922.00    0.84765   0.84774    0.010
 4923.00    0.86331   0.85221    0.010
 4924.00    1.06517   0.85330    0.010
 4925.00    1.11815   0.85279    0.010
 4926.00    0.98777   0.85801    0.010
 4927.00    0.80119   0.85914    0.010
 4928.00    0.55363   0.85789    0.010
 4929.00    0.60047   0.86290    0.010
 4930.00    0.92924   0.86368    0.010
 4931.00    1.02979   0.86181    0.010
 4932.00    0.93764   0.86639    0.010
 4933.00    0.92542   0.86699    0.010
 4934.00    0.97264   0.86513    0.010
 4935.00    0.92069   0.86957    0.010
 4936.00    0.80397   0.87039    0.010
 4937.00    0.82095   0.86903    0.010
 4938.00    0.91437   0.87342    0.010
 4939.00    1.00736   0.87450    0.010
 4940.00    1.10014   0.87353    0.000
 4941.00    1.23620   0.87746    0.000
 4942.00    1.39091   0.87829    0.000
 4943.00    1.24519   0.87702    0.000
 4944.00    0.98854   0.87986    0.000
 4945.00    0.94867   0.87973    0.000
 4946.00    0.97661   0.87751    0.000
 4947.00    1.12491   0.87890    0.000
 4948.00    1.30461   0.87752    0.000
 4949.00    0.96401   0.87423    0.000
 4950.00    0.51261   0.87443    0.000
 4951.00    0.90698   0.87218    0.000
 4952.00    1.44385   0.86831    0.000
 4953.00    1.17636   0.86795    0.000
 4954.00    0.80656   0.86565    0.000
 4955.00    0.96609   0.86204    0.000
 4956.00    1.17258   0.86163    0.000
 4957.00    0.98378   0.85999    0.000
 4958.00    0.77413   0.85729    0.000
 4959.00    0.73663   0.85700    0.000
 4960.00    0.70479   0.85621    0.000
 4961.00    0.85930   0.85450    0.000
 4962.00    1.01071   0.85419    0.000
 4963.00    1.09469   0.85391    0.000
 4964.00    1.17488   0.85269    0.000
 4965.00    1.20856   0.85212    0.000
 4966.00    1.22297   0.85182    0.000
 4967.00    1.07608   0.85024    0.000
 4968.00    0.94589   0.84912    0.000
 4969.00    0.91998   0.84840    0.000
 4970.00    0.91156   0.84574    0.000
 4971.00    0.98889   0.84389    0.000
 4972.00    1.01513   0.84275    0.000
 4973.00    0.83794   0.83889    0.000
 4974.00    0.74616   0.83642    0.000
 4975.00    0.93690   0.83532    0.000
 4976.00    1.14293   0.83086    0.000
 4977.00    1.39169   0.82827    0.000
 4978.00    1.47661   0.82788    0.000
 4979.00    1.16969   0.82374    0.000
 4980.00    1.03977   0.82175    0.000
 4981.00    1.27546   0.82247    0.000
 4982.00    1.45348   0.81923    0.000
 4983.00    1.52791   0.81827    0.000
 4984.00    1.47919   0.81991    0.000
 4985.00    1.23699   0.81738    0.000
 4986.00    1.08877   0.81731    0.000
 4987.00    1.07021   0.81913    0.000
 4988.00    1.15332   0.81651    0.000
 4989.00    1.35987   0.81669    0.000
 4990.00    1.39703   0.81787    0.000
 4991.00    1.25286   0.81439    0.000
 4992.00    1.01099   0.81414    0.000
 4993.00    0.67687   0.81424    0.000
 4994.00    0.57010   0.80963    0.000
 4995.00    0.65258   0.80858    0.000
 4996.00    0.58021   0.80775    0.000
 4997.00    0.39435   0.80234    0.000
 4998.00    0.45638   0.80055    0.000
 4999.00    0.67793   0.79934    0.000
 5000.00    0.82775   0.79374    0.000
 5001.00    0.93719   0.79157    0.000
 5002.00    0.90885   0.79055    0.000
 5003.00    0.81300   0.78541    0.000
 5004.00    0.99753   0.78322    0.000
 5005.00    1.30079   0.78281    0.000
 5006.00    1.35909   0.77854    0.000
 5007.00    1.32857   0.77669    0.000
 5008.00    1.20114   0.77718    0.000
 5009.00    1.04398   0.77407    0.000
 5010.00    0.99297   0.77278    0.000
 5011.00    0.96906   0.77441    0.000
 5012.00    1.07833   0.77268    0.000
 5013.00    1.21527   0.77206    0.000
 5014.00    1.01438   0.77496    0.000
 5015.00    0.75818   0.77473    0.000
 5016.00    0.80799   0.77470    0.000
 5017.00    0.89534   0.77865    0.000
 5018.00    0.89701   0.77976    0.000
 5019.00    0.89144   0.78010    0.000
 5020.00    0.78246   0.78439    0.000
 5021.00    0.66843   0.78627    0.000
 5022.00    0.88996   0.78672    0.000
 5023.00    1.11159   0.79036    0.000
 5024.00    1.02258   0.79212    0.000
 5025.00    0.92798   0.79253    0.000
 5026.00    0.72127   0.79458    0.000
 5027.00    0.53733   0.79536    0.000
 5028.00    0.61937   0.79575    0.000
 5029.00    0.70394   0.79589    0.010
 5030.00    0.80897   0.79527    0.010
 5031.00    0.89820   0.79590    0.010
 5032.00    0.89161   0.79460    0.010
 5033.00    0.90794   0.79283    0.010
 5034.00    1.03388   0.79409    0.010
 5035.00    1.14308   0.79246    0.010
 5036.00    1.18710   0.79026    0.010
 5037.00    1.18449   0.79239    0.010
 5038.00    1.03066   0.79160    0.010
 5039.00    0.97060   0.78975    0.010
 5040.00    1.16792   0.79260    0.010
 5041.00    1.21083   0.79327    0.010
 5042.00    0.89062   0.79234    0.010
 5043.00    0.77562   0.79543    0.010
 5044.00    1.07773   0.79741    0.010
 5045.00    1.19514   0.79761    0.010
 5046.00    0.98575   0.80040    0.010
 5047.00    0.93764   0.80290    0.010
 5048.00    1.13919   0.80410    0.010
 5049.00    1.15156   0.80630    0.010
 5050.00    0.90673   0.80823    0.010
 5051.00    0.76426   0.80998    0.010
 5052.00    0.74429   0.81159    0.010
 5053.00    0.77479   0.81209    0.010
 5054.00    0.85855   0.81354    0.010
 5055.00    0.91505   0.81461    0.010
 5056.00    0.94617   0.81337    0.010
 5057.00    0.94980   0.81364    0.010
 5058.00    0.93086   0.81416    0.010
 5059.00    0.91601   0.81153    0.010
 5060.00    0.90411   0.81017    0.010
 5061.00    1.07223   0.81008    0.010
 5062.00    1.35448   0.80691    0.010
 5063.00    1.20248   0.80407    0.009
 5064.00    0.80973   0.80321    0.009
 5065.00    0.68519   0.80033    0.009
 5066.00    0.68994   0.79683    0.009
 5067.00    0.74591   0.79510    0.009
 5068.00    0.82320   0.79288    0.009
 5069.00    0.92608   0.78975    0.009
 5070.00    1.03806   0.78746    0.009
 5071.00    0.94128   0.78587    0.009
 5072.00    0.78172   0.78389    0.009
 5073.00    0.71239   0.78165    0.009
 5074.00    0.66560   0.78055    0.010
 5075.00    1.06601   0.78006    0.009
 5076.00    1.55704   0.77867    0.009
 5077.00    1.43496   0.77806    0.009
 5078.00    1.21543   0.77886    0.009
 5079.00    1.07434   0.77880    0.009
 5080.00    0.94252   0.77881    0.009
 5081.00    0.90008   0.78029    0.009
 5082.00    0.86482   0.78137    0.009
 5083.00    0.76084   0.78191    0.009
 5084.00    0.65377   0.78320    0.009
 5085.00    0.72088   0.78462    0.009
 5086.00    0.79077   0.78528    0.009
 5087.00    0.89575   0.78571    0.009
 5088.00    0.98654   0.78667    0.009
 5089.00    0.81336   0.78700    0.009
 5090.00    0.67585   0.78644    0.009
 5091.00    0.93564   0.78652    0.009
 5092.00    1.13927   0.78606    0.009
 5093.00    0.90532   0.78482    0.009
 5094.00    0.66974   0.78434    0.009
 5095.00    0.42449   0.78295    0.009
 5096.00    0.24637   0.78157    0.009
 5097.00    0.38145   0.78129    0.009
 5098.00    0.53238   0.77919    0.009
 5099.00    0.74372   0.77824    0.009
 5100.00    0.96241   0.77887    0.009
 5101.00    1.20448   0.77644    0.009
 5102.00    1.29201   0.77616    0.009
 5103.00    0.96286   0.77795    0.009
 5104.00    0.77779   0.77562    0.009
 5105.00    0.92583   0.77576    0.009
 5106.00    0.97640   0.77832    0.009
 5107.00    0.83197   0.77644    0.009
 5108.00    0.80496   0.77642    0.009
 5109.00    0.98256   0.77893    0.009
 5110.00    0.98378   0.77763    0.009
 5111.00    0.71598   0.77675    0.010
 5112.00    0.70924   0.77809    0.010
 5113.00    1.05234   0.77732    0.010
 5114.00    1.08351   0.77542    0.010
 5115.00    0.74663   0.77485    0.010
 5116.00    0.61882   0.77440    0.010
 5117.00    0.70853   0.77203    0.010
 5118.00    0.69594   0.76966    0.010
 5119.00    0.58943   0.76928    0.010
 5120.00    0.54064   0.76714    0.010
 5121.00    0.53853   0.76356    0.009
 5122.00    0.62401   0.76335    0.009
 5123.00    0.77185   0.76251    0.010
 5124.00    0.61414   0.75833    0.009
 5125.00    0.26555   0.75794    0.009
 5126.00    0.30178   0.75909    0.009
 5127.00    0.54807   0.75478    0.009
 5128.00    0.78073   0.75388    0.010
 5129.00    1.00693   0.75681    0.010
 5130.00    0.91330   0.75223    0.009
 5131.00    0.68878   0.75071    0.009
 5132.00    0.58180   0.75522    0.009
 5133.00    0.51590   0.75041    0.009
 5134.00    0.58961   0.74770    0.009
 5135.00    0.70447   0.75296    0.009
 5136.00    0.68887   0.74874    0.009
 5137.00    0.64139   0.74507    0.009
 5138.00    0.84109   0.74981    0.009
 5139.00    1.08963   0.74676    0.009
 5140.00    0.92841   0.74316    0.009
 5141.00    0.70401   0.74679    0.009
 5142.00    0.55723   0.74500    0.009
 5143.00    0.41929   0.74216    0.009
 5144.00    0.63773   0.74455    0.009
 5145.00    0.88336   0.74387    0.009
 5146.00    0.76464   0.74206    0.009
 5147.00    0.63093   0.74306    0.009
 5148.00    0.63649   0.74303    0.009
 5149.00    0.64745   0.74202    0.009
 5150.00    0.83779   0.74112    0.009
 5151.00    1.01039   0.74075    0.009
 5152.00    0.87566   0.73990    0.009
 5153.00    0.74512   0.73662    0.009
 5154.00    0.65925   0.73466    0.009
 5155.00    0.59777   0.73330    0.009
 5156.00    0.71988   0.72790    0.009
 5157.00    0.83456   0.72348    0.009
 5158.00    0.90667   0.72103    0.009
 5159.00    0.94917   0.71462    0.009
 5160.00    0.85685   0.70813    0.009
 5161.00    0.79038   0.70495    0.009
 5162.00    0.82035   0.69935    0.009
 5163.00    0.83963   0.69203    0.009
 5164.00    0.82556   0.68884    0.009
 5165.00    0.77841   0.68604    0.009
 5166.00    0.64364   0.67985    0.009
 5167.00    0.60012   0.67653    0.009
 5168.00    0.76410   0.67675    0.009
 5169.00    0.84328   0.67437    0.009
 5170.00    0.75548   0.67196    0.009
 5171.00    0.75462   0.67318    0.009
 5172.00    0.90296   0.67417    0.009
 5173.00    0.97228   0.67356    0.009
 5174.00    0.92285   0.67443    0.009
 5175.00    0.90295   0.67747    0.009
 5176.00    0.92207   0.67896    0.009
 5177.00    0.83141   0.67892    0.009
 5178.00    0.61302   0.68260    0.009
 5179.00    0.51692   0.68582    0.009
 5180.00    0.54628   0.68583    0.009
 5181.00    0.58753   0.69033    0.009
 5182.00    0.63954   0.69367    0.009
 5183.00    0.64323   0.69260    0.009
 5184.00    0.60836   0.69806    0.009
 5185.00    0.51141   0.70225    0.009
 5186.00    0.37090   0.69969    0.009
 5187.00    0.31453   0.70459    0.009
 5188.00    0.30994   0.71034    0.009
 5189.00    0.48934   0.70739    0.009
 5190.00    0.76764   0.71015    0.000
 5191.00    0.95365   0.71646    0.000
 5192.00    1.09659   0.71394    0.000
 5193.00    0.96925   0.71382    0.000
 5194.00    0.73319   0.71978    0.000
 5195.00    0.60381   0.71843    0.000
 5196.00    0.51103   0.71515    0.000
 5197.00    0.54640   0.71982    0.000
 5198.00    0.61880   0.72059    0.000
 5199.00    0.75857   0.71517    0.000
 5200.00    0.91444   0.71774    0.000
 5201.00    0.96537   0.72113    0.000
 5202.00    0.99610   0.71616    0.000
 5203.00    0.84587   0.71678    0.000
 5204.00    0.66857   0.72170    0.000
 5205.00    0.56767   0.71916    0.000
 5206.00    0.47513   0.71906    0.000
 5207.00    0.48814   0.72413    0.000
 5208.00    0.50877   0.72407    0.000
 5209.00    0.73055   0.72369    0.000
 5210.00    0.95983   0.72772    0.000
 5211.00    0.80308   0.72908    0.009
 5212.00    0.64808   0.72934    0.009
 5213.00    0.62223   0.73261    0.009
 5214.00    0.60428   0.73363    0.009
 5215.00    0.71455   0.73353    0.009
 5216.00    0.81556   0.73633    0.009
 5217.00    0.82246   0.73643    0.009
 5218.00    0.82885   0.73497    0.009
 5219.00    0.83163   0.73792    0.009
 5220.00    0.83247   0.73766    0.009
 5221.00    0.82253   0.73440    0.009
 5222.00    0.77424   0.73827    0.009
 5223.00    0.55540   0.73969    0.009
 5224.00    0.41723   0.73567    0.009
 5225.00    0.57379   0.73951    0.009
 5226.00    0.70070   0.74252    0.009
 5227.00    0.73689   0.73898    0.009
 5228.00    0.68778   0.74208    0.009
 5229.00    0.41673   0.74659    0.009
 5230.00    0.28271   0.74505    0.009
 5231.00    0.45516   0.74687    0.009
 5232.00    0.64844   0.75173    0.009
 5233.00    0.88208   0.75205    0.009
 5234.00    1.01776   0.75197    0.009
 5235.00    0.98786   0.75596    0.009
 5236.00    0.92730   0.75786    0.009
 5237.00    0.82133   0.75608    0.009
 5238.00    0.70385   0.75766    0.009
 5239.00    0.57141   0.76062    0.009
 5240.00    0.51672   0.75843    0.009
 5241.00    0.55120   0.75645    0.009
 5242.00    0.51013   0.75893    0.009
 5243.00    0.39265   0.75804    0.009
 5244.00    0.43769   0.75384    0.009
 5245.00    0.62775   0.75431    0.009
 5246.00    0.72694   0.75434    0.009
 5247.00    0.75471   0.75011    0.009
 5248.00    0.72446   0.74856    0.009
 5249.00    0.65410   0.74789    0.009
 5250.00    0.63330   0.74413    0.009
 5251.00    0.64253   0.74150    0.009
 5252.00    0.68974   0.74006    0.009
 5253.00    0.75706   0.73603    0.009
 5254.00    0.69246   0.73182    0.009
 5255.00    0.56726   0.73015    0.009
 5256.00    0.62627   0.72599    0.009
 5257.00    0.75809   0.71967    0.009
 5258.00    0.73802   0.71828    0.009
 5259.00    0.66677   0.71565    0.009
 5260.00    0.71110   0.70773    0.009
 5261.00    0.78814   0.70667    0.009
 5262.00    0.86467   0.70807    0.009
 5263.00    0.94108   0.70047    0.009
 5264.00    0.71482   0.69821    0.009
 5265.00    0.43181   0.70409    0.009
 5266.00    0.69907   0.70069    0.009
 5267.00    1.04606   0.69759    0.009
 5268.00    0.74322   0.70547    0.009
 5269.00    0.37203   0.70715    0.009
 5270.00    0.73568   0.70495    0.009
 5271.00    1.14941   0.71289    0.009
 5272.00    0.98398   0.71834    0.009
 5273.00    0.79913   0.71809    0.009
 5274.00    0.59683   0.72439    0.009
 5275.00    0.39770   0.73114    0.009
 5276.00    0.30099   0.73322    0.009
 5277.00    0.23409   0.73770    0.009
 5278.00    0.62128   0.74323    0.009
 5279.00    0.95836   0.74663    0.009
 5280.00    0.80673   0.75050    0.009
 5281.00    0.68835   0.75429    0.009
 5282.00    0.80399   0.75693    0.009
 5283.00    0.88288   0.75994    0.009
 5284.00    0.76251   0.76243    0.009
 5285.00    0.63882   0.76352    0.009
 5286.00    0.50074   0.76525    0.009
 5287.00    0.44496   0.76670    0.009
 5288.00    0.68367   0.76631    0.009
 5289.00    0.84063   0.76679    0.009
 5290.00    0.75207   0.76799    0.009
 5291.00    0.72140   0.76675    0.009
 5292.00    0.83875   0.76582    0.009
 5293.00    0.92526   0.76757    0.009
 5294.00    0.94391   0.76713    0.009
 5295.00    0.90629   0.76522    0.009
 5296.00    0.76131   0.76716    0.009
 5297.00    0.68162   0.76859    0.009
 5298.00    0.71063   0.76715    0.009
 5299.00    0.71511   0.76860    0.009
 5300.00    0.68377   0.77094    0.009
 5301.00    0.70515   0.77026    0.009
 5302.00    0.79420   0.77113    0.009
 5303.00    0.81273   0.77367    0.009
 5304.00    0.75154   0.77317    0.009
 5305.00    0.73038   0.77287    0.009
 5306.00    0.74916   0.77487    0.009
 5307.00    0.61815   0.77421    0.009
 5308.00    0.35538   0.77247    0.009
 5309.00    0.39920   0.77292    0.009
 5310.00    0.68063   0.77149    0.009
 5311.00    0.83622   0.76851    0.009
 5312.00    0.90607   0.76740    0.009
 5313.00    0.92907   0.76541    0.009
 5314.00    0.92410   0.76156    0.009
 5315.00    0.93277   0.75859    0.009
 5316.00    0.94855   0.75642    0.009
 5317.00    0.77712   0.75313    0.009
 5318.00    0.52112   0.74854    0.009
 5319.00    0.61889   0.74581    0.008
 5320.00    0.85412   0.74451    0.008
 5321.00    0.79924   0.74011    0.008
 5322.00    0.64847   0.73609    0.008
 5323.00    0.71210   0.73662    0.008
 5324.00    0.83517   0.73513    0.008
 5325.00    0.88949   0.73121    0.008
 5326.00    0.92813   0.73175    0.008
 5327.00    0.85686   0.73281    0.008
 5328.00    0.76552   0.73157    0.008
 5329.00    0.85705   0.73249    0.008
 5330.00    0.97422   0.73363    0.008
 5331.00    0.88980   0.73354    0.008
 5332.00    0.78504   0.73561    0.008
 5333.00    0.65684   0.73748    0.008
 5334.00    0.52713   0.73697    0.008
 5335.00    0.53316   0.73926    0.008
 5336.00    0.54348   0.74242    0.008
 5337.00    0.65341   0.74170    0.008
 5338.00    0.76197   0.74359    0.008
 5339.00    0.83135   0.74740    0.008
 5340.00    0.89631   0.74728    0.008
 5341.00    0.89772   0.74961    0.008
 5342.00    0.89186   0.75328    0.008
 5343.00    0.81789   0.75284    0.008
 5344.00    0.78402   0.75501    0.008
 5345.00    1.02359   0.75942    0.008
 5346.00    1.18924   0.75963    0.008
 5347.00    0.96468   0.76036    0.008
 5348.00    0.77591   0.76469    0.008
 5349.00    0.73917   0.76626    0.008
 5350.00    0.72837   0.76559    0.008
 5351.00    0.80854   0.76814    0.008
 5352.00    0.86966   0.76976    0.008
 5353.00    0.87466   0.76859    0.009
 5354.00    0.87092   0.76939    0.009
 5355.00    0.84521   0.76935    0.009
 5356.00    0.79757   0.76732    0.009
 5357.00    0.70248   0.76721    0.009
 5358.00    0.69626   0.76583    0.009
 5359.00    0.85698   0.76283    0.008
 5360.00    0.96276   0.76210    0.009
 5361.00    0.97844   0.76014    0.009
 5362.00    1.00012   0.75701    0.009
 5363.00    1.03044   0.75646    0.008
 5364.00    1.03934   0.75449    0.008
 5365.00    1.02112   0.75142    0.008
 5366.00    0.91933   0.75177    0.009
 5367.00    0.72436   0.75096    0.009
 5368.00    0.62743   0.74780   -2.000
 5369.00    0.62690   0.74886   -2.000
 5370.00    0.69150   0.75042   -2.000
 5371.00    0.81258   0.74802   -2.000
 5372.00    0.88991   0.74891   -2.000
 5373.00    0.93383   0.75106   -2.000
 5374.00    0.92046   0.74868   -2.000
 5375.00    0.86862   0.74895   -2.000
 5376.00    0.74008   0.75168   -2.000
 5377.00    0.56642   0.74926   -2.000
 5378.00    0.52427   0.74785   -2.000
 5379.00    0.54957   0.75050   -2.000
 5380.00    0.66757   0.74817   -2.000
 5381.00    0.82675   0.74439   -2.000
 5382.00    0.85132   0.74629   -2.000
 5383.00    0.82451   0.74521    0.008
 5384.00    0.70326   0.73975    0.008
 5385.00    0.55137   0.73937    0.008
 5386.00    0.57289   0.73928    0.008
 5387.00    0.64150   0.73339    0.008
 5388.00    0.63149   0.73029    0.008
 5389.00    0.60397   0.73127    0.008
 5390.00    0.64786   0.72685    0.008
 5391.00    0.70444   0.72135    0.008
 5392.00    0.74719   0.72283    0.008
 5393.00    0.78806   0.72116    0.008
 5394.00    1.04346   0.71398    0.008
 5395.00    1.31958   0.71418    0.008
 5396.00    1.03837   0.71628    0.008
 5397.00    0.72364   0.71107    0.008
 5398.00    0.56587   0.70884    0.008
 5399.00    0.41337   0.71179    0.008
 5400.00    0.45548   0.71001    0.008
 5401.00    0.49693   0.70735    0.008
 5402.00    0.52166   0.70981    0.008
 5403.00    0.54936   0.71061    0.008
 5404.00    0.61748   0.70925    0.008
 5405.00    0.68390   0.71222    0.008
 5406.00    0.73515   0.71507    0.008
 5407.00    0.75820   0.71408    0.008
 5408.00    0.59488   0.71592    0.008
 5409.00    0.47859   0.72030    0.008
 5410.00    0.60420   0.72158    0.008
 5411.00    0.70762   0.72218    0.008
 5412.00    0.71892   0.72504    0.008
 5413.00    0.70624   0.72700    0.008
 5414.00    0.61119   0.72754    0.008
 5415.00    0.56567   0.72943    0.008
 5416.00    0.66345   0.73081    0.008
 5417.00    0.72986   0.73014    0.008
 5418.00    0.71879   0.73076    0.008
 5419.00    0.73000   0.73235    0.008
 5420.00    0.78862   0.73113    0.008
 5421.00    0.77509   0.73004    0.008
 5422.00    0.62813   0.73121    0.008
 5423.00    0.58371   0.72989    0.008
 5424.00    0.70497   0.72897    0.008
 5425.00    0.76238   0.73073    0.008
 5426.00    0.72927   0.72818    0.008
 5427.00    0.75194   0.72587    0.008
 5428.00    0.84419   0.72903    0.008
 5429.00    0.93084   0.72898    0.008
 5430.00    1.01135   0.72600    0.008
 5431.00    0.93981   0.72717    0.008
 5432.00    0.72086   0.72922    0.008
 5433.00    0.57257   0.72757    0.008
 5434.00    0.48469   0.72742    0.008
 5435.00    0.42079   0.73050    0.008
 5436.00    0.37494   0.72995    0.008
 5437.00    0.50828   0.72856    0.008
 5438.00    0.76016   0.73066    0.008
 5439.00    0.78289   0.73069    0.008
 5440.00    0.67287   0.72864    0.007
 5441.00    0.57272   0.72908    0.007
 5442.00    0.47755   0.72966    0.008
 5443.00    0.50812   0.72712    0.008
 5444.00    0.59362   0.72562    0.008
 5445.00    0.67303   0.72717    0.008
 5446.00    0.75016   0.72614    0.008
 5447.00    0.72498   0.72392    0.008
 5448.00    0.66725   0.72451    0.007
 5449.00    0.63042   0.72349    0.008
 5450.00    0.59914   0.72093    0.008
 5451.00    0.58732   0.72147    0.008
 5452.00    0.57973   0.72118    0.008
 5453.00    0.50802   0.71808    0.008
 5454.00    0.42523   0.71817    0.008
 5455.00    0.62713   0.72057    0.008
 5456.00    0.86636   0.71878    0.008
 5457.00    0.89123   0.71576    0.008
 5458.00    0.89631   0.71799    0.008
 5459.00    0.85570   0.71869    0.008
 5460.00    0.81253   0.71364    0.008
 5461.00    0.74223   0.71395    0.008
 5462.00    0.67228   0.71765    0.008
 5463.00    0.70272   0.71338    0.008
 5464.00    0.73441   0.70973    0.008
 5465.00    0.79552   0.71390    0.008
 5466.00    0.84856   0.71359    0.008
 5467.00    0.79795   0.70708    0.008
 5468.00    0.75507   0.70806    0.008
 5469.00    0.77900   0.71181    0.008
 5470.00    0.80826   0.70589    0.008
 5471.00    0.87173   0.70300    0.008
 5472.00    0.94638   0.70897    0.008
 5473.00    1.07712   0.70677    0.008
 5474.00    1.16674   0.70030    0.008
 5475.00    1.08943   0.70454    0.008
 5476.00    0.99144   0.70866    0.007
 5477.00    0.82385   0.70334    0.008
 5478.00    0.71558   0.70236   -2.000
 5479.00    0.77577   0.70845   -2.000
 5480.00    0.77773   0.70695   -2.000
 5481.00    0.63830   0.70345   -2.000
 5482.00    0.65182   0.70915   -2.000
 5483.00    0.98576   0.71136   -2.000
 5484.00    1.14827   0.70588   -2.000
 5485.00    0.99857   0.70789   -2.000
 5486.00    0.85113   0.71370   -2.000
 5487.00    0.70726   0.71027   -2.000
 5488.00    0.70829   0.70804   -2.000
 5489.00    0.91174   0.71319   -2.000
 5490.00    1.23897   0.71242   -2.000
 5491.00    1.71837   0.70827   -2.000
 5492.00    1.66743   0.71143   -2.000
 5493.00    1.04177   0.71280   -2.000
 5494.00    0.73829   0.70788   -2.000
 5495.00    0.74279   0.70801   -2.000
 5496.00    0.67977   0.71096   -2.000
 5497.00    0.55985   0.70813   -2.000
 5498.00    0.57522   0.70584   -2.000
 5499.00    0.69099   0.70709   -2.000
 5500.00    0.73643   0.70574   -2.000
 5501.00    0.73602   0.70409   -2.000
 5502.00    0.74419   0.70519    0.007
 5503.00    0.75726   0.70389    0.008
 5504.00    0.79949   0.70209    0.008
 5505.00    0.85620   0.70386    0.008
 5506.00    0.82586   0.70391    0.008
 5507.00    0.75810   0.70245    0.008
 5508.00    0.87211   0.70351    0.008
 5509.00    1.05308   0.70388    0.008
 5510.00    1.15041   0.70302    0.008
 5511.00    1.22164   0.70402    0.008
 5512.00    1.09827   0.70552    0.008
 5513.00    0.92427   0.70528    0.008
 5514.00    0.80538   0.70517    0.008
 5515.00    0.69818   0.70653    0.007
 5516.00    0.67027   0.70739    0.007
 5517.00    0.65568   0.70754    0.008
 5518.00    0.58314   0.70758    0.008
 5519.00    0.50325   0.70769    0.007
 5520.00    0.39279   0.70866    0.007
 5521.00    0.27962   0.70862    0.007
 5522.00    0.35199   0.70747    0.007
 5523.00    0.43406   0.70866    0.007
 5524.00    0.53950   0.70943    0.007
 5525.00    0.64521   0.70722    0.007
 5526.00    0.73888   0.70765    0.007
 5527.00    0.82583   0.71032    0.007
 5528.00    0.76837   0.70952    0.007
 5529.00    0.71695   0.70810    0.007
 5530.00    0.73935   0.71022    0.007
 5531.00    0.74480   0.71151    0.007
 5532.00    0.60900   0.70977    0.007
 5533.00    0.50373   0.71067    0.007
 5534.00    0.58842   0.71331    0.007
 5535.00    0.65493   0.71289    0.007
 5536.00    0.63262   0.71267    0.007
 5537.00    0.61804   0.71492    0.007
 5538.00    0.63414   0.71656    0.007
 5539.00    0.64329   0.71612    0.008
 5540.00    0.62950   0.71594    0.019
 5541.00    0.61150   0.71758   -1.000
 5542.00    0.58172   0.71837   -1.000
 5543.00    0.60533   0.71750   -1.000
 5544.00    0.75636   0.71783   -1.000
 5545.00    0.82681   0.71917   -1.000
 5546.00    0.73114   0.71876   -1.000
 5547.00    0.62278   0.71766    0.040
 5548.00    0.49168   0.71822    0.011
 5549.00    0.43447   0.71801    0.007
 5550.00    0.49312   0.71600    0.007
 5551.00    0.54787   0.71543    0.007
 5552.00    0.59726   0.71519    0.007
 5553.00    0.60749   0.71331    0.007
 5554.00    0.57028   0.71237    0.007
 5555.00    0.54765   0.71194    0.007
 5556.00    0.54061   0.70964    0.007
 5557.00    0.58226   0.70832    0.007
 5558.00    0.66979   0.70881    0.007
 5559.00    0.71051   0.70597    0.007
 5560.00    0.71232   0.70314    0.007
 5561.00    0.71991   0.70505    0.007
 5562.00    0.73174   0.70370    0.007
 5563.00    0.67699   0.69924    0.007
 5564.00    0.57947   0.70083    0.007
 5565.00    0.58568   0.70227    0.007
 5566.00    0.65017   0.69737    0.007
 5567.00    0.78236   0.69655    0.007
 5568.00    0.94766   0.70045    0.007
 5569.00    0.99507   0.69698    0.007
 5570.00    0.99268   0.69301    0.007
 5571.00    0.89309   0.69689    0.007
 5572.00    0.75833   0.69658    0.007
 5573.00    0.67334   0.69129    0.007
 5574.00    0.60358   0.69224    0.007
 5575.00    0.58363   0.69375    0.007
 5576.00    0.57637   0.68939    0.007
 5577.00    0.56800   0.68763    0.007
 5578.00    0.55942   0.68909    0.007
 5579.00    0.66139   0.68635    0.007
 5580.00    0.78140   0.68343    0.007
 5581.00    0.79826   0.68360    0.007
 5582.00    0.80251   0.68249    0.007
 5583.00    0.78373   0.68018    0.007
 5584.00    0.76302   0.67875    0.007
 5585.00    0.73088   0.67773    0.007
 5586.00    0.69818   0.67725    0.007
 5587.00    0.69639   0.67704    0.007
 5588.00    0.69647   0.67569    0.007
 5589.00    0.77967   0.67544    0.007
 5590.00    0.84919   0.67693    0.007
 5591.00    0.64680   0.67598    0.007
 5592.00    0.45760   0.67532    0.007
 5593.00    0.42160   0.67844    0.007
 5594.00    0.38974   0.67953    0.008
 5595.00    0.39116   0.67773    0.008
 5596.00    0.42895   0.67989    0.008
 5597.00    0.68647   0.68342    0.007
 5598.00    0.89219   0.68263    0.007
 5599.00    0.85094   0.68271    0.008
 5600.00    0.81238   0.68624    0.008
 5601.00    0.78429   0.68734    0.008
 5602.00    0.76380   0.68629    0.008
 5603.00    0.76789   0.68890    0.007
 5604.00    0.74042   0.69109    0.007
 5605.00    0.62652   0.68868    0.007
 5606.00    0.53865   0.68872    0.007
 5607.00    0.51189   0.69146    0.007
 5608.00    0.51749   0.69048    0.007
 5609.00    0.58876   0.68867    0.007
 5610.00    0.61404   0.69023    0.007
 5611.00    0.55812   0.69030    0.007
 5612.00    0.52388   0.68704    0.007
 5613.00    0.52315   0.68712    0.007
 5614.00    0.55842   0.68828    0.007
 5615.00    0.64255   0.68592    0.007
 5616.00    0.67264   0.68506    0.007
 5617.00    0.63818   0.68606    0.007
 5618.00    0.57364   0.68501    0.007
 5619.00    0.47741   0.68429    0.007
 5620.00    0.46404   0.68530    0.007
 5621.00    0.52765   0.68429    0.007
 5622.00    0.54246   0.68284    0.007
 5623.00    0.51727   0.68434    0.007
 5624.00    0.48333   0.68457    0.007
 5625.00    0.44307   0.68340    0.007
 5626.00    0.43131   0.68466    0.007
 5627.00    0.43758   0.68513    0.007
 5628.00    0.50700   0.68359    0.007
 5629.00    0.61135   0.68428    0.007
 5630.00    0.63719   0.68538    0.007
 5631.00    0.62525   0.68348    0.007
 5632.00    0.53212   0.68300    0.007
 5633.00    0.40525   0.68466    0.007
 5634.00    0.48491   0.68347    0.007
 5635.00    0.63793   0.68203    0.007
 5636.00    0.63243   0.68358    0.007
 5637.00    0.57936   0.68348    0.007
 5638.00    0.53210   0.68093    0.007
 5639.00    0.48628   0.68145    0.007
 5640.00    0.53969   0.68267    0.007
 5641.00    0.61314   0.68027    0.007
 5642.00    0.60913   0.67944    0.007
 5643.00    0.59286   0.68149    0.007
 5644.00    0.58218   0.68015    0.007
 5645.00    0.57216   0.67712    0.007
 5646.00    0.50537   0.67876    0.007
 5647.00    0.43404   0.67977    0.007
 5648.00    0.38452   0.67550    0.007
 5649.00    0.33598   0.67467    0.007
 5650.00    0.31535   0.67804    0.007
 5651.00    0.29755   0.67575    0.007
 5652.00    0.40183   0.67169    0.007
 5653.00    0.50774   0.67443    0.007
 5654.00    0.64362   0.67595    0.007
 5655.00    0.76917   0.67117    0.007
 5656.00    0.78041   0.67105    0.007
 5657.00    0.77491   0.67520    0.007
 5658.00    0.63955   0.67329    0.007
 5659.00    0.52258   0.67071    0.007
 5660.00    0.51353   0.67430    0.007
 5661.00    0.50983   0.67595    0.007
 5662.00    0.53108   0.67348    0.007
 5663.00    0.54665   0.67534    0.007
 5664.00    0.54061   0.67861    0.007
 5665.00    0.53673   0.67708    0.007
 5666.00    0.53968   0.67706    0.007
 5667.00    0.52605   0.68075    0.007
 5668.00    0.46781   0.68117    0.007
 5669.00    0.43124   0.67979    0.007
 5670.00    0.44470   0.68223    0.007
 5671.00    0.50780   0.68403    0.007
 5672.00    0.66998   0.68192    0.007
 5673.00    0.73806   0.68210    0.007
 5674.00    0.64248   0.68459    0.007
 5675.00    0.57866   0.68379    0.007
 5676.00    0.56318   0.68206    0.007
 5677.00    0.62358   0.68310    0.007
 5678.00    0.78547   0.68353    0.007
 5679.00    0.82541   0.68164    0.007
 5680.00    0.72168   0.68130    0.007
 5681.00    0.65969   0.68193    0.007
 5682.00    0.64105   0.68126    0.007
 5683.00    0.59157   0.68035    0.007
 5684.00    0.51386   0.67971    0.007
 5685.00    0.50102   0.67906    0.007
 5686.00    0.54058   0.67891    0.007
 5687.00    0.55494   0.67861    0.007
 5688.00    0.55139   0.67688    0.007
 5689.00    0.47427   0.67646    0.007
 5690.00    0.35129   0.67707    0.007
 5691.00    0.37344   0.67474    0.007
 5692.00    0.47467   0.67251    0.007
 5693.00    0.52869   0.67356    0.007
 5694.00    0.56036   0.67313    0.007
 5695.00    0.56925   0.66936    0.007
 5696.00    0.56884   0.66858    0.007
 5697.00    0.59555   0.66990    0.007
 5698.00    0.63171   0.66677    0.007
 5699.00    0.62117   0.66379    0.007
 5700.00    0.59689   0.66564    0.007
 5701.00    0.58807   0.66545    0.007
 5702.00    0.58302   0.66186    0.007
 5703.00    0.53962   0.66239    0.007
 5704.00    0.48868   0.66473    0.007
 5705.00    0.48411   0.66289    0.007
 5706.00    0.48666   0.66194    0.007
 5707.00    0.63352   0.66494    0.007
 5708.00    0.79674   0.66591    0.007
 5709.00    0.68768   0.66509    0.007
 5710.00    0.55798   0.66743    0.007
 5711.00    0.49461   0.67028    0.007
 5712.00    0.43393   0.67097    0.007
 5713.00    0.51036   0.67239    0.007
 5714.00    0.58599   0.67483    0.007
 5715.00    0.58500   0.67656    0.007
 5716.00    0.58518   0.67804    0.007
 5717.00    0.60551   0.67945    0.007
 5718.00    0.61911   0.68102    0.007
 5719.00    0.56154   0.68326    0.007
 5720.00    0.51382   0.68446    0.007
 5721.00    0.53987   0.68426    0.007
 5722.00    0.57034   0.68565    0.007
 5723.00    0.62602   0.68756    0.007
 5724.00    0.67182   0.68676    0.007
 5725.00    0.67276   0.68662    0.007
 5726.00    0.65892   0.68868    0.007
 5727.00    0.59010   0.68876    0.007
 5728.00    0.55057   0.68718    0.007
 5729.00    0.60226   0.68789    0.007
 5730.00    0.65548   0.68900    0.007
 5731.00    0.71276   0.68757    0.007
 5732.00    0.72299   0.68698    0.007
 5733.00    0.62640   0.68796    0.007
 5734.00    0.56835   0.68750    0.007
 5735.00    0.58603   0.68647    0.007
 5736.00    0.63065   0.68654    0.007
 5737.00    0.72143   0.68623    0.007
 5738.00    0.76142   0.68505    0.007
 5739.00    0.72521   0.68489    0.007
 5740.00    0.68147   0.68488    0.000
 5741.00    0.62780   0.68393    0.000
 5742.00    0.60464   0.68342    0.000
 5743.00    0.61690   0.68318    0.000
 5744.00    0.64718   0.68193    0.000
 5745.00    0.69593   0.68079    0.000
 5746.00    0.71905   0.68096    0.000
 5747.00    0.71901   0.68086    0.000
 5748.00    0.72454   0.67988    0.000
 5749.00    0.73451   0.67939    0.000
 5750.00    0.73396   0.67933    0.000
 5751.00    0.72604   0.67854    0.000
 5752.00    0.68651   0.67760    0.000
 5753.00    0.62755   0.67773    0.000
 5754.00    0.63487   0.67834    0.000
 5755.00    0.67774   0.67805    0.000
 5756.00    0.59218   0.67746    0.000
 5757.00    0.44679   0.67779    0.000
 5758.00    0.36974   0.67801    0.000
 5759.00    0.32012   0.67727    0.000
 5760.00    0.42855   0.67695    0.000
 5761.00    0.59110   0.67780    0.000
 5762.00    0.60395   0.67787    0.000
 5763.00    0.57367   0.67692    0.000
 5764.00    0.54288   0.67656    0.000
 5765.00    0.51197   0.67667    0.000
 5766.00    0.53939   0.67601    0.000
 5767.00    0.57801   0.67458    0.000
 5768.00    0.72200   0.67391    0.000
 5769.00    0.88167   0.67380    0.000
 5770.00    0.98738   0.67247    0.000
 5771.00    1.08721   0.67015    0.000
 5772.00    1.04150   0.66942    0.000
 5773.00    0.98536   0.66932    0.000
 5774.00    0.86577   0.66691    0.000
 5775.00    0.74384   0.66480    0.000
 5776.00    0.74247   0.66522    0.000
 5777.00    0.74281   0.66446    0.000
 5778.00    0.78655   0.66168    0.000
 5779.00    0.82894   0.66157    0.000
 5780.00    0.84938   0.66261    0.000
 5781.00    0.85398   0.66089    0.000
 5782.00    0.69828   0.66012    0.000
 5783.00    0.55531   0.66180    0.000
 5784.00    0.50456   0.66203    0.000
 5785.00    0.47347   0.66158    0.000
 5786.00    0.55154   0.66346    0.000
 5787.00    0.61385   0.66454    0.000
 5788.00    0.60620   0.66411    0.000
 5789.00    0.62260   0.66617    0.000
 5790.00    0.72666   0.66817    0.000
 5791.00    0.79542   0.66793   -2.000
 5792.00    0.75639   0.66958   -2.000
 5793.00    0.73789   0.67257   -2.000
 5794.00    0.77268   0.67224   -2.000
 5795.00    0.80140   0.67175   -2.000
 5796.00    0.81656   0.67485   -2.000
 5797.00    0.78965   0.67626   -2.000
 5798.00    0.68138   0.67481   -2.000
 5799.00    0.63248   0.67612   -2.000
 5800.00    0.68373   0.67874   -2.000
 5801.00    0.71495   0.67778   -2.000
 5802.00    0.71654   0.67650   -2.000
 5803.00    0.71703   0.67857   -2.000
 5804.00    0.71608   0.67986   -2.000
 5805.00    0.67207   0.67835   -2.000
 5806.00    0.57877   0.67818   -2.000
 5807.00    0.53308   0.68006   -2.000
 5808.00    0.53547   0.68019   -2.000
 5809.00    0.51752   0.67875   -2.000
 5810.00    0.48145   0.67938   -2.000
 5811.00    0.47814   0.68119    0.000
 5812.00    0.50055   0.68077    0.000
 5813.00    0.51526   0.67963    0.000
 5814.00    0.52464   0.68076    0.000
 5815.00    0.54261   0.68232    0.000
 5816.00    0.56578   0.68153    0.000
 5817.00    0.61398   0.68095    0.000
 5818.00    0.67541   0.68262    0.000
 5819.00    0.62765   0.68342    0.000
 5820.00    0.52985   0.68213    0.000
 5821.00    0.45575   0.68193    0.000
 5822.00    0.39099   0.68381    0.000
 5823.00    0.47747   0.68397    0.000
 5824.00    0.61477   0.68232    0.000
 5825.00    0.75265   0.68265    0.000
 5826.00    0.89070   0.68414    0.000
 5827.00    0.88098   0.68324    0.000
 5828.00    0.83688   0.68145    0.000
 5829.00    0.78218   0.68246    0.000
 5830.00    0.72549   0.68331    0.000
 5831.00    0.64876   0.68120    0.000
 5832.00    0.56914   0.67987    0.000
 5833.00    0.62215   0.68106    0.000
 5834.00    0.68904   0.68068    0.000
 5835.00    0.74948   0.67802    0.000
 5836.00    0.80948   0.67737    0.000
 5837.00    0.73981   0.67791    0.000
 5838.00    0.66584   0.67609    0.000
 5839.00    0.60991   0.67355    0.000
 5840.00    0.55500   0.67320    0.000
 5841.00    0.53242   0.67288    0.000
 5842.00    0.51263   0.67028    0.000
 5843.00    0.53509   0.66786    0.000
 5844.00    0.56152   0.66726    0.000
 5845.00    0.62652   0.66617    0.000
 5846.00    0.68743   0.66343    0.000
 5847.00    0.71961   0.66170    0.000
 5848.00    0.73273   0.66128    0.000
 5849.00    0.64287   0.65964    0.000
 5850.00    0.57442   0.65703    0.000
 5851.00    0.59881   0.65617    0.000
 5852.00    0.62568   0.65598    0.000
 5853.00    0.66139   0.65438    0.000
 5854.00    0.69942   0.65324    0.000
 5855.00    0.74443   0.65317    0.000
 5856.00    0.73776   0.65261    0.000
 5857.00    0.59929   0.65165    0.000
 5858.00    0.52843   0.65188    0.000
 5859.00    0.60598   0.65184    0.000
 5860.00    0.69463   0.65121    0.000
 5861.00    0.80441   0.65161    0.000
 5862.00    0.88383   0.65166    0.000
 5863.00    0.91281   0.65077    0.000
 5864.00    0.90269   0.65069    0.000
 5865.00    0.83561   0.65125    0.000
 5866.00    0.77449   0.65007    0.000
 5867.00    0.72099   0.64876    0.000
 5868.00    0.70868   0.64869    0.000
 5869.00    0.74288   0.64719    0.000
 5870.00    0.72856   0.64468    0.000
 5871.00    0.66592   0.64337    0.000
 5872.00    0.66603   0.64193    0.000
 5873.00    0.72123   0.63878    0.000
 5874.00    0.77182   0.63560    0.000
 5875.00    0.81883   0.63243    0.000
 5876.00    0.83607   0.62825    0.000
 5877.00    0.83307   0.62489    0.000
 5878.00    0.77265   0.62162    0.000
 5879.00    0.67802   0.61693    0.000
 5880.00    0.60449   0.61295    0.000
 5881.00    0.54193   0.60942    0.000
 5882.00    0.52342   0.60352    0.000
 5883.00    0.52476   0.59882    0.000
 5884.00    0.52929   0.59821    0.000
 5885.00    0.53504   0.59513    0.000
 5886.00    0.56131   0.58924    0.000
 5887.00    0.59433   0.58824    0.000
 5888.00    0.60711   0.58865    0.000
 5889.00    0.61429   0.58435    0.000
 5890.00    0.63582   0.58329    0.000
 5891.00    0.66060   0.58820    0.000
 5892.00    0.60067   0.58803    0.000
 5893.00    0.52533   0.58456    0.000
 5894.00    0.49731   0.58874    0.000
 5895.00    0.47591   0.59425    0.000
 5896.00    0.50303   0.59360    0.000
 5897.00    0.53503   0.59612    0.000
 5898.00    0.55259   0.60381    0.000
 5899.00    0.56923   0.60578    0.000
 5900.00    0.53187   0.60470    0.000
 5901.00    0.49315   0.61042    0.006
 5902.00    0.53250   0.61657    0.006
 5903.00    0.57312   0.61711    0.006
 5904.00    0.64962   0.61930    0.006
 5905.00    0.72064   0.62484    0.006
 5906.00    0.71352   0.62663    0.006
 5907.00    0.70813   0.62603    0.006
 5908.00    0.71869   0.62916    0.006
 5909.00    0.71760   0.63256    0.006
 5910.00    0.63735   0.63286    0.006
 5911.00    0.56544   0.63331    0.006
 5912.00    0.53748   0.63545    0.006
 5913.00    0.53053   0.63652    0.006
 5914.00    0.61254   0.63638    0.006
 5915.00    0.68645   0.63701    0.006
 5916.00    0.73207   0.63775    0.006
 5917.00    0.75600   0.63836    0.006
 5918.00    0.71614   0.63881    0.006
 5919.00    0.68654   0.63887    0.006
 5920.00    0.68265   0.63862    0.006
 5921.00    0.67871   0.63923    0.006
 5922.00    0.67465   0.63996    0.006
 5923.00    0.63917   0.63916    0.006
 5924.00    0.54481   0.63906    0.006
 5925.00    0.48462   0.64052    0.006
 5926.00    0.48037   0.64053    0.006
 5927.00    0.50271   0.63845    0.006
 5928.00    0.56319   0.63876    0.006
 5929.00    0.58353   0.64100    0.006
 5930.00    0.55317   0.64019    0.006
 5931.00    0.53642   0.63822    0.006
 5932.00    0.53480   0.63963    0.006
 5933.00    0.51047   0.64118    0.006
 5934.00    0.46383   0.63855    0.006
 5935.00    0.42330   0.63715    0.006
 5936.00    0.38806   0.64009    0.006
 5937.00    0.39978   0.64084    0.006
 5938.00    0.44733   0.63748    0.006
 5939.00    0.46854   0.63706    0.006
 5940.00    0.47211   0.64002    0.006
 5941.00    0.48234   0.63908    0.006
 5942.00    0.49648   0.63608    0.006
 5943.00    0.52910   0.63756    0.006
 5944.00    0.57118   0.63999    0.006
 5945.00    0.60707   0.63750    0.006
 5946.00    0.64020   0.63529    0.006
 5947.00    0.67754   0.63795    0.006
 5948.00    0.71649   0.63945    0.006
 5949.00    0.67972   0.63689    0.006
 5950.00    0.61845   0.63637    0.006
 5951.00    0.56535   0.63899    0.006
 5952.00    0.51445   0.63889    0.006
 5953.00    0.45587   0.63708    0.006
 5954.00    0.39558   0.63821    0.006
 5955.00    0.41942   0.64029    0.006
 5956.00    0.45816   0.63963    0.006
 5957.00    0.50752   0.63895    0.006
 5958.00    0.55831   0.64021    0.006
 5959.00    0.52637   0.64094    0.006
 5960.00    0.48648   0.64071    0.006
 5961.00    0.44129   0.64087    0.006
 5962.00    0.39578   0.64119    0.006
 5963.00    0.45643   0.64111    0.006
 5964.00    0.51960   0.64141    0.006
 5965.00    0.55185   0.64133    0.006
 5966.00    0.58362   0.64075    0.006
 5967.00    0.60298   0.64079    0.006
 5968.00    0.61999   0.64100    0.006
 5969.00    0.60522   0.63974    0.006
 5970.00    0.59258   0.63836    0.006
 5971.00    0.59901   0.63887    0.006
 5972.00    0.60165   0.63889    0.006
 5973.00    0.57937   0.63709    0.006
 5974.00    0.54955   0.63615    0.006
 5975.00    0.48112   0.63696    0.006
 5976.00    0.42774   0.63616    0.006
 5977.00    0.43666   0.63369    0.006
 5978.00    0.45378   0.63360    0.006
 5979.00    0.49905   0.63505    0.006
 5980.00    0.54555   0.63371    0.006
 5981.00    0.59558   0.63149    0.006
 5982.00    0.63966   0.63247    0.006
 5983.00    0.66907   0.63365    0.006
 5984.00    0.69886   0.63157    0.006
 5985.00    0.72947   0.63030    0.006
 5986.00    0.73207   0.63240    0.006
 5987.00    0.68300   0.63277    0.006
 5988.00    0.62946   0.63008    0.006
 5989.00    0.56872   0.62975    0.006
 5990.00    0.56510   0.63166    0.006
 5991.00    0.64228   0.63084    0.006
 5992.00    0.69551   0.62894    0.006
 5993.00    0.71889   0.62976    0.006
 5994.00    0.71118   0.63041    0.006
 5995.00    0.66934   0.62830    0.006
 5996.00    0.63622   0.62709    0.006
 5997.00    0.61155   0.62832    0.006
 5998.00    0.61206   0.62794    0.006
 5999.00    0.63404   0.62602    0.006
 6000.00    0.60954   0.62583    0.006
 6001.00    0.55010   0.62569    0.006
 6002.00    0.51595   0.62399    0.006
 6003.00    0.49851   0.62358    0.006
 6004.00    0.50845   0.62478    0.006
 6005.00    0.53422   0.62363    0.006
 6006.00    0.51257   0.62114    0.006
 6007.00    0.46704   0.62188    0.006
 6008.00    0.47757   0.62336    0.006
 6009.00    0.51255   0.62133    0.006
 6010.00    0.55467   0.61999    0.006
 6011.00    0.59947   0.62241    0.006
 6012.00    0.60346   0.62261    0.006
 6013.00    0.59449   0.61976    0.006
 6014.00    0.59741   0.62072    0.006
 6015.00    0.60350   0.62419    0.006
 6016.00    0.56574   0.62330    0.006
 6017.00    0.51848   0.62086    0.006
 6018.00    0.50054   0.62362    0.006
 6019.00    0.48764   0.62663    0.006
 6020.00    0.54673   0.62474    0.006
 6021.00    0.61523   0.62438    0.006
 6022.00    0.59225   0.62832    0.006
 6023.00    0.56087   0.62969    0.006
 6024.00    0.59553   0.62766    0.006
 6025.00    0.63386   0.62922    0.006
 6026.00    0.65368   0.63283    0.006
 6027.00    0.67247   0.63276    0.006
 6028.00    0.62952   0.63171    0.006
 6029.00    0.58495   0.63423    0.006
 6030.00    0.50299   0.63646    0.006
 6031.00    0.42896   0.63538    0.006
 6032.00    0.45602   0.63559    0.006
 6033.00    0.47793   0.63800    0.006
 6034.00    0.45550   0.63858    0.006
 6035.00    0.43109   0.63727    0.006
 6036.00    0.39396   0.63830    0.006
 6037.00    0.36938   0.64007    0.006
 6038.00    0.40747   0.63930    0.006
 6039.00    0.43887   0.63843    0.006
 6040.00    0.44320   0.63964    0.006
 6041.00    0.45776   0.64021    0.006
 6042.00    0.50664   0.63870    0.006
 6043.00    0.53777   0.63851    0.006
 6044.00    0.51862   0.63953    0.006
 6045.00    0.51109   0.63898    0.006
 6046.00    0.53168   0.63728    0.006
 6047.00    0.55927   0.63733    0.006
 6048.00    0.60147   0.63798    0.006
 6049.00    0.61666   0.63690    0.006
 6050.00    0.58275   0.63571    0.006
 6051.00    0.53218   0.63572    0.006
 6052.00    0.45516   0.63591    0.006
 6053.00    0.41156   0.63501    0.006
 6054.00    0.41457   0.63416    0.006
 6055.00    0.45306   0.63414    0.006
 6056.00    0.53511   0.63438    0.006
 6057.00    0.55779   0.63381    0.006
 6058.00    0.51624   0.63258    0.006
 6059.00    0.48740   0.63269    0.006
 6060.00    0.47067   0.63358    0.006
 6061.00    0.48316   0.63328    0.006
 6062.00    0.52025   0.63244    0.006
 6063.00    0.52945   0.63268    0.006
 6064.00    0.51798   0.63306    0.006
 6065.00    0.51315   0.63257    0.006
 6066.00    0.51261   0.63232    0.006
 6067.00    0.47838   0.63233    0.006
 6068.00    0.42496   0.63193    0.006
 6069.00    0.40023   0.63140    0.006
 6070.00    0.38973   0.63135    0.006
 6071.00    0.38909   0.63042    0.006
 6072.00    0.39266   0.62943    0.006
 6073.00    0.40606   0.63011    0.006
 6074.00    0.42308   0.62951    0.006
 6075.00    0.43266   0.62685    0.006
 6076.00    0.43993   0.62630    0.006
 6077.00    0.48393   0.62777    0.006
 6078.00    0.53746   0.62608    0.006
 6079.00    0.57308   0.62304    0.006
 6080.00    0.60490   0.62348    0.006
 6081.00    0.64979   0.62482    0.006
 6082.00    0.69687   0.62236    0.006
 6083.00    0.65304   0.61987    0.006
 6084.00    0.59775   0.62120    0.006
 6085.00    0.53329   0.62158    0.006
 6086.00    0.46802   0.61898    0.006
 6087.00    0.48996   0.61806    0.006
 6088.00    0.51641   0.61974    0.006
 6089.00    0.55646   0.61928    0.006
 6090.00    0.59567   0.61724    0.006
 6091.00    0.55569   0.61689    0.006
 6092.00    0.51555   0.61776    0.006
 6093.00    0.47200   0.61777    0.006
 6094.00    0.43590   0.61705    0.006
 6095.00    0.48999   0.61614    0.006
 6096.00    0.54127   0.61552    0.006
 6097.00    0.56921   0.61620    0.006
 6098.00    0.59412   0.61685    0.006
 6099.00    0.60019   0.61641    0.006
 6100.00    0.60931   0.61550    0.006
 6101.00    0.63328   0.61563    0.006
 6102.00    0.64390   0.61625    0.006
 6103.00    0.60160   0.61593    0.006
 6104.00    0.56735   0.61531    0.006
 6105.00    0.55954   0.61562    0.006
 6106.00    0.54926   0.61579    0.006
 6107.00    0.53207   0.61481    0.006
 6108.00    0.52586   0.61436    0.006
 6109.00    0.54577   0.61496    0.006
 6110.00    0.55647   0.61523    0.006
 6111.00    0.54823   0.61375    0.006
 6112.00    0.55332   0.61255    0.006
 6113.00    0.58224   0.61361    0.006
 6114.00    0.59206   0.61359    0.006
 6115.00    0.57196   0.61072    0.006
 6116.00    0.56084   0.60990    0.006
 6117.00    0.56206   0.61175    0.006
 6118.00    0.55609   0.61082    0.006
 6119.00    0.54141   0.60787    0.006
 6120.00    0.55312   0.60782    0.006
 6121.00    0.59297   0.60893    0.006
 6122.00    0.62448   0.60696    0.006
 6123.00    0.64814   0.60494    0.006
 6124.00    0.66168   0.60631    0.006
 6125.00    0.66683   0.60645    0.006
 6126.00    0.64509   0.60289    0.006
 6127.00    0.60371   0.60203    0.006
 6128.00    0.56314   0.60503    0.006
 6129.00    0.52310   0.60443    0.006
 6130.00    0.52016   0.60004    0.006
 6131.00    0.53804   0.59995    0.006
 6132.00    0.55257   0.60349    0.006
 6133.00    0.56546   0.60296    0.006
 6134.00    0.60809   0.59938    0.006
 6135.00    0.66325   0.59973    0.006
 6136.00    0.73577   0.60240    0.006
 6137.00    0.81455   0.60139    0.006
 6138.00    0.85588   0.59917    0.006
 6139.00    0.88577   0.60029    0.006
 6140.00    0.86702   0.60150    0.006
 6141.00    0.83592   0.59943    0.006
 6142.00    0.83560   0.59808    0.006
 6143.00    0.84164   0.59919    0.006
 6144.00    0.81467   0.59949    0.006
 6145.00    0.78233   0.59795    0.006
 6146.00    0.70654   0.59647    0.006
 6147.00    0.62546   0.59530    0.006
 6148.00    0.55815   0.59465    0.006
 6149.00    0.49199   0.59461    0.006
 6150.00    0.50615   0.59245    0.006
 6151.00    0.52415   0.58878    0.006
 6152.00    0.54234   0.58837    0.006
 6153.00    0.56129   0.58960    0.006
 6154.00    0.62434   0.58590    0.006
 6155.00    0.68792   0.58096    0.006
 6156.00    0.76190   0.58237    0.006
 6157.00    0.82413   0.58446    0.006
 6158.00    0.75065   0.57932    0.006
 6159.00    0.68100   0.57506    0.006
 6160.00    0.64204   0.57903    0.006
 6161.00    0.61661   0.58064    0.006
 6162.00    0.67268   0.57435    0.006
 6163.00    0.71948   0.57271    0.006
 6164.00    0.72219   0.57864    0.006
 6165.00    0.71422   0.57864    0.006
 6166.00    0.66488   0.57274    0.006
 6167.00    0.62441   0.57450    0.006
 6168.00    0.61256   0.58055    0.006
 6169.00    0.61449   0.57853    0.006
 6170.00    0.65410   0.57462    0.006
 6171.00    0.68194   0.57910    0.006
 6172.00    0.68220   0.58321    0.006
 6173.00    0.68542   0.57930    0.006
 6174.00    0.69464   0.57799    0.006
 6175.00    0.69010   0.58322    0.006
 6176.00    0.66131   0.58421    0.006
 6177.00    0.61968   0.58026    0.006
 6178.00    0.55826   0.58176    0.006
 6179.00    0.52313   0.58567    0.006
 6180.00    0.52361   0.58320    0.006
 6181.00    0.53534   0.58031    0.006
 6182.00    0.56049   0.58406    0.006
 6183.00    0.58711   0.58624    0.006
 6184.00    0.61528   0.58175    0.006
 6185.00    0.65559   0.58041    0.006
 6186.00    0.70716   0.58498    0.006
 6187.00    0.73118   0.58542    0.006
 6188.00    0.73267   0.58095    0.006
 6189.00    0.68156   0.58119    0.006
 6190.00    0.59259   0.58519    0.006
 6191.00    0.54010   0.58437    0.006
 6192.00    0.51065   0.58085    0.006
 6193.00    0.55769   0.58219    0.006
 6194.00    0.64698   0.58526    0.006
 6195.00    0.81131   0.58357    0.006
 6196.00    1.01169   0.58105   -2.000
 6197.00    1.40958   0.58289   -2.000
 6198.00    1.88935   0.58470   -2.000
 6199.00    1.97993   0.58262   -2.000
 6200.00    1.93257   0.58074   -2.000
 6201.00    1.40594   0.58202   -2.000
 6202.00    0.73587   0.58259   -2.000
 6203.00    0.24366   0.58038   -2.000
 6204.00   -0.20438   0.57852   -2.000
 6205.00   -0.09014   0.57872   -2.000
 6206.00    0.13733   0.57868   -2.000
 6207.00    0.29924   0.57705   -2.000
 6208.00    0.45081   0.57505    0.006
 6209.00    0.49396   0.57397    0.006
 6210.00    0.52439   0.57366    0.006
 6211.00    0.54890   0.57274    0.006
 6212.00    0.57295   0.57086    0.006
 6213.00    0.54509   0.56932    0.006
 6214.00    0.51494   0.56897    0.006
 6215.00    0.49796   0.56824    0.006
 6216.00    0.47992   0.56658    0.006
 6217.00    0.40466   0.56566    0.006
 6218.00    0.33381   0.56561    0.006
 6219.00    0.34335   0.56440    0.006
 6220.00    0.35860   0.56270    0.006
 6221.00    0.43681   0.56295    0.006
 6222.00    0.51008   0.56338    0.006
 6223.00    0.54521   0.56196    0.006
 6224.00    0.55985   0.56051    0.006
 6225.00    0.45461   0.56098    0.006
 6226.00    0.36928   0.56135    0.006
 6227.00    0.37629   0.56028    0.006
 6228.00    0.38981   0.55914    0.006
 6229.00    0.42795   0.55919    0.006
 6230.00    0.45008   0.55948    0.006
 6231.00    0.42156   0.55868    0.006
 6232.00    0.39227   0.55752    0.006
 6233.00    0.36092   0.55747    0.006
 6234.00    0.36103   0.55770    0.006
 6235.00    0.43361   0.55653    0.006
 6236.00    0.50209   0.55542    0.006
 6237.00    0.56239   0.55576    0.006
 6238.00    0.61944   0.55598    0.006
 6239.00    0.67082   0.55450    0.006
 6240.00    0.71010   0.55354    0.006
 6241.00    0.73097   0.55404    0.006
 6242.00    0.72808   0.55379    0.006
 6243.00    0.69345   0.55206    0.006
 6244.00    0.64940   0.55186    0.006
 6245.00    0.59429   0.55296    0.006
 6246.00    0.55602   0.55196    0.006
 6247.00    0.53522   0.55003    0.006
 6248.00    0.54276   0.55109    0.006
 6249.00    0.57620   0.55274    0.006
 6250.00    0.62946   0.55095    0.006
 6251.00    0.69870   0.54981    0.006
 6252.00    0.70412   0.55241    0.006
 6253.00    0.66427   0.55372    0.006
 6254.00    0.62741   0.55138    0.006
 6255.00    0.59242   0.55157    0.006
 6256.00    0.57669   0.55508    0.006
 6257.00    0.57143   0.55575    0.006
 6258.00    0.61291   0.55363    0.006
 6259.00    0.67649   0.55503    0.006
 6260.00    0.83900   0.55870    0.007
 6261.00    1.04182   0.55872    0.007
 6262.00    1.02323   0.55712    0.008
 6263.00    0.92759   0.55927    0.008
 6264.00    0.77993   0.56258    0.008
 6265.00    0.61702   0.56196    0.008
 6266.00    0.48233   0.56088    0.007
 6267.00    0.35450   0.56343    0.007
 6268.00    0.37922   0.56588    0.006
 6269.00    0.43390   0.56471    0.006
 6270.00    0.47617   0.56406    0.006
 6271.00    0.51654   0.56640    0.006
 6272.00    0.54306   0.56804    0.006
 6273.00    0.56802   0.56715    0.006
 6274.00    0.61830   0.56663    0.006
 6275.00    0.67049   0.56808    0.006
 6276.00    0.71041   0.56923    0.006
 6277.00    0.74985   0.56877    0.006
 6278.00    0.72642   0.56827    0.006
 6279.00    0.70063   0.56898    0.006
 6280.00    0.59809   0.56978    0.000
 6281.00    0.49771   0.56936    0.000
 6282.00    0.43405   0.56851    0.000
 6283.00    0.38201   0.56894    0.000
 6284.00    0.45217   0.56981    0.000
 6285.00    0.51613   0.56911    0.000
 6286.00    0.53372   0.56764    0.000
 6287.00    0.54743   0.56777    0.000
 6288.00    0.53909   0.56893    0.000
 6289.00    0.51702   0.56826    0.000
 6290.00    0.43277   0.56624    0.000
 6291.00    0.35415   0.56602    0.000
 6292.00    0.29642   0.56731    0.000
 6293.00    0.27046   0.56686    0.000
 6294.00    0.34312   0.56489    0.000
 6295.00    0.41816   0.56451    0.000
 6296.00    0.49945   0.56549    0.000
 6297.00    0.57529   0.56522    0.000
 6298.00    0.63878   0.56395    0.000
 6299.00    0.68345   0.56357    0.000
 6300.00    0.69123   0.56387    0.000
 6301.00    0.68565   0.56388    0.000
 6302.00    0.65724   0.56349    0.000
 6303.00    0.61187   0.56280    0.000
 6304.00    0.54112   0.56262    0.000
 6305.00    0.48477   0.56345    0.000
 6306.00    0.44736   0.56349    0.000
 6307.00    0.45351   0.56194    0.000
 6308.00    0.51014   0.56175    0.000
 6309.00    0.53652   0.56372    0.000
 6310.00    0.53198   0.56386    0.000
 6311.00    0.52626   0.56152    0.000
 6312.00    0.51947   0.56146    0.000
 6313.00    0.53721   0.56434    0.000
 6314.00    0.57445   0.56457    0.000
 6315.00    0.56426   0.56179    0.000
 6316.00    0.52091   0.56187    0.000
 6317.00    0.50466   0.56514    0.000
 6318.00    0.50502   0.56551    0.000
 6319.00    0.53236   0.56280    0.000
 6320.00    0.57415   0.56277    0.000
 6321.00    0.59487   0.56568    0.006
 6322.00    0.60580   0.56629    0.006
 6323.00    0.56375   0.56412    0.006
 6324.00    0.50048   0.56361    0.006
 6325.00    0.44175   0.56575    0.006
 6326.00    0.38458   0.56675    0.006
 6327.00    0.37135   0.56498    0.006
 6328.00    0.37076   0.56365    0.005
 6329.00    0.38484   0.56520    0.005
 6330.00    0.40240   0.56681    0.005
 6331.00    0.44648   0.56499    0.006
 6332.00    0.49564   0.56277    0.006
 6333.00    0.53382   0.56431    0.006
 6334.00    0.57037   0.56639    0.006
 6335.00    0.56079   0.56407    0.006
 6336.00    0.54620   0.56135    0.006
 6337.00    0.51728   0.56343    0.006
 6338.00    0.48735   0.56565    0.006
 6339.00    0.43079   0.56256    0.006
 6340.00    0.37326   0.55968    0.006
 6341.00    0.35642   0.56240    0.006
 6342.00    0.34162   0.56450    0.006
 6343.00    0.39332   0.56061    0.006
 6344.00    0.44300   0.55786    0.006
 6345.00    0.46049   0.56104    0.006
 6346.00    0.47829   0.56250    0.006
 6347.00    0.49916   0.55817    0.006
 6348.00    0.52075   0.55612    0.005
 6349.00    0.54747   0.55951    0.006
 6350.00    0.57037   0.56006    0.006
 6351.00    0.57206   0.55566    0.006
 6352.00    0.56097   0.55456    0.006
 6353.00    0.49339   0.55811    0.005
 6354.00    0.43064   0.55799    0.005
 6355.00    0.38547   0.55396    0.005
 6356.00    0.36564   0.55407    0.005
 6357.00    0.42301   0.55776    0.006
 6358.00    0.46978   0.55728    0.006
 6359.00    0.48912   0.55404    0.006
 6360.00    0.52035   0.55522    0.006
 6361.00    0.57804   0.55891    0.006
 6362.00    0.62925   0.55839    0.006
 6363.00    0.66794   0.55603    0.006
 6364.00    0.67427   0.55794    0.006
 6365.00    0.62610   0.56133    0.006
 6366.00    0.56618   0.56076    0.006
 6367.00    0.48892   0.55932    0.006
 6368.00    0.40832   0.56153    0.006
 6369.00    0.32340   0.56406    0.006
 6370.00    0.29760   0.56328    0.006
 6371.00    0.33938   0.56259    0.006
 6372.00    0.37080   0.56474    0.006
 6373.00    0.39176   0.56615    0.006
 6374.00    0.38579   0.56495    0.006
 6375.00    0.35588   0.56482    0.006
 6376.00    0.31720   0.56671    0.006
 6377.00    0.27167   0.56682    0.006
 6378.00    0.27233   0.56526    0.006
 6379.00    0.30482   0.56577    0.006
 6380.00    0.36482   0.56708    0.006
 6381.00    0.44144   0.56580    0.006
 6382.00    0.47202   0.56452    0.006
 6383.00    0.47832   0.56594    0.006
 6384.00    0.45182   0.56627    0.006
 6385.00    0.41031   0.56365    0.006
 6386.00    0.36413   0.56319    0.006
 6387.00    0.31611   0.56557    0.006
 6388.00    0.32711   0.56468    0.006
 6389.00    0.35790   0.56120    0.006
 6390.00    0.42479   0.56209    0.006
 6391.00    0.50183   0.56508    0.006
 6392.00    0.52916   0.56279    0.006
 6393.00    0.54496   0.55916    0.006
 6394.00    0.57166   0.56154    0.006
 6395.00    0.60039   0.56447    0.006
 6396.00    0.56376   0.56101    0.006
 6397.00    0.51773   0.55803    0.006
 6398.00    0.40595   0.56152    0.006
 6399.00    0.28733   0.56371    0.006
 6400.00    0.29785   0.55961    0.006
 6401.00    0.31704   0.55770    0.006
 6402.00    0.39667   0.56160    0.006
 6403.00    0.47827   0.56271    0.006
 6404.00    0.49667   0.55870    0.006
 6405.00    0.51428   0.55807    0.006
 6406.00    0.50767   0.56169    0.006
 6407.00    0.50193   0.56166    0.006
 6408.00    0.50913   0.55827    0.006
 6409.00    0.51698   0.55864    0.006
 6410.00    0.53114   0.56152    0.006
 6411.00    0.54530   0.56084    0.006
 6412.00    0.55954   0.55848    0.006
 6413.00    0.57009   0.55933    0.006
 6414.00    0.56075   0.56128    0.006
 6415.00    0.54629   0.56043    0.006
 6416.00    0.50969   0.55902    0.006
 6417.00    0.47400   0.56006    0.006
 6418.00    0.44155   0.56135    0.006
 6419.00    0.43548   0.56045    0.006
 6420.00    0.50826   0.55959    0.006
 6421.00    0.57165   0.56076    0.006
 6422.00    0.61114   0.56167    0.006
 6423.00    0.64059   0.56064    0.006
 6424.00    0.64805   0.56015    0.005
 6425.00    0.64001   0.56155    0.005
 6426.00    0.60255   0.56207    0.006
 6427.00    0.56407   0.56063    0.006
 6428.00    0.52389   0.56048    0.006
 6429.00    0.50204   0.56232    0.006
 6430.00    0.50685   0.56236    0.006
 6431.00    0.49881   0.56033    0.006
 6432.00    0.47435   0.56063    0.006
 6433.00    0.45231   0.56288    0.006
 6434.00    0.43300   0.56225    0.006
 6435.00    0.44254   0.55973    0.006
 6436.00    0.48075   0.56058    0.006
 6437.00    0.53695   0.56298    0.006
 6438.00    0.60890   0.56163    0.006
 6439.00    0.61641   0.55889    0.006
 6440.00    0.57416   0.56011    0.006
 6441.00    0.54571   0.56233    0.006
 6442.00    0.52661   0.56058    0.006
 6443.00    0.52749   0.55803    0.006
 6444.00    0.54025   0.55933    0.006
 6445.00    0.55116   0.56119    0.006
 6446.00    0.56111   0.55945    0.006
 6447.00    0.53347   0.55731    0.006
 6448.00    0.48891   0.55844    0.006
 6449.00    0.43239   0.56007    0.006
 6450.00    0.37125   0.55869    0.006
 6451.00    0.34543   0.55679    0.006
 6452.00    0.33123   0.55769    0.006
 6453.00    0.31798   0.55944    0.006
 6454.00    0.30498   0.55855    0.006
 6455.00    0.33589   0.55664    0.006
 6456.00    0.37675   0.55729    0.005
 6457.00    0.41436   0.55934    0.006
 6458.00    0.45139   0.55880    0.006
 6459.00    0.42760   0.55661    0.006
 6460.00    0.39534   0.55708    0.006
 6461.00    0.43811   0.55948    0.006
 6462.00    0.48838   0.55902    0.006
 6463.00    0.53955   0.55634    0.006
 6464.00    0.59078   0.55662    0.006
 6465.00    0.55904   0.55929    0.006
 6466.00    0.52500   0.55874    0.006
 6467.00    0.51774   0.55548    0.006
 6468.00    0.51145   0.55550    0.006
 6469.00    0.53229   0.55815    0.006
 6470.00    0.55198   0.55721    0.006
 6471.00    0.55533   0.55347    0.006
 6472.00    0.55769   0.55333    0.006
 6473.00    0.55088   0.55573    0.006
 6474.00    0.54767   0.55416    0.006
 6475.00    0.56885   0.54996    0.006
 6476.00    0.57916   0.54970    0.006
 6477.00    0.53246   0.55175    0.005
 6478.00    0.48866   0.54957    0.005
 6479.00    0.45706   0.54511    0.005
 6480.00    0.44157   0.54478    0.005
 6481.00    0.48230   0.54645    0.006
 6482.00    0.51019   0.54387    0.006
 6483.00    0.50043   0.53949    0.006
 6484.00    0.48935   0.53929    0.006
 6485.00    0.47496   0.54074    0.006
 6486.00    0.45339   0.53822    0.006
 6487.00    0.41637   0.53443    0.006
 6488.00    0.40038   0.53456    0.006
 6489.00    0.42377   0.53604    0.006
 6490.00    0.46607   0.53419    0.006
 6491.00    0.53926   0.53147    0.005
 6492.00    0.58991   0.53204    0.005
 6493.00    0.60827   0.53371    0.006
 6494.00    0.58161   0.53296    0.006
 6495.00    0.49821   0.53152    0.006
 6496.00    0.46054   0.53242    0.005
 6497.00    0.47367   0.53427    0.005
 6498.00    0.50993   0.53467    0.005
 6499.00    0.56884   0.53429    0.005
 6500.00    0.58586   0.53518    0.005
 6501.00    0.56667   0.53702    0.005
 6502.00    0.54758   0.53823    0.005
 6503.00    0.52856   0.53839    0.005
 6504.00    0.52707   0.53890    0.005
 6505.00    0.53730   0.54054    0.005
 6506.00    0.55812   0.54208    0.006
 6507.00    0.58513   0.54218    0.006
 6508.00    0.58411   0.54218    0.006
 6509.00    0.56877   0.54361    0.006
 6510.00    0.55730   0.54508    0.006
 6511.00    0.54755   0.54474    0.006
 6512.00    0.52967   0.54433    0.006
 6513.00    0.50871   0.54568    0.006
 6514.00    0.50194   0.54684    0.006
 6515.00    0.49975   0.54598    0.006
 6516.00    0.45060   0.54545    0.005
 6517.00    0.38875   0.54678    0.005
 6518.00    0.40129   0.54748    0.005
 6519.00    0.43029   0.54626    0.005
 6520.00    0.48097   0.54587    0.005
 6521.00    0.53548   0.54712    0.005
 6522.00    0.55779   0.54723    0.005
 6523.00    0.57578   0.54583    0.005
 6524.00    0.58416   0.54572    0.005
 6525.00    0.59164   0.54669    0.005
 6526.00    0.59324   0.54611    0.006
 6527.00    0.59451   0.54459    0.006
 6528.00    0.54309   0.54470    0.000
 6529.00    0.49050   0.54526    0.000
 6530.00    0.45854   0.54386    0.000
 6531.00    0.42828   0.54205    0.000
 6532.00    0.44052   0.54217    0.000
 6533.00    0.45291   0.54229    0.000
 6534.00    0.46721   0.54001    0.000
 6535.00    0.48621   0.53752    0.000
 6536.00    0.54702   0.53738    0.000
 6537.00    0.60004   0.53721    0.000
 6538.00    0.60194   0.53406    0.000
 6539.00    0.59974   0.53042    0.000
 6540.00    0.57663   0.52975    0.000
 6541.00    0.55738   0.52962    0.000
 6542.00    0.55409   0.52572    0.000
 6543.00    0.54910   0.52055    0.000
 6544.00    0.53832   0.51932    0.000
 6545.00    0.52544   0.51970    0.000
 6546.00    0.50654   0.51531    0.000
 6547.00    0.49894   0.50859    0.000
 6548.00    0.51914   0.50711    0.000
 6549.00    0.53228   0.50859    0.000
 6550.00    0.53049   0.50415    0.000
 6551.00    0.53336   0.49636    0.000
 6552.00    0.54480   0.49529    0.000
 6553.00    0.56427   0.49835    0.000
 6554.00    0.59666   0.49445    0.000
 6555.00    0.59376   0.48661    0.000
 6556.00    0.54101   0.48671    0.000
 6557.00    0.47969   0.49146    0.000
 6558.00    0.40770   0.48863    0.000
 6559.00    0.40362   0.48197    0.000
 6560.00    0.47391   0.48366    0.000
 6561.00    0.56517   0.48961    0.000
 6562.00    0.67669   0.48813    0.000
 6563.00    0.72474   0.48358    0.000
 6564.00    0.71873   0.48671    0.000
 6565.00    0.66173   0.49289    0.000
 6566.00    0.56649   0.49259    0.000
 6567.00    0.52441   0.49042    0.000
 6568.00    0.51737   0.49432    0.000
 6569.00    0.48580   0.49962    0.000
 6570.00    0.44007   0.50000    0.000
 6571.00    0.40094   0.49983    0.000
 6572.00    0.36512   0.50372    0.000
 6573.00    0.36660   0.50740    0.000
 6574.00    0.38429   0.50785    0.000
 6575.00    0.42765   0.50897    0.000
 6576.00    0.48058   0.51232    0.000
 6577.00    0.51785   0.51416    0.000
 6578.00    0.55016   0.51422    0.000
 6579.00    0.56139   0.51597    0.000
 6580.00    0.56704   0.51863    0.000
 6581.00    0.52843   0.51886    0.000
 6582.00    0.48024   0.51834    0.000
 6583.00    0.45468   0.52032    0.000
 6584.00    0.43299   0.52245    0.000
 6585.00    0.45094   0.52153    0.000
 6586.00    0.47404   0.52050    0.000
 6587.00    0.47197   0.52254    0.000
 6588.00    0.46760   0.52437    0.000
 6589.00    0.50163   0.52284    0.000
 6590.00    0.53778   0.52150    0.000
 6591.00    0.56083   0.52356    0.000
 6592.00    0.58289   0.52528    0.000
 6593.00    0.53705   0.52353    0.000
 6594.00    0.49337   0.52210    0.000
 6595.00    0.49928   0.52418    0.000
 6596.00    0.50591   0.52591    0.000
 6597.00    0.52174   0.52414    0.000
 6598.00    0.53860   0.52273    0.000
 6599.00    0.56434   0.52486    0.000
 6600.00    0.58943   0.52664    0.000
 6601.00    0.61033   0.52488    0.000
 6602.00    0.62501   0.52349    0.000
 6603.00    0.60870   0.52569    0.000
 6604.00    0.57919   0.52747    0.000
 6605.00    0.49640   0.52568    0.000
 6606.00    0.43428   0.52430    0.000
 6607.00    0.44142   0.52647    0.000
 6608.00    0.44262   0.52814    0.000
 6609.00    0.42705   0.52628    0.005
 6610.00    0.41826   0.52491    0.005
 6611.00    0.42589   0.52690    0.005
 6612.00    0.44987   0.52825    0.005
 6613.00    0.50797   0.52634    0.005
 6614.00    0.55944   0.52501    0.005
 6615.00    0.59889   0.52663    0.005
 6616.00    0.59223   0.52750    0.005
 6617.00    0.51244   0.52560    0.005
 6618.00    0.45067   0.52438    0.005
 6619.00    0.41398   0.52551    0.005
 6620.00    0.38570   0.52585    0.005
 6621.00    0.36773   0.52416    0.005
 6622.00    0.36764   0.52316    0.005
 6623.00    0.38687   0.52373    0.006
 6624.00    0.41746   0.52360    0.006
 6625.00    0.45887   0.52239    0.006
 6626.00    0.48774   0.52177    0.006
 6627.00    0.50609   0.52176    0.006
 6628.00    0.48499   0.52124    0.006
 6629.00    0.43473   0.52073    0.005
 6630.00    0.43813   0.52069    0.005
 6631.00    0.47638   0.52013    0.005
 6632.00    0.52359   0.51920    0.005
 6633.00    0.57589   0.51945    0.005
 6634.00    0.56551   0.52009    0.005
 6635.00    0.52410   0.51909    0.005
 6636.00    0.49646   0.51772    0.005
 6637.00    0.47473   0.51853    0.005
 6638.00    0.49522   0.51977    0.005
 6639.00    0.53120   0.51851    0.005
 6640.00    0.53964   0.51674    0.005
 6641.00    0.53953   0.51776    0.005
 6642.00    0.48538   0.51935    0.005
 6643.00    0.41725   0.51801    0.005
 6644.00    0.39789   0.51599    0.006
 6645.00    0.38882   0.51690    0.006
 6646.00    0.43654   0.51850    0.006
 6647.00    0.49373   0.51722    0.006
 6648.00    0.49968   0.51517    0.006
 6649.00    0.49920   0.51580    0.006
 6650.00    0.47421   0.51714    0.006
 6651.00    0.44709   0.51597    0.005
 6652.00    0.44055   0.51411    0.005
 6653.00    0.43506   0.51448    0.005
 6654.00    0.41654   0.51542    0.005
 6655.00    0.39777   0.51440    0.005
 6656.00    0.37827   0.51292    0.005
 6657.00    0.36170   0.51308    0.005
 6658.00    0.40701   0.51357    0.005
 6659.00    0.44952   0.51279    0.005
 6660.00    0.45831   0.51188    0.005
 6661.00    0.46443   0.51185    0.005
 6662.00    0.44851   0.51182    0.005
 6663.00    0.43169   0.51136    0.005
 6664.00    0.40931   0.51118    0.005
 6665.00    0.38782   0.51100    0.005
 6666.00    0.37064   0.51036    0.005
 6667.00    0.34715   0.51020    0.005
 6668.00    0.29870   0.51081    0.005
 6669.00    0.27637   0.51057    0.005
 6670.00    0.33983   0.50935    0.005
 6671.00    0.40237   0.50934    0.005
 6672.00    0.46234   0.51059    0.006
 6673.00    0.48330   0.51044    0.006
 6674.00    0.41155   0.50891    0.005
 6675.00    0.35033   0.50886    0.005
 6676.00    0.31075   0.51034    0.005
 6677.00    0.30491   0.51041    0.005
 6678.00    0.35934   0.50896    0.005
 6679.00    0.41075   0.50875    0.005
 6680.00    0.45744   0.50998    0.005
 6681.00    0.49124   0.51022    0.005
 6682.00    0.50736   0.50920    0.005
 6683.00    0.50704   0.50884    0.005
 6684.00    0.48689   0.50945    0.005
 6685.00    0.47780   0.50967    0.005
 6686.00    0.48049   0.50921    0.005
 6687.00    0.49399   0.50879    0.006
 6688.00    0.51766   0.50870    0.006
 6689.00    0.52865   0.50869    0.006
 6690.00    0.52916   0.50865    0.006
 6691.00    0.54482   0.50830    0.006
 6692.00    0.57153   0.50768    0.006
 6693.00    0.56937   0.50731    0.006
 6694.00    0.54874   0.50741    0.005
 6695.00    0.53210   0.50724    0.005
 6696.00    0.51770   0.50641    0.000
 6697.00    0.47788   0.50560    0.000
 6698.00    0.42568   0.50555    0.000
 6699.00    0.42022   0.50564    0.000
 6700.00    0.43441   0.50493    0.000
 6701.00    0.46446   0.50371    0.000
 6702.00    0.50021   0.50327    0.000
 6703.00    0.49377   0.50369    0.000
 6704.00    0.47449   0.50340    0.000
 6705.00    0.50330   0.50185    0.000
 6706.00    0.54428   0.50091    0.000
 6707.00    0.53519   0.50168    0.000
 6708.00    0.51580   0.50205    0.000
 6709.00    0.50332   0.50036    0.000
 6710.00    0.49195   0.49892    0.000
 6711.00    0.47110   0.49996    0.000
 6712.00    0.44910   0.50111    0.000
 6713.00    0.45804   0.49957    0.000
 6714.00    0.46956   0.49772    0.000
 6715.00    0.47778   0.49882    0.000
 6716.00    0.48586   0.50066    0.000
 6717.00    0.56185   0.49953    0.000
 6718.00    0.63778   0.49743    0.000
 6719.00    0.65565   0.49830    0.000
 6720.00    0.67207   0.50054    0.000
 6721.00    0.66018   0.49996    0.000
 6722.00    0.64828   0.49777    0.000
 6723.00    0.63635   0.49812    0.000
 6724.00    0.62560   0.50039    0.000
 6725.00    0.62436   0.50035    0.000
 6726.00    0.61777   0.49819    0.000
 6727.00    0.57915   0.49789    0.000
 6728.00    0.53871   0.49986    0.000
 6729.00    0.48965   0.50023    0.000
 6730.00    0.45166   0.49823    0.000
 6731.00    0.45648   0.49738    0.000
 6732.00    0.45489   0.49885    0.000
 6733.00    0.43270   0.49944    0.000
 6734.00    0.41292   0.49777    0.000
 6735.00    0.39972   0.49662    0.000
 6736.00    0.38641   0.49757    0.000
 6737.00    0.37287   0.49825    0.000
 6738.00    0.36510   0.49703    0.000
 6739.00    0.36898   0.49593    0.000
 6740.00    0.39706   0.49652    0.000
 6741.00    0.46770   0.49714    0.000
 6742.00    0.51414   0.49637    0.000
 6743.00    0.52335   0.49560    0.000
 6744.00    0.50775   0.49606    0.000
 6745.00    0.45863   0.49662    0.000
 6746.00    0.43642   0.49616    0.000
 6747.00    0.44623   0.49572    0.000
 6748.00    0.48663   0.49625    0.000
 6749.00    0.55913   0.49684    0.000
 6750.00    0.60909   0.49653    0.000
 6751.00    0.63818   0.49620    0.000
 6752.00    0.68312   0.49683    0.000
 6753.00    0.74099   0.49760    0.006
 6754.00    0.72190   0.49733    0.006
 6755.00    0.64752   0.49682    0.006
 6756.00    0.49432   0.49743    0.006
 6757.00    0.29143   0.49842    0.007
 6758.00    0.19729   0.49821    0.006
 6759.00    0.16311   0.49741    0.006
 6760.00    0.26250   0.49779    0.006
 6761.00    0.42591   0.49890    0.006
 6762.00    0.51393   0.49884    0.006
 6763.00    0.57077   0.49784    0.007
 6764.00    0.58297   0.49785    0.006
 6765.00    0.57940   0.49888    0.006
 6766.00    0.50657   0.49901    0.006
 6767.00    0.41307   0.49801    0.006
 6768.00    0.46780   0.49765    0.006
 6769.00    0.55924   0.49836    0.006
 6770.00    0.62827   0.49857    0.006
 6771.00    0.69281   0.49782    0.006
 6772.00    0.67223   0.49732    0.006
 6773.00    0.63827   0.49754    0.006
 6774.00    0.53888   0.49761    0.006
 6775.00    0.43186   0.49720    0.006
 6776.00    0.37028   0.49678    0.006
 6777.00    0.31228   0.49654    0.006
 6778.00    0.43923   0.49635    0.006
 6779.00    0.57423   0.49622    0.006
 6780.00    0.57371   0.49603    0.006
 6781.00    0.57050   0.49561    0.006
 6782.00    0.50841   0.49517    0.006
 6783.00    0.45005   0.49513    0.006
 6784.00    0.45929   0.49524    0.006
 6785.00    0.46671   0.49493    0.006
 6786.00    0.45423   0.49434    0.006
 6787.00    0.44434   0.49423    0.006
 6788.00    0.45428   0.49458    0.006
 6789.00    0.46541   0.49458    0.006
 6790.00    0.48341   0.49396    0.006
 6791.00    0.48746   0.49363    0.006
 6792.00    0.42693   0.49414    0.006
 6793.00    0.39757   0.49454    0.006
 6794.00    0.48605   0.49391    0.006
 6795.00    0.55909   0.49330    0.006
 6796.00    0.58338   0.49391    0.006
 6797.00    0.59962   0.49467    0.006
 6798.00    0.59433   0.49406    0.006
 6799.00    0.61900   0.49314    0.006
 6800.00    0.71254   0.49371    0.006
 6801.00    0.76170   0.49481    0.006
 6802.00    0.72260   0.49435    0.006
 6803.00    0.67337   0.49312    0.006
 6804.00    0.60659   0.49345    0.006
 6805.00    0.56809   0.49480    0.007
 6806.00    0.57248   0.49472    0.008
 6807.00    0.56123   0.49335    0.008
 6808.00    0.52913   0.49316    0.008
 6809.00    0.52661   0.49453    0.008
 6810.00    0.55879   0.49504    0.007
 6811.00    0.60127   0.49379    0.006
 6812.00    0.65442   0.49297    0.006
 6813.00    0.65035   0.49404    0.006
 6814.00    0.59405   0.49514    0.006
 6815.00    0.53308   0.49429    0.006
 6816.00    0.46834   0.49286    0.006
 6817.00    0.42970   0.49326    0.006
 6818.00    0.40952   0.49471    0.006
 6819.00    0.43050   0.49453    0.006
 6820.00    0.47705   0.49282    0.006
 6821.00    0.48588   0.49231    0.006
 6822.00    0.47423   0.49363    0.006
 6823.00    0.49318   0.49411    0.006
 6824.00    0.52656   0.49255    0.006
 6825.00    0.54546   0.49125    0.006
 6826.00    0.55846   0.49199    0.006
 6827.00    0.59880   0.49284    0.006
 6828.00    0.64862   0.49182    0.006
 6829.00    0.62840   0.49012    0.006
 6830.00    0.58768   0.49001    0.007
 6831.00    0.46413   0.49090    0.008
 6832.00    0.32051   0.49067    0.008
 6833.00    0.43624   0.48914    0.008
 6834.00    0.60271   0.48825    0.008
 6835.00    0.68847   0.48876    0.007
 6836.00    0.76194   0.48917    0.006
 6837.00    0.77077   0.48821    0.006
 6838.00    0.77235   0.48687    0.007
 6839.00    0.62210   0.48679    0.006
 6840.00    0.46050   0.48755    0.006
 6841.00    0.36325   0.48734    0.006
 6842.00    0.26855   0.48592    0.006
 6843.00    0.30040   0.48520    0.006
 6844.00    0.33639   0.48597    0.006
 6845.00    0.50256   0.48634    0.006
 6846.00    0.65466   0.48514    0.006
 6847.00    0.56905   0.48415    0.006
 6848.00    0.48690   0.48466    0.006
 6849.00    0.44088   0.48517    0.005
 6850.00    0.39746   0.48434    0.005
 6851.00    0.37334   0.48339    0.006
 6852.00    0.36665   0.48354    0.006
 6853.00    0.45873   0.48407    0.006
 6854.00    0.53674   0.48377    0.006
 6855.00    0.55128   0.48287    0.006
 6856.00    0.54956   0.48247    0.006
 6857.00    0.48768   0.48307    0.006
 6858.00    0.43920   0.48349    0.006
 6859.00    0.43222   0.48269    0.006
 6860.00    0.44219   0.48177    0.006
 6861.00    0.49679   0.48236    0.006
 6862.00    0.51980   0.48341    0.006
 6863.00    0.47147   0.48286    0.006
 6864.00    0.44008   0.48175    0.006
 6865.00    0.44188   0.48223    0.006
 6866.00    0.41410   0.48349    0.006
 6867.00    0.33588   0.48331    0.006
 6868.00    0.29454   0.48247    0.006
 6869.00    0.30835   0.48276    0.006
 6870.00    0.35630   0.48377    0.006
 6871.00    0.44910   0.48396    0.005
 6872.00    0.49342   0.48374    0.005
 6873.00    0.48164   0.48393    0.005
 6874.00    0.47768   0.48443    0.005
 6875.00    0.48168   0.48485    0.006
 6876.00    0.49234   0.48522    0.006
 6877.00    0.50901   0.48550    0.006
 6878.00    0.52469   0.48570    0.006
 6879.00    0.53960   0.48612    0.006
 6880.00    0.56795   0.48661    0.006
 6881.00    0.60566   0.48709    0.006
 6882.00    0.62760   0.48750    0.006
 6883.00    0.63989   0.48770    0.006
 6884.00    0.62548   0.48777    0.006
 6885.00    0.59680   0.48846    0.006
 6886.00    0.60025   0.48940    0.006
 6887.00    0.61860   0.48937    0.006
 6888.00    0.59715   0.48876    0.006
 6889.00    0.55978   0.48944    0.005
 6890.00    0.51361   0.49090    0.005
 6891.00    0.46445   0.49091    0.006
 6892.00    0.41936   0.48970    0.006
 6893.00    0.37544   0.48996    0.006
 6894.00    0.45298   0.49161    0.006
 6895.00    0.55929   0.49196    0.006
 6896.00    0.50124   0.49057    0.006
 6897.00    0.41187   0.49014    0.006
 6898.00    0.43796   0.49147    0.006
 6899.00    0.48112   0.49224    0.006
 6900.00    0.40950   0.49109    0.006
 6901.00    0.32549   0.49004    0.006
 6902.00    0.31347   0.49075    0.006
 6903.00    0.30654   0.49175    0.006
 6904.00    0.22495   0.49106    0.006
 6905.00    0.14068   0.48964    0.006
 6906.00    0.22342   0.48968    0.006
 6907.00    0.30371   0.49073    0.005
 6908.00    0.27974   0.49042    0.005
 6909.00    0.25496   0.48892    0.005
 6910.00    0.21737   0.48869    0.005
 6911.00    0.18796   0.48963    0.005
 6912.00    0.24052   0.48936    0.005
 6913.00    0.29433   0.48797    0.005
 6914.00    0.35711   0.48777    0.005
 6915.00    0.40880   0.48867    0.005
 6916.00    0.39930   0.48831    0.005
 6917.00    0.40089   0.48690    0.006
 6918.00    0.45131   0.48677    0.006
 6919.00    0.49037   0.48788    0.006
 6920.00    0.48823   0.48765    0.006
 6921.00    0.48204   0.48613    0.006
 6922.00    0.46360   0.48597    0.006
 6923.00    0.46360   0.48728    0.006
 6924.00    0.51126   0.48726    0.006
 6925.00    0.54090   0.48559    0.006
 6926.00    0.53047   0.48525    0.006
 6927.00    0.50479   0.48674    0.006
 6928.00    0.44973   0.48707    0.006
 6929.00    0.41977   0.48549    0.006
 6930.00    0.43201   0.48480    0.006
 6931.00    0.41084   0.48609    0.006
 6932.00    0.34046   0.48677    0.006
 6933.00    0.28026   0.48552    0.006
 6934.00    0.23323   0.48460    0.006
 6935.00    0.25303   0.48556    0.006
 6936.00    0.34906   0.48635    0.006
 6937.00    0.40234   0.48535    0.006
 6938.00    0.41262   0.48443    0.006
 6939.00    0.38269   0.48512    0.006
 6940.00    0.31710   0.48599    0.006
 6941.00    0.33818   0.48549    0.006
 6942.00    0.42704   0.48459    0.006
 6943.00    0.42736   0.48479    0.006
 6944.00    0.36680   0.48571    0.006
 6945.00    0.31738   0.48567    0.006
 6946.00    0.27468   0.48476    0.006
 6947.00    0.26098   0.48484    0.006
 6948.00    0.26253   0.48591    0.006
 6949.00    0.30311   0.48607    0.005
 6950.00    0.36152   0.48512    0.005
 6951.00    0.39691   0.48518    0.005
 6952.00    0.42327   0.48634    0.005
 6953.00    0.36740   0.48654    0.006
 6954.00    0.28402   0.48544    0.006
 6955.00    0.29171   0.48544    0.006
 6956.00    0.32499   0.48685    0.006
 6957.00    0.33204   0.48706    0.006
 6958.00    0.33302   0.48554    0.006
 6959.00    0.34902   0.48521    0.006
 6960.00    0.36780   0.48683    0.006
 6961.00    0.37476   0.48739    0.006
 6962.00    0.38002   0.48561    0.006
 6963.00    0.43133   0.48447    0.006
 6964.00    0.48740   0.48600    0.006
 6965.00    0.42903   0.48719    0.006
 6966.00    0.36304   0.48539    0.006
 6967.00    0.36937   0.48349    0.006
 6968.00    0.37801   0.48487    0.006
 6969.00    0.34720   0.48653    0.006
 6970.00    0.31989   0.48483    0.006
 6971.00    0.40011   0.48257    0.006
 6972.00    0.47712   0.48378    0.006
 6973.00    0.50651   0.48570    0.006
 6974.00    0.52439   0.48457    0.006
 6975.00    0.43178   0.48258    0.006
 6976.00    0.34747   0.48328    0.006
 6977.00    0.32087   0.48497    0.006
 6978.00    0.29493   0.48451    0.006
 6979.00    0.27247   0.48303    0.006
 6980.00    0.26083   0.48334    0.006
 6981.00    0.29579   0.48465    0.006
 6982.00    0.32673   0.48454    0.006
 6983.00    0.34341   0.48343    0.006
 6984.00    0.34867   0.48359    0.006
 6985.00    0.31990   0.48477    0.006
 6986.00    0.30837   0.48472    0.006
 6987.00    0.34061   0.48345    0.006
 6988.00    0.38369   0.48338    0.006
 6989.00    0.45046   0.48475    0.006
 6990.00    0.50115   0.48484    0.006
 6991.00    0.52133   0.48309    0.006
 6992.00    0.49520   0.48243    0.006
 6993.00    0.39239   0.48395    0.006
 6994.00    0.36015   0.48449    0.006
 6995.00    0.43034   0.48264    0.006
 6996.00    0.47232   0.48136    0.006
 6997.00    0.47828   0.48267    0.006
 6998.00    0.46410   0.48352    0.006
 6999.00    0.42727   0.48172    0.006
 7000.00    0.42114   0.48005    0.006
 7001.00    0.44546   0.48127    0.006
 7002.00    0.43527   0.48255    0.006
 7003.00    0.39488   0.48084    0.006
 7004.00    0.40742   0.47868    0.006
 7005.00    0.46076   0.47975    0.006
 7006.00    0.43407   0.48177    0.006
 7007.00    0.35314   0.48048    0.006
 7008.00    0.31998   0.47765    0.006
 7009.00    0.31517   0.47817    0.006
 7010.00    0.34392   0.48095    0.006
 7011.00    0.39005   0.48057    0.006
 7012.00    0.41067   0.47763    0.006
 7013.00    0.41983   0.47744    0.006
 7014.00    0.42358   0.48029    0.006
 7015.00    0.42524   0.48083    0.006
 7016.00    0.42894   0.47836    0.006
 7017.00    0.43332   0.47759    0.006
 7018.00    0.45299   0.48003    0.006
 7019.00    0.47686   0.48143    0.006
 7020.00    0.49032   0.47981    0.006
 7021.00    0.50142   0.47860    0.006
 7022.00    0.47853   0.48022    0.006
 7023.00    0.44950   0.48223    0.006
 7024.00    0.43422   0.48183    0.006
 7025.00    0.42085   0.48050    0.006
 7026.00    0.37126   0.48091    0.006
 7027.00    0.31807   0.48283    0.006
 7028.00    0.34105   0.48380    0.006
 7029.00    0.36880   0.48295    0.006
 7030.00    0.42246   0.48212    0.006
 7031.00    0.47643   0.48319    0.006
 7032.00    0.41701   0.48493    0.006
 7033.00    0.36112   0.48482    0.006
 7034.00    0.40186   0.48350    0.006
 7035.00    0.43353   0.48362    0.006
 7036.00    0.33801   0.48501    0.006
 7037.00    0.25772   0.48514    0.006
 7038.00    0.31795   0.48393    0.006
 7039.00    0.37137   0.48335    0.006
 7040.00    0.37889   0.48389    0.006
 7041.00    0.38857   0.48387    0.006
 7042.00    0.40953   0.48271    0.006
 7043.00    0.43425   0.48155    0.006
 7044.00    0.47480   0.48127    0.006
 7045.00    0.50655   0.48106    0.006
 7046.00    0.50766   0.47984    0.006
 7047.00    0.51171   0.47804    0.006
 7048.00    0.52439   0.47717    0.006
 7049.00    0.53338   0.47705    0.006
 7050.00    0.53319   0.47595   -2.000
 7051.00    0.52072   0.47373   -2.000
 7052.00    0.48184   0.47244   -2.000
 7053.00    0.45968   0.47248   -2.000
 7054.00    0.46871   0.47172   -2.000
 7055.00    0.43405   0.46949   -2.000
 7056.00    0.32817   0.46792   -2.000
 7057.00    0.31428   0.46805   -2.000
 7058.00    0.43200   0.46785   -2.000
 7059.00    0.49287   0.46604   -2.000
 7060.00    0.48222   0.46424   -2.000
 7061.00    0.48319   0.46422   -2.000
 7062.00    0.49705   0.46467   -2.000
 7063.00    0.49349   0.46352   -2.000
 7064.00    0.47290   0.46145   -2.000
 7065.00    0.48156   0.46113   -2.000
 7066.00    0.51547   0.46207   -2.000
 7067.00    0.48482   0.46147   -2.000
 7068.00    0.40512   0.45942   -2.000
 7069.00    0.37559   0.45872   -2.000
 7070.00    0.37957   0.45954   -2.000
 7071.00    0.44810   0.45911   -2.000
 7072.00    0.55438   0.45708   -2.000
 7073.00    0.60077   0.45616   -2.000
 7074.00    0.61662   0.45680   -2.000
 7075.00    0.59461   0.45634   -2.000
 7076.00    0.55587   0.45415   -2.000
 7077.00    0.54335   0.45272   -2.000
 7078.00    0.54078   0.45331   -2.000
 7079.00    0.46543   0.45321   -2.000
 7080.00    0.36665   0.45102   -2.000
 7081.00    0.38113   0.44897   -2.000
 7082.00    0.42613   0.44922   -2.000
 7083.00    0.44099   0.44967   -2.000
 7084.00    0.44919   0.44822   -2.000
 7085.00    0.48123   0.44589   -2.000
 7086.00    0.51746   0.44535   -2.000
 7087.00    0.45518   0.44623   -2.000
 7088.00    0.37971   0.44594   -2.000
 7089.00    0.41788   0.44384   -2.000
 7090.00    0.46684   0.44253   -2.000
 7091.00    0.53532   0.44350   -2.000
 7092.00    0.60494   0.44424   -2.000
 7093.00    0.62590   0.44301   -2.000
 7094.00    0.64465   0.44113   -2.000
 7095.00    0.52813   0.44152   -2.000
 7096.00    0.41325   0.44293   -2.000
 7097.00    0.33906   0.44304   -2.000
 7098.00    0.27327   0.44127   -2.000
 7099.00    0.31892   0.44043   -2.000
 7100.00    0.36393   0.44172   -2.000
 7101.00    0.40333   0.44294   -2.000
 7102.00    0.43215   0.44189   -2.000
 7103.00    0.39181   0.44038   -2.000
 7104.00    0.35805   0.44089   -2.000
 7105.00    0.35773   0.44216   -2.000
 7106.00    0.36729   0.44197   -2.000
 7107.00    0.41754   0.44069   -2.000
 7108.00    0.43760   0.44051   -2.000
 7109.00    0.35475   0.44104   -2.000
 7110.00    0.35077   0.44113   -2.000
 7111.00    0.57337   0.44064   -2.000
 7112.00    0.70637   0.44037   -2.000
 7113.00    0.61952   0.44004   -2.000
 7114.00    0.51746   0.43955   -2.000
 7115.00    0.38323   0.43964   -2.000
 7116.00    0.33244   0.44014   -2.000
 7117.00    0.43509   0.43954   -2.000
 7118.00    0.52057   0.43790   -2.000
 7119.00    0.57845   0.43779   -2.000
 7120.00    0.58754   0.43943   -2.000
 7121.00    0.52782   0.43945   -2.000
 7122.00    0.51230   0.43700   -2.000
 7123.00    0.55158   0.43593   -2.000
 7124.00    0.62654   0.43803   -2.000
 7125.00    0.74053   0.43942   -2.000
 7126.00    0.66252   0.43724   -2.000
 7127.00    0.39937   0.43492   -2.000
 7128.00    0.25395   0.43641   -2.000
 7129.00    0.20865   0.43909   -2.000
 7130.00    0.25778   0.43815   -2.000
 7131.00    0.37763   0.43508   -2.000
 7132.00    0.46977   0.43543   -2.000
 7133.00    0.54369   0.43875   -2.000
 7134.00    0.52582   0.43897   -2.000
 7135.00    0.45509   0.43595   -2.000
 7136.00    0.41328   0.43542   -2.000
 7137.00    0.38598   0.43838   -2.000
 7138.00    0.47934   0.43952   -2.000
 7139.00    0.62509   0.43724   -2.000
 7140.00    0.56311   0.43605   -2.000
 7141.00    0.42374   0.43823   -2.000
 7142.00    0.46570   0.44004   -2.000
 7143.00    0.56493   0.43845   -2.000
 7144.00    0.53788   0.43671   -2.000
 7145.00    0.47752   0.43852   -2.000
 7146.00    0.48923   0.44075   -2.000
 7147.00    0.51647   0.43931   -2.000
 7148.00    0.53582   0.43731   -2.000
 7149.00    0.55382   0.43899   -2.000
 7150.00    0.47694   0.44142   -2.000
 7151.00    0.38778   0.44036   -2.000
 7152.00    0.49124   0.43810   -2.000
 7153.00    0.61220   0.43906   -2.000
 7154.00    0.60488   0.44163   -2.000
 7155.00    0.59054   0.44158   -2.000
 7156.00    0.55734   0.43921   -2.000
 7157.00    0.52325   0.43884   -2.000
 7158.00    0.44410   0.44137   -2.000
 7159.00    0.38701   0.44230   -2.000
 7160.00    0.83074   0.44022   -2.000
 7161.00    1.23187   0.43919   -2.000
 7162.00    1.09649   0.44103   -2.000
 7163.00    0.97761   0.44217   -2.000
 7164.00    0.99960   0.44087   -2.000
 7165.00    0.96379   0.43988   -2.000
 7166.00    0.56161   0.44088   -2.000
 7167.00    0.26165   0.44162   -2.000
 7168.00    0.46920   0.44069   -2.000
 7169.00    0.64282   0.44000   -2.000
 7170.00    0.67991   0.44071   -2.000
 7171.00    0.65867   0.44108   -2.000
 7172.00    0.44258   0.43974   -2.000
 7173.00    0.30795   0.43892   -2.000
 7174.00    0.40309   0.44020   -2.000
 7175.00    0.48226   0.44080   -2.000
 7176.00    0.52288   0.43892   -2.000
 7177.00    0.55519   0.43752   -2.000
 7178.00    0.57017   0.43898   -2.000
 7179.00    0.61483   0.44021   -2.000
 7180.00    0.71320   0.43840   -2.000
 7181.00    0.71647   0.43646   -2.000
 7182.00    0.56924   0.43761   -2.000
 7183.00    0.48098   0.43939   -2.000
 7184.00    0.47466   0.43820   -2.000
 7185.00    0.45272   0.43557   -2.000
 7186.00    0.41167   0.43580   -2.000
 7187.00    0.43129   0.43863   -2.000
 7188.00    0.51631   0.43890   -2.000
 7189.00    0.50269   0.43590   -2.000
 7190.00    0.39528   0.43469   -2.000
 7191.00    0.38659   0.43742   -2.000
 7192.00    0.46066   0.43907   -2.000
 7193.00    0.42822   0.43689   -2.000
 7194.00    0.31717   0.43504   -2.000
 7195.00    0.38687   0.43668   -2.000
 7196.00    0.57376   0.43897   -2.000
 7197.00    0.50366   0.43834   -2.000
 7198.00    0.28776   0.43607   -2.000
 7199.00    0.48175   0.43600   -2.000
 7200.00    0.87815   0.43868   -2.000
 7201.00    1.02879   0.43996   -2.000
 7202.00    1.07450   0.43816   -2.000
 7203.00    0.80675   0.43670   -2.000
 7204.00    0.42431   0.43840   -2.000
 7205.00    0.28421   0.44043   -2.000
 7206.00    0.21919   0.44000   -2.000
 7207.00    0.32486   0.43890   -2.000
 7208.00    0.47457   0.43946   -2.000
 7209.00    0.46806   0.44123   -2.000
 7210.00    0.42869   0.44201   -2.000
 7211.00    0.49811   0.44120   -2.000
 7212.00    0.58560   0.44076   -2.000
 7213.00    0.66572   0.44237   -2.000
 7214.00    0.74492   0.44408   -2.000
 7215.00    0.72954   0.44380   -2.000
 7216.00    0.70597   0.44308   -2.000
 7217.00    0.49672   0.44414   -2.000
 7218.00    0.27804   0.44574   -2.000
