###################################################################
## OUTPUT of StarlightChains_v04.for    [Cid@UFSC - 01/Apr/2007] ##
###################################################################

## Some input info
KUG0210-078._47_39.txt                   [arq_obs]
Base.CB07.vall.4m                        [arq_base]
Masks.EmLines.NEW.gm                     [arq_masks]
StCv04.C11.config                        [arq_config]
   66                                    [N_base]
    0                                    [N_YAV_components = # of components with extra extinction!]
    0                                    [i_FitPowerLaw (1/0 = Yes/No)]
-9.99                                    [alpha_PowerLaw]
CCM                                      [red_law_option]
 1.458241                                [q_norm = A(l_norm)/A(V)]

## (Re)Sampling Parameters
 3741.00                                 [l_ini (A)]
 7218.00                                 [l_fin (A)]
    1.00                                 [dl    (A)]     (OBS: dl_cushion =    50.00 A)

## Normalization info
 4020.00                                 [l_norm (A) - for base]
 4010.00                                 [llow_norm (A) - window for f_obs]
 4060.00                                 [lupp_norm (A) - window for f_obs]
1.065497E-17                             [fobs_norm (in input units)]

## S/N
 3691.00                                 [llow_SN (A) - window for S/N]
 7268.00                                 [lupp_SN (A) - window for S/N]
   3.426                                 [S/N in S/N window]
   4.871                                 [S/N in norm. window]
   0.009                                 [S/N_err in S/N window]
   0.012                                 [S/N_err in norm. window]
  1.0000                                 [fscale_chi2]

## etc...
    -2007911                             [idum_orig]
  2381                                   [NOl_eff]
  2338                                   [Nl_eff]
    43    NSIGMA                         [Ntot_cliped & clip_method]
  1029420                                [Nglobal_steps]
   7                                     [N_chains]
  45                                     [NEX0s_base = N_base in EX0s-fits]
 0   0   1       43   2.0   2.983E+03    [Clip-Bug, RC-Crash & Burn-In warning-flags, n_censored_weights, wei_nsig_threshold & wei_limit]
    28     27.842     27.252      0.590  [idt_all, wdt_TotTime, wdt_UsrTime & wdt_SysTime (sec)]

## Synthesis Results - Best model ##

 1.54549E-05                             [chi2/Nl_eff]
    38.71684                             [adev (%)]

    93.42342                             [sum-of-x (%)]
 2.63247E-18                             [Flux_tot (units of input spectrum!)]
 9.11223E-14                             [Mini_tot (???)]
 4.79525E-14                             [Mcor_tot (???)]

-451.24                                  [v0_min  (km/s)]
 164.53                                  [vd_min  (km/s)]
-0.9903                                  [AV_min  (mag)]
 0.0000                                  [YAV_min (mag)]

# j     x_j(%)      Mini_j(%)     Mcor_j(%)     age_j(yr)     Z_j      (L/M)_j    YAV?  Mstars   component_j        a/Fe...       SSP_chi2r SSP_adev(%)   SSP_AV   SSP_x(%)
  1      0.0000     0.0000E+00    0.0000E+00    1.000000E+06  0.00400  1.094E-02    0   1.0000   age020_m42            0.0000     2.1447E-05    47.8284   2.8804    70.5808
  2      0.0000     0.0000E+00    0.0000E+00    3.160000E+06  0.00400  4.007E-02    0   0.9999   age045_m42            0.0000     1.9335E-05    46.1446   2.0947    76.9586
  3      0.0000     0.0000E+00    0.0000E+00    5.010000E+06  0.00400  2.539E-02    0   0.9488   age055_m42            0.0000     2.0596E-05    47.2142   2.4620    73.8105
  4      0.0000     0.0000E+00    0.0000E+00    6.610000E+06  0.00400  2.620E-02    0   0.9220   age061_m42            0.0000     1.9581E-05    46.3357   2.0385    76.6042
  5      0.0000     0.0000E+00    0.0000E+00    1.000000E+07  0.00400  1.322E-02    0   0.8862   age070_m42            0.0000     2.0384E-05    48.0321   1.8189    76.4370
  6      0.0382     1.4974E-04    2.4389E-04    1.445000E+07  0.00400  7.883E-03    0   0.8571   age078_m42            0.0000     2.0926E-05    48.2671   2.1573    74.2114
  7      0.0000     0.0000E+00    0.0000E+00    2.512000E+07  0.00400  5.251E-03    0   0.8174   age090_m42            0.0000     2.0327E-05    48.1175   1.6932    76.7288
  8      0.0000     0.0000E+00    0.0000E+00    4.000000E+07  0.00400  3.649E-03    0   0.7851   age104_m42            0.0000     1.9829E-05    47.3852   1.4448    77.9538
  9      0.0000     0.0000E+00    0.0000E+00    5.500000E+07  0.00400  3.098E-03    0   0.7629   age110_m42            0.0000     1.9131E-05    46.1808   1.5535    79.2575
 10      0.0000     0.0000E+00    0.0000E+00    1.015200E+08  0.00400  2.228E-03    0   0.7207   age116_m42            0.0000     1.8704E-05    45.4721   1.5439    80.2378
 11      0.0000     0.0000E+00    0.0000E+00    2.861200E+08  0.00400  1.093E-03    0   0.6648   age125_m42            0.0000     1.8335E-05    45.5137   0.9697    82.5577
 12      0.0315     1.4775E-03    1.7871E-03    5.088000E+08  0.00400  6.597E-04    0   0.6365   age130_m42            0.0000     1.7602E-05    44.0173   0.9067    84.8446
 13      0.0000     0.0000E+00    0.0000E+00    1.434000E+09  0.00400  2.132E-04    0   0.5798   age139_m42            0.0000     1.6447E-05    41.9038  -0.1154    87.9878
 14      0.0000     0.0000E+00    0.0000E+00    4.250000E+09  0.00400  5.895E-05    0   0.5377   age158_m42            0.0000     1.6821E-05    41.6356  -0.5694    84.9532
 15      0.0000     0.0000E+00    0.0000E+00    7.500000E+09  0.00400  3.510E-05    0   0.5212   age171_m42            0.0000     1.6708E-05    40.8167  -0.7883    85.1876
 16      0.0537     8.2762E-02    7.9170E-02    1.300000E+10  0.00400  2.005E-05    0   0.5034   age193_m42            0.0000     1.6637E-05    39.8651  -0.9806    85.4375
 17      0.0000     0.0000E+00    0.0000E+00    1.800000E+10  0.00400  1.525E-05    0   0.4967   age213_m42            0.0000     1.6798E-05    40.1748  -0.9900    84.6649
 18      0.0000     0.0000E+00    0.0000E+00    1.000000E+06  0.00800  1.238E-02    0   1.0000   age020_m52            0.0000     2.1523E-05    47.8966   2.8781    70.6721
 19      0.0000     0.0000E+00    0.0000E+00    3.160000E+06  0.00800  3.074E-02    0   0.9966   age045_m52            0.0000     2.1499E-05    47.8769   2.8064    71.1629
 20      0.0000     0.0000E+00    0.0000E+00    5.010000E+06  0.00800  2.668E-02    0   0.9443   age055_m52            0.0000     2.0985E-05    47.5567   2.5588    72.7990
 21      0.0000     0.0000E+00    0.0000E+00    6.610000E+06  0.00800  2.136E-02    0   0.9177   age061_m52            0.0000     2.0222E-05    47.6573   1.3104    77.5500
 22      0.0000     0.0000E+00    0.0000E+00    1.000000E+07  0.00800  1.215E-02    0   0.8827   age070_m52            0.0000     2.0961E-05    48.9092   2.0199    75.6164
 23      0.0000     0.0000E+00    0.0000E+00    1.445000E+07  0.00800  8.717E-03    0   0.8552   age078_m52            0.0000     2.0729E-05    48.2709   2.1190    75.3609
 24      0.0000     0.0000E+00    0.0000E+00    2.512000E+07  0.00800  5.592E-03    0   0.8162   age090_m52            0.0000     2.0258E-05    48.1626   1.7548    77.6893
 25      0.0000     0.0000E+00    0.0000E+00    4.000000E+07  0.00800  3.896E-03    0   0.7841   age104_m52            0.0000     1.9590E-05    47.3563   1.6371    79.1645
 26      0.0000     0.0000E+00    0.0000E+00    1.015200E+08  0.00800  2.148E-03    0   0.7226   age116_m52            0.0000     1.8876E-05    46.3043   1.5329    80.2387
 27      1.1337     3.5321E-02    4.4856E-02    2.861200E+08  0.00800  9.925E-04    0   0.6683   age125_m52            0.0000     1.7514E-05    43.8651   0.9705    85.7387
 28     11.4593     1.1282E+00    1.3159E+00    9.047900E+08  0.00800  3.141E-04    0   0.6138   age135_m52            0.0000     1.5859E-05    40.8116   0.0597    92.6445
 29      0.0000     0.0000E+00    0.0000E+00    1.434000E+09  0.00800  1.719E-04    0   0.5853   age139_m52            0.0000     1.5992E-05    41.4990  -0.5090    90.3050
 30      0.0000     0.0000E+00    0.0000E+00    2.500000E+09  0.00800  7.872E-05    0   0.5600   age150_m52            0.0000     1.6116E-05    40.3594  -0.8166    88.9792
 31      0.0000     0.0000E+00    0.0000E+00    4.250000E+09  0.00800  4.336E-05    0   0.5426   age158_m52            0.0000     1.6281E-05    40.4477  -0.8259    88.0263
 32      0.0000     0.0000E+00    0.0000E+00    6.250000E+09  0.00800  3.159E-05    0   0.5319   age166_m52            0.0000     1.5996E-05    39.5221  -1.0000    88.2939
 33     12.4039     2.8183E+01    2.7168E+01    1.300000E+10  0.00800  1.361E-05    0   0.5073   age193_m52            0.0000     1.8033E-05    44.1945  -1.0000    80.0839
 34      0.0000     0.0000E+00    0.0000E+00    1.800000E+10  0.00800  9.886E-06    0   0.4990   age213_m52            0.0000     1.9183E-05    44.8565  -1.0000    77.8575
 35      0.0000     0.0000E+00    0.0000E+00    1.000000E+06  0.02000  1.544E-02    0   1.0000   age020_m62            0.0000     2.1659E-05    48.0754   2.8832    70.6470
 36      0.0000     0.0000E+00    0.0000E+00    3.160000E+06  0.02000  3.762E-02    0   0.9858   age045_m62            0.0000     2.1797E-05    48.0245   2.8279    71.0587
 37      0.0000     0.0000E+00    0.0000E+00    5.010000E+06  0.02000  3.296E-02    0   0.9342   age055_m62            0.0000     2.0286E-05    46.7396   2.4086    75.0734
 38      0.0000     0.0000E+00    0.0000E+00    8.710000E+06  0.02000  1.154E-02    0   0.8861   age067_m62            0.0000     2.3569E-05    53.0362   1.5913    74.0070
 39      0.0000     0.0000E+00    0.0000E+00    1.445000E+07  0.02000  7.663E-03    0   0.8472   age078_m62            0.0000     2.1375E-05    49.7618   1.6946    76.4017
 40      0.0000     0.0000E+00    0.0000E+00    2.512000E+07  0.02000  4.532E-03    0   0.8099   age090_m62            0.0000     2.1466E-05    49.9235   1.6932    75.9350
 41      0.0000     0.0000E+00    0.0000E+00    5.500000E+07  0.02000  2.733E-03    0   0.7595   age110_m62            0.0000     1.9964E-05    47.6272   1.6362    78.0714
 42      0.0002     5.4132E-06    7.1851E-06    1.609000E+08  0.02000  1.369E-03    0   0.6985   age120_m62            0.0000     1.8495E-05    45.3985   1.3940    82.6148
 43      0.0000     0.0000E+00    0.0000E+00    2.861200E+08  0.02000  9.013E-04    0   0.6714   age125_m62            0.0000     1.7414E-05    43.5080   1.0724    87.1316
 44      0.0000     0.0000E+00    0.0000E+00    5.088000E+08  0.02000  5.028E-04    0   0.6449   age130_m62            0.0000     1.5943E-05    40.8224   0.5865    92.8153
 45      7.3447     9.3542E-01    1.0983E+00    9.047900E+08  0.02000  2.428E-04    0   0.6179   age135_m62            0.0000     1.5596E-05    40.6809  -0.0263    92.9753
 46      0.0000     0.0000E+00    0.0000E+00    1.434000E+09  0.02000  1.263E-04    0   0.5908   age139_m62            0.0000     1.5882E-05    40.8124  -0.4724    91.5691
 47      5.6193     2.9034E+00    3.1299E+00    2.500000E+09  0.02000  5.985E-05    0   0.5673   age150_m62            0.0000     1.5909E-05    39.7894  -0.8866    91.6483
 48      0.0000     0.0000E+00    0.0000E+00    4.250000E+09  0.02000  3.271E-05    0   0.5468   age158_m62            0.0000     1.6137E-05    39.4035  -1.0000    88.5360
 49      0.0000     0.0000E+00    0.0000E+00    1.000000E+10  0.02000  1.360E-05    0   0.5167   age181_m62            0.0000     1.8424E-05    42.5489  -1.0000    82.3092
 50      0.0000     0.0000E+00    0.0000E+00    1.800000E+10  0.02000  7.124E-06    0   0.5013   age213_m62            0.0000     2.1100E-05    44.6176  -1.0000    77.5097
 51      0.0000     0.0000E+00    0.0000E+00    1.000000E+06  0.05000  2.592E-02    0   0.9998   age020_m72            0.0000     2.1938E-05    48.4123   2.8809    70.4525
 52      0.1595     1.0179E-04    1.8524E-04    3.160000E+06  0.05000  4.845E-02    0   0.9577   age045_m72            0.0000     2.1268E-05    47.5211   2.6977    72.3072
 53      0.0000     0.0000E+00    0.0000E+00    5.010000E+06  0.05000  3.072E-02    0   0.9147   age055_m72            0.0000     2.1725E-05    49.2487   2.2674    73.8471
 54      0.1118     2.3765E-04    4.0088E-04    6.610000E+06  0.05000  1.455E-02    0   0.8877   age061_m72            0.0000     2.4884E-05    54.8176   1.6608    73.3590
 55      0.3628     1.2364E-03    2.0026E-03    1.000000E+07  0.05000  9.074E-03    0   0.8524   age070_m72            0.0000     2.1801E-05    49.2315   2.4346    73.7548
 56      0.0000     0.0000E+00    0.0000E+00    2.512000E+07  0.05000  4.250E-03    0   0.7902   age090_m72            0.0000     2.0865E-05    48.6494   2.1226    75.6716
 57      0.0000     0.0000E+00    0.0000E+00    4.000000E+07  0.05000  3.087E-03    0   0.7618   age104_m72            0.0000     2.0579E-05    48.6362   1.8906    77.0324
 58      0.5684     1.0338E-02    1.3941E-02    1.015200E+08  0.05000  1.700E-03    0   0.7096   age116_m72            0.0000     1.8935E-05    46.4307   1.5625    81.4551
 59      0.0000     0.0000E+00    0.0000E+00    2.861200E+08  0.05000  7.384E-04    0   0.6633   age125_m72            0.0000     1.6687E-05    42.0471   0.8833    90.0948
 60     11.5100     9.3198E-01    1.1285E+00    5.088000E+08  0.05000  3.819E-04    0   0.6372   age130_m72            0.0000     1.5699E-05    40.6977   0.3138    93.9399
 61     12.9768     2.3943E+00    2.7799E+00    9.047900E+08  0.05000  1.676E-04    0   0.6110   age135_m72            0.0000     1.5478E-05    39.8954  -0.4432    94.0554
 62      0.0000     0.0000E+00    0.0000E+00    1.434000E+09  0.05000  8.837E-05    0   0.5874   age139_m72            0.0000     1.5670E-05    39.4197  -0.9180    93.9167
 63      0.5041     3.6823E-01    3.9171E-01    2.500000E+09  0.05000  4.233E-05    0   0.5598   age150_m72            0.0000     1.6062E-05    39.1817  -1.0000    89.7127
 64     29.0991     6.2706E+01    6.2546E+01    6.250000E+09  0.05000  1.435E-05    0   0.5249   age166_m72            0.0000     1.9390E-05    43.8939  -1.0000    80.1168
 65      0.0000     0.0000E+00    0.0000E+00    1.300000E+10  0.05000  6.513E-06    0   0.5036   age193_m72            0.0000     2.3560E-05    46.4883  -1.0000    74.7828
 66      0.0466     3.1816E-01    2.9897E-01    1.800000E+10  0.05000  4.527E-06    0   0.4945   age213_m72            0.0000     2.6556E-05    47.7962  -1.0000    70.8525


## Synthesis Results - Average & Chains ##

# j      x_j: min, <> & last-chain-values for 1 ...  7 chains
  1      0.0000      0.8148      0.0553      0.6338      0.7241      0.0925      0.0000      0.0000      0.0457
  2      0.0000      0.6664      0.2809      0.4381      0.0000      0.4945      0.0421      1.2437      0.0000
  3      0.0000      0.7212      0.0000      0.2012      0.9971      0.6239      0.7414      0.2424      0.5024
  4      0.0000      0.8079      0.0110      0.4274      0.4782      0.0000      0.1717      0.3552      1.0826
  5      0.0000      0.7179      0.1248      0.0000      1.2912      0.1833      0.9812      0.1715      0.0811
  6      0.0382      0.9635      0.6847      0.5641      1.3749      0.0000      1.3793      0.6873      1.3194
  7      0.0000      0.8221      0.0000      0.0000      1.6553      1.3931      0.3353      0.5604      0.6480
  8      0.0000      0.8601      1.8544      0.2489      0.1868      0.0000      0.9071      0.3946      0.0000
  9      0.0000      0.9629      0.0000      0.6468      1.1868      0.3900      0.8851      0.0780      0.0000
 10      0.0000      0.8786      0.1482      0.7687      0.4324      0.9958      0.0000      1.3727      0.1856
 11      0.0000      0.7790      0.4072      0.0000      1.0975      0.4892      1.1688      0.0000      0.0000
 12      0.0315      0.7356      0.6839      0.0000      0.0000      0.2533      1.7709      0.3976      0.5409
 13      0.0000      0.8094      0.5259      0.0000      0.0000      0.2959      0.0000      0.8139      0.0000
 14      0.0000      0.9050      0.0000      0.7555      1.0376      0.4775      0.0000      1.3160      0.0341
 15      0.0000      0.8784      1.0601      0.0000      0.3829      0.7478      0.3293      0.4015      0.0000
 16      0.0537      0.9292      0.0640      1.8269      0.8972      0.0000      2.7127      0.7176      0.3010
 17      0.0000      0.7874      0.3361      0.1783      1.3604      0.5829      0.7750      1.0213      1.0418
 18      0.0000      0.7359      0.1943      0.1539      0.0000      0.0000      0.0418      0.7212      0.2499
 19      0.0000      0.7887      0.6207      0.9367      0.2466      0.0000      0.0320      0.7638      0.0000
 20      0.0000      0.7933      0.1295      1.1987      0.0000      0.9657      1.0141      0.7266      0.4150
 21      0.0000      0.7050      0.2076      0.6192      0.0000      0.4632      1.1488      0.0000      0.0000
 22      0.0000      1.0055      0.1084      0.6828      0.4941      0.1309      0.0000      0.5273      0.1267
 23      0.0000      0.8232      0.0314      0.4554      0.8319      1.2268      1.1705      0.0000      0.0000
 24      0.0000      1.0496      0.0000      0.0000      0.4350      0.0000      0.3646      0.0000      1.0095
 25      0.0000      0.8276      1.0886      0.4906      0.2749      0.4503      0.0000      0.3907      0.3690
 26      0.0000      0.8918      0.3290      0.9067      0.7974      0.7435      0.3900      0.6918      0.1148
 27      1.1337      0.7729      1.5504      0.6077      0.1040      0.0000      0.7107      0.5431      0.0000
 28     11.4593      0.9739      0.1310      0.0319      0.9892      0.0000      3.1102      0.7561      0.7460
 29      0.0000      0.9071      1.5356      0.1752      0.1976      0.0000      0.0000      0.0000      1.5801
 30      0.0000      0.7915      0.8693      0.0235      1.3243      0.1008      0.0973      0.1520      0.6537
 31      0.0000      0.6697      0.0000      1.1238      0.0094      0.2246      1.0736      0.1957      0.5562
 32      0.0000      0.5585      0.0516      0.4563      0.6337      0.5620      1.2157      0.0000      0.0000
 33     12.4039      1.2857      0.1118      0.0000      3.3005      0.0000      0.9363      1.4836      0.0000
 34      0.0000      0.8220      0.9474      0.1772      0.7369      0.0000      0.4432      0.2129      0.5306
 35      0.0000      0.7305      0.5372      0.0000      1.4769      0.0000      0.0691      0.3727      0.3481
 36      0.0000      0.8604      0.4808      0.5682      0.0000      0.1973      0.3268      1.0638      0.0000
 37      0.0000      0.9341      0.0000      0.0462      1.9605      0.3629      0.0938      0.9638      0.0000
 38      0.0000      0.9221      0.1917      0.0000      0.0420      0.1746      1.1843      0.2666      0.0550
 39      0.0000      0.9835      0.2126      0.7141      0.0000      0.0284      1.0758      1.4370      0.1187
 40      0.0000      0.9494      0.3369      0.3451      0.2710      0.1211      1.3691      0.6688      0.0000
 41      0.0000      2.0727      2.2193      2.0228      2.8185      4.0200      0.2501      3.4358      2.9484
 42      0.0002      2.3132      3.4543      4.5653      1.2619      2.9966      0.7249      3.0143      3.7350
 43      0.0000      1.1868      1.8182      0.8910      1.6593      0.7400      0.9241      2.2922      3.2965
 44      0.0000      0.5842      0.9035      0.3172      0.0890      0.0000      1.0484      1.2964      0.5599
 45      7.3447      0.9662      0.0783      0.0000      0.7892      0.0873      1.7049      0.4872      0.8025
 46      0.0000      0.7460      0.5850      0.9390      0.0000      0.5095      0.0000      0.0000      0.8660
 47      5.6193      1.0652      0.6895      0.9992      0.4332      0.7064      4.3967      1.6665      0.0000
 48      0.0000      0.5913      0.2491      0.0000      0.7626      0.2733      0.7076      0.0941      0.8762
 49      0.0000      1.0648      0.2426      1.8752      1.0672      0.4804      3.4346      1.0829      0.7535
 50      0.0000      0.9514      0.4237      0.3061      1.9860      0.7424      0.2752      0.1184      0.2813
 51      0.0000      2.8278      3.6221      2.9365      3.5639      3.7614      1.9987      2.1023      5.1948
 52      0.1595      1.4146      0.8897      0.4242      0.6072      1.2007      0.4603      0.4628      0.4096
 53      0.0000      1.3628      0.5027      0.0000      0.1143      1.2457      0.1183      0.0000      0.0000
 54      0.1118      0.6489      0.0000      0.6358      0.5615      0.6013      0.6898      0.0000      0.5091
 55      0.3628      0.7675      0.0000      1.3657      0.0146      0.1973      0.9702      0.0000      0.2160
 56      0.0000      1.6379      3.0861      2.6890      0.3377      2.4942      0.0000      2.2861      2.3044
 57      0.0000      2.1584      2.5403      3.5209      0.0978      3.8114      2.6330      0.5198      2.7849
 58      0.5684      2.6757      3.5752      3.7268      3.5315      3.2853      4.3410      3.3097      3.2732
 59      0.0000      0.9853      0.2325      0.0000      1.4311      0.3756      0.8692      2.7044      0.8967
 60     11.5100      0.8294      0.0000      1.2794      1.1470      0.0000      0.8092      0.0000      0.2616
 61     12.9768      0.9719      1.5679      1.1926      1.9969      0.2542      0.5594      0.0000      0.5121
 62      0.0000      0.7052      0.1141      0.0000      0.0951      0.2371      0.0000      0.5816      0.2106
 63      0.5041      0.6806      0.8015      0.2086      0.0000      0.0496      0.3721      0.1113      0.9079
 64     29.0991      0.8011      0.2227      0.0523      0.9195      0.3824      2.5935      0.6489      0.0309
 65      0.0000     15.6345     26.7968     25.5829     20.7061     29.0114     19.0649     23.9241     27.3997
 66      0.0466     12.3831     21.3355     19.4802     18.1357     21.4782     14.2111     20.2112     20.7539

# j      m_j: min, <> & last-chain-values for 1 ...  7 chains
  1  0.0000E+00  2.5300E-03  1.1023E-04  1.3401E-03  1.6152E-03  1.7815E-04  0.0000E+00  0.0000E+00  9.1382E-05
  2  0.0000E+00  5.6492E-04  1.5287E-04  2.5288E-04  0.0000E+00  2.5990E-04  2.9609E-05  7.2010E-04  0.0000E+00
  3  0.0000E+00  9.1555E-04  0.0000E+00  1.7390E-04  9.0927E-04  4.9109E-04  7.8175E-04  2.1018E-04  4.1090E-04
  4  0.0000E+00  9.6580E-04  8.4261E-06  3.4791E-04  4.1061E-04  0.0000E+00  1.7048E-04  2.9001E-04  8.3374E-04
  5  0.0000E+00  1.6348E-03  1.8247E-04  0.0000E+00  2.1120E-03  2.5889E-04  1.8559E-03  2.6678E-04  1.1901E-04
  6  2.4389E-04  3.5587E-03  1.6235E-03  1.4189E-03  3.6479E-03  0.0000E+00  4.2318E-03  1.7338E-03  3.1395E-03
  7  0.0000E+00  4.3473E-03  0.0000E+00  0.0000E+00  6.2876E-03  4.5678E-03  1.4727E-03  2.0241E-03  2.2075E-03
  8  0.0000E+00  6.2863E-03  8.7008E-03  1.2387E-03  9.8054E-04  0.0000E+00  5.5071E-03  1.9701E-03  0.0000E+00
  9  0.0000E+00  8.0552E-03  0.0000E+00  3.6844E-03  7.1317E-03  2.0231E-03  6.1506E-03  4.4568E-04  0.0000E+00
 10  0.0000E+00  9.6540E-03  1.0455E-03  5.7520E-03  3.4134E-03  6.7849E-03  0.0000E+00  1.0303E-02  1.3138E-03
 11  0.0000E+00  1.6096E-02  5.4013E-03  0.0000E+00  1.6288E-02  6.2681E-03  2.0059E-02  0.0000E+00  0.0000E+00
 12  1.7871E-03  2.4109E-02  1.4390E-02  0.0000E+00  0.0000E+00  5.1484E-03  4.8213E-02  8.9018E-03  1.1421E-02
 13  0.0000E+00  7.4775E-02  3.1186E-02  0.0000E+00  0.0000E+00  1.6952E-02  0.0000E+00  5.1354E-02  0.0000E+00
 14  0.0000E+00  2.8043E-01  0.0000E+00  1.5941E-01  2.3096E-01  9.1744E-02  0.0000E+00  2.7850E-01  6.7996E-03
 15  0.0000E+00  4.4309E-01  3.4328E-01  0.0000E+00  1.3875E-01  2.3390E-01  1.3797E-01  1.3833E-01  0.0000E+00
 16  7.9170E-02  7.9248E-01  3.5031E-02  1.0611E+00  5.4969E-01  0.0000E+00  1.9218E+00  4.1800E-01  1.6538E-01
 17  0.0000E+00  8.7119E-01  2.3871E-01  1.3432E-01  1.0812E+00  3.9991E-01  7.1228E-01  7.7178E-01  7.4264E-01
 18  0.0000E+00  2.0194E-03  3.4227E-04  2.8752E-04  0.0000E+00  0.0000E+00  9.5310E-05  1.3517E-03  4.4176E-04
 19  0.0000E+00  8.6857E-04  4.3881E-04  7.0247E-04  1.9506E-04  0.0000E+00  2.9307E-05  5.7454E-04  0.0000E+00
 20  0.0000E+00  9.5377E-04  9.9936E-05  9.8148E-04  0.0000E+00  7.1997E-04  1.0128E-03  5.9666E-04  3.2147E-04
 21  0.0000E+00  1.0290E-03  1.9451E-04  6.1536E-04  0.0000E+00  4.1919E-04  1.3926E-03  0.0000E+00  0.0000E+00
 22  0.0000E+00  2.4815E-03  1.7175E-04  1.1475E-03  8.7594E-04  2.0024E-04  0.0000E+00  8.8879E-04  2.0138E-04
 23  0.0000E+00  2.7434E-03  6.7270E-05  1.0335E-03  1.9915E-03  2.5351E-03  3.2404E-03  0.0000E+00  0.0000E+00
 24  0.0000E+00  5.2039E-03  0.0000E+00  0.0000E+00  1.5492E-03  0.0000E+00  1.5014E-03  0.0000E+00  3.2245E-03
 25  0.0000E+00  5.6581E-03  4.7776E-03  2.2841E-03  1.3503E-03  1.9090E-03  0.0000E+00  1.8245E-03  1.6252E-03
 26  0.0000E+00  1.0191E-02  2.4135E-03  7.0560E-03  6.5459E-03  5.2686E-03  3.7022E-03  5.3998E-03  8.4502E-04
 27  4.4856E-02  1.7679E-02  2.2765E-02  9.4651E-03  1.7091E-03  0.0000E+00  1.3503E-02  8.4848E-03  0.0000E+00
 28  1.3159E+00  6.4646E-02  5.5823E-03  1.4399E-03  4.7169E-02  0.0000E+00  1.7150E-01  3.4280E-02  3.1903E-02
 29  0.0000E+00  1.0492E-01  1.1402E-01  1.3803E-02  1.6422E-02  0.0000E+00  0.0000E+00  0.0000E+00  1.1774E-01
 30  0.0000E+00  1.9126E-01  1.3486E-01  3.8651E-03  2.2989E-01  1.5098E-02  1.9536E-02  2.5089E-02  1.0177E-01
 31  0.0000E+00  2.8468E-01  0.0000E+00  3.2530E-01  2.8687E-03  5.9206E-02  3.7908E-01  5.6821E-02  1.5233E-01
 32  0.0000E+00  3.1942E-01  1.8964E-02  1.7775E-01  2.6038E-01  1.9932E-01  5.7761E-01  0.0000E+00  0.0000E+00
 33  2.7168E+01  1.6279E+00  9.0843E-02  0.0000E+00  3.0020E+00  0.0000E+00  9.8476E-01  1.2830E+00  0.0000E+00
 34  0.0000E+00  1.4094E+00  1.0428E+00  2.0693E-01  9.0768E-01  0.0000E+00  6.3124E-01  2.4935E-01  5.8617E-01
 35  0.0000E+00  1.6073E-03  7.5872E-04  0.0000E+00  2.3341E-03  0.0000E+00  1.2632E-04  5.6001E-04  4.9336E-04
 36  0.0000E+00  7.6585E-04  2.7475E-04  3.4445E-04  0.0000E+00  1.0891E-04  2.4165E-04  6.4679E-04  0.0000E+00
 37  0.0000E+00  8.9941E-04  0.0000E+00  3.0293E-05  1.3559E-03  2.1667E-04  7.5033E-05  6.3385E-04  0.0000E+00
 38  0.0000E+00  2.4051E-03  3.2101E-04  0.0000E+00  7.8629E-05  2.8235E-04  2.5661E-03  4.7491E-04  9.2435E-05
 39  0.0000E+00  3.6935E-03  5.1249E-04  1.8263E-03  0.0000E+00  6.6248E-05  3.3560E-03  3.6862E-03  2.8722E-04
 40  0.0000E+00  5.7637E-03  1.3128E-03  1.4265E-03  1.1816E-03  4.5571E-04  6.9036E-03  2.7732E-03  0.0000E+00
 41  0.0000E+00  1.9567E-02  1.3449E-02  1.3004E-02  1.9113E-02  2.3531E-02  1.9610E-03  2.2154E-02  1.7932E-02
 42  7.1851E-06  4.0093E-02  3.8434E-02  5.3885E-02  1.5711E-02  3.2205E-02  1.0437E-02  3.5685E-02  4.1706E-02
 43  0.0000E+00  3.0031E-02  2.9535E-02  1.5355E-02  3.0162E-02  1.1612E-02  1.9424E-02  3.9618E-02  5.3742E-02
 44  0.0000E+00  2.5454E-02  2.5270E-02  9.4101E-03  2.7851E-03  0.0000E+00  3.7942E-02  3.8579E-02  1.5716E-02
 45  1.0983E+00  8.3527E-02  4.3449E-03  0.0000E+00  4.9010E-02  4.6774E-03  1.2243E-01  2.8770E-02  4.4693E-02
 46  0.0000E+00  1.1854E-01  5.9678E-02  1.0161E-01  0.0000E+00  5.0197E-02  0.0000E+00  0.0000E+00  8.8651E-02
 47  3.1299E+00  3.4297E-01  1.4253E-01  2.1908E-01  1.0019E-01  1.4104E-01  1.1759E+00  3.6650E-01  0.0000E+00
 48  0.0000E+00  3.3576E-01  9.0817E-02  0.0000E+00  3.1107E-01  9.6245E-02  3.3378E-01  3.6503E-02  3.2054E-01
 49  0.0000E+00  1.3742E+00  2.0098E-01  1.6481E+00  9.8940E-01  3.8442E-01  3.6821E+00  9.5461E-01  6.2650E-01
 50  0.0000E+00  2.2743E+00  6.5021E-01  4.9825E-01  3.4102E+00  1.1004E+00  5.4634E-01  1.9334E-01  4.3314E-01
 51  0.0000E+00  3.7052E-03  3.0468E-03  2.6202E-03  3.3545E-03  3.0561E-03  2.1754E-03  1.8814E-03  4.3853E-03
 52  1.8524E-04  9.4985E-04  3.8352E-04  1.9397E-04  2.9290E-04  4.9994E-04  2.5674E-04  2.1226E-04  1.7720E-04
 53  0.0000E+00  1.3784E-03  3.2639E-04  0.0000E+00  8.3021E-05  7.8125E-04  9.9399E-05  0.0000E+00  0.0000E+00
 54  4.0088E-04  1.3449E-03  0.0000E+00  8.9739E-04  8.3594E-04  7.7274E-04  1.1874E-03  0.0000E+00  6.7982E-04
 55  2.0026E-03  2.4491E-03  0.0000E+00  2.9678E-03  3.3513E-05  3.9047E-04  2.5718E-03  0.0000E+00  4.4413E-04
 56  0.0000E+00  1.0345E-02  1.2513E-02  1.1566E-02  1.5323E-03  9.7682E-03  0.0000E+00  9.8623E-03  9.3768E-03
 57  0.0000E+00  1.8094E-02  1.3671E-02  2.0099E-02  5.8915E-04  1.9812E-02  1.8335E-02  2.9764E-03  1.5040E-02
 58  1.3941E-02  3.7939E-02  3.2543E-02  3.5985E-02  3.5971E-02  2.8885E-02  5.1129E-02  3.2054E-02  2.9901E-02
 59  0.0000E+00  3.0067E-02  4.5542E-03  0.0000E+00  3.1370E-02  7.1068E-03  2.2031E-02  5.6367E-02  1.7629E-02
 60  1.1285E+00  4.7010E-02  0.0000E+00  4.9380E-02  4.6698E-02  0.0000E+00  3.8098E-02  0.0000E+00  9.5529E-03
 61  2.7799E+00  1.2035E-01  1.2464E-01  1.0057E-01  1.7764E-01  1.9521E-02  5.7543E-02  0.0000E+00  4.0855E-02
 62  0.0000E+00  1.5923E-01  1.6545E-02  0.0000E+00  1.5432E-02  3.3199E-02  0.0000E+00  8.9703E-02  3.0638E-02
 63  3.9171E-01  3.0576E-01  2.3114E-01  6.3802E-02  0.0000E+00  1.3808E-02  1.3884E-01  3.4164E-02  2.6276E-01
 64  6.2546E+01  9.9535E-01  1.7766E-01  4.4244E-02  8.2069E-01  2.9459E-01  2.6769E+00  5.5068E-01  2.4713E-02
 65  0.0000E+00  4.1066E+01  4.5184E+01  4.5760E+01  3.9068E+01  4.7251E+01  4.1596E+01  4.2921E+01  4.6366E+01
 66  2.9897E-01  4.5949E+01  5.0822E+01  4.9224E+01  4.8341E+01  4.9418E+01  4.3802E+01  5.1224E+01  4.9614E+01

# AV, chi2 & Mass for <> & i_chain = 1 ...  7 solutions
AV      -0.9903     -0.9808     -1.0000     -1.0000     -1.0000     -1.0000     -0.9594     -1.0000     -1.0000
chi2 1.5455E-05  1.9140E-05  1.6697E-05  1.6842E-05  1.6740E-05  1.6947E-05  1.6688E-05  1.6686E-05  1.6750E-05
Mass 4.7953E-14  8.4021E-14  1.2754E-13  1.2023E-13  1.1398E-13  1.3204E-13  1.0410E-13  1.1988E-13  1.2709E-13
-451.24                                  [v0_min (km/s) before EX0s...]
 164.53                                  [vd_min (km/s) before EX0s...]


## Synthetic spectrum (Best Model) ##l_obs f_obs f_syn wei
 3478    [Nl_obs]
 3741.00    1.23818   0.37698    0.000
 3742.00    0.90374   0.35854    0.000
 3743.00   -0.00530   0.35373    0.000
 3744.00   -0.01799   0.36575    0.000
 3745.00    0.49158   0.39580   -1.000
 3746.00    0.53063   0.44000   -1.000
 3747.00    0.33073   0.48768   -1.000
 3748.00    0.21490   0.52612   -1.000
 3749.00    0.13603   0.54694   -1.000
 3750.00    0.29941   0.54857   -1.000
 3751.00    0.55425   0.53488   -1.000
 3752.00    0.59358   0.51423   -1.000
 3753.00    0.56385   0.49698   -1.000
 3754.00    0.48485   0.49040   -1.000
 3755.00    0.39266   0.49431   -1.000
 3756.00    0.46958   0.50222   -1.000
 3757.00    0.58363   0.50746   -1.000
 3758.00    0.41887   0.50734   -1.000
 3759.00    0.20543   0.50241   -1.000
 3760.00   -0.10234   0.49474    0.000
 3761.00   -0.42265   0.48612    0.000
 3762.00   -0.33678   0.47882    0.000
 3763.00   -0.21275   0.47703    0.000
 3764.00   -0.16429   0.48320    0.000
 3765.00   -0.12018   0.49593    0.000
 3766.00   -0.39023   0.51324    0.000
 3767.00   -0.66211   0.53366    0.000
 3768.00   -0.25260   0.55415    0.000
 3769.00    0.16281   0.57203   -1.000
 3770.00    0.72132   0.58826   -1.000
 3771.00    1.20866   0.60543   -1.000
 3772.00    0.76325   0.62435   -1.000
 3773.00    0.41347   0.64363   -1.000
 3774.00    0.90312   0.66134   -1.000
 3775.00    1.33480   0.67556   -1.000
 3776.00    1.39060   0.68310   -1.000
 3777.00    1.35754   0.68100   -1.000
 3778.00    0.87473   0.66865   -1.000
 3779.00    0.43992   0.64681   -1.000
 3780.00    0.20161   0.61764   -1.000
 3781.00    0.05995   0.58609   -1.000
 3782.00    0.24611   0.55943   -1.000
 3783.00    0.39583   0.54215    0.273
 3784.00    0.44136   0.53239    0.056
 3785.00    0.53978   0.52531    0.036
 3786.00    0.76742   0.51622    0.036
 3787.00    0.74205   0.50149    0.035
 3788.00    0.18341   0.47994    0.034
 3789.00   -0.05837   0.45479    0.000
 3790.00    0.28022   0.43192    0.033
 3791.00    0.18918   0.41687    0.033
 3792.00   -0.58961   0.41377    0.000
 3793.00   -0.95131   0.42546    0.000
 3794.00   -0.72718   0.45247    0.000
 3795.00   -0.39523   0.49049    0.000
 3796.00    0.06999   0.53074    0.031
 3797.00    0.17111   0.56466    0.031
 3798.00   -0.12444   0.58787    0.000
 3799.00   -0.06802   0.60050    0.000
 3800.00    0.32664   0.60616    0.032
 3801.00    0.43796   0.61061    0.032
 3802.00    0.30919   0.61826    0.032
 3803.00   -0.01658   0.62898    0.000
 3804.00   -0.48934   0.63732    0.000
 3805.00   -0.60468   0.63618    0.000
 3806.00   -0.48571   0.62247    0.000
 3807.00   -0.19984   0.59939    0.000
 3808.00    0.18180   0.57438    0.032
 3809.00    0.02844   0.55485    0.032
 3810.00   -0.39231   0.54392    0.000
 3811.00   -0.52464   0.53943    0.000
 3812.00   -0.53226   0.53689    0.000
 3813.00   -0.27888   0.53219    0.000
 3814.00    0.07128   0.52388    0.032
 3815.00    0.09186   0.51407    0.032
 3816.00    0.00883   0.50495    0.032
 3817.00    0.00685   0.49525    0.032
 3818.00    0.02614   0.48175    0.032
 3819.00    0.29077   0.46451    0.031
 3820.00    0.60798   0.44801    0.031
 3821.00   -0.17326   0.43599    0.000
 3822.00   -1.14092   0.42774    0.000
 3823.00   -0.24891   0.41972    0.000
 3824.00    0.88173   0.40861    0.031
 3825.00    1.25421   0.39298    0.031
 3826.00    1.55864   0.37391    0.031
 3827.00    0.83676   0.35502    0.031
 3828.00    0.05972   0.34120    0.030
 3829.00   -0.26496   0.33548    0.000
 3830.00   -0.57413   0.33759    0.000
 3831.00   -0.33932   0.34571    0.000
 3832.00   -0.10512   0.35852    0.000
 3833.00    0.11576   0.37634    0.030
 3834.00    0.32405   0.40062    0.030
 3835.00    0.37592   0.43128    0.030
 3836.00    0.46625   0.46558    0.030
 3837.00    0.88168   0.49919    0.031
 3838.00    1.22805   0.52733    0.031
 3839.00    1.14001   0.54758    0.031
 3840.00    0.99576   0.56059    0.031
 3841.00    0.57416   0.56827    0.031
 3842.00    0.25855   0.57258    0.031
 3843.00    0.36724   0.57489    0.031
 3844.00    0.37536   0.57666    0.031
 3845.00    0.04916   0.57974    0.031
 3846.00   -0.13411   0.58411    0.000
 3847.00    0.08397   0.58639    0.000
 3848.00    0.24715   0.58335    0.000
 3849.00    0.27847   0.57532    0.000
 3850.00    0.17688   0.56466    0.000
 3851.00   -0.20036   0.55412    0.000
 3852.00   -0.34880   0.54678    0.000
 3853.00   -0.08455   0.54490    0.000
 3854.00    0.19984   0.55059    0.000
 3855.00    0.51597   0.56484    0.000
 3856.00    0.60282   0.58429    0.000
 3857.00    0.37226   0.60225    0.000
 3858.00    0.35619   0.61353    0.000
 3859.00    0.60147   0.61717    0.000
 3860.00    0.48036   0.61520    0.000
 3861.00   -0.03432   0.60979    0.000
 3862.00   -0.21405   0.60160    0.000
 3863.00   -0.07642   0.59039    0.000
 3864.00   -0.00260   0.57711    0.000
 3865.00    0.01792   0.56487    0.000
 3866.00    0.11125   0.55788    0.000
 3867.00    0.25815   0.55846    0.000
 3868.00    0.23334   0.56504    0.000
 3869.00    0.09762   0.57184    0.000
 3870.00    0.05314   0.57205    0.000
 3871.00    0.06024   0.56341    0.000
 3872.00    0.34261   0.54946    0.000
 3873.00    0.76039   0.53616    0.000
 3874.00    0.59883   0.52753    0.000
 3875.00    0.19092   0.52177    0.000
 3876.00    0.08205   0.51443    0.000
 3877.00    0.08211   0.50384    0.000
 3878.00    0.26395   0.48996    0.000
 3879.00    0.50183   0.47188    0.000
 3880.00    0.37622   0.45076    0.000
 3881.00    0.15730   0.43342    0.028
 3882.00    0.37567   0.42778    0.028
 3883.00    0.68547   0.43645    0.029
 3884.00    0.22159   0.45785    0.029
 3885.00   -0.36987   0.48774    0.000
 3886.00    0.10231   0.51894    0.029
 3887.00    0.70621   0.54488    0.030
 3888.00    0.38773   0.56321    0.029
 3889.00   -0.00967   0.57562    0.000
 3890.00   -0.01355   0.58517    0.000
 3891.00    0.00219   0.59425    0.030
 3892.00    0.04007   0.60300    0.029
 3893.00    0.07392   0.61060    0.029
 3894.00   -0.17592   0.61749    0.000
 3895.00   -0.41171   0.62374    0.000
 3896.00   -0.36005   0.62739    0.000
 3897.00   -0.28266   0.62645    0.000
 3898.00    0.09902   0.62342    0.027
 3899.00    0.40717   0.62369    0.026
 3900.00    0.11629   0.63081    0.025
 3901.00   -0.12441   0.64684    0.000
 3902.00   -0.05866   0.67028    0.000
 3903.00    0.05089   0.69503    0.023
 3904.00    0.37120   0.71512    0.023
 3905.00    0.62232   0.72772    0.023
 3906.00    0.60252   0.73259    0.023
 3907.00    0.54965   0.73034    0.023
 3908.00    0.38896   0.72241    0.024
 3909.00    0.27358   0.71099    0.025
 3910.00    0.28311   0.69722    0.025
 3911.00    0.28827   0.68128    0.025
 3912.00    0.28309   0.66432    0.025
 3913.00    0.31853   0.64786    0.026
 3914.00    0.43687   0.63370    0.026
 3915.00    0.49532   0.62387    0.027
 3916.00    0.44737   0.61856    0.027
 3917.00    0.31103   0.61465    0.027
 3918.00    0.03735   0.60696    0.028
 3919.00    0.02400   0.59066    0.028
 3920.00    0.36585   0.56329    0.027
 3921.00    0.57523   0.52577    0.027
 3922.00    0.62548   0.48092    0.028
 3923.00    0.58754   0.43227    0.028
 3924.00    0.45620   0.38385    0.029
 3925.00    0.43724   0.33978    0.029
 3926.00    0.52325   0.30483    0.029
 3927.00    0.32955   0.28415    0.029
 3928.00   -0.09451   0.28204    0.000
 3929.00    0.13427   0.30001    0.029
 3930.00    0.83631   0.33528    0.029
 3931.00    1.09161   0.38139    0.029
 3932.00    1.06261   0.43043    0.029
 3933.00    0.81482   0.47547    0.029
 3934.00    0.44527   0.51178    0.029
 3935.00    0.23606   0.53766    0.028
 3936.00    0.10447   0.55533    0.028
 3937.00   -0.25857   0.56945    0.000
 3938.00   -0.71837   0.58449    0.000
 3939.00   -0.60564   0.60285    0.000
 3940.00   -0.28812   0.62302    0.000
 3941.00    0.13331   0.64079    0.028
 3942.00    0.58616   0.65422    0.028
 3943.00    0.74578   0.66489    0.028
 3944.00    0.83176   0.67413    0.027
 3945.00    0.87319   0.68111    0.027
 3946.00    0.90553   0.68483    0.027
 3947.00    0.51564   0.68593    0.027
 3948.00    0.05815   0.68485    0.027
 3949.00    0.26514   0.67977    0.027
 3950.00    0.55147   0.66974    0.027
 3951.00    0.88066   0.65644    0.027
 3952.00    1.21334   0.64021    0.028
 3953.00    1.08588   0.61803    0.027
 3954.00    0.93728   0.58670    0.027
 3955.00    1.13426   0.54685    0.028
 3956.00    1.33204   0.50306    0.028
 3957.00    1.34100   0.45919    0.028
 3958.00    1.32241   0.41553    0.027
 3959.00    0.78200   0.37137    0.028
 3960.00    0.28385   0.32837    0.000
 3961.00    0.26196   0.29139    0.000
 3962.00    0.23976   0.26682    0.000
 3963.00    0.21515   0.25982    0.000
 3964.00    0.19663   0.27225    0.000
 3965.00    0.21432   0.30194    0.000
 3966.00    0.28033   0.34396    0.000
 3967.00    0.57315   0.39283    0.000
 3968.00    0.83235   0.44428    0.000
 3969.00    0.96265   0.49545    0.000
 3970.00    0.92429   0.54404    0.000
 3971.00    0.34684   0.58878    0.000
 3972.00   -0.04743   0.62857    0.000
 3973.00    0.05439   0.66140    0.000
 3974.00    0.25955   0.68540    0.000
 3975.00    0.70465   0.70042    0.000
 3976.00    1.00598   0.70957    0.000
 3977.00    1.01857   0.71770    0.000
 3978.00    1.10672   0.72792    0.000
 3979.00    1.32703   0.74075    0.000
 3980.00    1.26246   0.75468    0.000
 3981.00    0.76172   0.76836    0.028
 3982.00    0.64654   0.78084    0.028
 3983.00    1.04987   0.79058    0.028
 3984.00    1.13992   0.79835    0.028
 3985.00    0.85900   0.80560    0.027
 3986.00    0.66927   0.81118    0.027
 3987.00    0.57474   0.81271    0.027
 3988.00    0.57251   0.80904    0.027
 3989.00    0.65530   0.80200    0.027
 3990.00    0.75253   0.79579    0.027
 3991.00    0.86149   0.79514    0.026
 3992.00    1.05884   0.80332    0.026
 3993.00    1.31936   0.81891    0.025
 3994.00    1.35013   0.83534    0.025
 3995.00    1.23685   0.84584    0.025
 3996.00    1.10411   0.84706    0.025
 3997.00    0.96072   0.83851    0.025
 3998.00    0.96206   0.82321    0.025
 3999.00    1.03233   0.80923    0.025
 4000.00    0.97887   0.80557    0.025
 4001.00    0.87455   0.81436    0.026
 4002.00    0.47498   0.83058    0.025
 4003.00   -0.02830   0.84787    0.000
 4004.00   -0.22948   0.86218    0.000
 4005.00   -0.34116   0.87224    0.000
 4006.00   -0.00988   0.87884    0.000
 4007.00    0.43022   0.88359    0.026
 4008.00    0.43803   0.88757    0.026
 4009.00    0.35990   0.89107    0.025
 4010.00    0.71156   0.89382    0.026
 4011.00    1.13000   0.89637    0.026
 4012.00    0.94991   0.89981    0.026
 4013.00    0.70099   0.90282    0.026
 4014.00    0.78916   0.90273    0.026
 4015.00    0.90340   0.89900    0.027
 4016.00    1.13929   0.89330    0.027
 4017.00    1.38031   0.88813    0.027
 4018.00    1.58854   0.88630    0.027
 4019.00    1.78130   0.88922    0.027
 4020.00    1.30950   0.89378    0.027
 4021.00    0.86471   0.89331    0.026
 4022.00    0.89613   0.88180    0.026
 4023.00    0.93779   0.85766    0.026
 4024.00    1.08974   0.82637    0.027
 4025.00    1.20967   0.79807    0.027
 4026.00    1.08649   0.78143    0.027
 4027.00    0.96705   0.78124    0.026
 4028.00    0.86908   0.79778    0.026
 4029.00    0.78055   0.82667    0.026
 4030.00    0.73523   0.86004    0.026
 4031.00    0.67463   0.88896    0.025
 4032.00    0.55668   0.90686    0.025
 4033.00    0.56248   0.91154    0.024
 4034.00    0.95624   0.90467    0.024
 4035.00    1.17264   0.88883    0.024
 4036.00    0.91720   0.86474    0.024
 4037.00    0.76040   0.83369    0.024
 4038.00    0.82884   0.80237    0.024
 4039.00    0.94168   0.78238    0.025
 4040.00    1.14227   0.78236    0.025
 4041.00    1.28542   0.80067    0.025
 4042.00    1.32962   0.82830    0.025
 4043.00    1.19203   0.85525    0.024
 4044.00    0.78022   0.87335    0.024
 4045.00    0.57038   0.87857    0.024
 4046.00    0.62824   0.87235    0.024
 4047.00    0.76343   0.85900    0.024
 4048.00    0.98890   0.84357    0.024
 4049.00    1.06918   0.83024    0.024
 4050.00    1.00000   0.82077    0.024
 4051.00    1.01241   0.81629    0.024
 4052.00    1.09891   0.81699    0.025
 4053.00    1.09056   0.81919    0.025
 4054.00    1.00630   0.81684    0.025
 4055.00    1.12205   0.80622    0.025
 4056.00    1.37863   0.79017    0.025
 4057.00    1.37324   0.77714    0.025
 4058.00    1.20602   0.77371    0.025
 4059.00    1.32436   0.77978    0.025
 4060.00    1.59678   0.79248    0.025
 4061.00    1.48153   0.80814    0.025
 4062.00    1.18460   0.82104    0.025
 4063.00    1.24026   0.82579    0.025
 4064.00    1.43838   0.82228    0.025
 4065.00    1.47415   0.81572    0.025
 4066.00    1.45394   0.81000    0.025
 4067.00    1.36849   0.80362    0.025
 4068.00    1.26410   0.79334    0.025
 4069.00    1.16885   0.77880    0.025
 4070.00    1.07581   0.76488    0.025
 4071.00    1.02651   0.75954    0.025
 4072.00    0.98569   0.76780    0.026
 4073.00    1.12858   0.78794    0.026
 4074.00    1.29916   0.81233    0.025
 4075.00    1.23435   0.83190    0.025
 4076.00    1.14351   0.84198    0.025
 4077.00    1.33258   0.84425    0.025
 4078.00    1.54214   0.84433    0.025
 4079.00    1.48397   0.84799    0.025
 4080.00    1.41555   0.85738    0.025
 4081.00    1.12405   0.86978    0.025
 4082.00    0.84881   0.87997    0.024
 4083.00    1.23309   0.88382    0.024
 4084.00    1.57320   0.87987    0.025
 4085.00    1.18538   0.86917    0.024
 4086.00    0.82607   0.85338    0.024
 4087.00    0.76016   0.83275    0.024
 4088.00    0.71686   0.80730    0.024
 4089.00    0.83951   0.77834    0.024
 4090.00    0.98071   0.74738    0.024
 4091.00    1.22600   0.71529    0.024
 4092.00    1.44948   0.68251    0.000
 4093.00    1.57529   0.65077    0.000
 4094.00    1.51941   0.62508    0.000
 4095.00    0.79620   0.61201    0.000
 4096.00    0.32869   0.61551    0.000
 4097.00    0.64761   0.63513    0.000
 4098.00    0.89266   0.66582    0.000
 4099.00    0.94465   0.69958    0.000
 4100.00    0.94408   0.72895    0.000
 4101.00    0.82549   0.74986    0.000
 4102.00    0.87938   0.76233    0.000
 4103.00    1.26892   0.76974    0.000
 4104.00    1.39527   0.77664    0.000
 4105.00    1.07507   0.78658    0.000
 4106.00    0.93226   0.80040    0.000
 4107.00    1.05316   0.81626    0.000
 4108.00    1.12065   0.83082    0.000
 4109.00    1.11836   0.84019    0.000
 4110.00    1.00159   0.84193    0.000
 4111.00    0.75306   0.83731    0.000
 4112.00    0.72783   0.83014    0.000
 4113.00    0.92926   0.82373    0.023
 4114.00    1.00920   0.82020    0.023
 4115.00    0.98038   0.82061    0.024
 4116.00    0.94160   0.82451    0.024
 4117.00    0.89495   0.82974    0.024
 4118.00    0.71892   0.83335    0.034
 4119.00    0.45311   0.83308    0.123
 4120.00    0.57388   0.82813   -1.000
 4121.00    0.92990   0.81922   -1.000
 4122.00    0.90476   0.80766   -1.000
 4123.00    0.67712   0.79474   -1.000
 4124.00    0.53785   0.78242   -1.000
 4125.00    0.43933   0.77374   -1.000
 4126.00    0.71107   0.77204    0.065
 4127.00    1.12983   0.77966    0.027
 4128.00    0.94376   0.79613    0.023
 4129.00    0.55299   0.81809    0.023
 4130.00    0.64336   0.84093    0.023
 4131.00    0.87063   0.85967    0.023
 4132.00    0.88451   0.86984    0.023
 4133.00    0.84830   0.86828    0.024
 4134.00    1.08338   0.85432    0.023
 4135.00    1.36967   0.83183    0.023
 4136.00    1.23186   0.80866    0.023
 4137.00    1.03213   0.79281    0.023
 4138.00    1.09023   0.78862    0.023
 4139.00    1.17574   0.79502    0.023
 4140.00    0.99407   0.80639    0.023
 4141.00    0.79393   0.81629    0.023
 4142.00    0.85727   0.82105    0.023
 4143.00    0.92971   0.82031    0.023
 4144.00    1.05539   0.81576    0.023
 4145.00    1.17015   0.80934    0.023
 4146.00    0.92102   0.80261    0.023
 4147.00    0.67668   0.79676    0.022
 4148.00    0.50649   0.79319    0.022
 4149.00    0.37982   0.79381    0.022
 4150.00    0.68215   0.79969    0.022
 4151.00    0.94287   0.81038    0.022
 4152.00    0.90820   0.82420    0.023
 4153.00    0.89737   0.83917    0.023
 4154.00    1.01663   0.85307    0.023
 4155.00    1.14339   0.86391    0.022
 4156.00    1.30290   0.87055    0.022
 4157.00    1.34026   0.87213    0.022
 4158.00    0.93830   0.86862    0.021
 4159.00    0.67067   0.86161    0.021
 4160.00    0.80843   0.85324    0.021
 4161.00    0.88060   0.84448    0.021
 4162.00    0.78435   0.83443    0.021
 4163.00    0.78031   0.82120    0.021
 4164.00    0.97999   0.80402    0.021
 4165.00    1.14071   0.78480    0.021
 4166.00    1.22680   0.76751    0.021
 4167.00    1.21263   0.75604    0.021
 4168.00    1.03089   0.75195    0.022
 4169.00    0.91309   0.75406    0.022
 4170.00    0.88897   0.75995    0.022
 4171.00    0.83868   0.76741    0.021
 4172.00    0.75471   0.77516    0.021
 4173.00    0.64298   0.78278    0.021
 4174.00    0.49973   0.79011    0.021
 4175.00    0.58945   0.79709    0.021
 4176.00    0.91234   0.80350    0.022
 4177.00    1.04309   0.80861    0.022
 4178.00    1.00423   0.81158    0.022
 4179.00    0.99571   0.81220    0.021
 4180.00    1.01079   0.81134    0.021
 4181.00    0.96795   0.81110    0.021
 4182.00    0.88552   0.81395    0.022
 4183.00    1.03596   0.82097    0.022
 4184.00    1.32598   0.83062    0.022
 4185.00    1.24502   0.83955    0.022
 4186.00    0.97003   0.84405    0.022
 4187.00    0.74035   0.84110    0.022
 4188.00    0.53123   0.82953    0.021
 4189.00    0.71203   0.81131    0.021
 4190.00    1.04497   0.79084    0.021
 4191.00    1.06856   0.77283    0.022
 4192.00    0.98939   0.76062    0.022
 4193.00    0.77757   0.75542    0.022
 4194.00    0.52878   0.75646    0.021
 4195.00    0.63298   0.76250    0.022
 4196.00    0.81817   0.77279    0.022
 4197.00    0.77629   0.78678    0.022
 4198.00    0.69269   0.80344    0.022
 4199.00    1.01807   0.82087    0.022
 4200.00    1.40127   0.83675    0.021
 4201.00    1.33192   0.84924    0.021
 4202.00    1.21642   0.85744    0.021
 4203.00    1.31609   0.86147    0.021
 4204.00    1.42977   0.86163    0.021
 4205.00    0.93842   0.85787    0.021
 4206.00    0.42943   0.85036    0.021
 4207.00    0.53040   0.84063    0.021
 4208.00    0.63149   0.83233    0.021
 4209.00    0.73595   0.83010    0.021
 4210.00    0.83023   0.83682    0.021
 4211.00    0.77635   0.85099    0.021
 4212.00    0.75148   0.86694    0.020
 4213.00    1.00090   0.87725    0.021
 4214.00    1.18889   0.87553    0.021
 4215.00    0.95459   0.85831    0.020
 4216.00    0.75830   0.82623    0.020
 4217.00    0.76399   0.78445    0.020
 4218.00    0.77340   0.74205    0.021
 4219.00    0.79865   0.71019    0.020
 4220.00    0.79154   0.69828    0.020
 4221.00    0.67042   0.70964    0.020
 4222.00    0.58870   0.73922    0.020
 4223.00    0.62367   0.77571    0.020
 4224.00    0.65652   0.80686    0.020
 4225.00    0.68402   0.82483    0.020
 4226.00    0.71547   0.82869    0.019
 4227.00    0.75549   0.82285    0.019
 4228.00    0.86767   0.81359    0.019
 4229.00    1.11593   0.80625    0.019
 4230.00    1.19073   0.80382    0.019
 4231.00    0.97999   0.80727    0.019
 4232.00    0.79052   0.81631    0.019
 4233.00    0.63177   0.82991    0.018
 4234.00    0.53192   0.84638    0.018
 4235.00    0.50685   0.86331    0.018
 4236.00    0.61026   0.87777    0.018
 4237.00    0.85742   0.88656    0.018
 4238.00    0.92684   0.88709    0.018
 4239.00    0.82087   0.87847    0.018
 4240.00    0.71607   0.86232    0.018
 4241.00    0.61230   0.84240    0.018
 4242.00    0.67558   0.82333    0.018
 4243.00    0.86694   0.80895    0.019
 4244.00    0.98624   0.80103    0.019
 4245.00    1.05699   0.79906    0.020
 4246.00    1.06581   0.80132    0.020
 4247.00    1.03807   0.80602    0.020
 4248.00    1.00106   0.81176    0.020
 4249.00    0.95929   0.81690    0.020
 4250.00    0.96595   0.81926    0.020
 4251.00    0.99423   0.81729    0.020
 4252.00    1.02462   0.81215    0.020
 4253.00    1.05581   0.80844    0.020
 4254.00    1.10557   0.81193    0.020
 4255.00    1.16138   0.82580    0.020
 4256.00    0.80106   0.84817    0.020
 4257.00    0.32715   0.87263    0.020
 4258.00    0.52538   0.89130    0.020
 4259.00    0.87425   0.89799    0.020
 4260.00    1.18669   0.88995    0.020
 4261.00    1.49263   0.86801    0.021
 4262.00    1.23951   0.83585    0.020
 4263.00    0.90991   0.79931    0.020
 4264.00    0.86085   0.76531    0.020
 4265.00    0.83919   0.74053    0.020
 4266.00    0.88262   0.72967    0.020
 4267.00    0.93004   0.73420    0.020
 4268.00    0.90917   0.75204    0.020
 4269.00    0.88575   0.77815    0.020
 4270.00    0.72586   0.80580    0.020
 4271.00    0.57345   0.82849    0.020
 4272.00    0.61850   0.84208    0.020
 4273.00    0.66569   0.84611    0.020
 4274.00    0.74231   0.84322    0.020
 4275.00    0.82806   0.83709    0.020
 4276.00    0.99686   0.83015    0.020
 4277.00    1.12174   0.82275    0.020
 4278.00    0.95403   0.81364    0.020
 4279.00    0.84825   0.80141    0.021
 4280.00    1.06310   0.78573    0.021
 4281.00    1.24127   0.76825    0.020
 4282.00    1.26633   0.75259   -2.000
 4283.00    1.28188   0.74314   -2.000
 4284.00    1.26463   0.74261   -2.000
 4285.00    1.17865   0.75005   -2.000
 4286.00    0.89293   0.76081   -2.000
 4287.00    0.70675   0.76867   -2.000
 4288.00    0.76750   0.76858   -2.000
 4289.00    0.87399   0.75818   -2.000
 4290.00    1.07827   0.73805   -2.000
 4291.00    1.19547   0.71130   -2.000
 4292.00    1.15097   0.68288   -2.000
 4293.00    1.00822   0.65826   -2.000
 4294.00    0.70612   0.64151   -2.000
 4295.00    0.55149   0.63367   -2.000
 4296.00    0.60665   0.63253   -2.000
 4297.00    0.70814   0.63391   -2.000
 4298.00    0.86761   0.63385    0.019
 4299.00    1.04839   0.63067    0.019
 4300.00    1.25269   0.62583    0.020
 4301.00    1.24288   0.62332    0.020
 4302.00    1.02473   0.62755    0.019
 4303.00    0.92919   0.64116    0.019
 4304.00    0.93883   0.66407    0.019
 4305.00    0.87893   0.69431    0.019
 4306.00    0.76648   0.72972    0.019
 4307.00    0.69041   0.76877    0.019
 4308.00    0.63850   0.80980    0.019
 4309.00    0.74453   0.84966    0.018
 4310.00    0.94241   0.88340    0.018
 4311.00    0.89965   0.90581    0.018
 4312.00    0.73493   0.91345    0.018
 4313.00    0.64414   0.90566    0.018
 4314.00    0.58578   0.88418    0.018
 4315.00    0.59474   0.85239    0.018
 4316.00    0.62905   0.81530    0.018
 4317.00    0.78074   0.78000    0.018
 4318.00    0.96996   0.75489    0.018
 4319.00    0.96296   0.74683    0.018
 4320.00    0.90352   0.75746    0.018
 4321.00    0.86404   0.78198    0.018
 4322.00    0.82894   0.81146    0.018
 4323.00    0.84147   0.83738    0.018
 4324.00    0.86230   0.85505    0.018
 4325.00    0.83885   0.86359    0.018
 4326.00    0.80956   0.86338    0.018
 4327.00    0.73665   0.85372    0.018
 4328.00    0.65968   0.83269    0.018
 4329.00    0.78727   0.79924    0.018
 4330.00    0.92656   0.75572    0.000
 4331.00    0.93069   0.70892    0.000
 4332.00    0.93207   0.66844    0.000
 4333.00    0.97918   0.64323    0.000
 4334.00    1.02725   0.63827    0.000
 4335.00    1.09821   0.65294    0.000
 4336.00    1.15978   0.68199    0.000
 4337.00    1.09905   0.71818    0.000
 4338.00    1.03066   0.75492    0.000
 4339.00    0.89525   0.78749    0.000
 4340.00    0.77334   0.81260    0.000
 4341.00    0.73860   0.82789    0.000
 4342.00    0.73937   0.83198    0.000
 4343.00    0.91928   0.82593    0.000
 4344.00    1.05938   0.81424    0.000
 4345.00    1.03700   0.80386    0.000
 4346.00    0.99077   0.80119    0.000
 4347.00    0.86387   0.80878    0.000
 4348.00    0.78439   0.82429    0.000
 4349.00    0.84020   0.84248    0.000
 4350.00    0.88855   0.85852    0.000
 4351.00    0.91872   0.87057    0.019
 4352.00    0.97189   0.88001    0.022
 4353.00    1.07343   0.88972    0.057
 4354.00    1.15847   0.90168   -1.000
 4355.00    1.21332   0.91549   -1.000
 4356.00    1.12339   0.92857   -1.000
 4357.00    0.80213   0.93746   -1.000
 4358.00    0.70455   0.93943   -1.000
 4359.00    0.92059   0.93380   -1.000
 4360.00    1.07192   0.92233   -1.000
 4361.00    1.14343   0.90848   -1.000
 4362.00    1.22231   0.89552    0.078
 4363.00    1.30919   0.88475    0.025
 4364.00    1.20280   0.87518    0.019
 4365.00    0.91102   0.86506    0.019
 4366.00    0.79136   0.85411    0.019
 4367.00    0.81731   0.84469    0.019
 4368.00    0.81372   0.84055    0.019
 4369.00    0.78811   0.84398    0.019
 4370.00    0.86877   0.85323    0.019
 4371.00    1.01898   0.86235    0.019
 4372.00    1.00025   0.86370    0.019
 4373.00    0.88477   0.85160    0.019
 4374.00    0.83862   0.82528    0.019
 4375.00    0.82705   0.78990    0.019
 4376.00    0.81262   0.75508    0.019
 4377.00    0.79695   0.73111    0.019
 4378.00    0.68566   0.72443    0.019
 4379.00    0.53900   0.73469    0.019
 4380.00    0.62625   0.75567    0.019
 4381.00    0.78685   0.77919    0.019
 4382.00    0.87954   0.79936    0.019
 4383.00    0.95446   0.81421    0.019
 4384.00    0.84441   0.82477    0.018
 4385.00    0.69484   0.83305    0.018
 4386.00    0.86059   0.84073    0.018
 4387.00    1.07966   0.84897    0.018
 4388.00    0.98646   0.85824    0.018
 4389.00    0.85337   0.86776    0.018
 4390.00    0.79533   0.87533    0.018
 4391.00    0.74399   0.87827    0.018
 4392.00    0.93002   0.87504    0.018
 4393.00    1.12870   0.86612    0.018
 4394.00    0.93027   0.85330    0.018
 4395.00    0.72584   0.83843    0.018
 4396.00    0.66519   0.82297    0.018
 4397.00    0.61397   0.80883    0.018
 4398.00    0.76999   0.79897    0.018
 4399.00    0.91564   0.79646    0.018
 4400.00    0.93336   0.80316    0.018
 4401.00    0.94878   0.81860    0.018
 4402.00    0.94484   0.84003    0.018
 4403.00    0.95899   0.86280    0.018
 4404.00    1.08659   0.88135    0.018
 4405.00    1.14748   0.89081    0.018
 4406.00    0.88025   0.88931    0.018
 4407.00    0.65815   0.87944    0.018
 4408.00    0.61617   0.86752    0.018
 4409.00    0.61330   0.86060    0.017
 4410.00    0.74011   0.86273    0.018
 4411.00    0.83204   0.87288    0.018
 4412.00    0.82622   0.88599    0.018
 4413.00    0.84518   0.89616    0.017
 4414.00    0.92355   0.89999    0.018
 4415.00    0.99441   0.89793    0.018
 4416.00    1.04971   0.89317    0.018
 4417.00    1.05390   0.88910    0.018
 4418.00    0.96609   0.88741    0.018
 4419.00    0.86189   0.88772    0.018
 4420.00    0.73189   0.88851    0.017
 4421.00    0.72473   0.88828    0.017
 4422.00    0.88732   0.88615    0.018
 4423.00    0.95432   0.88183    0.018
 4424.00    0.90506   0.87547    0.017
 4425.00    0.88316   0.86759    0.017
 4426.00    0.89059   0.85960    0.017
 4427.00    0.95158   0.85420    0.017
 4428.00    1.06322   0.85468    0.018
 4429.00    0.96462   0.86292    0.018
 4430.00    0.69068   0.87738    0.017
 4431.00    0.66662   0.89286    0.017
 4432.00    0.82601   0.90297    0.017
 4433.00    0.89563   0.90378    0.017
 4434.00    0.90737   0.89636    0.017
 4435.00    0.88311   0.88623    0.017
 4436.00    0.83855   0.88016    0.017
 4437.00    0.81546   0.88242    0.018
 4438.00    0.80291   0.89266    0.018
 4439.00    0.84988   0.90681    0.018
 4440.00    0.92211   0.91970    0.018
 4441.00    0.99935   0.92754    0.017
 4442.00    1.07842   0.92884    0.017
 4443.00    0.96653   0.92372    0.017
 4444.00    0.79593   0.91288    0.017
 4445.00    0.78135   0.89706    0.017
 4446.00    0.80673   0.87746    0.017
 4447.00    0.89021   0.85631    0.017
 4448.00    0.98580   0.83661    0.017
 4449.00    0.90094   0.82105    0.017
 4450.00    0.78643   0.81078    0.017
 4451.00    0.77539   0.80532    0.017
 4452.00    0.77710   0.80362    0.017
 4453.00    0.67946   0.80525    0.017
 4454.00    0.57336   0.81063    0.016
 4455.00    0.52760   0.82009    0.016
 4456.00    0.48482   0.83270    0.016
 4457.00    0.68144   0.84605    0.016
 4458.00    0.87991   0.85721    0.016
 4459.00    0.95586   0.86435    0.016
 4460.00    1.02033   0.86770    0.016
 4461.00    0.85235   0.86949    0.000
 4462.00    0.70554   0.87287    0.000
 4463.00    0.80745   0.88053    0.000
 4464.00    0.89385   0.89340    0.000
 4465.00    0.85450   0.91037    0.000
 4466.00    0.81105   0.92876    0.000
 4467.00    0.74263   0.94545    0.000
 4468.00    0.68194   0.95768    0.000
 4469.00    0.65830   0.96329    0.000
 4470.00    0.67751   0.96076    0.000
 4471.00    0.86408   0.94980    0.000
 4472.00    1.00027   0.93242    0.000
 4473.00    0.97270   0.91344    0.000
 4474.00    0.96509   0.89929    0.000
 4475.00    1.01239   0.89515    0.000
 4476.00    1.01873   0.90209    0.000
 4477.00    0.92854   0.91626    0.000
 4478.00    0.84005   0.93081    0.000
 4479.00    0.75503   0.93929    0.000
 4480.00    0.75217   0.93871    0.000
 4481.00    0.89497   0.93056    0.000
 4482.00    0.97411   0.91927    0.017
 4483.00    0.95450   0.90938    0.017
 4484.00    0.91295   0.90305    0.017
 4485.00    0.84150   0.89974    0.016
 4486.00    0.86312   0.89782    0.016
 4487.00    0.99634   0.89666    0.017
 4488.00    1.07832   0.89743    0.017
 4489.00    1.10615   0.90190    0.017
 4490.00    1.03967   0.91069    0.017
 4491.00    0.88526   0.92261    0.017
 4492.00    0.79899   0.93569    0.016
 4493.00    0.76872   0.94874    0.016
 4494.00    0.84250   0.96193    0.016
 4495.00    0.99158   0.97583    0.017
 4496.00    0.92605   0.98990    0.017
 4497.00    0.72420   1.00210    0.016
 4498.00    0.70549   1.00999    0.016
 4499.00    0.78850   1.01249    0.017
 4500.00    0.85860   1.01055    0.017
 4501.00    0.92244   1.00618    0.017
 4502.00    0.93129   1.00097    0.016
 4503.00    0.91720   0.99508    0.016
 4504.00    0.93498   0.98773    0.016
 4505.00    0.96415   0.97838    0.016
 4506.00    0.87192   0.96768    0.016
 4507.00    0.74309   0.95736    0.017
 4508.00    0.74308   0.94928    0.017
 4509.00    0.77533   0.94465    0.017
 4510.00    0.81857   0.94355    0.016
 4511.00    0.86404   0.94506    0.016
 4512.00    0.81711   0.94746    0.016
 4513.00    0.75544   0.94847    0.016
 4514.00    0.61069   0.94583    0.016
 4515.00    0.45607   0.93798    0.016
 4516.00    0.61588   0.92458    0.016
 4517.00    0.80114   0.90651    0.016
 4518.00    0.86101   0.88564    0.016
 4519.00    0.91518   0.86447    0.017
 4520.00    0.96062   0.84587    0.016
 4521.00    1.00258   0.83240    0.016
 4522.00    0.87231   0.82543    0.016
 4523.00    0.74280   0.82455    0.016
 4524.00    0.62732   0.82782    0.016
 4525.00    0.52802   0.83314    0.016
 4526.00    0.60997   0.83977    0.016
 4527.00    0.70260   0.84867    0.016
 4528.00    0.87887   0.86140    0.016
 4529.00    1.01459   0.87796    0.016
 4530.00    0.91057   0.89589    0.016
 4531.00    0.81544   0.91129    0.016
 4532.00    0.76197   0.92115    0.016
 4533.00    0.75284   0.92499    0.016
 4534.00    0.91316   0.92450    0.016
 4535.00    1.03392   0.92192    0.016
 4536.00    1.02857   0.91850    0.016
 4537.00    0.94751   0.91437    0.016
 4538.00    0.66187   0.90919    0.016
 4539.00    0.52521   0.90288    0.016
 4540.00    0.73376   0.89591    0.016
 4541.00    0.82541   0.88914    0.016
 4542.00    0.68273   0.88354    0.016
 4543.00    0.60684   0.87968    0.016
 4544.00    0.64754   0.87743    0.016
 4545.00    0.72227   0.87645    0.016
 4546.00    0.84902   0.87696    0.016
 4547.00    0.86192   0.88017    0.016
 4548.00    0.72201   0.88762    0.016
 4549.00    0.73011   0.89984    0.016
 4550.00    0.91320   0.91538    0.000
 4551.00    1.06614   0.93117    0.000
 4552.00    1.18766   0.94363    0.000
 4553.00    1.13915   0.95010    0.000
 4554.00    0.93430   0.94971    0.000
 4555.00    0.83714   0.94365    0.000
 4556.00    0.82727   0.93502    0.000
 4557.00    0.83253   0.92784    0.000
 4558.00    0.84858   0.92541    0.000
 4559.00    0.82913   0.92858    0.000
 4560.00    0.78746   0.93536    0.000
 4561.00    0.75169   0.94209    0.000
 4562.00    0.71914   0.94579    0.000
 4563.00    0.83009   0.94597    0.000
 4564.00    1.00926   0.94447    0.000
 4565.00    0.95474   0.94380    0.000
 4566.00    0.80439   0.94511    0.000
 4567.00    0.81700   0.94737    0.000
 4568.00    0.88671   0.94810    0.000
 4569.00    0.85577   0.94493    0.000
 4570.00    0.79509   0.93679    0.000
 4571.00    0.81905   0.92441    0.000
 4572.00    0.86373   0.91004    0.000
 4573.00    0.75515   0.89654    0.000
 4574.00    0.61620   0.88636    0.000
 4575.00    0.75051   0.88074    0.000
 4576.00    0.92713   0.87975    0.000
 4577.00    0.97362   0.88285    0.000
 4578.00    1.00521   0.88932    0.000
 4579.00    0.93036   0.89823    0.000
 4580.00    0.84734   0.90799    0.000
 4581.00    0.83074   0.91630    0.000
 4582.00    0.81691   0.92086    0.000
 4583.00    0.99483   0.92046    0.000
 4584.00    1.16272   0.91560    0.000
 4585.00    0.82878   0.90830    0.000
 4586.00    0.52321   0.90099    0.000
 4587.00    0.71321   0.89555    0.000
 4588.00    0.88195   0.89275    0.000
 4589.00    0.82318   0.89232    0.000
 4590.00    0.77168   0.89342    0.000
 4591.00    0.77511   0.89503    0.000
 4592.00    0.78412   0.89650    0.000
 4593.00    0.82520   0.89766    0.000
 4594.00    0.85430   0.89889    0.000
 4595.00    0.82865   0.90080    0.000
 4596.00    0.81961   0.90418    0.000
 4597.00    0.87272   0.90985    0.000
 4598.00    0.91061   0.91850    0.000
 4599.00    0.90089   0.93013    0.000
 4600.00    0.90721   0.94345    0.000
 4601.00    0.95614   0.95594    0.000
 4602.00    0.96266   0.96484    0.000
 4603.00    0.87251   0.96855    0.000
 4604.00    0.83550   0.96750    0.000
 4605.00    0.90332   0.96376    0.000
 4606.00    0.93105   0.95980    0.000
 4607.00    0.88987   0.95717    0.000
 4608.00    0.89446   0.95605    0.000
 4609.00    0.96798   0.95576    0.000
 4610.00    1.05021   0.95567    0.000
 4611.00    1.14398   0.95575    0.000
 4612.00    1.11044   0.95638    0.000
 4613.00    0.92852   0.95787    0.000
 4614.00    0.83369   0.95996    0.000
 4615.00    0.82836   0.96175    0.000
 4616.00    0.83031   0.96229    0.000
 4617.00    0.83885   0.96115    0.000
 4618.00    0.93331   0.95863    0.000
 4619.00    1.09642   0.95543    0.000
 4620.00    1.08366   0.95235    0.000
 4621.00    0.94728   0.95006    0.000
 4622.00    0.85651   0.94863    0.000
 4623.00    0.79385   0.94736    0.000
 4624.00    0.73719   0.94512    0.000
 4625.00    0.68376   0.94100    0.000
 4626.00    0.68679   0.93480    0.000
 4627.00    0.71622   0.92705    0.000
 4628.00    0.75292   0.91864    0.000
 4629.00    0.79254   0.91055    0.000
 4630.00    0.79680   0.90383    0.000
 4631.00    0.78889   0.89936    0.000
 4632.00    0.86600   0.89759    0.000
 4633.00    0.96774   0.89803    0.000
 4634.00    0.93759   0.89885    0.000
 4635.00    0.87586   0.89749    0.000
 4636.00    0.82587   0.89198    0.000
 4637.00    0.77814   0.88217    0.000
 4638.00    0.70890   0.87013    0.000
 4639.00    0.63643   0.85951    0.000
 4640.00    0.81617   0.85411    0.000
 4641.00    1.02368   0.85593    0.000
 4642.00    1.02504   0.86423    0.000
 4643.00    1.01140   0.87589    0.000
 4644.00    0.92376   0.88697    0.000
 4645.00    0.83332   0.89454    0.000
 4646.00    0.70919   0.89786    0.000
 4647.00    0.59122   0.89859    0.000
 4648.00    0.70791   0.90005    0.000
 4649.00    0.82617   0.90522    0.000
 4650.00    0.97004   0.91481    0.000
 4651.00    1.09824   0.92661    0.000
 4652.00    1.06612   0.93630    0.000
 4653.00    1.02009   0.93960    0.000
 4654.00    0.87244   0.93421    0.000
 4655.00    0.76378   0.92045    0.000
 4656.00    0.87312   0.90056    0.000
 4657.00    0.95579   0.87758    0.000
 4658.00    0.91946   0.85479    0.000
 4659.00    0.85059   0.83563    0.000
 4660.00    0.66254   0.82352    0.000
 4661.00    0.53285   0.82105    0.000
 4662.00    0.58225   0.82853    0.000
 4663.00    0.65207   0.84308    0.000
 4664.00    0.77516   0.86014    0.000
 4665.00    0.84078   0.87586    0.000
 4666.00    0.77761   0.88815    0.000
 4667.00    0.76315   0.89658    0.000
 4668.00    0.84328   0.90133    0.000
 4669.00    0.89734   0.90231    0.000
 4670.00    0.90724   0.89943    0.000
 4671.00    0.92811   0.89333    0.000
 4672.00    0.96522   0.88592    0.000
 4673.00    0.95492   0.87990    0.000
 4674.00    0.88278   0.87741    0.000
 4675.00    0.84267   0.87898    0.000
 4676.00    0.83937   0.88346    0.000
 4677.00    0.82697   0.88882    0.000
 4678.00    0.80536   0.89300    0.000
 4679.00    0.86276   0.89482    0.000
 4680.00    0.99081   0.89436    0.000
 4681.00    0.98102   0.89253    0.000
 4682.00    0.86268   0.89052    0.000
 4683.00    0.71560   0.88944    0.000
 4684.00    0.54860   0.89010    0.000
 4685.00    0.60220   0.89258    0.000
 4686.00    0.78979   0.89617    0.000
 4687.00    0.88576   0.89939    0.000
 4688.00    0.93317   0.90020    0.000
 4689.00    0.93125   0.89698    0.000
 4690.00    0.90664   0.88947    0.000
 4691.00    0.81118   0.87887    0.000
 4692.00    0.68765   0.86736    0.000
 4693.00    0.70214   0.85720    0.000
 4694.00    0.76323   0.85000    0.000
 4695.00    0.82713   0.84622    0.000
 4696.00    0.89183   0.84525    0.000
 4697.00    0.93005   0.84603    0.000
 4698.00    0.96208   0.84748    0.000
 4699.00    0.85239   0.84892    0.000
 4700.00    0.71604   0.85039    0.000
 4701.00    0.77756   0.85262    0.000
 4702.00    0.86786   0.85643    0.000
 4703.00    0.91599   0.86184    0.000
 4704.00    0.95965   0.86783    0.000
 4705.00    0.82758   0.87331    0.000
 4706.00    0.68343   0.87815    0.000
 4707.00    0.68676   0.88341    0.000
 4708.00    0.69511   0.89060    0.000
 4709.00    0.84391   0.90050    0.000
 4710.00    0.98645   0.91236    0.000
 4711.00    0.91847   0.92427    0.000
 4712.00    0.85836   0.93411    0.000
 4713.00    0.91887   0.94053    0.000
 4714.00    0.96011   0.94333    0.000
 4715.00    0.81228   0.94280    0.000
 4716.00    0.69845   0.93892    0.000
 4717.00    0.82504   0.93128    0.000
 4718.00    0.91900   0.91949    0.000
 4719.00    0.83541   0.90406    0.000
 4720.00    0.75326   0.88694    0.000
 4721.00    0.67731   0.87126    0.000
 4722.00    0.65198   0.86020    0.000
 4723.00    0.80822   0.85564    0.000
 4724.00    0.94788   0.85745    0.000
 4725.00    1.03764   0.86364    0.000
 4726.00    1.08836   0.87147    0.000
 4727.00    1.03904   0.87882    0.000
 4728.00    0.96490   0.88479    0.000
 4729.00    0.83605   0.88948    0.000
 4730.00    0.76094   0.89354    0.000
 4731.00    0.78859   0.89745    0.000
 4732.00    0.78904   0.90123    0.000
 4733.00    0.74412   0.90477    0.000
 4734.00    0.70578   0.90809    0.000
 4735.00    0.67705   0.91119    0.000
 4736.00    0.72999   0.91431    0.000
 4737.00    0.88793   0.91768    0.000
 4738.00    0.93640   0.92117    0.000
 4739.00    0.86087   0.92427    0.000
 4740.00    0.85083   0.92636    0.000
 4741.00    0.90621   0.92683    0.000
 4742.00    0.88915   0.92518    0.000
 4743.00    0.80825   0.92111    0.000
 4744.00    0.76955   0.91483    0.000
 4745.00    0.76362   0.90722    0.000
 4746.00    0.75604   0.89961    0.000
 4747.00    0.74735   0.89332    0.000
 4748.00    0.87204   0.88932    0.000
 4749.00    1.07654   0.88774    0.000
 4750.00    1.14335   0.88768    0.000
 4751.00    1.13828   0.88743    0.000
 4752.00    1.03880   0.88510    0.000
 4753.00    0.89657   0.87942    0.000
 4754.00    0.87237   0.87035    0.000
 4755.00    0.89412   0.85929    0.000
 4756.00    0.95677   0.84861    0.000
 4757.00    1.03298   0.84089    0.000
 4758.00    0.93624   0.83807    0.000
 4759.00    0.79143   0.84083    0.000
 4760.00    0.81938   0.84832    0.000
 4761.00    0.88684   0.85857    0.015
 4762.00    0.78512   0.86935    0.015
 4763.00    0.65240   0.87910    0.015
 4764.00    0.60763   0.88737    0.015
 4765.00    0.57524   0.89463    0.015
 4766.00    0.77156   0.90155    0.015
 4767.00    0.99107   0.90826    0.015
 4768.00    1.00365   0.91413    0.015
 4769.00    1.00284   0.91818    0.015
 4770.00    1.01405   0.91951    0.015
 4771.00    1.02549   0.91771    0.015
 4772.00    0.97065   0.91300    0.015
 4773.00    0.92115   0.90610    0.015
 4774.00    1.02618   0.89793    0.015
 4775.00    1.11512   0.88942    0.015
 4776.00    0.97155   0.88145    0.015
 4777.00    0.85070   0.87476    0.015
 4778.00    0.94354   0.86979    0.015
 4779.00    1.01109   0.86677    0.014
 4780.00    0.90548   0.86603    0.014
 4781.00    0.79961   0.86798    0.014
 4782.00    0.69239   0.87290    0.014
 4783.00    0.62792   0.88080    0.014
 4784.00    0.74551   0.89130    0.014
 4785.00    0.82453   0.90304    0.014
 4786.00    0.76799   0.91381    0.014
 4787.00    0.74841   0.92140    0.014
 4788.00    0.83803   0.92411    0.014
 4789.00    0.91285   0.92171    0.014
 4790.00    0.95041   0.91569    0.014
 4791.00    0.93357   0.90867    0.015
 4792.00    0.79876   0.90318    0.015
 4793.00    0.74813   0.90059    0.015
 4794.00    0.85595   0.90049    0.014
 4795.00    0.90942   0.90108    0.014
 4796.00    0.87362   0.90039    0.014
 4797.00    0.84864   0.89743    0.014
 4798.00    0.83928   0.89261    0.014
 4799.00    0.82323   0.88742    0.014
 4800.00    0.79868   0.88349    0.014
 4801.00    0.85805   0.88193    0.014
 4802.00    1.01114   0.88294    0.014
 4803.00    1.04313   0.88599    0.014
 4804.00    0.95583   0.89026    0.014
 4805.00    0.87537   0.89518    0.014
 4806.00    0.80084   0.90055    0.014
 4807.00    0.77917   0.90628    0.014
 4808.00    0.79793   0.91212    0.014
 4809.00    0.84345   0.91750    0.014
 4810.00    0.90694   0.92139    0.014
 4811.00    0.92054   0.92254    0.014
 4812.00    0.90474   0.91997    0.014
 4813.00    0.92136   0.91348    0.014
 4814.00    0.95464   0.90404    0.014
 4815.00    0.94162   0.89364    0.014
 4816.00    0.90799   0.88461    0.014
 4817.00    0.83419   0.87868    0.014
 4818.00    0.74502   0.87617    0.014
 4819.00    0.85932   0.87600    0.014
 4820.00    1.03977   0.87640    0.014
 4821.00    1.09268   0.87604    0.014
 4822.00    1.11086   0.87451    0.014
 4823.00    1.08365   0.87232    0.014
 4824.00    1.04630   0.87051    0.014
 4825.00    0.86152   0.86987    0.014
 4826.00    0.65047   0.87049    0.014
 4827.00    0.72307   0.87156    0.014
 4828.00    0.83431   0.87185    0.014
 4829.00    0.79402   0.87037    0.014
 4830.00    0.73901   0.86685    0.014
 4831.00    0.82480   0.86182    0.014
 4832.00    0.91913   0.85645    0.014
 4833.00    1.06526   0.85213    0.014
 4834.00    1.21097   0.84983    0.014
 4835.00    1.03269   0.84968    0.014
 4836.00    0.85749   0.85099    0.014
 4837.00    0.76304   0.85260    0.014
 4838.00    0.68274   0.85327    0.014
 4839.00    0.79574   0.85216    0.014
 4840.00    0.89706   0.84917    0.014
 4841.00    0.89281   0.84480    0.014
 4842.00    0.88142   0.83950    0.014
 4843.00    0.82278   0.83308    0.014
 4844.00    0.78427   0.82480    0.014
 4845.00    0.84960   0.81380    0.014
 4846.00    0.89795   0.79967    0.014
 4847.00    0.87563   0.78263    0.014
 4848.00    0.86631   0.76319    0.000
 4849.00    0.90176   0.74183    0.000
 4850.00    0.90209   0.71905    0.000
 4851.00    0.80060   0.69589    0.000
 4852.00    0.74411   0.67464    0.000
 4853.00    0.79901   0.65893    0.000
 4854.00    0.91529   0.65235    0.000
 4855.00    1.16249   0.65674    0.000
 4856.00    1.36884   0.67120    0.000
 4857.00    1.49949   0.69215    0.000
 4858.00    1.63137   0.71464    0.000
 4859.00    1.76526   0.73407    0.000
 4860.00    1.80075   0.74743    0.000
 4861.00    1.69649   0.75397    0.000
 4862.00    1.54500   0.75514    0.000
 4863.00    1.33451   0.75386    0.000
 4864.00    1.13450   0.75342    0.000
 4865.00    0.94604   0.75640    0.000
 4866.00    0.86372   0.76389    0.000
 4867.00    0.88448   0.77543    0.000
 4868.00    0.88580   0.78932    0.000
 4869.00    0.87045   0.80363    0.000
 4870.00    0.84198   0.81651    0.000
 4871.00    0.80361   0.82642    0.000
 4872.00    0.79905   0.83230    0.000
 4873.00    0.81690   0.83379    0.000
 4874.00    0.88361   0.83109    0.000
 4875.00    0.97869   0.82504    0.014
 4876.00    0.92310   0.81693    0.014
 4877.00    0.79131   0.80809    0.014
 4878.00    0.72951   0.79958    0.014
 4879.00    0.69838   0.79221    0.014
 4880.00    0.68471   0.78670    0.014
 4881.00    0.67762   0.78388    0.014
 4882.00    0.76081   0.78498    0.014
 4883.00    0.87280   0.79152    0.014
 4884.00    0.93029   0.80440    0.014
 4885.00    0.97325   0.82308    0.014
 4886.00    0.91400   0.84513    0.014
 4887.00    0.83245   0.86679    0.014
 4888.00    0.85477   0.88422    0.014
 4889.00    0.89509   0.89486    0.014
 4890.00    0.81334   0.89814    0.014
 4891.00    0.71550   0.89534    0.014
 4892.00    0.75059   0.88899    0.015
 4893.00    0.79802   0.88193    0.015
 4894.00    0.83633   0.87634    0.015
 4895.00    0.87413   0.87331    0.015
 4896.00    0.86563   0.87269    0.015
 4897.00    0.85577   0.87316    0.015
 4898.00    0.81233   0.87293    0.015
 4899.00    0.76937   0.87036    0.015
 4900.00    0.73814   0.86482    0.015
 4901.00    0.71229   0.85730    0.015
 4902.00    0.75609   0.85004    0.015
 4903.00    0.79337   0.84539    0.014
 4904.00    0.77400   0.84458    0.014
 4905.00    0.75850   0.84694    0.014
 4906.00    0.76800   0.84985    0.014
 4907.00    0.78681   0.84972    0.015
 4908.00    0.85250   0.84349    0.015
 4909.00    0.90130   0.83020    0.015
 4910.00    0.88137   0.81156    0.015
 4911.00    0.86721   0.79153    0.014
 4912.00    0.87253   0.77495    0.015
 4913.00    0.86115   0.76571    0.015
 4914.00    0.80219   0.76556    0.014
 4915.00    0.76198   0.77396    0.014
 4916.00    0.76740   0.78881    0.014
 4917.00    0.78036   0.80744    0.014
 4918.00    0.80916   0.82735    0.014
 4919.00    0.85909   0.84638    0.014
 4920.00    0.94757   0.86260    0.014
 4921.00    0.94242   0.87421    0.014
 4922.00    0.78795   0.87992    0.014
 4923.00    0.71796   0.87936    0.014
 4924.00    0.76621   0.87319    0.014
 4925.00    0.76989   0.86295    0.014
 4926.00    0.71867   0.85070    0.014
 4927.00    0.67379   0.83831    0.014
 4928.00    0.63578   0.82735    0.014
 4929.00    0.68737   0.81920    0.014
 4930.00    0.82475   0.81516    0.014
 4931.00    0.85908   0.81626    0.014
 4932.00    0.80640   0.82291    0.014
 4933.00    0.77627   0.83423    0.014
 4934.00    0.76292   0.84806    0.014
 4935.00    0.84880   0.86179    0.014
 4936.00    0.99949   0.87336    0.014
 4937.00    0.96575   0.88186    0.014
 4938.00    0.82658   0.88760    0.014
 4939.00    0.85371   0.89148    0.014
 4940.00    0.96361   0.89438    0.000
 4941.00    0.89086   0.89654    0.000
 4942.00    0.73944   0.89729    0.000
 4943.00    0.69188   0.89538    0.000
 4944.00    0.68265   0.88970    0.000
 4945.00    0.83715   0.87967    0.000
 4946.00    1.04287   0.86554    0.000
 4947.00    1.01742   0.84890    0.000
 4948.00    0.93166   0.83267    0.000
 4949.00    0.89556   0.82028    0.000
 4950.00    0.87005   0.81446    0.000
 4951.00    0.84897   0.81609    0.000
 4952.00    0.82863   0.82382    0.000
 4953.00    0.88933   0.83429    0.000
 4954.00    0.96034   0.84358    0.000
 4955.00    1.00206   0.84872    0.000
 4956.00    1.04119   0.84878    0.000
 4957.00    1.02334   0.84467    0.000
 4958.00    1.00249   0.83858    0.000
 4959.00    0.94287   0.83309    0.000
 4960.00    0.88310   0.83026    0.000
 4961.00    0.86986   0.83105    0.000
 4962.00    0.86027   0.83527    0.000
 4963.00    0.93002   0.84194    0.000
 4964.00    0.98711   0.84955    0.000
 4965.00    0.88894   0.85630    0.000
 4966.00    0.79300   0.86046    0.000
 4967.00    0.71578   0.86077    0.000
 4968.00    0.64601   0.85647    0.000
 4969.00    0.62283   0.84739    0.000
 4970.00    0.62932   0.83406    0.000
 4971.00    0.78134   0.81753    0.000
 4972.00    0.88871   0.79938    0.000
 4973.00    0.81837   0.78177    0.000
 4974.00    0.77649   0.76725    0.000
 4975.00    0.82881   0.75819    0.000
 4976.00    0.85472   0.75607    0.000
 4977.00    0.80683   0.76098    0.000
 4978.00    0.78812   0.77131    0.000
 4979.00    0.83923   0.78429    0.000
 4980.00    0.85762   0.79695    0.000
 4981.00    0.80840   0.80705    0.000
 4982.00    0.81567   0.81382    0.000
 4983.00    0.92440   0.81761    0.000
 4984.00    0.97119   0.81955    0.000
 4985.00    0.92064   0.82070    0.000
 4986.00    0.90116   0.82142    0.000
 4987.00    0.92457   0.82129    0.000
 4988.00    0.88303   0.81950    0.000
 4989.00    0.76263   0.81525    0.000
 4990.00    0.69207   0.80832    0.000
 4991.00    0.67485   0.79915    0.000
 4992.00    0.73019   0.78871    0.000
 4993.00    0.85403   0.77810    0.000
 4994.00    0.90737   0.76828    0.000
 4995.00    0.90202   0.76009    0.000
 4996.00    0.91914   0.75423    0.000
 4997.00    0.95272   0.75118    0.000
 4998.00    0.93725   0.75118    0.000
 4999.00    0.89022   0.75377    0.000
 5000.00    0.90907   0.75749    0.000
 5001.00    0.96502   0.76033    0.000
 5002.00    1.07084   0.76042    0.000
 5003.00    1.20110   0.75692    0.000
 5004.00    1.25429   0.75040    0.000
 5005.00    1.27485   0.74249    0.000
 5006.00    1.18903   0.73528    0.000
 5007.00    1.06463   0.73053    0.000
 5008.00    0.93165   0.72901    0.000
 5009.00    0.79604   0.73039    0.000
 5010.00    0.82463   0.73379    0.000
 5011.00    0.89515   0.73849    0.000
 5012.00    0.84485   0.74402    0.000
 5013.00    0.76946   0.75005    0.000
 5014.00    0.76914   0.75632    0.000
 5015.00    0.78112   0.76240    0.000
 5016.00    0.79607   0.76801    0.000
 5017.00    0.81139   0.77314    0.000
 5018.00    0.77258   0.77784    0.000
 5019.00    0.72919   0.78256    0.000
 5020.00    0.72884   0.78813    0.000
 5021.00    0.73059   0.79502    0.000
 5022.00    0.77185   0.80274    0.000
 5023.00    0.81254   0.80979    0.000
 5024.00    0.78133   0.81441    0.000
 5025.00    0.75264   0.81520    0.000
 5026.00    0.77433   0.81119    0.000
 5027.00    0.79455   0.80218    0.000
 5028.00    0.79769   0.78884    0.000
 5029.00    0.80398   0.77271    0.014
 5030.00    0.83573   0.75636    0.014
 5031.00    0.86089   0.74277    0.014
 5032.00    0.84605   0.73459    0.014
 5033.00    0.84482   0.73389    0.014
 5034.00    0.90870   0.74132    0.013
 5035.00    0.93899   0.75529    0.013
 5036.00    0.83846   0.77211    0.013
 5037.00    0.78027   0.78743    0.013
 5038.00    0.85942   0.79776    0.013
 5039.00    0.92042   0.80139    0.013
 5040.00    0.93161   0.79892    0.013
 5041.00    0.89223   0.79295    0.013
 5042.00    0.73397   0.78702    0.013
 5043.00    0.67533   0.78410    0.013
 5044.00    0.81919   0.78565    0.013
 5045.00    0.91875   0.79153    0.013
 5046.00    0.93992   0.80049    0.014
 5047.00    0.96736   0.81083    0.014
 5048.00    1.00449   0.82091    0.013
 5049.00    0.93027   0.82969    0.013
 5050.00    0.70465   0.83661    0.013
 5051.00    0.59529   0.84112    0.013
 5052.00    0.62509   0.84238    0.013
 5053.00    0.68853   0.83957    0.013
 5054.00    0.78748   0.83278    0.013
 5055.00    0.81674   0.82305    0.013
 5056.00    0.78113   0.81165    0.013
 5057.00    0.75627   0.80024    0.013
 5058.00    0.74024   0.79085    0.013
 5059.00    0.72824   0.78470    0.013
 5060.00    0.71916   0.78152    0.013
 5061.00    0.75858   0.78040    0.013
 5062.00    0.82875   0.78068    0.013
 5063.00    0.82650   0.78149    0.014
 5064.00    0.78410   0.78187    0.014
 5065.00    0.76575   0.78148    0.014
 5066.00    0.75900   0.78020    0.013
 5067.00    0.72086   0.77721    0.013
 5068.00    0.66965   0.77135    0.014
 5069.00    0.77608   0.76287    0.014
 5070.00    0.93865   0.75325    0.014
 5071.00    0.94394   0.74409    0.014
 5072.00    0.90192   0.73698    0.014
 5073.00    0.74739   0.73367    0.014
 5074.00    0.56476   0.73526    0.013
 5075.00    0.61755   0.74129    0.014
 5076.00    0.71804   0.75029    0.014
 5077.00    0.81912   0.76067    0.014
 5078.00    0.92030   0.77117    0.014
 5079.00    0.86576   0.78074    0.013
 5080.00    0.79280   0.78892    0.013
 5081.00    0.66558   0.79592    0.013
 5082.00    0.53400   0.80198    0.013
 5083.00    0.56558   0.80673    0.013
 5084.00    0.60451   0.80933    0.013
 5085.00    0.72894   0.80882    0.013
 5086.00    0.85092   0.80448    0.013
 5087.00    0.80033   0.79614    0.013
 5088.00    0.75680   0.78483    0.013
 5089.00    0.84443   0.77303    0.013
 5090.00    0.91435   0.76359    0.013
 5091.00    0.78697   0.75815    0.013
 5092.00    0.68367   0.75692    0.013
 5093.00    0.76806   0.75892    0.013
 5094.00    0.84755   0.76250    0.013
 5095.00    0.89822   0.76569    0.013
 5096.00    0.91919   0.76678    0.013
 5097.00    0.80158   0.76524    0.013
 5098.00    0.70370   0.76177    0.013
 5099.00    0.68107   0.75760    0.013
 5100.00    0.67106   0.75431    0.013
 5101.00    0.70120   0.75356    0.013
 5102.00    0.70149   0.75602    0.013
 5103.00    0.62133   0.76138    0.013
 5104.00    0.58981   0.76899    0.013
 5105.00    0.67078   0.77783    0.013
 5106.00    0.71589   0.78692    0.013
 5107.00    0.68926   0.79524    0.013
 5108.00    0.64869   0.80148    0.013
 5109.00    0.58383   0.80448    0.013
 5110.00    0.57416   0.80345    0.013
 5111.00    0.64868   0.79810    0.013
 5112.00    0.68657   0.78865    0.013
 5113.00    0.67536   0.77594    0.013
 5114.00    0.72272   0.76186    0.013
 5115.00    0.83917   0.74864    0.013
 5116.00    0.93351   0.73770    0.013
 5117.00    1.00485   0.72978    0.013
 5118.00    0.98343   0.72515    0.013
 5119.00    0.87687   0.72374    0.013
 5120.00    0.80392   0.72536    0.013
 5121.00    0.75815   0.72957    0.013
 5122.00    0.73554   0.73545    0.013
 5123.00    0.72942   0.74207    0.013
 5124.00    0.69849   0.74884    0.013
 5125.00    0.65207   0.75498    0.013
 5126.00    0.68106   0.75878    0.013
 5127.00    0.75122   0.75919    0.013
 5128.00    0.78665   0.75644    0.013
 5129.00    0.80560   0.75133    0.013
 5130.00    0.76841   0.74573    0.013
 5131.00    0.70824   0.74054    0.013
 5132.00    0.78738   0.73535    0.013
 5133.00    0.91521   0.73136    0.013
 5134.00    0.89244   0.72948    0.013
 5135.00    0.82528   0.72850    0.013
 5136.00    0.73909   0.72753    0.013
 5137.00    0.64825   0.72660    0.013
 5138.00    0.73455   0.72599    0.013
 5139.00    0.85584   0.72591    0.013
 5140.00    0.88593   0.72579    0.013
 5141.00    0.90194   0.72522    0.013
 5142.00    0.80512   0.72460    0.013
 5143.00    0.69544   0.72440    0.013
 5144.00    0.70789   0.72534    0.013
 5145.00    0.72966   0.72853    0.013
 5146.00    0.72650   0.73451    0.013
 5147.00    0.72231   0.74290    0.013
 5148.00    0.77294   0.75243    0.013
 5149.00    0.82005   0.76133    0.013
 5150.00    0.69972   0.76809    0.013
 5151.00    0.59271   0.77106    0.013
 5152.00    0.71637   0.76860    0.013
 5153.00    0.83487   0.76024    0.013
 5154.00    0.89852   0.74595    0.014
 5155.00    0.94406   0.72542    0.014
 5156.00    0.85326   0.69919    0.014
 5157.00    0.78556   0.66963    0.014
 5158.00    0.85015   0.64092    0.014
 5159.00    0.88803   0.61746    0.014
 5160.00    0.80419   0.60132    0.013
 5161.00    0.76184   0.59140    0.013
 5162.00    0.87432   0.58602    0.013
 5163.00    0.95614   0.58618    0.013
 5164.00    0.94230   0.59439    0.013
 5165.00    0.87727   0.61067    0.013
 5166.00    0.67661   0.63183    0.013
 5167.00    0.55274   0.65431    0.013
 5168.00    0.60345   0.67508    0.013
 5169.00    0.63853   0.69089    0.013
 5170.00    0.64280   0.69881    0.013
 5171.00    0.60582   0.69743    0.013
 5172.00    0.49805   0.68705    0.013
 5173.00    0.48137   0.66992    0.013
 5174.00    0.60161   0.65168    0.013
 5175.00    0.69549   0.63986    0.013
 5176.00    0.75456   0.63874    0.013
 5177.00    0.73474   0.64711    0.013
 5178.00    0.62317   0.66131    0.013
 5179.00    0.62578   0.67769    0.013
 5180.00    0.74554   0.69316    0.013
 5181.00    0.74594   0.70417    0.013
 5182.00    0.63835   0.70829    0.013
 5183.00    0.59955   0.70742    0.013
 5184.00    0.61562   0.70559    0.012
 5185.00    0.66374   0.70471    0.012
 5186.00    0.73434   0.70551    0.012
 5187.00    0.74349   0.70930    0.012
 5188.00    0.71483   0.71621    0.012
 5189.00    0.68574   0.72475    0.013
 5190.00    0.65643   0.73311    0.000
 5191.00    0.70925   0.73926    0.000
 5192.00    0.80041   0.74136    0.000
 5193.00    0.77074   0.73850    0.000
 5194.00    0.69245   0.73060    0.000
 5195.00    0.68454   0.71799    0.000
 5196.00    0.70078   0.70273    0.000
 5197.00    0.73577   0.68866    0.000
 5198.00    0.77619   0.67829    0.000
 5199.00    0.76596   0.67255    0.000
 5200.00    0.74363   0.67322    0.000
 5201.00    0.70140   0.68090    0.000
 5202.00    0.65534   0.69368    0.000
 5203.00    0.68378   0.70895    0.000
 5204.00    0.72335   0.72358    0.000
 5205.00    0.69347   0.73490    0.000
 5206.00    0.65599   0.74193    0.000
 5207.00    0.74154   0.74628    0.000
 5208.00    0.83598   0.75034    0.000
 5209.00    0.73923   0.75523    0.000
 5210.00    0.63535   0.76045    0.000
 5211.00    0.65044   0.76458    0.013
 5212.00    0.66751   0.76622    0.013
 5213.00    0.73626   0.76370    0.013
 5214.00    0.79861   0.75582    0.013
 5215.00    0.75726   0.74298    0.013
 5216.00    0.71005   0.72723    0.013
 5217.00    0.60312   0.71181    0.013
 5218.00    0.52772   0.70110    0.013
 5219.00    0.68165   0.69883    0.013
 5220.00    0.80688   0.70394    0.013
 5221.00    0.77221   0.71270    0.013
 5222.00    0.75339   0.72236    0.013
 5223.00    0.80507   0.73031    0.013
 5224.00    0.83358   0.73580    0.013
 5225.00    0.77747   0.74064    0.013
 5226.00    0.74272   0.74638    0.014
 5227.00    0.77331   0.75379    0.014
 5228.00    0.76976   0.76251    0.014
 5229.00    0.67733   0.77136    0.013
 5230.00    0.60695   0.77929    0.013
 5231.00    0.58585   0.78571    0.013
 5232.00    0.62159   0.79037    0.013
 5233.00    0.76751   0.79268    0.013
 5234.00    0.84836   0.79257    0.013
 5235.00    0.81919   0.79066    0.013
 5236.00    0.75750   0.78667    0.013
 5237.00    0.64764   0.77945    0.013
 5238.00    0.60880   0.76964    0.013
 5239.00    0.66240   0.75999    0.013
 5240.00    0.66436   0.75197    0.013
 5241.00    0.60709   0.74542    0.013
 5242.00    0.60347   0.74129    0.013
 5243.00    0.65410   0.74084    0.012
 5244.00    0.70389   0.74346    0.012
 5245.00    0.75293   0.74766    0.013
 5246.00    0.76942   0.75293    0.013
 5247.00    0.76033   0.75980    0.012
 5248.00    0.80312   0.76755    0.012
 5249.00    0.88180   0.77333    0.013
 5250.00    0.83485   0.77418    0.013
 5251.00    0.71174   0.76831    0.013
 5252.00    0.60240   0.75530    0.013
 5253.00    0.50036   0.73612    0.013
 5254.00    0.53626   0.71324    0.013
 5255.00    0.63550   0.68980    0.013
 5256.00    0.69770   0.66862    0.013
 5257.00    0.74527   0.65191    0.013
 5258.00    0.77542   0.64137    0.013
 5259.00    0.79971   0.63637    0.013
 5260.00    0.79161   0.63423    0.013
 5261.00    0.77435   0.63511    0.013
 5262.00    0.73455   0.64235    0.013
 5263.00    0.68949   0.65605    0.013
 5264.00    0.63850   0.67223    0.013
 5265.00    0.58639   0.68820    0.013
 5266.00    0.58582   0.70351    0.013
 5267.00    0.59273   0.71826    0.014
 5268.00    0.72208   0.73283    0.014
 5269.00    0.86430   0.74604    0.014
 5270.00    0.85378   0.75515    0.014
 5271.00    0.83285   0.75899    0.013
 5272.00    0.72887   0.75891    0.014
 5273.00    0.62212   0.75732    0.014
 5274.00    0.53400   0.75643    0.014
 5275.00    0.45415   0.75820    0.013
 5276.00    0.63855   0.76440    0.014
 5277.00    0.81023   0.77527    0.014
 5278.00    0.78817   0.78795    0.013
 5279.00    0.77131   0.79925    0.013
 5280.00    0.80504   0.80795    0.014
 5281.00    0.82793   0.81398    0.014
 5282.00    0.77455   0.81674    0.014
 5283.00    0.73983   0.81524    0.013
 5284.00    0.80633   0.80930    0.013
 5285.00    0.86369   0.79984    0.013
 5286.00    0.88130   0.78819    0.013
 5287.00    0.89801   0.77499    0.013
 5288.00    0.91150   0.76111    0.013
 5289.00    0.91308   0.74914    0.013
 5290.00    0.87884   0.74269    0.013
 5291.00    0.85891   0.74324    0.013
 5292.00    0.87552   0.74851    0.013
 5293.00    0.85954   0.75623    0.013
 5294.00    0.77185   0.76633    0.013
 5295.00    0.68626   0.77842    0.013
 5296.00    0.60467   0.79050    0.013
 5297.00    0.58074   0.80040    0.013
 5298.00    0.65280   0.80723    0.013
 5299.00    0.74980   0.81162    0.013
 5300.00    0.88322   0.81492    0.013
 5301.00    0.91598   0.81734    0.013
 5302.00    0.81957   0.81787    0.013
 5303.00    0.80548   0.81618    0.013
 5304.00    0.88446   0.81266    0.013
 5305.00    0.88009   0.80790    0.013
 5306.00    0.79259   0.80272    0.012
 5307.00    0.73094   0.79740    0.012
 5308.00    0.69203   0.79202    0.012
 5309.00    0.66682   0.78764    0.012
 5310.00    0.65223   0.78455    0.012
 5311.00    0.61099   0.78125    0.012
 5312.00    0.55160   0.77658    0.012
 5313.00    0.56328   0.76985    0.012
 5314.00    0.61739   0.76035    0.012
 5315.00    0.71779   0.74782    0.012
 5316.00    0.84232   0.73356    0.012
 5317.00    0.89150   0.72024    0.012
 5318.00    0.90666   0.70862    0.012
 5319.00    0.88431   0.69838    0.013
 5320.00    0.84738   0.69236    0.013
 5321.00    0.72550   0.69558    0.012
 5322.00    0.57555   0.70771    0.012
 5323.00    0.64801   0.72327    0.012
 5324.00    0.78214   0.73814    0.013
 5325.00    0.80312   0.75101    0.013
 5326.00    0.79828   0.76144    0.013
 5327.00    0.78707   0.76802    0.013
 5328.00    0.77468   0.76975    0.013
 5329.00    0.78798   0.76750    0.013
 5330.00    0.80488   0.76317    0.013
 5331.00    0.83900   0.75777    0.013
 5332.00    0.87485   0.75269    0.013
 5333.00    0.77491   0.75069    0.013
 5334.00    0.66627   0.75255    0.013
 5335.00    0.73095   0.75577    0.013
 5336.00    0.80041   0.75826    0.013
 5337.00    0.71465   0.75951    0.013
 5338.00    0.63170   0.76026    0.013
 5339.00    0.62887   0.76172    0.013
 5340.00    0.62930   0.76400    0.013
 5341.00    0.67643   0.76766    0.013
 5342.00    0.72131   0.77424    0.013
 5343.00    0.74506   0.78380    0.013
 5344.00    0.77366   0.79443    0.013
 5345.00    0.83529   0.80454    0.013
 5346.00    0.87827   0.81393    0.013
 5347.00    0.82282   0.82195    0.012
 5348.00    0.76305   0.82721    0.012
 5349.00    0.68490   0.82911    0.012
 5350.00    0.63862   0.82774    0.012
 5351.00    0.70411   0.82331    0.012
 5352.00    0.74775   0.81623    0.012
 5353.00    0.72702   0.80698    0.012
 5354.00    0.74284   0.79656    0.012
 5355.00    0.85053   0.78624    0.012
 5356.00    0.91232   0.77620    0.012
 5357.00    0.87482   0.76610    0.012
 5358.00    0.85084   0.75648    0.012
 5359.00    0.85225   0.74782    0.012
 5360.00    0.84266   0.74031    0.012
 5361.00    0.81502   0.73447    0.012
 5362.00    0.73142   0.73119    0.012
 5363.00    0.56731   0.73229    0.012
 5364.00    0.53278   0.73953    0.012
 5365.00    0.66214   0.75194    0.012
 5366.00    0.77094   0.76563    0.012
 5367.00    0.85681   0.77727    0.012
 5368.00    0.87668   0.78540   -2.000
 5369.00    0.83166   0.78981   -2.000
 5370.00    0.83428   0.79142   -2.000
 5371.00    0.87822   0.79106   -2.000
 5372.00    0.86692   0.78894   -2.000
 5373.00    0.81343   0.78596   -2.000
 5374.00    0.80287   0.78334   -2.000
 5375.00    0.82115   0.78142   -2.000
 5376.00    0.81252   0.78022   -2.000
 5377.00    0.78806   0.77949   -2.000
 5378.00    0.70790   0.77786   -2.000
 5379.00    0.59918   0.77433   -2.000
 5380.00    0.65149   0.76913   -2.000
 5381.00    0.77534   0.76261   -2.000
 5382.00    0.83090   0.75519   -2.000
 5383.00    0.86037   0.74759    0.013
 5384.00    0.91262   0.74048    0.013
 5385.00    0.97224   0.73423    0.013
 5386.00    0.90066   0.72905    0.013
 5387.00    0.79346   0.72512    0.012
 5388.00    0.77045   0.72232    0.012
 5389.00    0.76621   0.72068    0.013
 5390.00    0.77607   0.72113    0.012
 5391.00    0.78844   0.72340    0.012
 5392.00    0.77589   0.72451    0.012
 5393.00    0.75997   0.72260    0.013
 5394.00    0.73399   0.71847    0.012
 5395.00    0.70703   0.71251    0.012
 5396.00    0.76899   0.70474    0.012
 5397.00    0.83630   0.69735    0.012
 5398.00    0.82903   0.69369    0.012
 5399.00    0.81907   0.69534    0.013
 5400.00    0.68615   0.70114    0.012
 5401.00    0.56074   0.70849    0.012
 5402.00    0.62882   0.71644    0.012
 5403.00    0.69791   0.72623    0.012
 5404.00    0.78090   0.73802    0.012
 5405.00    0.85820   0.74935    0.012
 5406.00    0.88443   0.75806    0.012
 5407.00    0.89796   0.76421    0.012
 5408.00    0.82755   0.76893    0.012
 5409.00    0.76399   0.77249    0.012
 5410.00    0.73561   0.77363    0.012
 5411.00    0.72564   0.77186    0.012
 5412.00    0.79203   0.76861    0.012
 5413.00    0.82455   0.76556    0.012
 5414.00    0.74069   0.76358    0.012
 5415.00    0.69392   0.76194    0.011
 5416.00    0.75443   0.75903    0.011
 5417.00    0.81119   0.75574    0.012
 5418.00    0.85870   0.75383    0.012
 5419.00    0.86987   0.75170    0.012
 5420.00    0.80367   0.74697    0.012
 5421.00    0.75114   0.73930    0.012
 5422.00    0.72389   0.73095    0.012
 5423.00    0.73568   0.72594    0.012
 5424.00    0.81057   0.72477    0.012
 5425.00    0.84118   0.72490    0.012
 5426.00    0.80902   0.72685    0.012
 5427.00    0.77407   0.73247    0.012
 5428.00    0.73566   0.74192    0.012
 5429.00    0.71995   0.75404    0.012
 5430.00    0.72919   0.76671    0.012
 5431.00    0.77532   0.77755    0.012
 5432.00    0.85721   0.78418    0.012
 5433.00    0.84066   0.78531    0.012
 5434.00    0.73996   0.78133    0.012
 5435.00    0.73927   0.77402    0.012
 5436.00    0.81389   0.76493    0.012
 5437.00    0.83010   0.75527    0.012
 5438.00    0.80766   0.74675    0.012
 5439.00    0.78624   0.74134    0.012
 5440.00    0.76540   0.74070    0.012
 5441.00    0.72080   0.74389    0.012
 5442.00    0.66419   0.74658    0.012
 5443.00    0.69734   0.74651    0.012
 5444.00    0.76970   0.74446    0.012
 5445.00    0.80282   0.74158    0.012
 5446.00    0.82122   0.73869    0.012
 5447.00    0.78014   0.73629    0.012
 5448.00    0.72013   0.73549    0.012
 5449.00    0.68621   0.73780    0.012
 5450.00    0.65922   0.74221    0.012
 5451.00    0.66981   0.74564    0.012
 5452.00    0.68856   0.74666    0.012
 5453.00    0.64833   0.74564    0.012
 5454.00    0.59790   0.74396    0.011
 5455.00    0.62149   0.74266    0.011
 5456.00    0.65478   0.74256    0.011
 5457.00    0.67034   0.74438    0.011
 5458.00    0.68426   0.74683    0.011
 5459.00    0.67575   0.74803    0.011
 5460.00    0.66598   0.74785    0.011
 5461.00    0.77853   0.74636    0.011
 5462.00    0.89249   0.74282    0.011
 5463.00    0.86906   0.73693    0.011
 5464.00    0.84544   0.72972    0.011
 5465.00    0.81759   0.72237    0.011
 5466.00    0.79007   0.71562    0.011
 5467.00    0.76685   0.71048    0.011
 5468.00    0.74188   0.70687    0.011
 5469.00    0.70180   0.70434    0.011
 5470.00    0.67137   0.70493    0.011
 5471.00    0.70287   0.70982    0.011
 5472.00    0.72857   0.71633    0.011
 5473.00    0.72513   0.72166    0.011
 5474.00    0.73131   0.72584    0.012
 5475.00    0.77652   0.73041    0.012
 5476.00    0.79758   0.73547    0.012
 5477.00    0.73729   0.73977    0.012
 5478.00    0.70753   0.74232   -2.000
 5479.00    0.76451   0.74289   -2.000
 5480.00    0.81986   0.74220   -2.000
 5481.00    0.87127   0.74195   -2.000
 5482.00    0.84019   0.74280   -2.000
 5483.00    0.63629   0.74377   -2.000
 5484.00    0.61898   0.74423   -2.000
 5485.00    0.94148   0.74406   -2.000
 5486.00    1.14546   0.74353   -2.000
 5487.00    1.16078   0.74340   -2.000
 5488.00    1.33024   0.74342   -2.000
 5489.00    1.71502   0.74233   -2.000
 5490.00    1.73756   0.74022   -2.000
 5491.00    1.31478   0.73864   -2.000
 5492.00    0.93575   0.73753   -2.000
 5493.00    0.60414   0.73494   -2.000
 5494.00    0.49848   0.73066   -2.000
 5495.00    0.60879   0.72703   -2.000
 5496.00    0.69541   0.72530   -2.000
 5497.00    0.76205   0.72448   -2.000
 5498.00    0.74511   0.72340   -2.000
 5499.00    0.66614   0.72172   -2.000
 5500.00    0.65175   0.72032   -2.000
 5501.00    0.67945   0.71967   -2.000
 5502.00    0.68357   0.71878    0.011
 5503.00    0.67422   0.71746    0.011
 5504.00    0.69305   0.71673    0.011
 5505.00    0.72588   0.71754    0.011
 5506.00    0.74733   0.72100    0.011
 5507.00    0.76389   0.72696    0.011
 5508.00    0.76664   0.73409    0.011
 5509.00    0.76429   0.74124    0.011
 5510.00    0.75693   0.74770    0.011
 5511.00    0.74800   0.75289    0.011
 5512.00    0.73395   0.75583    0.011
 5513.00    0.71856   0.75575    0.011
 5514.00    0.70993   0.75296    0.011
 5515.00    0.70275   0.74809    0.011
 5516.00    0.69774   0.74184    0.011
 5517.00    0.69311   0.73559    0.011
 5518.00    0.67119   0.73036    0.011
 5519.00    0.64709   0.72649    0.011
 5520.00    0.63069   0.72422    0.011
 5521.00    0.61498   0.72393    0.011
 5522.00    0.65581   0.72588    0.011
 5523.00    0.69960   0.72924    0.011
 5524.00    0.72102   0.73241    0.011
 5525.00    0.74115   0.73448    0.011
 5526.00    0.69634   0.73581    0.011
 5527.00    0.65723   0.73736    0.011
 5528.00    0.74107   0.73966    0.011
 5529.00    0.81586   0.74279    0.011
 5530.00    0.78034   0.74599    0.011
 5531.00    0.74401   0.74823    0.011
 5532.00    0.70099   0.74982    0.011
 5533.00    0.66261   0.75105    0.011
 5534.00    0.65319   0.75140    0.011
 5535.00    0.65979   0.75111    0.011
 5536.00    0.74470   0.75115    0.011
 5537.00    0.79101   0.75230    0.011
 5538.00    0.68410   0.75465    0.011
 5539.00    0.60985   0.75746    0.011
 5540.00    0.64342   0.76010    0.011
 5541.00    0.66950   0.76214    0.011
 5542.00    0.67468   0.76279    0.011
 5543.00    0.67681   0.76188    0.011
 5544.00    0.67167   0.75997    0.011
 5545.00    0.67415   0.75732    0.011
 5546.00    0.69235   0.75426    0.011
 5547.00    0.69861   0.75152    0.011
 5548.00    0.68346   0.74949    0.011
 5549.00    0.70171   0.74795    0.011
 5550.00    0.77233   0.74602    0.011
 5551.00    0.80062   0.74337    0.011
 5552.00    0.77065   0.74053    0.011
 5553.00    0.75865   0.73746    0.011
 5554.00    0.76844   0.73382    0.011
 5555.00    0.76853   0.73004    0.011
 5556.00    0.75827   0.72672    0.011
 5557.00    0.74536   0.72409    0.011
 5558.00    0.72995   0.72226    0.011
 5559.00    0.71749   0.72122    0.011
 5560.00    0.70750   0.72065    0.011
 5561.00    0.70550   0.72044    0.011
 5562.00    0.70934   0.72101    0.011
 5563.00    0.69132   0.72251    0.011
 5564.00    0.65926   0.72467    0.011
 5565.00    0.65355   0.72696    0.011
 5566.00    0.66264   0.72911    0.011
 5567.00    0.70388   0.73195    0.011
 5568.00    0.76082   0.73540    0.011
 5569.00    0.76721   0.73773    0.011
 5570.00    0.75223   0.73850    0.011
 5571.00    0.75517   0.73829    0.011
 5572.00    0.76458   0.73664    0.011
 5573.00    0.73438   0.73299    0.011
 5574.00    0.69206   0.72692    0.011
 5575.00    0.68427   0.71827    0.011
 5576.00    0.68526   0.70838    0.011
 5577.00    0.70578   0.69880    0.011
 5578.00    0.73034   0.69030    0.011
 5579.00    0.74233   0.68374    0.011
 5580.00    0.75227   0.67995    0.011
 5581.00    0.78396   0.67937    0.011
 5582.00    0.81831   0.68187    0.011
 5583.00    0.81144   0.68672    0.011
 5584.00    0.80111   0.69321    0.011
 5585.00    0.77167   0.69954    0.011
 5586.00    0.74131   0.70359    0.011
 5587.00    0.73349   0.70532    0.011
 5588.00    0.72677   0.70592    0.011
 5589.00    0.76590   0.70586    0.011
 5590.00    0.80136   0.70437    0.011
 5591.00    0.76405   0.70147    0.011
 5592.00    0.73448   0.69986    0.011
 5593.00    0.79490   0.70204    0.011
 5594.00    0.84840   0.70733    0.011
 5595.00    0.84619   0.71436    0.011
 5596.00    0.83583   0.72286    0.011
 5597.00    0.77631   0.73237    0.011
 5598.00    0.72905   0.74151    0.011
 5599.00    0.74029   0.74835    0.011
 5600.00    0.73857   0.75206    0.011
 5601.00    0.68654   0.75275    0.011
 5602.00    0.62890   0.75013    0.011
 5603.00    0.55312   0.74378    0.011
 5604.00    0.51387   0.73485    0.011
 5605.00    0.57467   0.72621    0.011
 5606.00    0.63758   0.71914    0.011
 5607.00    0.70546   0.71284    0.011
 5608.00    0.76340   0.70728    0.011
 5609.00    0.80114   0.70439    0.011
 5610.00    0.81195   0.70585    0.011
 5611.00    0.77521   0.70920    0.011
 5612.00    0.73586   0.71049    0.011
 5613.00    0.69251   0.70941    0.011
 5614.00    0.68098   0.70842    0.011
 5615.00    0.71263   0.70881    0.011
 5616.00    0.72918   0.70967    0.011
 5617.00    0.72772   0.71062    0.011
 5618.00    0.73555   0.71302    0.011
 5619.00    0.75319   0.71797    0.011
 5620.00    0.74045   0.72433    0.011
 5621.00    0.69950   0.72958    0.011
 5622.00    0.69001   0.73279    0.011
 5623.00    0.70631   0.73423    0.011
 5624.00    0.70266   0.73359    0.011
 5625.00    0.68463   0.73067    0.011
 5626.00    0.63941   0.72622    0.011
 5627.00    0.57698   0.72154    0.011
 5628.00    0.55603   0.71751    0.011
 5629.00    0.55802   0.71398    0.011
 5630.00    0.59325   0.71082    0.010
 5631.00    0.64446   0.70902    0.010
 5632.00    0.64904   0.70913    0.010
 5633.00    0.63424   0.71031    0.010
 5634.00    0.60546   0.71178    0.010
 5635.00    0.57171   0.71362    0.010
 5636.00    0.58768   0.71645    0.010
 5637.00    0.61857   0.71949    0.010
 5638.00    0.66008   0.72162    0.010
 5639.00    0.70424   0.72320    0.010
 5640.00    0.70228   0.72471    0.010
 5641.00    0.69101   0.72580    0.010
 5642.00    0.65004   0.72541    0.010
 5643.00    0.60436   0.72298    0.010
 5644.00    0.64938   0.71958    0.010
 5645.00    0.70506   0.71623    0.010
 5646.00    0.73165   0.71121    0.010
 5647.00    0.75590   0.70343    0.011
 5648.00    0.69362   0.69602    0.010
 5649.00    0.62750   0.69183    0.010
 5650.00    0.63098   0.68962    0.011
 5651.00    0.63595   0.68731    0.011
 5652.00    0.67494   0.68636    0.011
 5653.00    0.71047   0.68947    0.011
 5654.00    0.68223   0.69514    0.011
 5655.00    0.66033   0.69961    0.011
 5656.00    0.70856   0.70237    0.011
 5657.00    0.75722   0.70543    0.011
 5658.00    0.80916   0.70931    0.011
 5659.00    0.84893   0.71275    0.011
 5660.00    0.81716   0.71547    0.011
 5661.00    0.78458   0.71863    0.011
 5662.00    0.74815   0.72306    0.011
 5663.00    0.70219   0.72784    0.011
 5664.00    0.62004   0.73184    0.011
 5665.00    0.57055   0.73528    0.011
 5666.00    0.62471   0.73821    0.011
 5667.00    0.67869   0.73948    0.011
 5668.00    0.73218   0.73846    0.011
 5669.00    0.75642   0.73604    0.011
 5670.00    0.71314   0.73292    0.011
 5671.00    0.70484   0.72848    0.011
 5672.00    0.76634   0.72296    0.011
 5673.00    0.79846   0.71801    0.011
 5674.00    0.77948   0.71433    0.010
 5675.00    0.76099   0.71099    0.010
 5676.00    0.74323   0.70766    0.010
 5677.00    0.71320   0.70585    0.010
 5678.00    0.66674   0.70653    0.011
 5679.00    0.62808   0.70891    0.010
 5680.00    0.59861   0.71186    0.010
 5681.00    0.59313   0.71548    0.010
 5682.00    0.61256   0.71986    0.010
 5683.00    0.65669   0.72414    0.010
 5684.00    0.72346   0.72738    0.010
 5685.00    0.76369   0.72914    0.010
 5686.00    0.78247   0.72917    0.010
 5687.00    0.76282   0.72695    0.010
 5688.00    0.71584   0.72309    0.010
 5689.00    0.68221   0.71865    0.010
 5690.00    0.65690   0.71368    0.010
 5691.00    0.63876   0.70829    0.011
 5692.00    0.62453   0.70339    0.011
 5693.00    0.60132   0.69969    0.011
 5694.00    0.57387   0.69627    0.011
 5695.00    0.58507   0.69200    0.011
 5696.00    0.61206   0.68743    0.011
 5697.00    0.68761   0.68312    0.011
 5698.00    0.78009   0.67887    0.011
 5699.00    0.82677   0.67510    0.011
 5700.00    0.85998   0.67271    0.011
 5701.00    0.76256   0.67250    0.011
 5702.00    0.63333   0.67524    0.011
 5703.00    0.56393   0.68089    0.011
 5704.00    0.50631   0.68851    0.011
 5705.00    0.53730   0.69688    0.011
 5706.00    0.58190   0.70533    0.011
 5707.00    0.60568   0.71362    0.011
 5708.00    0.62711   0.72105    0.010
 5709.00    0.65848   0.72722    0.010
 5710.00    0.69060   0.73231    0.010
 5711.00    0.70891   0.73642    0.010
 5712.00    0.72665   0.73956    0.010
 5713.00    0.79305   0.74175    0.010
 5714.00    0.85771   0.74280    0.010
 5715.00    0.83480   0.74247    0.010
 5716.00    0.81236   0.74066    0.010
 5717.00    0.79785   0.73810    0.010
 5718.00    0.77683   0.73600    0.010
 5719.00    0.68691   0.73433    0.010
 5720.00    0.61071   0.73221    0.010
 5721.00    0.63733   0.73013    0.010
 5722.00    0.66628   0.72982    0.010
 5723.00    0.70849   0.73126    0.010
 5724.00    0.73541   0.73266    0.010
 5725.00    0.69288   0.73334    0.010
 5726.00    0.65388   0.73401    0.010
 5727.00    0.62804   0.73496    0.010
 5728.00    0.61954   0.73557    0.010
 5729.00    0.66501   0.73544    0.010
 5730.00    0.69966   0.73486    0.010
 5731.00    0.70572   0.73413    0.011
 5732.00    0.70804   0.73334    0.011
 5733.00    0.70190   0.73272    0.011
 5734.00    0.71629   0.73269    0.011
 5735.00    0.77105   0.73298    0.011
 5736.00    0.78064   0.73253    0.011
 5737.00    0.71286   0.73079    0.011
 5738.00    0.65581   0.72870    0.011
 5739.00    0.61485   0.72723    0.011
 5740.00    0.60815   0.72570    0.000
 5741.00    0.64663   0.72289    0.000
 5742.00    0.68587   0.71911    0.000
 5743.00    0.72600   0.71600    0.000
 5744.00    0.74352   0.71468    0.000
 5745.00    0.73788   0.71502    0.000
 5746.00    0.74522   0.71603    0.000
 5747.00    0.76428   0.71701    0.000
 5748.00    0.75187   0.71800    0.000
 5749.00    0.71442   0.71887    0.000
 5750.00    0.67201   0.71888    0.000
 5751.00    0.62613   0.71759    0.000
 5752.00    0.64856   0.71574    0.000
 5753.00    0.71295   0.71506    0.000
 5754.00    0.73178   0.71664    0.000
 5755.00    0.72616   0.71957    0.000
 5756.00    0.69289   0.72295    0.000
 5757.00    0.64674   0.72676    0.000
 5758.00    0.64626   0.73069    0.000
 5759.00    0.66410   0.73345    0.000
 5760.00    0.67546   0.73430    0.000
 5761.00    0.68459   0.73360    0.000
 5762.00    0.70532   0.73200    0.000
 5763.00    0.72938   0.73012    0.000
 5764.00    0.74347   0.72790    0.000
 5765.00    0.75517   0.72541    0.000
 5766.00    0.76140   0.72289    0.000
 5767.00    0.76658   0.71993    0.000
 5768.00    0.79615   0.71592    0.000
 5769.00    0.82936   0.71037    0.000
 5770.00    0.83090   0.70304    0.000
 5771.00    0.82899   0.69484    0.000
 5772.00    0.75533   0.68777    0.000
 5773.00    0.67651   0.68248    0.000
 5774.00    0.64376   0.67828    0.000
 5775.00    0.61271   0.67566    0.000
 5776.00    0.58791   0.67664    0.000
 5777.00    0.56605   0.68107    0.000
 5778.00    0.64822   0.68650    0.000
 5779.00    0.72535   0.69187    0.000
 5780.00    0.72146   0.69702    0.000
 5781.00    0.71918   0.70203    0.000
 5782.00    0.73321   0.70700    0.000
 5783.00    0.74543   0.71114    0.000
 5784.00    0.74458   0.71441    0.000
 5785.00    0.75166   0.71739    0.000
 5786.00    0.80281   0.71986    0.000
 5787.00    0.84105   0.72136    0.000
 5788.00    0.82206   0.72276    0.000
 5789.00    0.78966   0.72528    0.000
 5790.00    0.70840   0.72791    0.000
 5791.00    0.64049   0.72944   -2.000
 5792.00    0.61337   0.73026   -2.000
 5793.00    0.62090   0.73052   -2.000
 5794.00    0.71840   0.72963   -2.000
 5795.00    0.79292   0.72794   -2.000
 5796.00    0.81617   0.72631   -2.000
 5797.00    0.81654   0.72506   -2.000
 5798.00    0.77265   0.72412   -2.000
 5799.00    0.73990   0.72374   -2.000
 5800.00    0.72595   0.72433   -2.000
 5801.00    0.70446   0.72521   -2.000
 5802.00    0.67185   0.72552   -2.000
 5803.00    0.67147   0.72536   -2.000
 5804.00    0.71298   0.72486   -2.000
 5805.00    0.74146   0.72387   -2.000
 5806.00    0.75502   0.72285   -2.000
 5807.00    0.74644   0.72306   -2.000
 5808.00    0.71549   0.72484   -2.000
 5809.00    0.68084   0.72708   -2.000
 5810.00    0.64291   0.72936   -2.000
 5811.00    0.64602   0.73194    0.000
 5812.00    0.68135   0.73448    0.000
 5813.00    0.71977   0.73625    0.000
 5814.00    0.76034   0.73729    0.000
 5815.00    0.77427   0.73805    0.000
 5816.00    0.77208   0.73846    0.000
 5817.00    0.75541   0.73846    0.000
 5818.00    0.73109   0.73844    0.000
 5819.00    0.75938   0.73865    0.000
 5820.00    0.81177   0.73853    0.000
 5821.00    0.82629   0.73772    0.000
 5822.00    0.82587   0.73673    0.000
 5823.00    0.80129   0.73567    0.000
 5824.00    0.76858   0.73406    0.000
 5825.00    0.76289   0.73229    0.000
 5826.00    0.76484   0.73141    0.000
 5827.00    0.77270   0.73124    0.000
 5828.00    0.78193   0.73095    0.000
 5829.00    0.79382   0.73109    0.000
 5830.00    0.80621   0.73235    0.000
 5831.00    0.79810   0.73398    0.000
 5832.00    0.78703   0.73479    0.000
 5833.00    0.82419   0.73466    0.000
 5834.00    0.86638   0.73392    0.000
 5835.00    0.85993   0.73236    0.000
 5836.00    0.85018   0.72968    0.000
 5837.00    0.79924   0.72607    0.000
 5838.00    0.74693   0.72204    0.000
 5839.00    0.67442   0.71792    0.000
 5840.00    0.60511   0.71390    0.000
 5841.00    0.63737   0.70979    0.000
 5842.00    0.66907   0.70501    0.000
 5843.00    0.69240   0.69952    0.000
 5844.00    0.71397   0.69453    0.000
 5845.00    0.71854   0.69078    0.000
 5846.00    0.72278   0.68729    0.000
 5847.00    0.72477   0.68345    0.000
 5848.00    0.73199   0.68074    0.000
 5849.00    0.76745   0.68085    0.000
 5850.00    0.79836   0.68301    0.000
 5851.00    0.80954   0.68550    0.000
 5852.00    0.80583   0.68775    0.000
 5853.00    0.74893   0.69053    0.000
 5854.00    0.70652   0.69426    0.000
 5855.00    0.70753   0.69780    0.000
 5856.00    0.71236   0.70016    0.000
 5857.00    0.72692   0.70175    0.000
 5858.00    0.73626   0.70397    0.000
 5859.00    0.73413   0.70677    0.000
 5860.00    0.72708   0.70915    0.000
 5861.00    0.71067   0.71074    0.000
 5862.00    0.68186   0.71178    0.000
 5863.00    0.63245   0.71233    0.000
 5864.00    0.61544   0.71227    0.000
 5865.00    0.64563   0.71148    0.000
 5866.00    0.68457   0.70956    0.000
 5867.00    0.73472   0.70677    0.000
 5868.00    0.76510   0.70378    0.000
 5869.00    0.77319   0.70054    0.000
 5870.00    0.77761   0.69657    0.000
 5871.00    0.77839   0.69235    0.000
 5872.00    0.79680   0.68849    0.000
 5873.00    0.83068   0.68392    0.000
 5874.00    0.83484   0.67695    0.000
 5875.00    0.81603   0.66692    0.000
 5876.00    0.81712   0.65432    0.000
 5877.00    0.83173   0.63969    0.000
 5878.00    0.79601   0.62270    0.000
 5879.00    0.73029   0.60324    0.000
 5880.00    0.68914   0.58404    0.000
 5881.00    0.66078   0.56967    0.000
 5882.00    0.67547   0.56167    0.000
 5883.00    0.70958   0.55802    0.000
 5884.00    0.75438   0.55731    0.000
 5885.00    0.80332   0.55955    0.000
 5886.00    0.78094   0.56486    0.000
 5887.00    0.73503   0.57431    0.000
 5888.00    0.68394   0.58814    0.000
 5889.00    0.63142   0.60312    0.000
 5890.00    0.65012   0.61713    0.000
 5891.00    0.68502   0.63182    0.000
 5892.00    0.64972   0.64726    0.000
 5893.00    0.60166   0.66011    0.000
 5894.00    0.57780   0.66929    0.000
 5895.00    0.55732   0.67601    0.000
 5896.00    0.59201   0.68070    0.000
 5897.00    0.63225   0.68391    0.000
 5898.00    0.69860   0.68648    0.000
 5899.00    0.76662   0.68811    0.000
 5900.00    0.75743   0.68826    0.000
 5901.00    0.74595   0.68775    0.010
 5902.00    0.72310   0.68714    0.010
 5903.00    0.70053   0.68569    0.010
 5904.00    0.68596   0.68310    0.010
 5905.00    0.67217   0.68071    0.010
 5906.00    0.66952   0.67977    0.010
 5907.00    0.66616   0.67994    0.010
 5908.00    0.65617   0.68071    0.010
 5909.00    0.64761   0.68210    0.010
 5910.00    0.64866   0.68431    0.010
 5911.00    0.64682   0.68679    0.010
 5912.00    0.62968   0.68872    0.010
 5913.00    0.61341   0.68997    0.010
 5914.00    0.60084   0.69088    0.010
 5915.00    0.58943   0.69136    0.010
 5916.00    0.58212   0.69096    0.010
 5917.00    0.57119   0.69002    0.010
 5918.00    0.54965   0.68897    0.010
 5919.00    0.53947   0.68766    0.010
 5920.00    0.55780   0.68596    0.010
 5921.00    0.58313   0.68460    0.010
 5922.00    0.62362   0.68457    0.010
 5923.00    0.64492   0.68522    0.010
 5924.00    0.63025   0.68537    0.010
 5925.00    0.62187   0.68537    0.010
 5926.00    0.62377   0.68655    0.009
 5927.00    0.62896   0.68830    0.009
 5928.00    0.63888   0.68911    0.010
 5929.00    0.65009   0.68936    0.010
 5930.00    0.66294   0.68988    0.010
 5931.00    0.67311   0.69003    0.010
 5932.00    0.68029   0.68953    0.010
 5933.00    0.67019   0.68942    0.010
 5934.00    0.64315   0.68965    0.010
 5935.00    0.64436   0.68934    0.010
 5936.00    0.67003   0.68876    0.010
 5937.00    0.69584   0.68844    0.010
 5938.00    0.72177   0.68751    0.010
 5939.00    0.73217   0.68527    0.010
 5940.00    0.73217   0.68310    0.010
 5941.00    0.72515   0.68236    0.010
 5942.00    0.71402   0.68169    0.010
 5943.00    0.69663   0.67972    0.010
 5944.00    0.67604   0.67824    0.010
 5945.00    0.64461   0.67895    0.010
 5946.00    0.60837   0.68016    0.010
 5947.00    0.60509   0.68043    0.010
 5948.00    0.61437   0.68124    0.010
 5949.00    0.62437   0.68373    0.010
 5950.00    0.63459   0.68682    0.010
 5951.00    0.59267   0.68952    0.010
 5952.00    0.53663   0.69186    0.010
 5953.00    0.53759   0.69394    0.010
 5954.00    0.55120   0.69574    0.009
 5955.00    0.56920   0.69706    0.009
 5956.00    0.58798   0.69764    0.009
 5957.00    0.60228   0.69811    0.009
 5958.00    0.61596   0.69928    0.009
 5959.00    0.62603   0.70042    0.009
 5960.00    0.63575   0.70100    0.010
 5961.00    0.63381   0.70128    0.010
 5962.00    0.63117   0.70097    0.010
 5963.00    0.62122   0.69945    0.010
 5964.00    0.61107   0.69707    0.010
 5965.00    0.60063   0.69416    0.010
 5966.00    0.59044   0.69071    0.010
 5967.00    0.58642   0.68730    0.010
 5968.00    0.58429   0.68474    0.010
 5969.00    0.60769   0.68290    0.010
 5970.00    0.63033   0.68123    0.010
 5971.00    0.64613   0.67977    0.010
 5972.00    0.65775   0.67856    0.010
 5973.00    0.64181   0.67734    0.010
 5974.00    0.63549   0.67549    0.010
 5975.00    0.67848   0.67372    0.010
 5976.00    0.71163   0.67376    0.010
 5977.00    0.70407   0.67522    0.010
 5978.00    0.69542   0.67638    0.010
 5979.00    0.68299   0.67790    0.010
 5980.00    0.67659   0.68081    0.010
 5981.00    0.68757   0.68377    0.010
 5982.00    0.69458   0.68532    0.010
 5983.00    0.69180   0.68627    0.010
 5984.00    0.68824   0.68737    0.010
 5985.00    0.68303   0.68768    0.010
 5986.00    0.68638   0.68682    0.010
 5987.00    0.70552   0.68535    0.009
 5988.00    0.71931   0.68367    0.009
 5989.00    0.72448   0.68177    0.009
 5990.00    0.72672   0.68007    0.009
 5991.00    0.72480   0.67893    0.009
 5992.00    0.72159   0.67782    0.009
 5993.00    0.71679   0.67604    0.009
 5994.00    0.70874   0.67395    0.009
 5995.00    0.69711   0.67229    0.009
 5996.00    0.68764   0.67103    0.009
 5997.00    0.68027   0.66977    0.009
 5998.00    0.68039   0.66832    0.010
 5999.00    0.68690   0.66696    0.010
 6000.00    0.68669   0.66684    0.010
 6001.00    0.68143   0.66805    0.010
 6002.00    0.66816   0.66884    0.010
 6003.00    0.64961   0.66808    0.010
 6004.00    0.61062   0.66707    0.010
 6005.00    0.55981   0.66716    0.010
 6006.00    0.56586   0.66704    0.010
 6007.00    0.60056   0.66529    0.010
 6008.00    0.63498   0.66357    0.010
 6009.00    0.66929   0.66333    0.010
 6010.00    0.69355   0.66326    0.010
 6011.00    0.71406   0.66254    0.010
 6012.00    0.70923   0.66300    0.010
 6013.00    0.69636   0.66504    0.010
 6014.00    0.65964   0.66722    0.010
 6015.00    0.61659   0.66954    0.010
 6016.00    0.60469   0.67313    0.010
 6017.00    0.59954   0.67706    0.009
 6018.00    0.62512   0.68016    0.010
 6019.00    0.65600   0.68335    0.010
 6020.00    0.66984   0.68697    0.010
 6021.00    0.68147   0.68982    0.010
 6022.00    0.66593   0.69167    0.009
 6023.00    0.64789   0.69352    0.009
 6024.00    0.64635   0.69526    0.009
 6025.00    0.64574   0.69618    0.010
 6026.00    0.64372   0.69637    0.009
 6027.00    0.64182   0.69634    0.009
 6028.00    0.65542   0.69615    0.010
 6029.00    0.66842   0.69562    0.010
 6030.00    0.66736   0.69499    0.010
 6031.00    0.66485   0.69471    0.010
 6032.00    0.64376   0.69481    0.010
 6033.00    0.62567   0.69520    0.010
 6034.00    0.63342   0.69615    0.010
 6035.00    0.64339   0.69751    0.010
 6036.00    0.66752   0.69860    0.010
 6037.00    0.69012   0.69940    0.010
 6038.00    0.70512   0.70012    0.010
 6039.00    0.71659   0.70015    0.010
 6040.00    0.71379   0.69913    0.010
 6041.00    0.71704   0.69771    0.010
 6042.00    0.74059   0.69603    0.010
 6043.00    0.75318   0.69360    0.010
 6044.00    0.73474   0.69076    0.009
 6045.00    0.71533   0.68849    0.009
 6046.00    0.69357   0.68691    0.010
 6047.00    0.68132   0.68556    0.010
 6048.00    0.68894   0.68460    0.010
 6049.00    0.70003   0.68418    0.009
 6050.00    0.71742   0.68394    0.009
 6051.00    0.72696   0.68333    0.009
 6052.00    0.72402   0.68202    0.009
 6053.00    0.70202   0.68044    0.009
 6054.00    0.65344   0.67962    0.009
 6055.00    0.63338   0.67968    0.009
 6056.00    0.64832   0.68005    0.009
 6057.00    0.66237   0.68170    0.009
 6058.00    0.67547   0.68545    0.010
 6059.00    0.68477   0.68988    0.010
 6060.00    0.69045   0.69356    0.010
 6061.00    0.72422   0.69663    0.010
 6062.00    0.78163   0.69913    0.010
 6063.00    0.78669   0.70033    0.010
 6064.00    0.75297   0.69989    0.010
 6065.00    0.70165   0.69790    0.010
 6066.00    0.63888   0.69472    0.010
 6067.00    0.62738   0.69108    0.010
 6068.00    0.64507   0.68716    0.010
 6069.00    0.66754   0.68250    0.010
 6070.00    0.69236   0.67805    0.010
 6071.00    0.71240   0.67521    0.010
 6072.00    0.73040   0.67314    0.010
 6073.00    0.72094   0.67078    0.009
 6074.00    0.70139   0.66936    0.009
 6075.00    0.67882   0.66955    0.009
 6076.00    0.65531   0.66969    0.009
 6077.00    0.64283   0.66904    0.009
 6078.00    0.63321   0.66874    0.009
 6079.00    0.64322   0.66916    0.009
 6080.00    0.65739   0.66914    0.009
 6081.00    0.67658   0.66853    0.009
 6082.00    0.69662   0.66879    0.009
 6083.00    0.70934   0.67017    0.009
 6084.00    0.72114   0.67132    0.009
 6085.00    0.72116   0.67215    0.010
 6086.00    0.72016   0.67336    0.010
 6087.00    0.71400   0.67421    0.010
 6088.00    0.70758   0.67363    0.010
 6089.00    0.69012   0.67146    0.010
 6090.00    0.67244   0.66804    0.010
 6091.00    0.65408   0.66465    0.010
 6092.00    0.63719   0.66217    0.010
 6093.00    0.65154   0.65956    0.010
 6094.00    0.66399   0.65735    0.010
 6095.00    0.65349   0.65798    0.010
 6096.00    0.64503   0.66116    0.010
 6097.00    0.65353   0.66456    0.010
 6098.00    0.66133   0.66747    0.010
 6099.00    0.66471   0.67036    0.010
 6100.00    0.66276   0.67338    0.010
 6101.00    0.63482   0.67614    0.010
 6102.00    0.61721   0.67768    0.009
 6103.00    0.64051   0.67788    0.009
 6104.00    0.65464   0.67774    0.009
 6105.00    0.63859   0.67756    0.009
 6106.00    0.62049   0.67625    0.009
 6107.00    0.59670   0.67322    0.009
 6108.00    0.58119   0.66945    0.009
 6109.00    0.58545   0.66550    0.009
 6110.00    0.59104   0.66109    0.009
 6111.00    0.59937   0.65723    0.009
 6112.00    0.60956   0.65474    0.009
 6113.00    0.62308   0.65282    0.009
 6114.00    0.64872   0.65217    0.009
 6115.00    0.69333   0.65385    0.009
 6116.00    0.71800   0.65621    0.009
 6117.00    0.71527   0.65794    0.010
 6118.00    0.70765   0.66001    0.010
 6119.00    0.69412   0.66208    0.010
 6120.00    0.68212   0.66281    0.010
 6121.00    0.67175   0.66236    0.010
 6122.00    0.68031   0.66091    0.010
 6123.00    0.70669   0.65763    0.010
 6124.00    0.71558   0.65209    0.010
 6125.00    0.70998   0.64552    0.010
 6126.00    0.70173   0.64013    0.010
 6127.00    0.69155   0.63645    0.010
 6128.00    0.67891   0.63352    0.009
 6129.00    0.66468   0.63231    0.009
 6130.00    0.64847   0.63519    0.009
 6131.00    0.63115   0.64114    0.009
 6132.00    0.61873   0.64649    0.009
 6133.00    0.60871   0.65065    0.009
 6134.00    0.61340   0.65537    0.009
 6135.00    0.62430   0.66000    0.009
 6136.00    0.64147   0.66225    0.009
 6137.00    0.66090   0.66246    0.010
 6138.00    0.67327   0.66215    0.009
 6139.00    0.68347   0.66143    0.009
 6140.00    0.69346   0.66019    0.009
 6141.00    0.70340   0.65887    0.010
 6142.00    0.72682   0.65731    0.010
 6143.00    0.75303   0.65579    0.010
 6144.00    0.76576   0.65453    0.010
 6145.00    0.77631   0.65221    0.010
 6146.00    0.76335   0.64803    0.010
 6147.00    0.74754   0.64319    0.010
 6148.00    0.73193   0.63748    0.010
 6149.00    0.71633   0.62930    0.009
 6150.00    0.69259   0.62017    0.010
 6151.00    0.66846   0.61288    0.010
 6152.00    0.63548   0.60702    0.010
 6153.00    0.60209   0.60166    0.010
 6154.00    0.55262   0.59861    0.009
 6155.00    0.50559   0.59971    0.009
 6156.00    0.50641   0.60256    0.009
 6157.00    0.51002   0.60420    0.009
 6158.00    0.54583   0.60617    0.010
 6159.00    0.57607   0.61050    0.010
 6160.00    0.56176   0.61431    0.010
 6161.00    0.55308   0.61575    0.009
 6162.00    0.57832   0.61842    0.009
 6163.00    0.60777   0.62343    0.009
 6164.00    0.65722   0.62734    0.009
 6165.00    0.69773   0.62977    0.009
 6166.00    0.70362   0.63340    0.009
 6167.00    0.70820   0.63726    0.009
 6168.00    0.70860   0.63939    0.009
 6169.00    0.69533   0.64136    0.009
 6170.00    0.64473   0.64406    0.009
 6171.00    0.59083   0.64559    0.009
 6172.00    0.52924   0.64574    0.009
 6173.00    0.49617   0.64586    0.010
 6174.00    0.52088   0.64498    0.010
 6175.00    0.54729   0.64212    0.010
 6176.00    0.57670   0.63846    0.009
 6177.00    0.58673   0.63490    0.009
 6178.00    0.56687   0.63056    0.009
 6179.00    0.55366   0.62533    0.009
 6180.00    0.54949   0.62166    0.009
 6181.00    0.56471   0.62091    0.009
 6182.00    0.60308   0.62099    0.009
 6183.00    0.63201   0.62102    0.009
 6184.00    0.65103   0.62346    0.009
 6185.00    0.65700   0.62819    0.009
 6186.00    0.65088   0.63179    0.009
 6187.00    0.65518   0.63365    0.009
 6188.00    0.66800   0.63545    0.009
 6189.00    0.67258   0.63758    0.009
 6190.00    0.67124   0.63904    0.009
 6191.00    0.64390   0.63958    0.009
 6192.00    0.60012   0.64048    0.009
 6193.00    0.58173   0.64254    0.009
 6194.00    0.57737   0.64477    0.009
 6195.00    0.65007   0.64612    0.010
 6196.00    0.75977   0.64678   -2.000
 6197.00    0.97817   0.64690   -2.000
 6198.00    1.24163   0.64582   -2.000
 6199.00    1.29711   0.64325   -2.000
 6200.00    1.27887   0.63957   -2.000
 6201.00    1.06076   0.63471   -2.000
 6202.00    0.78284   0.62888   -2.000
 6203.00    0.47960   0.62309   -2.000
 6204.00    0.17007   0.61783   -2.000
 6205.00    0.18843   0.61312   -2.000
 6206.00    0.27281   0.60964   -2.000
 6207.00    0.43637   0.60746   -2.000
 6208.00    0.61242   0.60636    0.010
 6209.00    0.66164   0.60678    0.010
 6210.00    0.69600   0.60813    0.010
 6211.00    0.69698   0.60919    0.010
 6212.00    0.69531   0.61031    0.010
 6213.00    0.67645   0.61214    0.009
 6214.00    0.65684   0.61378    0.009
 6215.00    0.65748   0.61407    0.009
 6216.00    0.65892   0.61327    0.009
 6217.00    0.68836   0.61206    0.009
 6218.00    0.71325   0.60971    0.009
 6219.00    0.65525   0.60670    0.009
 6220.00    0.59979   0.60489    0.009
 6221.00    0.57222   0.60377    0.009
 6222.00    0.54843   0.60303    0.009
 6223.00    0.55388   0.60429    0.009
 6224.00    0.56151   0.60716    0.009
 6225.00    0.58186   0.60931    0.009
 6226.00    0.59541   0.61101    0.009
 6227.00    0.57739   0.61201    0.009
 6228.00    0.55891   0.61088    0.010
 6229.00    0.53868   0.60849    0.010
 6230.00    0.52575   0.60593    0.010
 6231.00    0.53592   0.60244    0.010
 6232.00    0.55560   0.59885    0.010
 6233.00    0.60079   0.59730    0.009
 6234.00    0.64037   0.59654    0.009
 6235.00    0.66703   0.59566    0.009
 6236.00    0.67300   0.59676    0.009
 6237.00    0.63774   0.59892    0.009
 6238.00    0.60604   0.60008    0.009
 6239.00    0.58055   0.60098    0.009
 6240.00    0.56485   0.60134    0.009
 6241.00    0.56401   0.59979    0.009
 6242.00    0.57497   0.59710    0.009
 6243.00    0.60167   0.59395    0.009
 6244.00    0.62989   0.59009    0.009
 6245.00    0.65990   0.58666    0.009
 6246.00    0.66348   0.58443    0.009
 6247.00    0.63966   0.58362    0.009
 6248.00    0.62222   0.58465    0.009
 6249.00    0.61062   0.58708    0.009
 6250.00    0.60001   0.59025    0.009
 6251.00    0.59018   0.59507    0.009
 6252.00    0.58907   0.60100    0.009
 6253.00    0.59415   0.60530    0.009
 6254.00    0.58636   0.60858    0.009
 6255.00    0.57057   0.61242    0.009
 6256.00    0.56453   0.61514    0.010
 6257.00    0.56380   0.61582    0.010
 6258.00    0.60484   0.61666    0.010
 6259.00    0.66560   0.61821    0.010
 6260.00    0.77935   0.61915    0.010
 6261.00    0.91469   0.61970    0.011
 6262.00    0.90884   0.62060    0.012
 6263.00    0.85385   0.62154    0.012
 6264.00    0.77162   0.62219    0.012
 6265.00    0.68141   0.62224    0.012
 6266.00    0.60798   0.62165    0.011
 6267.00    0.53862   0.62082    0.010
 6268.00    0.53306   0.61968    0.010
 6269.00    0.54002   0.61823    0.009
 6270.00    0.55058   0.61730    0.009
 6271.00    0.56169   0.61716    0.009
 6272.00    0.56666   0.61754    0.009
 6273.00    0.57093   0.61888    0.009
 6274.00    0.56594   0.62107    0.009
 6275.00    0.56025   0.62357    0.009
 6276.00    0.58210   0.62617    0.009
 6277.00    0.60506   0.62831    0.009
 6278.00    0.64325   0.62969    0.009
 6279.00    0.68019   0.63031    0.010
 6280.00    0.66172   0.63011    0.000
 6281.00    0.64279   0.62885    0.000
 6282.00    0.61595   0.62658    0.000
 6283.00    0.59225   0.62412    0.000
 6284.00    0.60144   0.62155    0.000
 6285.00    0.60719   0.61827    0.000
 6286.00    0.58719   0.61496    0.000
 6287.00    0.56902   0.61234    0.000
 6288.00    0.56117   0.61005    0.000
 6289.00    0.54986   0.60784    0.000
 6290.00    0.52287   0.60626    0.000
 6291.00    0.50149   0.60606    0.000
 6292.00    0.50089   0.60718    0.000
 6293.00    0.50427   0.60871    0.000
 6294.00    0.52000   0.61062    0.000
 6295.00    0.54422   0.61374    0.000
 6296.00    0.59082   0.61735    0.000
 6297.00    0.63185   0.61985    0.000
 6298.00    0.66030   0.62138    0.000
 6299.00    0.66773   0.62227    0.000
 6300.00    0.63395   0.62177    0.000
 6301.00    0.60351   0.62012    0.000
 6302.00    0.57879   0.61780    0.000
 6303.00    0.56963   0.61423    0.000
 6304.00    0.58379   0.61032    0.000
 6305.00    0.61135   0.60784    0.000
 6306.00    0.65655   0.60541    0.000
 6307.00    0.66502   0.60244    0.000
 6308.00    0.63091   0.60185    0.000
 6309.00    0.59884   0.60353    0.000
 6310.00    0.56886   0.60492    0.000
 6311.00    0.56949   0.60696    0.000
 6312.00    0.59773   0.61095    0.000
 6313.00    0.61384   0.61525    0.000
 6314.00    0.62032   0.61857    0.000
 6315.00    0.62120   0.62161    0.000
 6316.00    0.61816   0.62441    0.000
 6317.00    0.62270   0.62650    0.000
 6318.00    0.63188   0.62775    0.000
 6319.00    0.65008   0.62779    0.000
 6320.00    0.67310   0.62715    0.000
 6321.00    0.66677   0.62623    0.009
 6322.00    0.64679   0.62456    0.009
 6323.00    0.62284   0.62198    0.009
 6324.00    0.59731   0.61877    0.009
 6325.00    0.58774   0.61602    0.009
 6326.00    0.58363   0.61432    0.009
 6327.00    0.58933   0.61276    0.009
 6328.00    0.59786   0.61140    0.009
 6329.00    0.59293   0.61168    0.009
 6330.00    0.58482   0.61287    0.009
 6331.00    0.57848   0.61324    0.009
 6332.00    0.57247   0.61325    0.009
 6333.00    0.58531   0.61382    0.009
 6334.00    0.60095   0.61480    0.009
 6335.00    0.58711   0.61543    0.009
 6336.00    0.57009   0.61602    0.009
 6337.00    0.58383   0.61772    0.009
 6338.00    0.59977   0.61981    0.009
 6339.00    0.61663   0.62099    0.009
 6340.00    0.63353   0.62165    0.009
 6341.00    0.58781   0.62215    0.009
 6342.00    0.54307   0.62149    0.009
 6343.00    0.54071   0.61897    0.009
 6344.00    0.53863   0.61555    0.009
 6345.00    0.54080   0.61229    0.009
 6346.00    0.53950   0.60826    0.009
 6347.00    0.50334   0.60296    0.009
 6348.00    0.47394   0.59837    0.009
 6349.00    0.49335   0.59528    0.009
 6350.00    0.51669   0.59220    0.009
 6351.00    0.56174   0.58962    0.009
 6352.00    0.60060   0.58935    0.009
 6353.00    0.61212   0.59094    0.009
 6354.00    0.61633   0.59324    0.009
 6355.00    0.59394   0.59649    0.009
 6356.00    0.58466   0.60098    0.009
 6357.00    0.61526   0.60606    0.009
 6358.00    0.64622   0.61070    0.009
 6359.00    0.67811   0.61470    0.009
 6360.00    0.68475   0.61853    0.009
 6361.00    0.63514   0.62217    0.009
 6362.00    0.60436   0.62497    0.009
 6363.00    0.60994   0.62664    0.009
 6364.00    0.63063   0.62778    0.009
 6365.00    0.67676   0.62864    0.009
 6366.00    0.69532   0.62857    0.009
 6367.00    0.67317   0.62738    0.009
 6368.00    0.63208   0.62629    0.009
 6369.00    0.56639   0.62540    0.009
 6370.00    0.54004   0.62403    0.009
 6371.00    0.55866   0.62319    0.009
 6372.00    0.58824   0.62318    0.009
 6373.00    0.62886   0.62306    0.009
 6374.00    0.66206   0.62313    0.009
 6375.00    0.68866   0.62395    0.009
 6376.00    0.67645   0.62453    0.009
 6377.00    0.63383   0.62433    0.009
 6378.00    0.59895   0.62378    0.009
 6379.00    0.56940   0.62271    0.009
 6380.00    0.56400   0.62113    0.009
 6381.00    0.57319   0.61894    0.009
 6382.00    0.57062   0.61601    0.009
 6383.00    0.56186   0.61398    0.009
 6384.00    0.54505   0.61327    0.009
 6385.00    0.52455   0.61199    0.009
 6386.00    0.53854   0.61078    0.009
 6387.00    0.56612   0.61136    0.009
 6388.00    0.58917   0.61162    0.009
 6389.00    0.61072   0.61055    0.009
 6390.00    0.60151   0.61148    0.009
 6391.00    0.58365   0.61382    0.009
 6392.00    0.56804   0.61469    0.009
 6393.00    0.55294   0.61550    0.009
 6394.00    0.54649   0.61734    0.009
 6395.00    0.54164   0.61849    0.009
 6396.00    0.53195   0.61783    0.009
 6397.00    0.52157   0.61650    0.009
 6398.00    0.53238   0.61599    0.009
 6399.00    0.54539   0.61525    0.009
 6400.00    0.53863   0.61309    0.009
 6401.00    0.53054   0.61183    0.009
 6402.00    0.52142   0.61234    0.009
 6403.00    0.51227   0.61210    0.009
 6404.00    0.50374   0.61138    0.009
 6405.00    0.49643   0.61181    0.009
 6406.00    0.52718   0.61190    0.009
 6407.00    0.55744   0.61104    0.009
 6408.00    0.58024   0.61066    0.009
 6409.00    0.60230   0.61055    0.009
 6410.00    0.61724   0.61031    0.009
 6411.00    0.62988   0.61128    0.009
 6412.00    0.62638   0.61351    0.009
 6413.00    0.62781   0.61554    0.009
 6414.00    0.65576   0.61758    0.009
 6415.00    0.66960   0.61994    0.009
 6416.00    0.62247   0.62127    0.009
 6417.00    0.57823   0.62106    0.009
 6418.00    0.54431   0.62033    0.009
 6419.00    0.52038   0.61877    0.009
 6420.00    0.52633   0.61647    0.009
 6421.00    0.53101   0.61489    0.009
 6422.00    0.53245   0.61408    0.009
 6423.00    0.52568   0.61346    0.009
 6424.00    0.50094   0.61319    0.009
 6425.00    0.49223   0.61356    0.009
 6426.00    0.51400   0.61447    0.009
 6427.00    0.53951   0.61498    0.009
 6428.00    0.57127   0.61519    0.009
 6429.00    0.58958   0.61672    0.010
 6430.00    0.58836   0.61911    0.010
 6431.00    0.58339   0.62087    0.010
 6432.00    0.57362   0.62269    0.009
 6433.00    0.57324   0.62500    0.009
 6434.00    0.58342   0.62599    0.009
 6435.00    0.56983   0.62470    0.009
 6436.00    0.53262   0.62239    0.009
 6437.00    0.54155   0.61960    0.009
 6438.00    0.59091   0.61524    0.009
 6439.00    0.65171   0.61045    0.009
 6440.00    0.72136   0.60760    0.009
 6441.00    0.74722   0.60581    0.009
 6442.00    0.74337   0.60438    0.009
 6443.00    0.71160   0.60503    0.009
 6444.00    0.66322   0.60707    0.009
 6445.00    0.62817   0.60859    0.009
 6446.00    0.60005   0.61054    0.009
 6447.00    0.59241   0.61283    0.009
 6448.00    0.59398   0.61336    0.009
 6449.00    0.59838   0.61330    0.009
 6450.00    0.60388   0.61389    0.009
 6451.00    0.58051   0.61307    0.009
 6452.00    0.54766   0.61155    0.009
 6453.00    0.50593   0.61178    0.009
 6454.00    0.46176   0.61249    0.009
 6455.00    0.46619   0.61255    0.009
 6456.00    0.48164   0.61377    0.009
 6457.00    0.49091   0.61569    0.009
 6458.00    0.49906   0.61651    0.009
 6459.00    0.51645   0.61723    0.009
 6460.00    0.53513   0.61783    0.009
 6461.00    0.54031   0.61745    0.009
 6462.00    0.54414   0.61731    0.009
 6463.00    0.52044   0.61764    0.009
 6464.00    0.49502   0.61707    0.009
 6465.00    0.52914   0.61655    0.009
 6466.00    0.56490   0.61686    0.009
 6467.00    0.57357   0.61612    0.009
 6468.00    0.58072   0.61419    0.009
 6469.00    0.54539   0.61285    0.009
 6470.00    0.51422   0.61148    0.009
 6471.00    0.54177   0.60914    0.009
 6472.00    0.56587   0.60731    0.009
 6473.00    0.55803   0.60668    0.009
 6474.00    0.54346   0.60618    0.009
 6475.00    0.48337   0.60561    0.009
 6476.00    0.43688   0.60519    0.009
 6477.00    0.46166   0.60415    0.009
 6478.00    0.49113   0.60179    0.009
 6479.00    0.54034   0.59758    0.009
 6480.00    0.57898   0.59120    0.009
 6481.00    0.58072   0.58370    0.009
 6482.00    0.58451   0.57555    0.009
 6483.00    0.59432   0.56672    0.009
 6484.00    0.60905   0.55898    0.009
 6485.00    0.63608   0.55379    0.009
 6486.00    0.64712   0.55111    0.009
 6487.00    0.62371   0.55121    0.009
 6488.00    0.59999   0.55439    0.009
 6489.00    0.57573   0.55996    0.009
 6490.00    0.55223   0.56718    0.009
 6491.00    0.52998   0.57511    0.009
 6492.00    0.52607   0.58264    0.009
 6493.00    0.54844   0.58974    0.009
 6494.00    0.57048   0.59581    0.009
 6495.00    0.59212   0.60031    0.009
 6496.00    0.60877   0.60383    0.009
 6497.00    0.61990   0.60624    0.009
 6498.00    0.62914   0.60740    0.009
 6499.00    0.63654   0.60811    0.009
 6500.00    0.62667   0.60838    0.009
 6501.00    0.60189   0.60764    0.009
 6502.00    0.58331   0.60643    0.009
 6503.00    0.56945   0.60539    0.009
 6504.00    0.59464   0.60381    0.009
 6505.00    0.64598   0.60172    0.009
 6506.00    0.66140   0.60045    0.009
 6507.00    0.65579   0.59985    0.009
 6508.00    0.62075   0.59924    0.009
 6509.00    0.57068   0.59954    0.009
 6510.00    0.53882   0.60092    0.009
 6511.00    0.51503   0.60223    0.009
 6512.00    0.51449   0.60331    0.009
 6513.00    0.52279   0.60446    0.009
 6514.00    0.50932   0.60524    0.009
 6515.00    0.48882   0.60538    0.009
 6516.00    0.50026   0.60487    0.009
 6517.00    0.52033   0.60428    0.009
 6518.00    0.53889   0.60388    0.009
 6519.00    0.55712   0.60317    0.009
 6520.00    0.56550   0.60245    0.009
 6521.00    0.57214   0.60233    0.009
 6522.00    0.59235   0.60245    0.009
 6523.00    0.61438   0.60260    0.009
 6524.00    0.58649   0.60311    0.009
 6525.00    0.55382   0.60396    0.009
 6526.00    0.54012   0.60470    0.009
 6527.00    0.52754   0.60516    0.009
 6528.00    0.53147   0.60548    0.000
 6529.00    0.53589   0.60523    0.000
 6530.00    0.55092   0.60400    0.000
 6531.00    0.56570   0.60202    0.000
 6532.00    0.57398   0.59941    0.000
 6533.00    0.58317   0.59625    0.000
 6534.00    0.60463   0.59300    0.000
 6535.00    0.62424   0.58965    0.000
 6536.00    0.62735   0.58638    0.000
 6537.00    0.62647   0.58398    0.000
 6538.00    0.59935   0.58188    0.000
 6539.00    0.57711   0.57943    0.000
 6540.00    0.57985   0.57717    0.000
 6541.00    0.59153   0.57460    0.000
 6542.00    0.64009   0.57117    0.000
 6543.00    0.70137   0.56712    0.000
 6544.00    0.80610   0.56212    0.000
 6545.00    0.89753   0.55580    0.000
 6546.00    0.95063   0.54848    0.000
 6547.00    0.97099   0.54042    0.000
 6548.00    0.91081   0.53064    0.000
 6549.00    0.83016   0.51940    0.000
 6550.00    0.70612   0.50973    0.000
 6551.00    0.62359   0.50205    0.000
 6552.00    0.61752   0.49484    0.000
 6553.00    0.63918   0.49216    0.000
 6554.00    0.70549   0.49630    0.000
 6555.00    0.88748   0.50187    0.000
 6556.00    1.23285   0.50896    0.000
 6557.00    1.73625   0.52049    0.000
 6558.00    2.43603   0.53138    0.000
 6559.00    3.00559   0.53897    0.000
 6560.00    3.43252   0.54604    0.000
 6561.00    3.49870   0.55182    0.000
 6562.00    3.21639   0.55524    0.000
 6563.00    2.72803   0.55838    0.000
 6564.00    2.06413   0.56167    0.000
 6565.00    1.51800   0.56455    0.000
 6566.00    1.06023   0.56781    0.000
 6567.00    0.78932   0.57113    0.000
 6568.00    0.64157   0.57402    0.000
 6569.00    0.56327   0.57694    0.000
 6570.00    0.52505   0.57926    0.000
 6571.00    0.49927   0.58083    0.000
 6572.00    0.47975   0.58234    0.000
 6573.00    0.46846   0.58343    0.000
 6574.00    0.46076   0.58413    0.000
 6575.00    0.53324   0.58481    0.000
 6576.00    0.63564   0.58483    0.000
 6577.00    0.84166   0.58443    0.000
 6578.00    1.08047   0.58364    0.000
 6579.00    1.29821   0.58147    0.000
 6580.00    1.51036   0.57891    0.000
 6581.00    1.57915   0.57680    0.000
 6582.00    1.61694   0.57415    0.000
 6583.00    1.42978   0.57171    0.000
 6584.00    1.20402   0.57121    0.000
 6585.00    0.97064   0.57174    0.000
 6586.00    0.73625   0.57250    0.000
 6587.00    0.63561   0.57466    0.000
 6588.00    0.54719   0.57749    0.000
 6589.00    0.55976   0.57976    0.000
 6590.00    0.57791   0.58185    0.000
 6591.00    0.59906   0.58328    0.000
 6592.00    0.62008   0.58359    0.000
 6593.00    0.62199   0.58329    0.000
 6594.00    0.62378   0.58231    0.000
 6595.00    0.62280   0.58064    0.000
 6596.00    0.62133   0.57898    0.000
 6597.00    0.61362   0.57792    0.000
 6598.00    0.60232   0.57736    0.000
 6599.00    0.56027   0.57729    0.000
 6600.00    0.52212   0.57834    0.000
 6601.00    0.50882   0.58033    0.000
 6602.00    0.50504   0.58241    0.000
 6603.00    0.54863   0.58448    0.000
 6604.00    0.58754   0.58670    0.000
 6605.00    0.60761   0.58894    0.000
 6606.00    0.62159   0.59046    0.000
 6607.00    0.61522   0.59121    0.000
 6608.00    0.60993   0.59180    0.000
 6609.00    0.60771   0.59192    0.009
 6610.00    0.60170   0.59116    0.009
 6611.00    0.58656   0.58980    0.009
 6612.00    0.55990   0.58825    0.009
 6613.00    0.50924   0.58659    0.009
 6614.00    0.48926   0.58441    0.009
 6615.00    0.52494   0.58234    0.009
 6616.00    0.55426   0.58097    0.009
 6617.00    0.57351   0.57927    0.009
 6618.00    0.57696   0.57745    0.009
 6619.00    0.55844   0.57612    0.009
 6620.00    0.54943   0.57444    0.009
 6621.00    0.55205   0.57277    0.009
 6622.00    0.52922   0.57180    0.009
 6623.00    0.47891   0.57085    0.009
 6624.00    0.46249   0.57038    0.009
 6625.00    0.47837   0.57113    0.009
 6626.00    0.49942   0.57201    0.009
 6627.00    0.52483   0.57273    0.009
 6628.00    0.53793   0.57407    0.009
 6629.00    0.54193   0.57496    0.009
 6630.00    0.54861   0.57478    0.009
 6631.00    0.55702   0.57508    0.009
 6632.00    0.54863   0.57542    0.009
 6633.00    0.53071   0.57459    0.009
 6634.00    0.52358   0.57425    0.009
 6635.00    0.52179   0.57499    0.009
 6636.00    0.51717   0.57529    0.009
 6637.00    0.51134   0.57540    0.009
 6638.00    0.50114   0.57607    0.009
 6639.00    0.48934   0.57678    0.009
 6640.00    0.47456   0.57701    0.009
 6641.00    0.45884   0.57702    0.009
 6642.00    0.47234   0.57713    0.009
 6643.00    0.49339   0.57695    0.009
 6644.00    0.51304   0.57635    0.009
 6645.00    0.53239   0.57588    0.009
 6646.00    0.52198   0.57506    0.009
 6647.00    0.50661   0.57353    0.009
 6648.00    0.48896   0.57214    0.009
 6649.00    0.47103   0.57047    0.009
 6650.00    0.47436   0.56793    0.009
 6651.00    0.47955   0.56590    0.009
 6652.00    0.48442   0.56450    0.009
 6653.00    0.48927   0.56268    0.009
 6654.00    0.48944   0.56182    0.009
 6655.00    0.48990   0.56240    0.009
 6656.00    0.51745   0.56309    0.009
 6657.00    0.54565   0.56432    0.009
 6658.00    0.58764   0.56633    0.009
 6659.00    0.62444   0.56821    0.009
 6660.00    0.59885   0.56979    0.009
 6661.00    0.56891   0.57080    0.009
 6662.00    0.50310   0.57097    0.009
 6663.00    0.44844   0.57059    0.009
 6664.00    0.46263   0.56905    0.009
 6665.00    0.47850   0.56657    0.009
 6666.00    0.50255   0.56479    0.009
 6667.00    0.52178   0.56300    0.009
 6668.00    0.52198   0.56084    0.009
 6669.00    0.51566   0.56050    0.009
 6670.00    0.48788   0.56135    0.009
 6671.00    0.47488   0.56196    0.009
 6672.00    0.50288   0.56349    0.009
 6673.00    0.52594   0.56572    0.009
 6674.00    0.53725   0.56738    0.009
 6675.00    0.53863   0.56868    0.009
 6676.00    0.51963   0.56994    0.009
 6677.00    0.51211   0.57073    0.009
 6678.00    0.52511   0.57091    0.009
 6679.00    0.53949   0.57084    0.009
 6680.00    0.55602   0.57044    0.009
 6681.00    0.57775   0.56966    0.009
 6682.00    0.60662   0.56854    0.009
 6683.00    0.60321   0.56704    0.009
 6684.00    0.56084   0.56574    0.009
 6685.00    0.52664   0.56447    0.009
 6686.00    0.50117   0.56311    0.009
 6687.00    0.49469   0.56251    0.009
 6688.00    0.50607   0.56222    0.009
 6689.00    0.52734   0.56197    0.009
 6690.00    0.55681   0.56216    0.009
 6691.00    0.57628   0.56224    0.009
 6692.00    0.58847   0.56219    0.009
 6693.00    0.57102   0.56224    0.009
 6694.00    0.53461   0.56185    0.009
 6695.00    0.50904   0.56144    0.009
 6696.00    0.48956   0.56128    0.000
 6697.00    0.50347   0.56052    0.000
 6698.00    0.53365   0.55959    0.000
 6699.00    0.56269   0.55882    0.000
 6700.00    0.59126   0.55719    0.000
 6701.00    0.58531   0.55508    0.000
 6702.00    0.56692   0.55311    0.000
 6703.00    0.56214   0.55075    0.000
 6704.00    0.56152   0.54827    0.000
 6705.00    0.57348   0.54640    0.000
 6706.00    0.58864   0.54535    0.000
 6707.00    0.60623   0.54486    0.000
 6708.00    0.62433   0.54515    0.000
 6709.00    0.65153   0.54648    0.000
 6710.00    0.68019   0.54828    0.000
 6711.00    0.76289   0.55015    0.000
 6712.00    0.85213   0.55207    0.000
 6713.00    0.95948   0.55380    0.000
 6714.00    1.06834   0.55530    0.000
 6715.00    1.05634   0.55643    0.000
 6716.00    1.03861   0.55718    0.000
 6717.00    0.92381   0.55795    0.000
 6718.00    0.80768   0.55864    0.000
 6719.00    0.69373   0.55900    0.000
 6720.00    0.58336   0.55929    0.000
 6721.00    0.54285   0.55948    0.000
 6722.00    0.50817   0.55931    0.000
 6723.00    0.54045   0.55887    0.000
 6724.00    0.58252   0.55822    0.000
 6725.00    0.70263   0.55730    0.000
 6726.00    0.82126   0.55619    0.000
 6727.00    0.93096   0.55498    0.000
 6728.00    1.01577   0.55383    0.000
 6729.00    0.98259   0.55268    0.000
 6730.00    0.93619   0.55153    0.000
 6731.00    0.83877   0.55072    0.000
 6732.00    0.74160   0.55004    0.000
 6733.00    0.64524   0.54914    0.000
 6734.00    0.56401   0.54843    0.000
 6735.00    0.52406   0.54792    0.000
 6736.00    0.49134   0.54712    0.000
 6737.00    0.47554   0.54624    0.000
 6738.00    0.46249   0.54585    0.000
 6739.00    0.45498   0.54562    0.000
 6740.00    0.46067   0.54530    0.000
 6741.00    0.48958   0.54582    0.000
 6742.00    0.52672   0.54697    0.000
 6743.00    0.57655   0.54799    0.000
 6744.00    0.60063   0.54976    0.000
 6745.00    0.58991   0.55201    0.000
 6746.00    0.58532   0.55387    0.000
 6747.00    0.58802   0.55583    0.000
 6748.00    0.58673   0.55771    0.000
 6749.00    0.58126   0.55882    0.000
 6750.00    0.56740   0.55949    0.000
 6751.00    0.54579   0.55966    0.000
 6752.00    0.53809   0.55903    0.000
 6753.00    0.54175   0.55799    0.010
 6754.00    0.53132   0.55659    0.010
 6755.00    0.51078   0.55482    0.011
 6756.00    0.50647   0.55331    0.011
 6757.00    0.51239   0.55203    0.010
 6758.00    0.50959   0.55095    0.010
 6759.00    0.50198   0.55072    0.010
 6760.00    0.55297   0.55123    0.010
 6761.00    0.63204   0.55203    0.011
 6762.00    0.66153   0.55343    0.011
 6763.00    0.67050   0.55535    0.011
 6764.00    0.66789   0.55707    0.011
 6765.00    0.66119   0.55849    0.011
 6766.00    0.62819   0.55969    0.011
 6767.00    0.58734   0.56012    0.011
 6768.00    0.60525   0.55962    0.011
 6769.00    0.63771   0.55855    0.011
 6770.00    0.65014   0.55675    0.011
 6771.00    0.65855   0.55435    0.011
 6772.00    0.58107   0.55203    0.010
 6773.00    0.49010   0.54984    0.010
 6774.00    0.46653   0.54792    0.010
 6775.00    0.45081   0.54689    0.010
 6776.00    0.41770   0.54651    0.010
 6777.00    0.38322   0.54642    0.010
 6778.00    0.46480   0.54693    0.010
 6779.00    0.55143   0.54767    0.010
 6780.00    0.58093   0.54802    0.010
 6781.00    0.60845   0.54831    0.010
 6782.00    0.57134   0.54866    0.010
 6783.00    0.53565   0.54862    0.010
 6784.00    0.52566   0.54854    0.010
 6785.00    0.52077   0.54885    0.010
 6786.00    0.57175   0.54913    0.010
 6787.00    0.62145   0.54952    0.010
 6788.00    0.66129   0.55018    0.010
 6789.00    0.69484   0.55077    0.010
 6790.00    0.69166   0.55129    0.010
 6791.00    0.67488   0.55158    0.010
 6792.00    0.59516   0.55168    0.010
 6793.00    0.53019   0.55173    0.010
 6794.00    0.52101   0.55131    0.010
 6795.00    0.52026   0.55088    0.010
 6796.00    0.54609   0.55069    0.010
 6797.00    0.57428   0.55006    0.010
 6798.00    0.60878   0.54959    0.010
 6799.00    0.64108   0.54950    0.010
 6800.00    0.66832   0.54909    0.010
 6801.00    0.66980   0.54888    0.010
 6802.00    0.62005   0.54894    0.010
 6803.00    0.55219   0.54886    0.010
 6804.00    0.45298   0.54905    0.009
 6805.00    0.38134   0.54934    0.009
 6806.00    0.35153   0.54964    0.009
 6807.00    0.35819   0.55021    0.009
 6808.00    0.41344   0.55075    0.009
 6809.00    0.48415   0.55131    0.010
 6810.00    0.57300   0.55197    0.010
 6811.00    0.62248   0.55250    0.010
 6812.00    0.63122   0.55288    0.011
 6813.00    0.60038   0.55309    0.011
 6814.00    0.53341   0.55306    0.011
 6815.00    0.51896   0.55277    0.011
 6816.00    0.54677   0.55227    0.010
 6817.00    0.59958   0.55183    0.010
 6818.00    0.67010   0.55137    0.010
 6819.00    0.67257   0.55098    0.010
 6820.00    0.63277   0.55084    0.010
 6821.00    0.59705   0.55067    0.009
 6822.00    0.56353   0.55041    0.010
 6823.00    0.53861   0.54992    0.009
 6824.00    0.51774   0.54889    0.009
 6825.00    0.47917   0.54746    0.009
 6826.00    0.43341   0.54550    0.009
 6827.00    0.43689   0.54307    0.010
 6828.00    0.45748   0.54068    0.010
 6829.00    0.51345   0.53846    0.010
 6830.00    0.57977   0.53670    0.010
 6831.00    0.57534   0.53582    0.010
 6832.00    0.55377   0.53580    0.010
 6833.00    0.53095   0.53663    0.010
 6834.00    0.50789   0.53810    0.010
 6835.00    0.53579   0.53993    0.010
 6836.00    0.57146   0.54181    0.010
 6837.00    0.62959   0.54329    0.010
 6838.00    0.69025   0.54435    0.011
 6839.00    0.64617   0.54474    0.011
 6840.00    0.59427   0.54431    0.011
 6841.00    0.51251   0.54352    0.010
 6842.00    0.42957   0.54210    0.010
 6843.00    0.42156   0.54020    0.009
 6844.00    0.41679   0.53868    0.009
 6845.00    0.52006   0.53703    0.009
 6846.00    0.61311   0.53537    0.009
 6847.00    0.53342   0.53465    0.009
 6848.00    0.46180   0.53421    0.009
 6849.00    0.47454   0.53382    0.009
 6850.00    0.48330   0.53421    0.010
 6851.00    0.46248   0.53490    0.010
 6852.00    0.45680   0.53536    0.010
 6853.00    0.53692   0.53589    0.010
 6854.00    0.60218   0.53648    0.010
 6855.00    0.60035   0.53664    0.010
 6856.00    0.59394   0.53642    0.010
 6857.00    0.57064   0.53621    0.010
 6858.00    0.54504   0.53597    0.010
 6859.00    0.51233   0.53556    0.010
 6860.00    0.49519   0.53532    0.010
 6861.00    0.51899   0.53551    0.009
 6862.00    0.53006   0.53582    0.009
 6863.00    0.51236   0.53617    0.009
 6864.00    0.50712   0.53683    0.009
 6865.00    0.52629   0.53757    0.009
 6866.00    0.53831   0.53804    0.009
 6867.00    0.53810   0.53835    0.010
 6868.00    0.54811   0.53854    0.010
 6869.00    0.57336   0.53853    0.010
 6870.00    0.57188   0.53827    0.010
 6871.00    0.53527   0.53806    0.010
 6872.00    0.52214   0.53830    0.010
 6873.00    0.53618   0.53871    0.010
 6874.00    0.54946   0.53933    0.010
 6875.00    0.56195   0.54071    0.010
 6876.00    0.56288   0.54231    0.010
 6877.00    0.55340   0.54373    0.010
 6878.00    0.51196   0.54535    0.010
 6879.00    0.44517   0.54688    0.010
 6880.00    0.43458   0.54779    0.010
 6881.00    0.46321   0.54836    0.009
 6882.00    0.50952   0.54878    0.009
 6883.00    0.56666   0.54874    0.009
 6884.00    0.55975   0.54843    0.009
 6885.00    0.51862   0.54818    0.009
 6886.00    0.52323   0.54796    0.009
 6887.00    0.54905   0.54778    0.009
 6888.00    0.52150   0.54771    0.009
 6889.00    0.47262   0.54793    0.009
 6890.00    0.43600   0.54828    0.009
 6891.00    0.40358   0.54864    0.009
 6892.00    0.43011   0.54922    0.009
 6893.00    0.47355   0.54976    0.010
 6894.00    0.56561   0.55021    0.010
 6895.00    0.66918   0.55068    0.010
 6896.00    0.66613   0.55070    0.010
 6897.00    0.64277   0.55054    0.010
 6898.00    0.63228   0.55019    0.010
 6899.00    0.62370   0.54906    0.010
 6900.00    0.58067   0.54791    0.010
 6901.00    0.53394   0.54670    0.010
 6902.00    0.53434   0.54492    0.010
 6903.00    0.53807   0.54375    0.010
 6904.00    0.50389   0.54301    0.009
 6905.00    0.46834   0.54212    0.009
 6906.00    0.51638   0.54213    0.009
 6907.00    0.56215   0.54252    0.009
 6908.00    0.52007   0.54270    0.009
 6909.00    0.48009   0.54311    0.009
 6910.00    0.47331   0.54329    0.009
 6911.00    0.47077   0.54310    0.009
 6912.00    0.51070   0.54266    0.010
 6913.00    0.54248   0.54201    0.010
 6914.00    0.51567   0.54137    0.010
 6915.00    0.49395   0.54083    0.010
 6916.00    0.50025   0.54054    0.010
 6917.00    0.51693   0.54053    0.010
 6918.00    0.57931   0.54062    0.010
 6919.00    0.62398   0.54096    0.010
 6920.00    0.60444   0.54143    0.010
 6921.00    0.57955   0.54159    0.010
 6922.00    0.53835   0.54197    0.010
 6923.00    0.51978   0.54256    0.009
 6924.00    0.55968   0.54278    0.009
 6925.00    0.57899   0.54322    0.010
 6926.00    0.55253   0.54383    0.010
 6927.00    0.53369   0.54398    0.010
 6928.00    0.52954   0.54408    0.010
 6929.00    0.52511   0.54398    0.010
 6930.00    0.52021   0.54323    0.010
 6931.00    0.54298   0.54246    0.010
 6932.00    0.60650   0.54162    0.010
 6933.00    0.63577   0.54025    0.010
 6934.00    0.62067   0.53947    0.010
 6935.00    0.60648   0.53911    0.010
 6936.00    0.59333   0.53829    0.010
 6937.00    0.56249   0.53819    0.010
 6938.00    0.51385   0.53848    0.010
 6939.00    0.48500   0.53805    0.010
 6940.00    0.47372   0.53806    0.010
 6941.00    0.45263   0.53843    0.010
 6942.00    0.42389   0.53826    0.010
 6943.00    0.43296   0.53856    0.009
 6944.00    0.46801   0.53942    0.009
 6945.00    0.50480   0.54011    0.009
 6946.00    0.54264   0.54109    0.009
 6947.00    0.50700   0.54243    0.009
 6948.00    0.43270   0.54353    0.009
 6949.00    0.41773   0.54467    0.009
 6950.00    0.42984   0.54576    0.010
 6951.00    0.46390   0.54645    0.010
 6952.00    0.50659   0.54723    0.010
 6953.00    0.54133   0.54779    0.010
 6954.00    0.57341   0.54791    0.010
 6955.00    0.58158   0.54830    0.010
 6956.00    0.58304   0.54846    0.010
 6957.00    0.54510   0.54812    0.010
 6958.00    0.49806   0.54790    0.010
 6959.00    0.46797   0.54709    0.010
 6960.00    0.44102   0.54570    0.010
 6961.00    0.47809   0.54422    0.010
 6962.00    0.52431   0.54183    0.010
 6963.00    0.55760   0.53886    0.010
 6964.00    0.58955   0.53606    0.010
 6965.00    0.56611   0.53330    0.010
 6966.00    0.53898   0.53052    0.010
 6967.00    0.54313   0.52872    0.010
 6968.00    0.54828   0.52860    0.010
 6969.00    0.51543   0.52911    0.010
 6970.00    0.48155   0.53044    0.010
 6971.00    0.41602   0.53333    0.010
 6972.00    0.35888   0.53626    0.010
 6973.00    0.42664   0.53878    0.010
 6974.00    0.48270   0.54133    0.010
 6975.00    0.42642   0.54320    0.010
 6976.00    0.38407   0.54432    0.010
 6977.00    0.43861   0.54496    0.010
 6978.00    0.47987   0.54528    0.010
 6979.00    0.44986   0.54539    0.010
 6980.00    0.43301   0.54529    0.010
 6981.00    0.47290   0.54518    0.010
 6982.00    0.50628   0.54498    0.010
 6983.00    0.51655   0.54461    0.010
 6984.00    0.53129   0.54405    0.010
 6985.00    0.55933   0.54310    0.010
 6986.00    0.57409   0.54199    0.010
 6987.00    0.55510   0.54072    0.010
 6988.00    0.52772   0.53922    0.010
 6989.00    0.48199   0.53794    0.010
 6990.00    0.45588   0.53673    0.010
 6991.00    0.46700   0.53556    0.010
 6992.00    0.46785   0.53488    0.010
 6993.00    0.45169   0.53457    0.010
 6994.00    0.45429   0.53442    0.010
 6995.00    0.48410   0.53443    0.010
 6996.00    0.52471   0.53462    0.010
 6997.00    0.57911   0.53503    0.010
 6998.00    0.61585   0.53527    0.010
 6999.00    0.63271   0.53508    0.010
 7000.00    0.62167   0.53482    0.010
 7001.00    0.58294   0.53415    0.010
 7002.00    0.52870   0.53300    0.010
 7003.00    0.46090   0.53199    0.010
 7004.00    0.44712   0.53091    0.010
 7005.00    0.47498   0.53019    0.010
 7006.00    0.49488   0.53020    0.010
 7007.00    0.50938   0.53013    0.010
 7008.00    0.49548   0.53047    0.010
 7009.00    0.46473   0.53157    0.010
 7010.00    0.44386   0.53218    0.010
 7011.00    0.42811   0.53240    0.010
 7012.00    0.43592   0.53283    0.010
 7013.00    0.45432   0.53314    0.010
 7014.00    0.47047   0.53330    0.011
 7015.00    0.48576   0.53364    0.011
 7016.00    0.50055   0.53434    0.011
 7017.00    0.51517   0.53527    0.011
 7018.00    0.44862   0.53610    0.010
 7019.00    0.35974   0.53697    0.010
 7020.00    0.39465   0.53769    0.010
 7021.00    0.45754   0.53815    0.010
 7022.00    0.47994   0.53851    0.010
 7023.00    0.49502   0.53850    0.010
 7024.00    0.55635   0.53865    0.010
 7025.00    0.62408   0.53913    0.010
 7026.00    0.64448   0.53943    0.010
 7027.00    0.66018   0.54051    0.010
 7028.00    0.60143   0.54234    0.010
 7029.00    0.53801   0.54388    0.010
 7030.00    0.47132   0.54589    0.011
 7031.00    0.40480   0.54848    0.011
 7032.00    0.40929   0.55037    0.011
 7033.00    0.41548   0.55174    0.011
 7034.00    0.46820   0.55307    0.011
 7035.00    0.51418   0.55354    0.011
 7036.00    0.46556   0.55302    0.011
 7037.00    0.42269   0.55203    0.011
 7038.00    0.43278   0.55008    0.011
 7039.00    0.44706   0.54728    0.011
 7040.00    0.48956   0.54384    0.011
 7041.00    0.51772   0.53977    0.010
 7042.00    0.47092   0.53569    0.010
 7043.00    0.44415   0.53153    0.010
 7044.00    0.50168   0.52759    0.010
 7045.00    0.55237   0.52441    0.010
 7046.00    0.57924   0.52162    0.010
 7047.00    0.59935   0.51939    0.011
 7048.00    0.59967   0.51768    0.011
 7049.00    0.60388   0.51629    0.011
 7050.00    0.61780   0.51528   -2.000
 7051.00    0.60341   0.51423   -2.000
 7052.00    0.52810   0.51345   -2.000
 7053.00    0.48128   0.51298   -2.000
 7054.00    0.48765   0.51218   -2.000
 7055.00    0.47604   0.51179   -2.000
 7056.00    0.43512   0.51192   -2.000
 7057.00    0.42192   0.51196   -2.000
 7058.00    0.44838   0.51270   -2.000
 7059.00    0.48066   0.51396   -2.000
 7060.00    0.52026   0.51527   -2.000
 7061.00    0.57061   0.51712   -2.000
 7062.00    0.63288   0.51894   -2.000
 7063.00    0.66227   0.52037   -2.000
 7064.00    0.65950   0.52175   -2.000
 7065.00    0.63906   0.52264   -2.000
 7066.00    0.60338   0.52289   -2.000
 7067.00    0.59777   0.52250   -2.000
 7068.00    0.61502   0.52138   -2.000
 7069.00    0.63590   0.51972   -2.000
 7070.00    0.65920   0.51708   -2.000
 7071.00    0.60318   0.51380   -2.000
 7072.00    0.50078   0.51039   -2.000
 7073.00    0.54039   0.50634   -2.000
 7074.00    0.65241   0.50251   -2.000
 7075.00    0.63988   0.49908   -2.000
 7076.00    0.57236   0.49565   -2.000
 7077.00    0.58975   0.49332   -2.000
 7078.00    0.63933   0.49137   -2.000
 7079.00    0.52913   0.48964   -2.000
 7080.00    0.36748   0.48916   -2.000
 7081.00    0.42045   0.48876   -2.000
 7082.00    0.53124   0.48867   -2.000
 7083.00    0.52406   0.48937   -2.000
 7084.00    0.49084   0.48999   -2.000
 7085.00    0.53876   0.49104   -2.000
 7086.00    0.60095   0.49230   -2.000
 7087.00    0.54852   0.49349   -2.000
 7088.00    0.48074   0.49478   -2.000
 7089.00    0.45972   0.49583   -2.000
 7090.00    0.44314   0.49679   -2.000
 7091.00    0.54229   0.49750   -2.000
 7092.00    0.64823   0.49791   -2.000
 7093.00    0.60353   0.49811   -2.000
 7094.00    0.55554   0.49794   -2.000
 7095.00    0.56505   0.49764   -2.000
 7096.00    0.57293   0.49715   -2.000
 7097.00    0.54001   0.49644   -2.000
 7098.00    0.50622   0.49575   -2.000
 7099.00    0.46072   0.49525   -2.000
 7100.00    0.42609   0.49492   -2.000
 7101.00    0.48776   0.49471   -2.000
 7102.00    0.54733   0.49481   -2.000
 7103.00    0.59321   0.49519   -2.000
 7104.00    0.61946   0.49570   -2.000
 7105.00    0.54579   0.49605   -2.000
 7106.00    0.49435   0.49629   -2.000
 7107.00    0.53437   0.49658   -2.000
 7108.00    0.55116   0.49628   -2.000
 7109.00    0.48874   0.49572   -2.000
 7110.00    0.46376   0.49509   -2.000
 7111.00    0.54635   0.49395   -2.000
 7112.00    0.57938   0.49276   -2.000
 7113.00    0.49079   0.49122   -2.000
 7114.00    0.45346   0.48953   -2.000
 7115.00    0.52460   0.48812   -2.000
 7116.00    0.55452   0.48632   -2.000
 7117.00    0.50861   0.48481   -2.000
 7118.00    0.52242   0.48394   -2.000
 7119.00    0.63218   0.48318   -2.000
 7120.00    0.67641   0.48314   -2.000
 7121.00    0.62827   0.48365   -2.000
 7122.00    0.61271   0.48445   -2.000
 7123.00    0.63758   0.48600   -2.000
 7124.00    0.61896   0.48752   -2.000
 7125.00    0.55279   0.48877   -2.000
 7126.00    0.50028   0.49022   -2.000
 7127.00    0.46094   0.49130   -2.000
 7128.00    0.48115   0.49188   -2.000
 7129.00    0.55198   0.49229   -2.000
 7130.00    0.55581   0.49221   -2.000
 7131.00    0.50945   0.49165   -2.000
 7132.00    0.47321   0.49122   -2.000
 7133.00    0.44364   0.49038   -2.000
 7134.00    0.38572   0.48902   -2.000
 7135.00    0.31145   0.48838   -2.000
 7136.00    0.33892   0.48781   -2.000
 7137.00    0.41744   0.48723   -2.000
 7138.00    0.45449   0.48761   -2.000
 7139.00    0.47355   0.48831   -2.000
 7140.00    0.48564   0.48954   -2.000
 7141.00    0.49514   0.49118   -2.000
 7142.00    0.49420   0.49259   -2.000
 7143.00    0.48996   0.49430   -2.000
 7144.00    0.48961   0.49566   -2.000
 7145.00    0.49028   0.49638   -2.000
 7146.00    0.50243   0.49672   -2.000
 7147.00    0.51706   0.49641   -2.000
 7148.00    0.44903   0.49581   -2.000
 7149.00    0.36687   0.49472   -2.000
 7150.00    0.41834   0.49313   -2.000
 7151.00    0.48712   0.49181   -2.000
 7152.00    0.55752   0.49075   -2.000
 7153.00    0.62807   0.48994   -2.000
 7154.00    0.60940   0.48978   -2.000
 7155.00    0.58586   0.49026   -2.000
 7156.00    0.56132   0.49125   -2.000
 7157.00    0.53705   0.49288   -2.000
 7158.00    0.53960   0.49467   -2.000
 7159.00    0.54526   0.49623   -2.000
 7160.00    0.62133   0.49776   -2.000
 7161.00    0.70093   0.49892   -2.000
 7162.00    0.82497   0.49923   -2.000
 7163.00    0.91467   0.49917   -2.000
 7164.00    0.71131   0.49874   -2.000
 7165.00    0.53825   0.49766   -2.000
 7166.00    0.55720   0.49639   -2.000
 7167.00    0.56869   0.49493   -2.000
 7168.00    0.54308   0.49349   -2.000
 7169.00    0.55195   0.49253   -2.000
 7170.00    0.69962   0.49128   -2.000
 7171.00    0.76408   0.49017   -2.000
 7172.00    0.55053   0.48954   -2.000
 7173.00    0.38718   0.48842   -2.000
 7174.00    0.36546   0.48748   -2.000
 7175.00    0.39366   0.48663   -2.000
 7176.00    0.54228   0.48553   -2.000
 7177.00    0.66540   0.48507   -2.000
 7178.00    0.73545   0.48457   -2.000
 7179.00    0.75226   0.48414   -2.000
 7180.00    0.67266   0.48453   -2.000
 7181.00    0.58257   0.48514   -2.000
 7182.00    0.47589   0.48584   -2.000
 7183.00    0.42378   0.48663   -2.000
 7184.00    0.44752   0.48762   -2.000
 7185.00    0.48374   0.48864   -2.000
 7186.00    0.53524   0.48941   -2.000
 7187.00    0.59781   0.49000   -2.000
 7188.00    0.67233   0.49028   -2.000
 7189.00    0.65625   0.49068   -2.000
 7190.00    0.55403   0.49082   -2.000
 7191.00    0.48518   0.49041   -2.000
 7192.00    0.44431   0.48997   -2.000
 7193.00    0.38540   0.48899   -2.000
 7194.00    0.31317   0.48821   -2.000
 7195.00    0.36905   0.48763   -2.000
 7196.00    0.50798   0.48677   -2.000
 7197.00    0.53155   0.48678   -2.000
 7198.00    0.48969   0.48702   -2.000
 7199.00    0.58883   0.48740   -2.000
 7200.00    0.75760   0.48847   -2.000
 7201.00    0.73536   0.48943   -2.000
 7202.00    0.63156   0.49047   -2.000
 7203.00    0.53010   0.49169   -2.000
 7204.00    0.42948   0.49266   -2.000
 7205.00    0.40819   0.49346   -2.000
 7206.00    0.41148   0.49415   -2.000
 7207.00    0.37153   0.49470   -2.000
 7208.00    0.32043   0.49516   -2.000
 7209.00    0.41866   0.49551   -2.000
 7210.00    0.54831   0.49589   -2.000
 7211.00    0.56704   0.49658   -2.000
 7212.00    0.56734   0.49727   -2.000
 7213.00    0.58202   0.49820   -2.000
 7214.00    0.59850   0.49941   -2.000
 7215.00    0.49449   0.50057   -2.000
 7216.00    0.38004   0.50214   -2.000
 7217.00    0.40104   0.50363   -2.000
 7218.00    0.42892   0.50489   -2.000
