###################################################################
## OUTPUT of StarlightChains_v04.for    [Cid@UFSC - 01/Apr/2007] ##
###################################################################

## Some input info
KUG0210-078._54_29.txt                   [arq_obs]
Base.CB07.vall.4m                        [arq_base]
Masks.EmLines.NEW.gm                     [arq_masks]
StCv04.C11.config                        [arq_config]
   66                                    [N_base]
    0                                    [N_YAV_components = # of components with extra extinction!]
    0                                    [i_FitPowerLaw (1/0 = Yes/No)]
-9.99                                    [alpha_PowerLaw]
CCM                                      [red_law_option]
 1.458241                                [q_norm = A(l_norm)/A(V)]

## (Re)Sampling Parameters
 3741.00                                 [l_ini (A)]
 7218.00                                 [l_fin (A)]
    1.00                                 [dl    (A)]     (OBS: dl_cushion =    50.00 A)

## Normalization info
 4020.00                                 [l_norm (A) - for base]
 4010.00                                 [llow_norm (A) - window for f_obs]
 4060.00                                 [lupp_norm (A) - window for f_obs]
9.971197E-18                             [fobs_norm (in input units)]

## S/N
 3691.00                                 [llow_SN (A) - window for S/N]
 7268.00                                 [lupp_SN (A) - window for S/N]
   2.064                                 [S/N in S/N window]
   3.153                                 [S/N in norm. window]
   0.009                                 [S/N_err in S/N window]
   0.014                                 [S/N_err in norm. window]
  1.0000                                 [fscale_chi2]

## etc...
    -2008005                             [idum_orig]
  2414                                   [NOl_eff]
  2119                                   [Nl_eff]
   295    NSIGMA                         [Ntot_cliped & clip_method]
 10634050                                [Nglobal_steps]
   7                                     [N_chains]
  38                                     [NEX0s_base = N_base in EX0s-fits]
 0   0   1      295   2.0   7.630E+03    [Clip-Bug, RC-Crash & Burn-In warning-flags, n_censored_weights, wei_nsig_threshold & wei_limit]
    79     78.654     77.620      1.034  [idt_all, wdt_TotTime, wdt_UsrTime & wdt_SysTime (sec)]

## Synthesis Results - Best model ##

 9.41377E-06                             [chi2/Nl_eff]
    24.35512                             [adev (%)]

   110.47881                             [sum-of-x (%)]
 3.02364E-18                             [Flux_tot (units of input spectrum!)]
 3.66164E-14                             [Mini_tot (???)]
 2.01862E-14                             [Mcor_tot (???)]

-148.19                                  [v0_min  (km/s)]
   0.03                                  [vd_min  (km/s)]
-0.9626                                  [AV_min  (mag)]
 0.0000                                  [YAV_min (mag)]

# j     x_j(%)      Mini_j(%)     Mcor_j(%)     age_j(yr)     Z_j      (L/M)_j    YAV?  Mstars   component_j        a/Fe...       SSP_chi2r SSP_adev(%)   SSP_AV   SSP_x(%)
  1      1.3346     9.1180E-03    1.6539E-02    1.000000E+06  0.00400  1.094E-02    0   1.0000   age020_m42            0.0000     9.6071E-06    23.6610   1.5639   100.6338
  2      0.0000     0.0000E+00    0.0000E+00    3.160000E+06  0.00400  4.007E-02    0   0.9999   age045_m42            0.0000     9.6856E-06    24.0558   0.9313   103.6941
  3      0.0000     0.0000E+00    0.0000E+00    5.010000E+06  0.00400  2.539E-02    0   0.9488   age055_m42            0.0000     9.6027E-06    23.8442   1.2122   102.7792
  4      1.3924     3.9723E-03    6.6434E-03    6.610000E+06  0.00400  2.620E-02    0   0.9220   age061_m42            0.0000     9.6427E-06    24.0773   0.8641   103.7253
  5      0.1761     9.9557E-04    1.6004E-03    1.000000E+07  0.00400  1.322E-02    0   0.8862   age070_m42            0.0000     9.6100E-06    24.5563   0.6010   105.9874
  6      0.0000     0.0000E+00    0.0000E+00    1.445000E+07  0.00400  7.883E-03    0   0.8571   age078_m42            0.0000     9.6069E-06    24.4163   0.9053   104.1506
  7      0.0000     0.0000E+00    0.0000E+00    2.512000E+07  0.00400  5.251E-03    0   0.8174   age090_m42            0.0000     9.6182E-06    24.6993   0.4841   106.1992
  8      0.0000     0.0000E+00    0.0000E+00    4.000000E+07  0.00400  3.649E-03    0   0.7851   age104_m42            0.0000     9.6199E-06    24.7080   0.2726   106.3588
  9      0.0000     0.0000E+00    0.0000E+00    5.500000E+07  0.00400  3.098E-03    0   0.7629   age110_m42            0.0000     9.6598E-06    24.5445   0.4302   105.8213
 10      5.9060     1.9813E-01    2.5902E-01    1.015200E+08  0.00400  2.228E-03    0   0.7207   age116_m42            0.0000     9.6660E-06    24.4399   0.4539   105.6400
 11      2.1081     1.4416E-01    1.7384E-01    2.861200E+08  0.00400  1.093E-03    0   0.6648   age125_m42            0.0000     9.7012E-06    25.1273  -0.0906   107.7410
 12      3.5082     3.9748E-01    4.5892E-01    5.088000E+08  0.00400  6.597E-04    0   0.6365   age130_m42            0.0000     9.6910E-06    24.8380  -0.0902   107.8895
 13      0.0000     0.0000E+00    0.0000E+00    1.434000E+09  0.00400  2.132E-04    0   0.5798   age139_m42            0.0000     9.5025E-06    24.6037  -1.0000   107.7088
 14      0.0000     0.0000E+00    0.0000E+00    4.250000E+09  0.00400  5.895E-05    0   0.5377   age158_m42            0.0000     1.0251E-05    29.3675  -1.0000    93.4414
 15      1.2578     2.6784E+00    2.5322E+00    7.500000E+09  0.00400  3.510E-05    0   0.5212   age171_m42            0.0000     1.1090E-05    32.3942  -1.0000    88.1096
 16      0.0000     0.0000E+00    0.0000E+00    1.300000E+10  0.00400  2.005E-05    0   0.5034   age193_m42            0.0000     1.2114E-05    35.2787  -1.0000    83.4864
 17      0.0000     0.0000E+00    0.0000E+00    1.800000E+10  0.00400  1.525E-05    0   0.4967   age213_m42            0.0000     1.2238E-05    35.8600  -1.0000    82.6419
 18      2.6759     1.6156E-02    2.9305E-02    1.000000E+06  0.00800  1.238E-02    0   1.0000   age020_m52            0.0000     9.6036E-06    23.6498   1.5580   100.8910
 19      6.2788     1.5267E-02    2.7599E-02    3.160000E+06  0.00800  3.074E-02    0   0.9966   age045_m52            0.0000     9.5958E-06    23.6184   1.4886   101.4986
 20      2.8209     7.9027E-03    1.3536E-02    5.010000E+06  0.00800  2.668E-02    0   0.9443   age055_m52            0.0000     9.5858E-06    23.7780   1.2853   102.2700
 21      0.0000     0.0000E+00    0.0000E+00    6.610000E+06  0.00800  2.136E-02    0   0.9177   age061_m52            0.0000     9.4729E-06    24.2523   0.0951   107.3194
 22      1.0047     6.1804E-03    9.8958E-03    1.000000E+07  0.00800  1.215E-02    0   0.8827   age070_m52            0.0000     9.6179E-06    24.8207   0.7755   106.1610
 23      0.0000     0.0000E+00    0.0000E+00    1.445000E+07  0.00800  8.717E-03    0   0.8552   age078_m52            0.0000     9.5804E-06    24.4775   0.8791   105.2720
 24      0.9351     1.2499E-02    1.8505E-02    2.512000E+07  0.00800  5.592E-03    0   0.8162   age090_m52            0.0000     9.6049E-06    24.8861   0.5569   107.1055
 25      0.3457     6.6318E-03    9.4324E-03    4.000000E+07  0.00800  3.896E-03    0   0.7841   age104_m52            0.0000     9.6249E-06    24.9152   0.4844   107.0827
 26      0.0000     0.0000E+00    0.0000E+00    1.015200E+08  0.00800  2.148E-03    0   0.7226   age116_m52            0.0000     9.6333E-06    24.6677   0.4279   106.2846
 27      0.7294     5.4927E-02    6.6586E-02    2.861200E+08  0.00800  9.925E-04    0   0.6683   age125_m52            0.0000     9.6586E-06    24.7718  -0.0260   108.8876
 28      0.0000     0.0000E+00    0.0000E+00    9.047900E+08  0.00800  3.141E-04    0   0.6138   age135_m52            0.0000     9.6363E-06    24.7007  -0.7809   110.7098
 29      0.0000     0.0000E+00    0.0000E+00    1.434000E+09  0.00800  1.719E-04    0   0.5853   age139_m52            0.0000     1.0012E-05    28.3966  -1.0000   100.1792
 30      0.0000     0.0000E+00    0.0000E+00    2.500000E+09  0.00800  7.872E-05    0   0.5600   age150_m52            0.0000     1.1028E-05    31.9023  -1.0000    90.8033
 31      0.0000     0.0000E+00    0.0000E+00    4.250000E+09  0.00800  4.336E-05    0   0.5426   age158_m52            0.0000     1.1115E-05    32.1099  -1.0000    89.5640
 32      0.0000     0.0000E+00    0.0000E+00    6.250000E+09  0.00800  3.159E-05    0   0.5319   age166_m52            0.0000     1.2289E-05    35.4014  -1.0000    84.3189
 33      0.0000     0.0000E+00    0.0000E+00    1.300000E+10  0.00800  1.361E-05    0   0.5073   age193_m52            0.0000     1.6150E-05    43.6118  -1.0000    71.9941
 34      0.0000     0.0000E+00    0.0000E+00    1.800000E+10  0.00800  9.886E-06    0   0.4990   age213_m52            0.0000     1.7296E-05    44.9985  -1.0000    68.8420
 35      0.0000     0.0000E+00    0.0000E+00    1.000000E+06  0.02000  1.544E-02    0   1.0000   age020_m62            0.0000     9.6083E-06    23.6528   1.5521   101.2255
 36      0.0000     0.0000E+00    0.0000E+00    3.160000E+06  0.02000  3.762E-02    0   0.9858   age045_m62            0.0000     9.5973E-06    23.6321   1.4922   102.0599
 37      0.0000     0.0000E+00    0.0000E+00    5.010000E+06  0.02000  3.296E-02    0   0.9342   age055_m62            0.0000     9.6041E-06    23.8412   1.1825   103.5201
 38     21.5560     1.3962E-01    2.2441E-01    8.710000E+06  0.02000  1.154E-02    0   0.8861   age067_m62            0.0000     9.7237E-06    26.3378   0.2278   110.7322
 39      0.0000     0.0000E+00    0.0000E+00    1.445000E+07  0.02000  7.663E-03    0   0.8472   age078_m62            0.0000     9.6311E-06    25.4837   0.4325   108.4730
 40      0.0000     0.0000E+00    0.0000E+00    2.512000E+07  0.02000  4.532E-03    0   0.8099   age090_m62            0.0000     9.6466E-06    25.6542   0.4316   107.9248
 41      0.0000     0.0000E+00    0.0000E+00    5.500000E+07  0.02000  2.733E-03    0   0.7595   age110_m62            0.0000     9.5577E-06    24.7811   0.4525   106.8913
 42      0.0000     0.0000E+00    0.0000E+00    1.609000E+08  0.02000  1.369E-03    0   0.6985   age120_m62            0.0000     9.6281E-06    24.6643   0.3147   108.3457
 43      1.3277     1.1010E-01    1.3409E-01    2.861200E+08  0.02000  9.013E-04    0   0.6714   age125_m62            0.0000     9.6996E-06    24.6368   0.0870   110.2314
 44      0.0000     0.0000E+00    0.0000E+00    5.088000E+08  0.02000  5.028E-04    0   0.6449   age130_m62            0.0000     9.7920E-06    24.4984  -0.2667   111.3888
 45      0.0000     0.0000E+00    0.0000E+00    9.047900E+08  0.02000  2.428E-04    0   0.6179   age135_m62            0.0000     9.5487E-06    24.2013  -0.8464   109.8795
 46      0.2763     1.6350E-01    1.7522E-01    1.434000E+09  0.02000  1.263E-04    0   0.5908   age139_m62            0.0000     9.8194E-06    26.3885  -1.0000   101.4688
 47      8.4080     1.0500E+01    1.0805E+01    2.500000E+09  0.02000  5.985E-05    0   0.5673   age150_m62            0.0000     1.1205E-05    31.5909  -1.0000    91.0698
 48     36.2381     8.2806E+01    8.2132E+01    4.250000E+09  0.02000  3.271E-05    0   0.5468   age158_m62            0.0000     1.3130E-05    36.5100  -1.0000    82.4234
 49      0.0000     0.0000E+00    0.0000E+00    1.000000E+10  0.02000  1.360E-05    0   0.5167   age181_m62            0.0000     1.6193E-05    42.1510  -1.0000    73.0676
 50      0.0000     0.0000E+00    0.0000E+00    1.800000E+10  0.02000  7.124E-06    0   0.5013   age213_m62            0.0000     1.8548E-05    45.2078  -1.0000    67.1663
 51      2.3615     6.8097E-03    1.2350E-02    1.000000E+06  0.05000  2.592E-02    0   0.9998   age020_m72            0.0000     9.6246E-06    23.6413   1.5324   101.6787
 52      0.0000     0.0000E+00    0.0000E+00    3.160000E+06  0.05000  4.845E-02    0   0.9577   age045_m72            0.0000     9.5709E-06    23.6370   1.4005   102.3268
 53      0.4255     1.0352E-03    1.7175E-03    5.010000E+06  0.05000  3.072E-02    0   0.9147   age055_m72            0.0000     9.6323E-06    25.0998   0.9688   105.5745
 54      0.0000     0.0000E+00    0.0000E+00    6.610000E+06  0.05000  1.455E-02    0   0.8877   age061_m72            0.0000     1.0215E-05    28.8437   0.2498   112.3910
 55      0.6981     5.7504E-03    8.8912E-03    1.000000E+07  0.05000  9.074E-03    0   0.8524   age070_m72            0.0000     9.7926E-06    25.9028   1.1360   105.3458
 56      0.0000     0.0000E+00    0.0000E+00    2.512000E+07  0.05000  4.250E-03    0   0.7902   age090_m72            0.0000     9.7231E-06    25.6424   0.8866   105.6619
 57      0.0000     0.0000E+00    0.0000E+00    4.000000E+07  0.05000  3.087E-03    0   0.7618   age104_m72            0.0000     9.7466E-06    25.8979   0.6774   106.7981
 58      0.0000     0.0000E+00    0.0000E+00    1.015200E+08  0.05000  1.700E-03    0   0.7096   age116_m72            0.0000     9.6686E-06    25.0486   0.4578   108.0754
 59      3.5305     3.5737E-01    4.2999E-01    2.861200E+08  0.05000  7.384E-04    0   0.6633   age125_m72            0.0000     9.6806E-06    24.5537  -0.0294   110.6850
 60      3.3390     6.5350E-01    7.5534E-01    5.088000E+08  0.05000  3.819E-04    0   0.6372   age130_m72            0.0000     9.5930E-06    24.1190  -0.5085   111.2571
 61      1.7896     7.9812E-01    8.8457E-01    9.047900E+08  0.05000  1.676E-04    0   0.6110   age135_m72            0.0000     9.7894E-06    24.9630  -1.0000   103.8545
 62      0.0000     0.0000E+00    0.0000E+00    1.434000E+09  0.05000  8.837E-05    0   0.5874   age139_m72            0.0000     1.1233E-05    31.4324  -1.0000    92.0730
 63      0.0000     0.0000E+00    0.0000E+00    2.500000E+09  0.05000  4.233E-05    0   0.5598   age150_m72            0.0000     1.3263E-05    36.3099  -1.0000    82.9870
 64      0.0000     0.0000E+00    0.0000E+00    6.250000E+09  0.05000  1.435E-05    0   0.5249   age166_m72            0.0000     1.7276E-05    43.7178  -1.0000    70.3282
 65      0.0000     0.0000E+00    0.0000E+00    1.300000E+10  0.05000  6.513E-06    0   0.5036   age193_m72            0.0000     2.0761E-05    47.7161  -1.0000    63.8861
 66      0.0549     9.0628E-01    8.1292E-01    1.800000E+10  0.05000  4.527E-06    0   0.4945   age213_m72            0.0000     2.2980E-05    49.7731  -1.0000    59.7755


## Synthesis Results - Average & Chains ##

# j      x_j: min, <> & last-chain-values for 1 ...  7 chains
  1      1.3346     10.3448      8.2069     10.8342     10.8989      8.8644      9.1461      8.5895     10.2477
  2      0.0000      0.1972      0.3313      0.9752      0.3150      0.0000      0.2733      1.1177      1.0649
  3      0.0000      0.2120      0.8558      0.9705      0.0926      0.0558      0.4881      0.6283      0.0087
  4      1.3924      0.2171      0.3432      1.0887      0.8269      0.8962      0.9251      0.9558      0.0943
  5      0.1761      0.1691      0.0000      0.4569      0.6609      0.5727      0.2242      0.6361      0.8220
  6      0.0000      0.2970      1.7120      0.0000      0.0662      0.2451      0.8703      0.5246      0.3630
  7      0.0000      0.4775      0.6351      0.4346      0.9603      0.2065      0.6493      0.3662      0.9959
  8      0.0000      0.3535      0.0000      0.4523      1.0417      1.0908      0.2579      0.0000      0.1585
  9      0.0000      1.2221      1.9585      0.0000      1.3336      1.1693      1.4946      1.5028      0.4234
 10      5.9060      0.2267      0.1939      0.0489      0.2383      0.8309      0.1129      1.0736      0.8176
 11      2.1081      0.2162      1.4130      1.0209      0.4340      1.0401      0.1481      0.0000      0.4476
 12      3.5082      3.3085      2.1270      3.4220      4.2771      2.7787      1.7324      2.1696      3.4430
 13      0.0000      0.6407      0.4193      0.3787      0.9154      0.0000      0.0753      0.7130      0.0000
 14      0.0000      0.1107      2.2433      0.0000      0.3770      0.0000      0.0617      0.2545      0.0000
 15      1.2578      0.1838      0.9576      0.0000      0.0000      0.5448      0.0000      0.4048      1.0155
 16      0.0000     35.2017     31.3599     33.2211     22.2232     34.0988     33.4043     32.5311     33.5309
 17      0.0000     54.2361     41.1492     39.7337     56.3374     39.7283     43.5755     40.0910     43.9484
 18      2.6759      0.1939      1.0732      0.5156      0.0000      0.3822      0.8392      0.0000      0.6630
 19      6.2788      0.1834      1.3428      0.0000      0.9436      0.2976      0.9687      0.5019      0.0000
 20      2.8209      0.2245      0.1498      1.2418      0.5019      0.8190      0.6556      0.2322      0.5893
 21      0.0000      0.2129      2.3369      0.7165      0.0012      0.5477      0.3867      1.4122      0.3823
 22      1.0047      0.1536      0.4960      0.5471      0.0000      0.7799      0.7015      0.0926      0.0000
 23      0.0000      0.1536      0.0000      0.2018      0.3498      1.3752      0.2578      0.1098      0.2227
 24      0.9351      0.3592      0.3185      0.5339      0.0000      0.8380      1.1429      1.5352      0.6316
 25      0.3457      1.3098      1.0974      1.4898      0.6728      1.7120      1.7468      1.7452      0.7633
 26      0.0000      0.6573      1.4629      0.4233      0.5768      0.2857      0.9128      0.5917      0.0000
 27      0.7294      2.2860      1.8118      2.5765      1.8893      2.0067      2.6596      2.2888      2.8103
 28      0.0000      0.2040      0.0592      0.1900      0.3644      0.1193      0.4447      0.8405      0.2141
 29      0.0000      0.1851      0.0000      1.1922      0.0161      0.2351      0.1406      0.5821      0.0997
 30      0.0000      0.1916      0.5505      0.0000      0.0906      0.2594      0.0000      0.3350      0.4903
 31      0.0000      0.2131      0.5079      0.0000      0.1980      0.0000      1.2771      0.1409      0.4098
 32      0.0000      0.1762      0.1668      0.6293      0.0890      0.0000      0.5048      0.0000      0.0000
 33      0.0000      0.1385      0.0000      0.0000      0.0000      0.4789      0.2799      0.3507      0.0000
 34      0.0000      0.1832      0.1590      1.9426      0.3262      0.0000      0.0000      0.0000      0.7500
 35      0.0000      0.1922      0.6633      1.2289      0.4986      0.7796      0.1768      0.0000      0.3644
 36      0.0000      0.2193      0.6075      0.0940      1.1950      0.1090      0.2647      0.2880      1.2644
 37      0.0000      0.1490      0.0509      0.3556      0.0000      0.1438      0.0000      0.9062      0.4388
 38     21.5560      0.1721      0.0000      1.0035      0.2765      2.2602      0.1176      0.0000      1.3755
 39      0.0000      0.2196      0.5794      0.1475      0.7551      0.0326      0.6598      0.5399      0.7129
 40      0.0000      0.3856      0.1471      1.7869      0.0000      0.4180      0.7807      1.3824      0.7489
 41      0.0000      0.2335      0.6913      0.7098      1.0426      0.0000      0.6403      1.5720      0.1030
 42      0.0000      0.1441      1.8452      0.0304      0.6137      0.5308      0.0000      0.2874      0.0000
 43      1.3277      0.1766      1.2810      0.9673      0.1857      0.5134      0.6665      0.1623      0.0000
 44      0.0000      0.1619      0.3129      0.0000      0.0740      0.0719      0.3438      0.9713      0.9874
 45      0.0000      0.1354      0.2205      0.5988      0.5254      0.2633      0.3005      0.4672      0.0000
 46      0.2763      0.1734      1.1021      0.0000      0.0000      0.6575      1.4601      0.5450      0.6173
 47      8.4080      0.1678      0.4444      0.1508      0.1153      1.8892      0.0656      0.6398      0.9610
 48     36.2381      0.2285      0.0000      0.7080      0.8243      0.2915      1.4258      0.6769      0.0667
 49      0.0000      0.1973      0.5757      0.2677      0.1072      0.0000      2.2490      0.2080      0.0253
 50      0.0000      0.1578      0.4150      0.8650      0.0000      0.1187      0.0000      0.4113      0.1761
 51      2.3615      0.2240      0.5368      0.3839      0.3922      1.5540      0.0000      1.7649      0.0361
 52      0.0000      0.3222      0.5352      0.0000      1.3810      2.2886      0.9475      0.0000      1.5019
 53      0.4255      0.2708      0.4080      1.0051      1.0071      0.4121      0.2379      0.4810      0.6868
 54      0.0000      0.1864      0.6114      0.0239      0.3944      0.6572      0.8730      0.2930      0.0000
 55      0.6981      0.2855      0.0000      0.8062      1.0392      1.7241      0.4397      2.9042      0.6097
 56      0.0000      0.2756      0.1388      0.2846      0.9748      0.1829      0.0439      0.5088      0.0382
 57      0.0000      0.2494      0.0000      0.3571      0.0000      0.0124      0.0000      0.6010      0.5652
 58      0.0000      0.2157      0.0000      0.4467      0.2736      0.0000      0.6698      0.5646      1.5884
 59      3.5305      0.1379      0.7185      0.7190      0.1616      0.8113      0.0000      0.1145      0.0000
 60      3.3390      0.1721      1.4721      0.5010      0.3894      1.6490      0.2205      0.7093      0.0000
 61      1.7896      0.2777      1.0458      0.4609      0.4401      0.5456      0.8578      0.2264      2.1307
 62      0.0000      0.1842      0.0000      1.6275      0.3619      0.0000      0.0000      0.8411      0.3228
 63      0.0000      0.1500      0.0079      0.0000      0.5340      0.0470      0.1311      0.4736      0.0000
 64      0.0000      0.1523      0.2288      0.0000      0.1797      0.0000      0.5798      0.5244      0.0000
 65      0.0000      0.1730      0.6155      0.4026      0.2268      0.0000      0.3961      0.0000      0.2272
 66      0.0549      0.1429      0.1962      0.0000      0.4596      0.7230      0.0000      0.0000      0.3040

# j      m_j: min, <> & last-chain-values for 1 ...  7 chains
  1  1.6539E-02  3.4380E-02  3.2064E-02  4.1561E-02  3.9275E-02  3.5114E-02  3.3745E-02  3.4831E-02  3.8503E-02
  2  0.0000E+00  1.7893E-04  3.5338E-04  1.0213E-03  3.0991E-04  0.0000E+00  2.7530E-04  1.2373E-03  1.0923E-03
  3  0.0000E+00  2.8801E-04  1.3670E-03  1.5221E-03  1.3636E-04  9.0381E-05  7.3621E-04  1.0416E-03  1.3348E-05
  4  6.6434E-03  2.7773E-04  5.1615E-04  1.6078E-03  1.1472E-03  1.3667E-03  1.3140E-03  1.4922E-03  1.3641E-04
  5  1.6004E-03  4.1208E-04  0.0000E+00  1.2854E-03  1.7467E-03  1.6637E-03  6.0667E-04  1.8917E-03  2.2649E-03
  6  0.0000E+00  1.1740E-03  7.9562E-03  0.0000E+00  2.8366E-04  1.1551E-03  3.8195E-03  2.5304E-03  1.6222E-03
  7  0.0000E+00  2.7024E-03  4.2256E-03  2.8390E-03  5.8935E-03  1.3930E-03  4.0794E-03  2.5287E-03  6.3724E-03
  8  0.0000E+00  2.7650E-03  0.0000E+00  4.0841E-03  8.8358E-03  1.0170E-02  2.2401E-03  0.0000E+00  1.4019E-03
  9  0.0000E+00  1.0942E-02  2.0614E-02  0.0000E+00  1.2947E-02  1.2478E-02  1.4856E-02  1.6417E-02  4.2853E-03
 10  2.5902E-01  2.6659E-03  2.6815E-03  6.6413E-04  3.0385E-03  1.1648E-02  1.4739E-03  1.5406E-02  1.0872E-02
 11  1.7384E-01  4.7810E-03  3.6734E-02  2.6058E-02  1.0407E-02  2.7417E-02  3.6351E-03  0.0000E+00  1.1190E-02
 12  4.5892E-01  1.1606E-01  8.7714E-02  1.3856E-01  1.6269E-01  1.1618E-01  6.7466E-02  9.2865E-02  1.3655E-01
 13  0.0000E+00  6.3345E-02  4.8738E-02  4.3226E-02  9.8140E-02  0.0000E+00  8.2697E-03  8.6023E-02  0.0000E+00
 14  0.0000E+00  3.6725E-02  8.7456E-01  0.0000E+00  1.3558E-01  0.0000E+00  2.2728E-02  1.0299E-01  0.0000E+00
 15  2.5322E+00  9.9242E-02  6.0774E-01  0.0000E+00  0.0000E+00  3.5056E-01  0.0000E+00  2.6664E-01  6.1983E-01
 16  0.0000E+00  3.2134E+01  3.3653E+01  3.5004E+01  2.1997E+01  3.7102E+01  3.3853E+01  3.6234E+01  3.4605E+01
 17  0.0000E+00  6.4226E+01  5.7285E+01  5.4311E+01  7.2339E+01  5.6076E+01  5.7287E+01  5.7927E+01  5.8838E+01
 18  2.9305E-02  5.6932E-04  3.7052E-03  1.7479E-03  0.0000E+00  1.3377E-03  2.7362E-03  0.0000E+00  2.2013E-03
 19  2.7599E-02  2.1615E-04  1.8608E-03  0.0000E+00  1.2061E-03  4.1807E-04  1.2676E-03  7.2188E-04  0.0000E+00
 20  1.3536E-02  2.8884E-04  2.2659E-04  1.8445E-03  7.0035E-04  1.2562E-03  9.3661E-04  3.6456E-04  8.5735E-04
 21  0.0000E+00  3.3256E-04  4.2914E-03  1.2919E-03  2.0590E-06  1.0197E-03  6.7061E-04  2.6916E-03  6.7522E-04
 22  9.8958E-03  4.0569E-04  1.5401E-03  1.6681E-03  0.0000E+00  2.4555E-03  2.0572E-03  2.9849E-04  0.0000E+00
 23  0.0000E+00  5.4791E-04  0.0000E+00  8.3104E-04  1.3529E-03  5.8467E-03  1.0210E-03  4.7809E-04  8.9827E-04
 24  1.8505E-02  1.9060E-03  1.9871E-03  3.2702E-03  0.0000E+00  5.3005E-03  6.7334E-03  9.9407E-03  3.7892E-03
 25  9.4324E-03  9.5844E-03  9.4398E-03  1.2583E-02  5.3381E-03  1.4932E-02  1.4190E-02  1.5581E-02  6.3143E-03
 26  0.0000E+00  8.0393E-03  2.1035E-02  5.9765E-03  7.6501E-03  4.1652E-03  1.2395E-02  8.8301E-03  0.0000E+00
 27  6.6586E-02  5.5963E-02  5.2145E-02  7.2808E-02  5.0154E-02  5.8558E-02  7.2286E-02  6.8368E-02  7.7784E-02
 28  0.0000E+00  1.4493E-02  4.9441E-03  1.5584E-02  2.8073E-02  1.0102E-02  3.5074E-02  7.2864E-02  1.7194E-02
 29  0.0000E+00  2.2911E-02  0.0000E+00  1.7036E-01  2.1613E-03  3.4694E-02  1.9330E-02  8.7932E-02  1.3957E-02
 30  0.0000E+00  4.9554E-02  1.6738E-01  0.0000E+00  2.5421E-02  7.9956E-02  0.0000E+00  1.0573E-01  1.4336E-01
 31  0.0000E+00  9.6952E-02  2.7168E-01  0.0000E+00  9.7680E-02  0.0000E+00  6.4508E-01  7.8217E-02  2.1080E-01
 32  0.0000E+00  1.0785E-01  1.2006E-01  4.4466E-01  5.9077E-02  0.0000E+00  3.4306E-01  0.0000E+00  0.0000E+00
 33  0.0000E+00  1.8771E-01  0.0000E+00  0.0000E+00  0.0000E+00  7.7364E-01  4.2107E-01  5.7988E-01  0.0000E+00
 34  0.0000E+00  3.3618E-01  3.4302E-01  4.1151E+00  6.4906E-01  0.0000E+00  0.0000E+00  0.0000E+00  1.5560E+00
 35  0.0000E+00  4.5261E-04  1.8363E-03  3.3402E-03  1.2731E-03  2.1882E-03  4.6223E-04  0.0000E+00  9.7006E-04
 36  0.0000E+00  2.0893E-04  6.8041E-04  1.0341E-04  1.2345E-03  1.2374E-04  2.8002E-04  3.3478E-04  1.3619E-03
 37  0.0000E+00  1.5351E-04  6.1622E-05  4.2304E-04  0.0000E+00  1.7664E-04  0.0000E+00  1.1395E-03  5.1123E-04
 38  2.2441E-01  4.8050E-04  0.0000E+00  3.2337E-03  8.3701E-04  7.5211E-03  3.6462E-04  0.0000E+00  4.3414E-03
 39  0.0000E+00  8.8284E-04  2.7381E-03  6.8457E-04  3.2911E-03  1.5603E-04  2.9443E-03  2.6480E-03  3.2399E-03
 40  0.0000E+00  2.5057E-03  1.1233E-03  1.3401E-02  0.0000E+00  3.2371E-03  5.6315E-03  1.0959E-02  5.5010E-03
 41  0.0000E+00  2.3593E-03  8.2113E-03  8.2781E-03  1.1422E-02  0.0000E+00  7.1825E-03  1.9380E-02  1.1766E-03
 42  0.0000E+00  2.6738E-03  4.0240E-02  6.5070E-04  1.2344E-02  1.1736E-02  0.0000E+00  6.5045E-03  0.0000E+00
 43  1.3409E-01  4.7843E-03  4.0785E-02  3.0240E-02  5.4536E-03  1.6573E-02  2.0042E-02  5.3620E-03  0.0000E+00
 44  0.0000E+00  7.5495E-03  1.7151E-02  0.0000E+00  3.7431E-03  3.9948E-03  1.7801E-02  5.5269E-02  5.2058E-02
 45  0.0000E+00  1.2532E-02  2.3985E-02  6.3950E-02  5.2713E-02  2.9038E-02  3.0872E-02  5.2746E-02  0.0000E+00
 46  1.7522E-01  2.9491E-02  2.2035E-01  0.0000E+00  0.0000E+00  1.3330E-01  2.7568E-01  1.1309E-01  1.1869E-01
 47  1.0805E+01  5.7827E-02  1.8004E-01  5.9972E-02  4.3097E-02  7.7602E-01  2.5089E-02  2.6904E-01  3.7441E-01
 48  8.2132E+01  1.3891E-01  0.0000E+00  4.9667E-01  5.4326E-01  2.1114E-01  9.6204E-01  5.0201E-01  4.5801E-02
 49  0.0000E+00  2.7252E-01  9.3488E-01  4.2688E-01  1.6063E-01  0.0000E+00  3.4489E+00  3.5061E-01  3.9545E-02
 50  0.0000E+00  4.0367E-01  1.2482E+00  2.5546E+00  0.0000E+00  3.6183E-01  0.0000E+00  1.2840E+00  5.0924E-01
 51  1.2350E-02  3.1412E-04  8.8505E-04  6.2142E-04  5.9641E-04  2.5977E-03  0.0000E+00  3.0201E-03  5.7235E-05
 52  0.0000E+00  2.3155E-04  4.5221E-04  0.0000E+00  1.0761E-03  1.9605E-03  7.5594E-04  0.0000E+00  1.2203E-03
 53  1.7175E-03  2.9319E-04  5.1927E-04  1.2560E-03  1.1822E-03  5.3181E-04  2.8596E-04  6.3533E-04  8.4057E-04
 54  0.0000E+00  4.1347E-04  1.5944E-03  6.1193E-05  9.4853E-04  1.7376E-03  2.1498E-03  7.9309E-04  0.0000E+00
 55  8.8912E-03  9.7506E-04  0.0000E+00  3.1784E-03  3.8484E-03  7.0188E-03  1.6674E-03  1.2103E-02  2.3542E-03
 56  0.0000E+00  1.8629E-03  1.1028E-03  2.2206E-03  7.1451E-03  1.4734E-03  3.2925E-04  4.1966E-03  2.9229E-04
 57  0.0000E+00  2.2375E-03  0.0000E+00  3.6983E-03  0.0000E+00  1.3247E-04  0.0000E+00  6.5797E-03  5.7331E-03
 58  0.0000E+00  3.2732E-03  0.0000E+00  7.8247E-03  4.5022E-03  0.0000E+00  1.1284E-02  1.0455E-02  2.7253E-02
 59  4.2999E-01  4.5053E-03  2.7586E-02  2.7107E-02  5.7236E-03  3.1582E-02  0.0000E+00  4.5644E-03  0.0000E+00
 60  7.5534E-01  1.0442E-02  1.0498E-01  3.5079E-02  2.5613E-02  1.1924E-01  1.4852E-02  5.2504E-02  0.0000E+00
 61  8.8457E-01  3.6814E-02  1.6296E-01  7.0519E-02  6.3254E-02  8.6197E-02  1.2622E-01  3.6609E-02  3.1929E-01
 62  0.0000E+00  4.4521E-02  0.0000E+00  4.5401E-01  9.4836E-02  0.0000E+00  0.0000E+00  2.4801E-01  8.8211E-02
 63  0.0000E+00  7.2116E-02  4.4687E-03  0.0000E+00  2.7842E-01  2.6948E-02  6.9994E-02  2.7784E-01  0.0000E+00
 64  0.0000E+00  2.0250E-01  3.5778E-01  0.0000E+00  2.5907E-01  0.0000E+00  8.5598E-01  8.5091E-01  0.0000E+00
 65  0.0000E+00  4.8636E-01  2.0341E+00  1.3063E+00  6.9145E-01  0.0000E+00  1.2362E+00  0.0000E+00  7.2196E-01
 66  8.1292E-01  5.6748E-01  9.1609E-01  0.0000E+00  1.9792E+00  3.4226E+00  0.0000E+00  0.0000E+00  1.3649E+00

# AV, chi2 & Mass for <> & i_chain = 1 ...  7 solutions
AV      -0.9626     -0.9871     -1.0000     -1.0000     -1.0000     -1.0000     -1.0000     -1.0000     -1.0000
chi2 9.4138E-06  2.0806E-05  1.6179E-05  1.6345E-05  1.7024E-05  1.5497E-05  1.7699E-05  1.5634E-05  1.7008E-05
Mass 2.0186E-14  7.2844E-14  6.0897E-14  6.2022E-14  6.6024E-14  6.0061E-14  6.4485E-14  5.8673E-14  6.3323E-14
-148.19                                  [v0_min (km/s) before EX0s...]
   0.03                                  [vd_min (km/s) before EX0s...]


## Synthetic spectrum (Best Model) ##l_obs f_obs f_syn wei
 3478    [Nl_obs]
 3741.00    1.05028   0.87977    0.000
 3742.00    1.23490   0.84638    0.000
 3743.00    1.44434   0.81153    0.000
 3744.00    1.46117   0.77394    0.000
 3745.00    1.36577   0.73998   -1.000
 3746.00    1.47018   0.67770   -1.000
 3747.00    1.67605   0.60531   -1.000
 3748.00    1.56200   0.59585   -1.000
 3749.00    1.30727   0.66471   -1.000
 3750.00    0.70429   0.75258   -1.000
 3751.00   -0.03017   0.82307    0.000
 3752.00   -0.35976   0.88797    0.000
 3753.00   -0.55960   0.94036    0.000
 3754.00    0.16080   0.95084   -1.000
 3755.00    1.12780   0.90481   -1.000
 3756.00    1.47927   0.85071   -1.000
 3757.00    1.69564   0.84592   -1.000
 3758.00    1.35871   0.87934   -1.000
 3759.00    0.92520   0.91011   -1.000
 3760.00    0.68056   0.91936   -1.000
 3761.00    0.46100   0.90823   -1.000
 3762.00    0.33035   0.89760   -1.000
 3763.00    0.20805   0.89469   -1.000
 3764.00    0.26323   0.86075   -1.000
 3765.00    0.32864   0.80613   -1.000
 3766.00    0.22557   0.77483   -1.000
 3767.00    0.12456   0.74521   -1.000
 3768.00    0.75644   0.69580   -1.000
 3769.00    1.35183   0.68786   -1.000
 3770.00    1.06080   0.75029   -1.000
 3771.00    0.79310   0.82358   -1.000
 3772.00    0.83094   0.86661   -1.000
 3773.00    0.88403   0.89379   -1.000
 3774.00    1.07096   0.92158   -1.000
 3775.00    1.17886   0.94863   -1.000
 3776.00    0.77437   0.96838   -1.000
 3777.00    0.44415   0.99668   -1.000
 3778.00    0.48986   1.03160   -1.000
 3779.00    0.60072   1.04700   -1.000
 3780.00    0.97824   1.04669   -1.000
 3781.00    1.11764   1.05501   -1.000
 3782.00    0.44937   1.06562   -1.000
 3783.00   -0.06631   1.04082    0.000
 3784.00   -0.14557   0.98421    0.000
 3785.00    0.01392   0.94648   -1.000
 3786.00    0.75676   0.93105   -1.000
 3787.00    1.21231   0.91521   -1.000
 3788.00    1.06232   0.90448   -1.000
 3789.00    0.98011   0.90700   -1.000
 3790.00    1.02202   0.89900   -1.000
 3791.00    1.18260   0.86098   -1.000
 3792.00    1.53311   0.80415   -1.000
 3793.00    1.38029   0.75142   -1.000
 3794.00    0.52048   0.70065   -1.000
 3795.00    0.07654   0.63526   -1.000
 3796.00    0.14663   0.59048   -1.000
 3797.00    0.19333   0.62154   -1.000
 3798.00    0.21453   0.71228   -1.000
 3799.00    0.39342   0.79966   -1.000
 3800.00    0.72387   0.86365   -1.000
 3801.00    0.84967   0.92016   -1.000
 3802.00    0.80206   0.95721   -1.000
 3803.00    0.73234   0.96182   -1.000
 3804.00    0.64611   0.94244   -1.000
 3805.00    0.70110   0.93468   -1.000
 3806.00    0.84867   0.96613   -1.000
 3807.00    1.19906   1.01203   -1.000
 3808.00    1.66583   1.04301   -1.000
 3809.00    1.81894   1.04948   -1.000
 3810.00    1.81528   1.02590   -1.000
 3811.00    1.39419   0.98224   -1.000
 3812.00    0.79259   0.94520   -1.000
 3813.00    0.87036   0.92216   -1.000
 3814.00    1.20007   0.92083   -1.000
 3815.00    1.21312   0.94601   -1.000
 3816.00    1.12662   0.94470   -1.000
 3817.00    0.66697   0.87857   -1.000
 3818.00    0.10943   0.81957   -1.000
 3819.00    0.26137   0.84369   -1.000
 3820.00    0.56532   0.90844   -1.000
 3821.00    0.90636   0.93197   -1.000
 3822.00    1.25369   0.89531   -1.000
 3823.00    0.98501   0.84928   -1.000
 3824.00    0.63727   0.82829   -1.000
 3825.00    0.58807   0.81997   -1.000
 3826.00    0.56567   0.81020   -1.000
 3827.00    0.66106   0.79955   -1.000
 3828.00    0.76278   0.78908   -1.000
 3829.00    0.64731   0.75567   -1.000
 3830.00    0.52907   0.68983   -1.000
 3831.00    0.54451   0.62246   -1.000
 3832.00    0.56958   0.56901   -1.000
 3833.00    0.80871   0.54146   -1.000
 3834.00    1.02049   0.56092   -1.000
 3835.00    0.89224   0.60246   -1.000
 3836.00    0.77975   0.63781   -1.000
 3837.00    0.80053   0.67715   -1.000
 3838.00    0.78179   0.72020   -1.000
 3839.00    0.51439   0.77376   -1.000
 3840.00    0.29124   0.83921   -1.000
 3841.00    0.28649   0.88979   -1.000
 3842.00    0.38973   0.91736   -1.000
 3843.00    0.92528   0.92880   -1.000
 3844.00    1.32900   0.93756   -1.000
 3845.00    1.29442   0.95786   -1.000
 3846.00    1.17829   0.97141   -1.000
 3847.00    0.83318   0.95457    0.000
 3848.00    0.74350   0.93731    0.000
 3849.00    1.26730   0.95637    0.000
 3850.00    1.62569   0.98630    0.000
 3851.00    1.64104   0.98882    0.000
 3852.00    1.58940   0.97332    0.000
 3853.00    1.41691   0.95313    0.000
 3854.00    1.15430   0.93697    0.000
 3855.00    0.74956   0.94083    0.000
 3856.00    0.47997   0.93458    0.000
 3857.00    0.39749   0.90189    0.000
 3858.00    0.48548   0.88927    0.000
 3859.00    0.78119   0.92487    0.000
 3860.00    0.96881   0.97404    0.000
 3861.00    1.04032   0.99611    0.000
 3862.00    1.09977   0.99187    0.000
 3863.00    1.14780   0.97838    0.000
 3864.00    1.00518   0.96755    0.000
 3865.00    0.70329   0.96141    0.000
 3866.00    0.48840   0.96363    0.000
 3867.00    0.33748   0.96652    0.000
 3868.00    0.24260   0.94557    0.000
 3869.00    0.18391   0.90478    0.000
 3870.00    0.36278   0.87376    0.000
 3871.00    0.67590   0.88511    0.000
 3872.00    0.73192   0.92916    0.000
 3873.00    0.66147   0.95950    0.000
 3874.00    0.51910   0.95053    0.000
 3875.00    0.34615   0.91081    0.000
 3876.00    0.45036   0.86622    0.000
 3877.00    0.65553   0.86322    0.000
 3878.00    0.74915   0.88560    0.000
 3879.00    0.80839   0.87119    0.000
 3880.00    0.66016   0.82899    0.000
 3881.00    0.45868   0.81633   -1.000
 3882.00    0.63425   0.82016   -1.000
 3883.00    0.88866   0.77592   -1.000
 3884.00    0.69004   0.69477   -1.000
 3885.00    0.41673   0.63086   -1.000
 3886.00    0.47803   0.58178   -1.000
 3887.00    0.58077   0.55865   -1.000
 3888.00    0.33490   0.60786   -1.000
 3889.00    0.05918   0.70148   -1.000
 3890.00    0.08400   0.78040   -1.000
 3891.00    0.12379   0.82529   -1.000
 3892.00    0.60684   0.84590   -1.000
 3893.00    1.09060   0.85538   -1.000
 3894.00    1.15188   0.87961   -1.000
 3895.00    1.19764   0.91569   -1.000
 3896.00    0.92588   0.92365   -1.000
 3897.00    0.66578   0.91400   -1.000
 3898.00    0.54358   0.92774   -1.000
 3899.00    0.45955   0.96288   -1.000
 3900.00    0.68643   0.97048   -1.000
 3901.00    0.86826   0.95473   -1.000
 3902.00    0.77492   0.95051   -1.000
 3903.00    0.65650   0.93630   -1.000
 3904.00    0.41744   0.92566   -1.000
 3905.00    0.26010   0.95635   -1.000
 3906.00    0.42279   1.00149   -1.000
 3907.00    0.58089   1.02663   -1.000
 3908.00    0.72405   1.03202   -1.000
 3909.00    0.80318   1.03564   -1.000
 3910.00    0.70571   1.03962   -1.000
 3911.00    0.65055   1.03375   -1.000
 3912.00    0.69529   1.02386   -1.000
 3913.00    0.72647   1.02173   -1.000
 3914.00    0.73001   1.01118   -1.000
 3915.00    0.54437   1.00007   -1.000
 3916.00    0.02276   0.98585   -1.000
 3917.00    0.03608   0.95595   -1.000
 3918.00    0.88059   0.92281   -1.000
 3919.00    1.40984   0.91309   -1.000
 3920.00    1.50895   0.92994   -1.000
 3921.00    1.34423   0.94533   -1.000
 3922.00    0.86259   0.95062   -1.000
 3923.00    0.42329   0.93479   -1.000
 3924.00    0.02882   0.89869   -1.000
 3925.00   -0.00459   0.86538    0.000
 3926.00    0.29928   0.83358   -1.000
 3927.00    0.46716   0.80064   -1.000
 3928.00    0.52304   0.77207   -1.000
 3929.00    0.37033   0.74111   -1.000
 3930.00    0.06641   0.70071   -1.000
 3931.00    0.19155   0.65950   -1.000
 3932.00    0.58976   0.64845   -1.000
 3933.00    0.63407   0.67847   -1.000
 3934.00    0.48143   0.72834   -1.000
 3935.00    0.56410   0.77713   -1.000
 3936.00    0.76069   0.82024   -1.000
 3937.00    0.61105   0.86029   -1.000
 3938.00    0.31666   0.89069   -1.000
 3939.00    0.27099   0.90250   -1.000
 3940.00    0.31428   0.90253   -1.000
 3941.00    0.48000   0.89110   -1.000
 3942.00    0.68272   0.88154   -1.000
 3943.00    1.33613   0.91167   -1.000
 3944.00    2.10274   0.96016   -1.000
 3945.00    2.07765   0.96825   -1.000
 3946.00    1.89112   0.95171   -1.000
 3947.00    1.76092   0.95829   -1.000
 3948.00    1.63974   0.98557   -1.000
 3949.00    1.59958   0.99438   -1.000
 3950.00    1.56910   0.97011   -1.000
 3951.00    1.90701   0.95635   -1.000
 3952.00    2.27492   0.97777   -1.000
 3953.00    1.82130   0.97977   -1.000
 3954.00    1.32992   0.94422   -1.000
 3955.00    0.83657   0.92355   -1.000
 3956.00    0.35183   0.93535   -1.000
 3957.00    0.31804   0.94483   -1.000
 3958.00    0.31327   0.90953   -1.000
 3959.00    0.85820   0.83045   -1.000
 3960.00    1.35888   0.76973    0.000
 3961.00    1.36084   0.74583    0.000
 3962.00    1.24766   0.71333    0.000
 3963.00    0.22947   0.66094    0.000
 3964.00   -0.54608   0.59865    0.000
 3965.00    0.11819   0.52641    0.000
 3966.00    0.75843   0.45625    0.000
 3967.00    1.28586   0.40854    0.000
 3968.00    1.61307   0.40836    0.000
 3969.00    1.17301   0.46706    0.000
 3970.00    0.90101   0.54982    0.000
 3971.00    1.16623   0.62214    0.000
 3972.00    1.42761   0.68897    0.000
 3973.00    1.67857   0.75529    0.000
 3974.00    1.71699   0.80554    0.000
 3975.00    1.26189   0.84431    0.000
 3976.00    0.85716   0.88800    0.000
 3977.00    0.55357   0.93214    0.000
 3978.00    0.40045   0.96383    0.000
 3979.00    0.51051   0.96738    0.000
 3980.00    0.77870   0.95254    0.000
 3981.00    1.28900   0.94881   -1.000
 3982.00    1.82467   0.96341   -1.000
 3983.00    2.39447   0.98529   -1.000
 3984.00    2.05359   0.99668   -1.000
 3985.00    0.63423   1.00884   -1.000
 3986.00   -0.07483   1.03361    0.000
 3987.00   -0.04220   1.03421    0.000
 3988.00   -0.21088   1.01991    0.000
 3989.00   -0.56500   1.02901    0.000
 3990.00   -0.32195   1.04945    0.000
 3991.00    0.40594   1.05953   -1.000
 3992.00    0.78791   1.04771   -1.000
 3993.00    0.92273   1.02922   -1.000
 3994.00    1.03335   1.01431   -1.000
 3995.00    1.12880   0.99867   -1.000
 3996.00    1.19697   1.00177   -1.000
 3997.00    1.25020   1.04016   -1.000
 3998.00    1.01115   1.07390   -1.000
 3999.00    0.63287   1.07695   -1.000
 4000.00    0.99954   1.08014   -1.000
 4001.00    1.67240   1.08631   -1.000
 4002.00    1.14439   1.05075   -1.000
 4003.00    0.19462   0.98321   -1.000
 4004.00    0.04895   0.96562   -1.000
 4005.00    0.14152   1.00609   -1.000
 4006.00    0.55140   1.03790   -1.000
 4007.00    1.03921   1.03992   -1.000
 4008.00    1.02171   1.04499   -1.000
 4009.00    0.90373   1.06075   -1.000
 4010.00    1.01483   1.06845   -1.000
 4011.00    1.16153   1.07322   -1.000
 4012.00    1.72269   1.07726   -1.000
 4013.00    2.33151   1.08851   -1.000
 4014.00    1.85788   1.08978   -1.000
 4015.00    1.30055   1.06841   -1.000
 4016.00    0.94351   1.06734   -1.000
 4017.00    0.59490   1.09633   -1.000
 4018.00    1.12466   1.10468   -1.000
 4019.00    1.64803   1.08487   -1.000
 4020.00    1.53985   1.07078   -1.000
 4021.00    1.39544   1.05869   -1.000
 4022.00    0.61226   1.02393   -1.000
 4023.00   -0.04727   0.98754    0.000
 4024.00    0.62355   0.99042   -1.000
 4025.00    1.25121   1.03446   -1.000
 4026.00    1.55125   1.07975   -1.000
 4027.00    1.65930   1.07777   -1.000
 4028.00    0.66000   1.02175   -1.000
 4029.00   -0.14409   0.97393    0.000
 4030.00   -0.05360   0.96677    0.000
 4031.00    0.10754   0.96852   -1.000
 4032.00    0.53369   0.97940   -1.000
 4033.00    0.87162   1.00857   -1.000
 4034.00    0.93304   1.05652   -1.000
 4035.00    0.99277   1.10470   -1.000
 4036.00    1.04802   1.12297   -1.000
 4037.00    1.00000   1.10828   -1.000
 4038.00    0.71615   1.07869   -1.000
 4039.00    0.64354   1.06379   -1.000
 4040.00    0.98853   1.07871   -1.000
 4041.00    1.12532   1.07183   -1.000
 4042.00    0.90342   1.00039   -1.000
 4043.00    0.66452   0.91392   -1.000
 4044.00    0.39995   0.90124   -1.000
 4045.00    0.11516   0.97816   -1.000
 4046.00   -0.19643   1.04971    0.000
 4047.00    0.42009   1.07185   -1.000
 4048.00    2.12019   1.08303   -1.000
 4049.00    2.47647   1.08626   -1.000
 4050.00    1.44922   1.06729   -1.000
 4051.00    0.92632   1.04423   -1.000
 4052.00    0.86142   1.02321   -1.000
 4053.00    0.95824   1.01106   -1.000
 4054.00    1.18448   1.01297   -1.000
 4055.00    1.24417   0.99976   -1.000
 4056.00    1.18657   0.98359   -1.000
 4057.00    1.65443   1.00397   -1.000
 4058.00    2.44687   1.04194   -1.000
 4059.00    2.30224   1.04950   -1.000
 4060.00    1.65198   1.00069   -1.000
 4061.00    1.29263   0.92974   -1.000
 4062.00    1.06962   0.91937   -1.000
 4063.00    1.26533   0.97506   -1.000
 4064.00    1.63021   1.00178   -1.000
 4065.00    1.74588   0.99011   -1.000
 4066.00    1.77563   1.00723   -1.000
 4067.00    1.80219   1.04064   -1.000
 4068.00    1.82782   1.02379   -1.000
 4069.00    1.27147   0.96038   -1.000
 4070.00    0.57534   0.94057   -1.000
 4071.00    0.52198   0.99471   -1.000
 4072.00    0.59317   1.03071   -1.000
 4073.00    1.05567   0.99979   -1.000
 4074.00    1.57713   0.93971   -1.000
 4075.00    1.91979   0.89818   -1.000
 4076.00    2.24268   0.90706   -1.000
 4077.00    2.11713   0.95717   -1.000
 4078.00    1.95875   1.01567   -1.000
 4079.00    1.17497   1.05464   -1.000
 4080.00    0.36724   1.04834   -1.000
 4081.00    0.86844   1.01254   -1.000
 4082.00    1.36449   0.98369   -1.000
 4083.00    1.39274   0.97663   -1.000
 4084.00    1.41996   0.99234   -1.000
 4085.00    1.43004   1.02252   -1.000
 4086.00    1.41871   1.04069   -1.000
 4087.00    1.18711   1.03580   -1.000
 4088.00    0.95592   1.02288   -1.000
 4089.00    0.72777   1.00609   -1.000
 4090.00    0.64372   0.98227   -1.000
 4091.00    1.36807   0.97300   -1.000
 4092.00    1.78335   0.96707    0.000
 4093.00    0.81557   0.92197    0.000
 4094.00    0.14950   0.86302    0.000
 4095.00    0.59152   0.82869    0.000
 4096.00    1.03548   0.80838    0.000
 4097.00    1.48541   0.77232    0.000
 4098.00    1.60732   0.69469    0.000
 4099.00    0.87186   0.60230    0.000
 4100.00    0.48845   0.58565    0.000
 4101.00    0.89565   0.65945    0.000
 4102.00    1.01645   0.74447    0.000
 4103.00    0.57994   0.81179    0.000
 4104.00    0.46691   0.86792    0.000
 4105.00    0.90275   0.89866    0.000
 4106.00    1.33959   0.91014    0.000
 4107.00    1.77789   0.91229    0.000
 4108.00    1.81725   0.91025    0.000
 4109.00    1.33534   0.91559    0.000
 4110.00    1.01363   0.93490    0.000
 4111.00    0.87631   0.96347    0.000
 4112.00    0.86936   0.98546    0.000
 4113.00    0.99476   0.99558    0.100
 4114.00    1.19966   1.00550   -1.000
 4115.00    1.47575   1.00377   -1.000
 4116.00    1.46279   0.97134   -1.000
 4117.00    1.22177   0.94053   -1.000
 4118.00    1.17382   0.94465   -1.000
 4119.00    1.25985   0.95897   -1.000
 4120.00    1.69967   0.96604   -1.000
 4121.00    2.35476   0.97511   -1.000
 4122.00    2.10941   0.99619   -1.000
 4123.00    1.38570   1.01579   -1.000
 4124.00    1.15937   1.00816    0.072
 4125.00    1.16239   0.98225    0.029
 4126.00    1.07848   0.96296    0.025
 4127.00    0.96005   0.96378    0.024
 4128.00    0.59702   0.96331    0.024
 4129.00    0.15119   0.94224    0.023
 4130.00    0.34287   0.91342    0.023
 4131.00    0.71593   0.91129    0.023
 4132.00    1.20572   0.93449    0.023
 4133.00    1.72290   0.97482    0.024
 4134.00    1.74690   1.01139    0.024
 4135.00    1.67781   1.01471    0.024
 4136.00    1.67609   1.01610    0.024
 4137.00    1.68421   1.02803    0.024
 4138.00    1.12859   1.03076    0.023
 4139.00    0.51307   1.00976    0.023
 4140.00    0.18702   0.94321    0.023
 4141.00   -0.11901   0.86207    0.000
 4142.00   -0.12413   0.85420    0.000
 4143.00   -0.11888   0.92229    0.000
 4144.00    0.50707   0.97726    0.023
 4145.00    1.12164   0.99408    0.024
 4146.00    1.31920   0.99168    0.024
 4147.00    1.48090   0.97204    0.024
 4148.00    1.08809   0.95724    0.023
 4149.00    0.73576   0.96274    0.023
 4150.00    0.78240   0.96421    0.023
 4151.00    0.85684   0.95276    0.023
 4152.00    1.12859   0.93969    0.023
 4153.00    1.30859   0.93793    0.023
 4154.00    0.98766   0.93881    0.023
 4155.00    0.66355   0.94599    0.023
 4156.00    0.32550   0.97262    0.023
 4157.00    0.14045   0.99611    0.022
 4158.00    0.50571   0.99898    0.022
 4159.00    0.91206   0.99526    0.023
 4160.00    1.44243   1.00739    0.023
 4161.00    1.67228   1.01950    0.023
 4162.00    1.13038   1.00958    0.023
 4163.00    0.71430   0.99620    0.022
 4164.00    0.57616   0.98251    0.022
 4165.00    0.57996   0.96048    0.022
 4166.00    0.85569   0.95703    0.022
 4167.00    1.06040   0.97781    0.023
 4168.00    1.14641   0.98489    0.023
 4169.00    1.18027   0.95274    0.023
 4170.00    1.13774   0.89889    0.023
 4171.00    1.09153   0.87652    0.023
 4172.00    1.04057   0.89801    0.023
 4173.00    1.07921   0.92690    0.023
 4174.00    1.21951   0.93686    0.023
 4175.00    1.18065   0.92631    0.023
 4176.00    0.96246   0.91928    0.023
 4177.00    0.70496   0.93799    0.023
 4178.00    0.41277   0.95971    0.023
 4179.00    0.56259   0.95314    0.023
 4180.00    1.05618   0.93627    0.023
 4181.00    0.88297   0.94063    0.023
 4182.00    0.25375   0.96097    0.022
 4183.00    0.25177   0.97973    0.022
 4184.00    0.62577   0.96288    0.022
 4185.00    0.84095   0.91912    0.022
 4186.00    0.97308   0.91549    0.022
 4187.00    1.21667   0.94899    0.022
 4188.00    1.51082   0.96455    0.023
 4189.00    1.32074   0.95806    0.023
 4190.00    0.94169   0.96956    0.023
 4191.00    0.94537   1.00051    0.023
 4192.00    1.07617   0.99861    0.023
 4193.00    0.90926   0.95765    0.022
 4194.00    0.65937   0.92264    0.022
 4195.00    0.52967   0.90481    0.022
 4196.00    0.42755   0.88433    0.022
 4197.00    0.76138   0.88119    0.022
 4198.00    1.17532   0.90012    0.023
 4199.00    0.95477   0.89930    0.022
 4200.00    0.64449   0.89136    0.022
 4201.00    0.49799   0.91004    0.022
 4202.00    0.36818   0.93239    0.021
 4203.00    0.64306   0.94316    0.021
 4204.00    0.94431   0.96042    0.021
 4205.00    0.99690   0.97886    0.021
 4206.00    1.04138   0.98765    0.021
 4207.00    0.77553   0.97827    0.021
 4208.00    0.52504   0.96377    0.021
 4209.00    0.72544   0.97076    0.021
 4210.00    0.92189   0.98683    0.022
 4211.00    1.06088   0.98320    0.021
 4212.00    1.14861   0.95194    0.021
 4213.00    0.75152   0.90569    0.021
 4214.00    0.47192   0.89960    0.021
 4215.00    0.99987   0.94970    0.021
 4216.00    1.37971   0.99226    0.021
 4217.00    0.97235   1.00410    0.021
 4218.00    0.68300   1.00900    0.021
 4219.00    0.89765   1.01008    0.021
 4220.00    1.09293   0.98523    0.021
 4221.00    1.21994   0.94288    0.021
 4222.00    1.24526   0.89434    0.021
 4223.00    0.96948   0.82958    0.021
 4224.00    0.78353   0.76145    0.021
 4225.00    0.82430   0.75465    0.021
 4226.00    0.81981   0.83904    0.021
 4227.00    0.71698   0.93043    0.020
 4228.00    0.66957   0.97299    0.020
 4229.00    0.72669   0.98604    0.020
 4230.00    0.72549   0.96397    0.020
 4231.00    0.62826   0.92530    0.020
 4232.00    0.61169   0.91977    0.020
 4233.00    0.71156   0.91957    0.020
 4234.00    0.65183   0.90086    0.020
 4235.00    0.38945   0.90412    0.020
 4236.00    0.35423   0.91950    0.020
 4237.00    0.57315   0.92261    0.020
 4238.00    0.73716   0.93488    0.020
 4239.00    0.84698   0.95869    0.020
 4240.00    0.87331   0.96542    0.020
 4241.00    0.82696   0.96975    0.020
 4242.00    0.94023   0.99700    0.020
 4243.00    1.17587   1.00706    0.020
 4244.00    1.19480   0.97525    0.021
 4245.00    1.06770   0.93662    0.021
 4246.00    0.93782   0.91827    0.021
 4247.00    0.80629   0.90436    0.021
 4248.00    0.77517   0.88217    0.021
 4249.00    0.79575   0.89197    0.021
 4250.00    0.61201   0.92877    0.021
 4251.00    0.33711   0.92638    0.021
 4252.00    0.21885   0.89130    0.022
 4253.00    0.16066   0.88923    0.022
 4254.00    0.63450   0.93226    0.022
 4255.00    1.28175   0.96611    0.021
 4256.00    1.53623   0.94484    0.022
 4257.00    1.68351   0.89383    0.022
 4258.00    1.34224   0.85592    0.022
 4259.00    0.89148   0.86248    0.021
 4260.00    0.83141   0.91945    0.021
 4261.00    0.84121   0.97524    0.021
 4262.00    1.07259   0.99618    0.022
 4263.00    1.33428   0.99962    0.022
 4264.00    0.83064   0.98916    0.022
 4265.00    0.25225   0.95530    0.021
 4266.00    0.46506   0.92852    0.021
 4267.00    0.72626   0.91500    0.021
 4268.00    0.57758   0.87678    0.021
 4269.00    0.42186   0.81790    0.021
 4270.00    1.04874   0.80046    0.021
 4271.00    1.64002   0.83097    0.021
 4272.00    1.28980   0.84256    0.021
 4273.00    0.96751   0.84917    0.021
 4274.00    1.02907   0.89292    0.021
 4275.00    1.05354   0.94330    0.021
 4276.00    0.74123   0.96632    0.021
 4277.00    0.43450   0.95112    0.021
 4278.00    0.16498   0.91610    0.020
 4279.00    0.02713   0.90455    0.020
 4280.00    0.57095   0.91088    0.020
 4281.00    1.09444   0.91676    0.020
 4282.00    1.53311   0.91719   -2.000
 4283.00    1.87911   0.89826   -2.000
 4284.00    1.90522   0.88628   -2.000
 4285.00    1.94089   0.89127   -2.000
 4286.00    2.00431   0.87377   -2.000
 4287.00    1.88695   0.82423   -2.000
 4288.00    1.32122   0.79606   -2.000
 4289.00    0.84251   0.82552   -2.000
 4290.00    0.54986   0.88039   -2.000
 4291.00    0.55138   0.90682   -2.000
 4292.00    1.09911   0.88940   -2.000
 4293.00    1.38716   0.87537   -2.000
 4294.00    1.25408   0.87473   -2.000
 4295.00    1.06118   0.85673   -2.000
 4296.00    0.78317   0.81621   -2.000
 4297.00    0.69231   0.76220   -2.000
 4298.00    0.83570   0.73796    0.020
 4299.00    0.85761   0.75675    0.020
 4300.00    0.74555   0.76825    0.020
 4301.00    0.70043   0.76897    0.020
 4302.00    0.72045   0.78285    0.020
 4303.00    0.62912   0.78795    0.020
 4304.00    0.44227   0.77379    0.020
 4305.00    0.62306   0.74431    0.020
 4306.00    1.08167   0.71583    0.020
 4307.00    1.10048   0.72338    0.020
 4308.00    0.82723   0.75961    0.020
 4309.00    0.72315   0.79608    0.020
 4310.00    0.71746   0.82238    0.020
 4311.00    0.69457   0.83958    0.020
 4312.00    0.66297   0.85500    0.020
 4313.00    0.61038   0.89826    0.020
 4314.00    0.54860   0.96746    0.019
 4315.00    0.62069   1.00392    0.019
 4316.00    0.74322   0.99623    0.020
 4317.00    0.74547   0.97673    0.020
 4318.00    0.70927   0.95689    0.020
 4319.00    0.82919   0.93870    0.020
 4320.00    0.99083   0.92288    0.020
 4321.00    1.14138   0.87637    0.020
 4322.00    1.28951   0.80178    0.020
 4323.00    0.95651   0.74315    0.020
 4324.00    0.53981   0.74898    0.020
 4325.00    0.58245   0.82880    0.020
 4326.00    0.68585   0.91100    0.020
 4327.00    0.61902   0.93513    0.020
 4328.00    0.53628   0.91242    0.020
 4329.00    0.99266   0.89404    0.021
 4330.00    1.47987   0.89587    0.000
 4331.00    1.26417   0.89613    0.000
 4332.00    1.03498   0.89478    0.000
 4333.00    1.13629   0.88836    0.000
 4334.00    1.25730   0.83990    0.000
 4335.00    1.85141   0.74308    0.000
 4336.00    2.37399   0.65467    0.000
 4337.00    1.96540   0.58982    0.000
 4338.00    1.53888   0.54410    0.000
 4339.00    0.95564   0.57423    0.000
 4340.00    0.46183   0.66994    0.000
 4341.00    0.54569   0.73899    0.000
 4342.00    0.64439   0.77305    0.000
 4343.00    0.81801   0.81440    0.000
 4344.00    0.99278   0.84500    0.000
 4345.00    1.17222   0.85859    0.000
 4346.00    1.25009   0.88780    0.000
 4347.00    0.98436   0.91809    0.000
 4348.00    0.80671   0.89225    0.000
 4349.00    0.88039   0.81766    0.000
 4350.00    0.93331   0.78447    0.000
 4351.00    0.93562   0.82590    0.059
 4352.00    0.92783   0.87480   -1.000
 4353.00    0.89881   0.89811   -1.000
 4354.00    0.93825   0.92213   -1.000
 4355.00    1.10287   0.93810   -1.000
 4356.00    1.16805   0.91861   -1.000
 4357.00    1.07437   0.89251   -1.000
 4358.00    0.97730   0.90595   -1.000
 4359.00    0.87548   0.94294   -1.000
 4360.00    0.88563   0.96031    0.088
 4361.00    1.03394   0.96050    0.027
 4362.00    1.15956   0.97532    0.020
 4363.00    1.26051   0.99061    0.020
 4364.00    1.39924   0.96728    0.020
 4365.00    1.57421   0.92171    0.021
 4366.00    1.55982   0.90142    0.020
 4367.00    1.38526   0.91137    0.020
 4368.00    1.13125   0.92076    0.020
 4369.00    0.81808   0.92553    0.020
 4370.00    0.78421   0.92417    0.020
 4371.00    0.93310   0.89766    0.020
 4372.00    0.91870   0.85356    0.020
 4373.00    0.81078   0.83626    0.020
 4374.00    0.78391   0.86982    0.020
 4375.00    0.79745   0.92282    0.020
 4376.00    1.11582   0.94910    0.020
 4377.00    1.56573   0.94150    0.020
 4378.00    1.55582   0.92276    0.020
 4379.00    1.37578   0.89837    0.020
 4380.00    1.16485   0.83383    0.020
 4381.00    0.94423   0.73876    0.020
 4382.00    0.79556   0.70188    0.019
 4383.00    0.66572   0.75712    0.019
 4384.00    0.81174   0.83174    0.019
 4385.00    1.01669   0.85501    0.019
 4386.00    1.16241   0.84793    0.019
 4387.00    1.29811   0.85048    0.019
 4388.00    1.23118   0.85578    0.019
 4389.00    1.13837   0.86815    0.019
 4390.00    1.27495   0.89254    0.019
 4391.00    1.43199   0.90048    0.019
 4392.00    1.22811   0.88087    0.019
 4393.00    1.00501   0.87160    0.018
 4394.00    0.95591   0.90656    0.018
 4395.00    0.90971   0.95033    0.019
 4396.00    0.82271   0.95084    0.019
 4397.00    0.74313   0.91489    0.019
 4398.00    0.82684   0.87583    0.019
 4399.00    0.88496   0.87688    0.018
 4400.00    0.62704   0.90834    0.019
 4401.00    0.39534   0.89062    0.019
 4402.00    0.38423   0.81976    0.019
 4403.00    0.42086   0.79368    0.019
 4404.00    0.75676   0.83338    0.019
 4405.00    0.99051   0.85813    0.019
 4406.00    0.72181   0.85379    0.019
 4407.00    0.54202   0.87562    0.019
 4408.00    0.71718   0.92120    0.019
 4409.00    0.85982   0.95093    0.019
 4410.00    0.89461   0.96344    0.019
 4411.00    0.95218   0.94828    0.019
 4412.00    1.07362   0.88658    0.019
 4413.00    1.19184   0.83090    0.019
 4414.00    1.30239   0.83828    0.019
 4415.00    1.27196   0.87666    0.019
 4416.00    0.94976   0.91520    0.019
 4417.00    0.79126   0.95176    0.019
 4418.00    0.92744   0.96282    0.019
 4419.00    0.94385   0.93554    0.019
 4420.00    0.77172   0.89696    0.019
 4421.00    0.73059   0.88915    0.019
 4422.00    0.87049   0.90847    0.019
 4423.00    1.05718   0.91644    0.019
 4424.00    1.30077   0.90926    0.019
 4425.00    1.37697   0.90833    0.019
 4426.00    1.27370   0.91926    0.019
 4427.00    1.28648   0.91573    0.019
 4428.00    1.40903   0.89154    0.019
 4429.00    1.25957   0.89316    0.019
 4430.00    0.88328   0.91200    0.019
 4431.00    0.97220   0.89761    0.019
 4432.00    1.40268   0.85643    0.020
 4433.00    1.22984   0.83191    0.020
 4434.00    0.66801   0.85312    0.019
 4435.00    0.60869   0.90431    0.019
 4436.00    0.83281   0.94806    0.019
 4437.00    0.84555   0.96498    0.019
 4438.00    0.75451   0.94365    0.019
 4439.00    0.83767   0.89653    0.020
 4440.00    0.99474   0.85622    0.020
 4441.00    0.99066   0.84857    0.020
 4442.00    0.92801   0.88248    0.020
 4443.00    0.90222   0.93171    0.020
 4444.00    0.88777   0.94942    0.020
 4445.00    0.67624   0.93646    0.020
 4446.00    0.41426   0.93571    0.020
 4447.00    0.51870   0.93726    0.020
 4448.00    0.69951   0.92266    0.020
 4449.00    0.79087   0.91954    0.020
 4450.00    0.86754   0.92272    0.020
 4451.00    0.93734   0.90125    0.020
 4452.00    1.00630   0.85688    0.020
 4453.00    0.86400   0.82476    0.020
 4454.00    0.70373   0.83296    0.019
 4455.00    1.11115   0.85160    0.019
 4456.00    1.54659   0.85027    0.020
 4457.00    1.43119   0.84238    0.020
 4458.00    1.30959   0.83798    0.019
 4459.00    1.34966   0.82638    0.019
 4460.00    1.37996   0.83132    0.019
 4461.00    1.21236   0.87192    0.000
 4462.00    1.05785   0.90007    0.000
 4463.00    1.05715   0.89578    0.000
 4464.00    1.06389   0.88860    0.000
 4465.00    1.13088   0.88535    0.000
 4466.00    1.15360   0.87286    0.000
 4467.00    0.90692   0.85231    0.000
 4468.00    0.76501   0.84254    0.000
 4469.00    1.12572   0.85040    0.000
 4470.00    1.44018   0.88023    0.000
 4471.00    1.57398   0.92172    0.000
 4472.00    1.63810   0.94307    0.000
 4473.00    1.47562   0.94209    0.000
 4474.00    1.35838   0.94997    0.000
 4475.00    1.36557   0.97013    0.000
 4476.00    1.29316   0.96710    0.000
 4477.00    1.03319   0.92283    0.000
 4478.00    0.88539   0.86111    0.000
 4479.00    0.96605   0.82522    0.000
 4480.00    1.14451   0.84017    0.000
 4481.00    1.49636   0.89169    0.000
 4482.00    1.56393   0.93867    0.020
 4483.00    1.19059   0.96318    0.019
 4484.00    0.88692   0.96784    0.019
 4485.00    0.67812   0.94761    0.019
 4486.00    0.57953   0.90622    0.019
 4487.00    0.61309   0.87187    0.019
 4488.00    0.68204   0.87072    0.019
 4489.00    0.78840   0.89947    0.019
 4490.00    0.92118   0.92546    0.019
 4491.00    1.07860   0.91680    0.019
 4492.00    1.08482   0.88126    0.019
 4493.00    0.96674   0.86243    0.019
 4494.00    0.87101   0.87414    0.019
 4495.00    0.79146   0.90180    0.019
 4496.00    0.82913   0.93112    0.019
 4497.00    0.94126   0.94385    0.019
 4498.00    0.99440   0.93145    0.018
 4499.00    1.01477   0.91108    0.018
 4500.00    0.88850   0.92550    0.018
 4501.00    0.69139   0.97048    0.018
 4502.00    0.86579   0.99549    0.019
 4503.00    1.19519   0.98915    0.019
 4504.00    1.15290   0.97024    0.019
 4505.00    0.97795   0.95158    0.018
 4506.00    0.96323   0.94481    0.018
 4507.00    0.99682   0.95349    0.018
 4508.00    0.83675   0.96549    0.018
 4509.00    0.62816   0.96142    0.018
 4510.00    0.90144   0.93945    0.018
 4511.00    1.27267   0.91706    0.018
 4512.00    1.30489   0.90434    0.018
 4513.00    1.28303   0.90670    0.018
 4514.00    1.15182   0.91670    0.018
 4515.00    1.00761   0.91294    0.018
 4516.00    0.86038   0.90677    0.018
 4517.00    0.71291   0.92027    0.018
 4518.00    0.89799   0.94018    0.018
 4519.00    1.09819   0.94416    0.018
 4520.00    1.19103   0.92108    0.018
 4521.00    1.27440   0.89746    0.018
 4522.00    0.94205   0.89250    0.018
 4523.00    0.63378   0.87849    0.018
 4524.00    0.77753   0.85080    0.017
 4525.00    0.91794   0.82499    0.017
 4526.00    1.02104   0.80778    0.018
 4527.00    1.10411   0.80760    0.018
 4528.00    1.03039   0.82481    0.018
 4529.00    1.00869   0.84709    0.018
 4530.00    1.29461   0.86305    0.018
 4531.00    1.52439   0.85016    0.018
 4532.00    1.49137   0.82056    0.018
 4533.00    1.44432   0.81642    0.018
 4534.00    1.34363   0.85830    0.018
 4535.00    1.22520   0.91696    0.018
 4536.00    1.05024   0.93514    0.018
 4537.00    0.94016   0.91186    0.018
 4538.00    1.00537   0.88164    0.018
 4539.00    0.97444   0.87103    0.017
 4540.00    0.72076   0.88855    0.018
 4541.00    0.56457   0.90412    0.018
 4542.00    0.60383   0.89169    0.018
 4543.00    0.65496   0.87561    0.018
 4544.00    0.72682   0.87942    0.017
 4545.00    0.72663   0.88424    0.017
 4546.00    0.61635   0.86805    0.017
 4547.00    0.61978   0.84444    0.017
 4548.00    0.77585   0.85166    0.017
 4549.00    0.91453   0.87595    0.017
 4550.00    1.03264   0.87344    0.000
 4551.00    1.02263   0.85525    0.000
 4552.00    0.87907   0.84151    0.000
 4553.00    0.76039   0.84244    0.000
 4554.00    0.66460   0.86961    0.000
 4555.00    0.68904   0.90639    0.000
 4556.00    0.81093   0.92448    0.000
 4557.00    0.84357   0.92651    0.000
 4558.00    0.81255   0.92607    0.000
 4559.00    0.73075   0.92852    0.000
 4560.00    0.61716   0.92188    0.000
 4561.00    0.66263   0.89173    0.000
 4562.00    0.79509   0.85975    0.000
 4563.00    0.80778   0.85523    0.000
 4564.00    0.76354   0.88059    0.000
 4565.00    0.78009   0.91456    0.000
 4566.00    0.82158   0.92981    0.000
 4567.00    0.89331   0.92491    0.000
 4568.00    0.97563   0.90297    0.000
 4569.00    0.98668   0.87113    0.000
 4570.00    0.97667   0.87268    0.000
 4571.00    0.91973   0.90748    0.000
 4572.00    0.85129   0.92050    0.000
 4573.00    0.88077   0.91211    0.000
 4574.00    0.92966   0.91164    0.000
 4575.00    0.99528   0.91200    0.000
 4576.00    1.06349   0.89585    0.000
 4577.00    1.12211   0.86515    0.000
 4578.00    1.17963   0.84178    0.000
 4579.00    1.12116   0.84305    0.000
 4580.00    1.05379   0.85777    0.000
 4581.00    1.03684   0.86202    0.000
 4582.00    1.02199   0.85698    0.000
 4583.00    1.06166   0.85457    0.000
 4584.00    1.09913   0.85924    0.000
 4585.00    1.02220   0.87841    0.000
 4586.00    0.95877   0.90241    0.000
 4587.00    1.13129   0.91223    0.000
 4588.00    1.27245   0.89923    0.000
 4589.00    1.07802   0.87379    0.000
 4590.00    0.90833   0.85874    0.000
 4591.00    0.92562   0.86006    0.000
 4592.00    0.95597   0.85997    0.000
 4593.00    1.06135   0.85254    0.000
 4594.00    1.14366   0.85187    0.000
 4595.00    1.12053   0.85944    0.000
 4596.00    1.09009   0.86914    0.000
 4597.00    1.03231   0.87209    0.000
 4598.00    0.95090   0.85958    0.000
 4599.00    0.79555   0.85380    0.000
 4600.00    0.73501   0.86345    0.000
 4601.00    0.92615   0.86907    0.000
 4602.00    1.07555   0.86587    0.000
 4603.00    1.12982   0.86052    0.000
 4604.00    1.13191   0.86874    0.000
 4605.00    1.03103   0.89360    0.000
 4606.00    0.98229   0.92194    0.000
 4607.00    1.02321   0.93374    0.000
 4608.00    0.99190   0.92128    0.000
 4609.00    0.85182   0.90102    0.000
 4610.00    0.76897   0.88818    0.000
 4611.00    0.76185   0.88382    0.000
 4612.00    0.80225   0.89314    0.000
 4613.00    0.89805   0.90437    0.000
 4614.00    1.11759   0.90370    0.000
 4615.00    1.46431   0.90304    0.000
 4616.00    1.54741   0.89466    0.000
 4617.00    1.39153   0.88100    0.000
 4618.00    1.15561   0.88926    0.000
 4619.00    0.85573   0.90633    0.000
 4620.00    0.73159   0.90708    0.000
 4621.00    0.73097   0.90485    0.000
 4622.00    0.76502   0.90393    0.000
 4623.00    0.82043   0.89474    0.000
 4624.00    0.90881   0.88950    0.000
 4625.00    1.01493   0.89461    0.000
 4626.00    1.03632   0.89125    0.000
 4627.00    1.01806   0.87942    0.000
 4628.00    0.96710   0.88495    0.000
 4629.00    0.90295   0.90168    0.000
 4630.00    0.83847   0.89607    0.000
 4631.00    0.77388   0.87327    0.000
 4632.00    0.77593   0.86393    0.000
 4633.00    0.79727   0.86826    0.000
 4634.00    1.02002   0.86696    0.000
 4635.00    1.29101   0.85292    0.000
 4636.00    1.25592   0.83915    0.000
 4637.00    1.16172   0.83383    0.000
 4638.00    1.00424   0.83844    0.000
 4639.00    0.83726   0.85685    0.000
 4640.00    0.76192   0.86970    0.000
 4641.00    0.69667   0.86379    0.000
 4642.00    0.85838   0.85019    0.000
 4643.00    1.03659   0.82765    0.000
 4644.00    1.03126   0.79580    0.000
 4645.00    1.01900   0.78048    0.000
 4646.00    1.02100   0.79212    0.000
 4647.00    1.01949   0.81620    0.000
 4648.00    0.88520   0.83911    0.000
 4649.00    0.76681   0.85592    0.000
 4650.00    0.90828   0.86686    0.000
 4651.00    1.02267   0.86380    0.000
 4652.00    0.85982   0.84163    0.000
 4653.00    0.72629   0.82373    0.000
 4654.00    0.80699   0.82630    0.000
 4655.00    0.86984   0.84939    0.000
 4656.00    0.83295   0.88641    0.000
 4657.00    0.82657   0.91342    0.000
 4658.00    0.95636   0.91246    0.000
 4659.00    1.03661   0.88820    0.000
 4660.00    0.93539   0.85977    0.000
 4661.00    0.86117   0.84278    0.000
 4662.00    0.86981   0.83917    0.000
 4663.00    0.88597   0.82621    0.000
 4664.00    0.92175   0.78560    0.000
 4665.00    0.94119   0.74849    0.000
 4666.00    0.92396   0.75505    0.000
 4667.00    0.90461   0.79473    0.000
 4668.00    0.88113   0.83345    0.000
 4669.00    0.91533   0.85371    0.000
 4670.00    1.04721   0.85140    0.000
 4671.00    1.11431   0.83972    0.000
 4672.00    1.08530   0.83849    0.000
 4673.00    1.06095   0.85209    0.000
 4674.00    1.04270   0.86774    0.000
 4675.00    1.06786   0.86391    0.000
 4676.00    1.14291   0.84266    0.000
 4677.00    1.07835   0.82440    0.000
 4678.00    0.87231   0.81486    0.000
 4679.00    0.86275   0.81196    0.000
 4680.00    1.02879   0.82184    0.000
 4681.00    0.91614   0.83910    0.000
 4682.00    0.58402   0.84493    0.000
 4683.00    0.51177   0.83952    0.000
 4684.00    0.61953   0.83553    0.000
 4685.00    0.80150   0.83249    0.000
 4686.00    1.02853   0.83222    0.000
 4687.00    0.97328   0.83560    0.000
 4688.00    0.76836   0.83231    0.000
 4689.00    0.82536   0.82521    0.000
 4690.00    1.00289   0.82768    0.000
 4691.00    1.11118   0.83724    0.000
 4692.00    1.19205   0.84926    0.000
 4693.00    1.05410   0.86287    0.000
 4694.00    0.84226   0.86565    0.000
 4695.00    0.85202   0.84431    0.000
 4696.00    0.92466   0.81101    0.000
 4697.00    0.95516   0.79689    0.000
 4698.00    0.97580   0.80375    0.000
 4699.00    0.88996   0.80345    0.000
 4700.00    0.78409   0.79085    0.000
 4701.00    0.84419   0.78800    0.000
 4702.00    0.92843   0.80523    0.000
 4703.00    0.93585   0.82052    0.000
 4704.00    0.93515   0.81556    0.000
 4705.00    0.84174   0.79975    0.000
 4706.00    0.74196   0.78980    0.000
 4707.00    0.81142   0.79367    0.000
 4708.00    0.88663   0.81400    0.000
 4709.00    0.70870   0.83476    0.000
 4710.00    0.53697   0.83006    0.000
 4711.00    0.57967   0.80824    0.000
 4712.00    0.62364   0.79529    0.000
 4713.00    0.68694   0.80813    0.000
 4714.00    0.74915   0.83635    0.000
 4715.00    0.80064   0.85521    0.000
 4716.00    0.86002   0.86373    0.000
 4717.00    0.97520   0.87293    0.000
 4718.00    1.05572   0.87675    0.000
 4719.00    0.94768   0.86833    0.000
 4720.00    0.87202   0.85713    0.000
 4721.00    0.93750   0.85902    0.000
 4722.00    0.97230   0.87269    0.000
 4723.00    0.89702   0.87547    0.000
 4724.00    0.86464   0.85016    0.000
 4725.00    0.96138   0.80741    0.000
 4726.00    1.00157   0.77990    0.000
 4727.00    0.89686   0.77880    0.000
 4728.00    0.80016   0.78719    0.000
 4729.00    0.72114   0.79885    0.000
 4730.00    0.71949   0.81503    0.000
 4731.00    0.86577   0.82715    0.000
 4732.00    0.91439   0.83364    0.000
 4733.00    0.80010   0.83214    0.000
 4734.00    0.69857   0.81731    0.000
 4735.00    0.61569   0.81613    0.000
 4736.00    0.62035   0.83769    0.000
 4737.00    0.73754   0.84601    0.000
 4738.00    0.73165   0.83329    0.000
 4739.00    0.58631   0.82606    0.000
 4740.00    0.55492   0.83433    0.000
 4741.00    0.63735   0.84368    0.000
 4742.00    0.67871   0.84112    0.000
 4743.00    0.68386   0.83843    0.000
 4744.00    0.61029   0.84779    0.000
 4745.00    0.47559   0.85432    0.000
 4746.00    0.54397   0.85085    0.000
 4747.00    0.75100   0.84985    0.000
 4748.00    0.81612   0.85115    0.000
 4749.00    0.79634   0.84391    0.000
 4750.00    0.84542   0.83062    0.000
 4751.00    0.93045   0.82020    0.000
 4752.00    0.87223   0.81320    0.000
 4753.00    0.74915   0.81059    0.000
 4754.00    0.75934   0.81190    0.000
 4755.00    0.82142   0.81700    0.000
 4756.00    0.72205   0.82553    0.000
 4757.00    0.56919   0.83441    0.000
 4758.00    0.49317   0.83310    0.000
 4759.00    0.43851   0.81345    0.000
 4760.00    0.54280   0.79102    0.000
 4761.00    0.68345   0.78183    0.015
 4762.00    0.74445   0.77525    0.015
 4763.00    0.79085   0.76529    0.015
 4764.00    0.68573   0.76580    0.015
 4765.00    0.55927   0.78287    0.015
 4766.00    0.53814   0.80640    0.015
 4767.00    0.52769   0.82560    0.015
 4768.00    0.66195   0.82678    0.015
 4769.00    0.80557   0.81031    0.016
 4770.00    0.81203   0.80304    0.016
 4771.00    0.81428   0.81855    0.015
 4772.00    0.78637   0.83883    0.015
 4773.00    0.76372   0.84289    0.015
 4774.00    0.89356   0.83925    0.015
 4775.00    1.01295   0.84276    0.015
 4776.00    0.98127   0.84212    0.015
 4777.00    0.92690   0.83252    0.015
 4778.00    0.65908   0.82646    0.015
 4779.00    0.43596   0.82239    0.015
 4780.00    0.51894   0.80858    0.015
 4781.00    0.63013   0.79591    0.015
 4782.00    0.89074   0.79991    0.015
 4783.00    1.09477   0.80137    0.014
 4784.00    1.05777   0.79053    0.015
 4785.00    1.00658   0.79036    0.015
 4786.00    0.90549   0.79573    0.015
 4787.00    0.81432   0.79276    0.015
 4788.00    0.75243   0.79469    0.015
 4789.00    0.66179   0.80447    0.015
 4790.00    0.49872   0.81771    0.015
 4791.00    0.44089   0.83806    0.015
 4792.00    0.61126   0.85673    0.015
 4793.00    0.76841   0.85905    0.015
 4794.00    0.90069   0.84613    0.015
 4795.00    0.91497   0.82708    0.015
 4796.00    0.73535   0.80667    0.015
 4797.00    0.67851   0.79345    0.015
 4798.00    0.79862   0.79856    0.015
 4799.00    0.81758   0.81942    0.015
 4800.00    0.70837   0.83739    0.015
 4801.00    0.60977   0.83667    0.015
 4802.00    0.52301   0.81996    0.015
 4803.00    0.54064   0.80499    0.015
 4804.00    0.66111   0.79995    0.015
 4805.00    0.73394   0.79450    0.015
 4806.00    0.76538   0.79214    0.015
 4807.00    0.83811   0.80096    0.015
 4808.00    0.94244   0.81089    0.015
 4809.00    0.94700   0.81258    0.015
 4810.00    0.88445   0.81013    0.015
 4811.00    0.84248   0.80948    0.015
 4812.00    0.81264   0.81233    0.015
 4813.00    0.83017   0.81821    0.015
 4814.00    0.87203   0.82623    0.015
 4815.00    0.89780   0.83316    0.015
 4816.00    0.91640   0.83725    0.016
 4817.00    0.95758   0.83853    0.016
 4818.00    1.00740   0.83482    0.016
 4819.00    0.99785   0.82469    0.015
 4820.00    0.96899   0.80076    0.015
 4821.00    0.88324   0.77248    0.015
 4822.00    0.78201   0.77176    0.015
 4823.00    0.85256   0.79596    0.015
 4824.00    0.96149   0.81131    0.015
 4825.00    0.89853   0.80587    0.015
 4826.00    0.80494   0.79358    0.015
 4827.00    0.72017   0.79080    0.015
 4828.00    0.63659   0.79192    0.015
 4829.00    0.66214   0.78123    0.015
 4830.00    0.69828   0.77303    0.015
 4831.00    0.65492   0.78451    0.015
 4832.00    0.60673   0.79890    0.016
 4833.00    0.67950   0.80037    0.015
 4834.00    0.75502   0.79678    0.015
 4835.00    0.74871   0.79357    0.015
 4836.00    0.74144   0.78155    0.015
 4837.00    0.70941   0.76424    0.015
 4838.00    0.67741   0.75933    0.015
 4839.00    0.64580   0.76621    0.015
 4840.00    0.61401   0.76609    0.015
 4841.00    0.58049   0.76143    0.015
 4842.00    0.56699   0.77150    0.015
 4843.00    0.68630   0.78809    0.015
 4844.00    0.78384   0.78833    0.015
 4845.00    0.76913   0.76875    0.015
 4846.00    0.79781   0.74759    0.016
 4847.00    1.00715   0.74738    0.016
 4848.00    1.14100   0.76008    0.000
 4849.00    1.01497   0.76088    0.000
 4850.00    0.90316   0.75202    0.000
 4851.00    0.83262   0.73621    0.000
 4852.00    0.76815   0.70257    0.000
 4853.00    0.71871   0.67042    0.000
 4854.00    0.68229   0.66704    0.000
 4855.00    0.67365   0.67197    0.000
 4856.00    0.66299   0.64713    0.000
 4857.00    0.64858   0.58524    0.000
 4858.00    0.74322   0.51104    0.000
 4859.00    1.01440   0.48015    0.000
 4860.00    1.13983   0.52348    0.000
 4861.00    1.05826   0.59083    0.000
 4862.00    0.93283   0.63376    0.000
 4863.00    0.75259   0.66417    0.000
 4864.00    0.68550   0.68920    0.000
 4865.00    0.74300   0.70283    0.000
 4866.00    0.81459   0.71107    0.000
 4867.00    0.89988   0.71099    0.000
 4868.00    0.90414   0.68691    0.000
 4869.00    0.83899   0.65946    0.000
 4870.00    0.83090   0.66938    0.000
 4871.00    0.86585   0.70450    0.000
 4872.00    0.88565   0.72518    0.000
 4873.00    0.89541   0.73036    0.000
 4874.00    0.94537   0.73807    0.000
 4875.00    1.01867   0.74857    0.016
 4876.00    1.00260   0.76327    0.016
 4877.00    0.94134   0.78039    0.015
 4878.00    0.92472   0.77576    0.015
 4879.00    0.92766   0.75473    0.016
 4880.00    0.95978   0.75007    0.016
 4881.00    1.00285   0.75548    0.016
 4882.00    0.82206   0.74469    0.016
 4883.00    0.56985   0.72408    0.015
 4884.00    0.59903   0.71720    0.016
 4885.00    0.70322   0.72671    0.016
 4886.00    0.75770   0.73495    0.016
 4887.00    0.80135   0.72474    0.016
 4888.00    0.81285   0.69765    0.016
 4889.00    0.81879   0.69026    0.016
 4890.00    0.77804   0.72865    0.016
 4891.00    0.73114   0.77859    0.016
 4892.00    0.91420   0.80926    0.016
 4893.00    1.11863   0.82195    0.016
 4894.00    0.87886   0.82177    0.016
 4895.00    0.61390   0.81654    0.016
 4896.00    0.77032   0.80492    0.016
 4897.00    0.93343   0.78483    0.016
 4898.00    0.77743   0.77499    0.016
 4899.00    0.63003   0.77950    0.016
 4900.00    0.68647   0.77519    0.016
 4901.00    0.73777   0.76441    0.016
 4902.00    0.72250   0.77177    0.016
 4903.00    0.72398   0.79479    0.016
 4904.00    0.87124   0.80631    0.016
 4905.00    0.98894   0.79375    0.016
 4906.00    0.91646   0.76826    0.016
 4907.00    0.86708   0.74230    0.016
 4908.00    0.93385   0.72905    0.016
 4909.00    0.93287   0.73859    0.016
 4910.00    0.65614   0.75889    0.016
 4911.00    0.45060   0.77420    0.016
 4912.00    0.48536   0.78714    0.016
 4913.00    0.52084   0.79755    0.016
 4914.00    0.55840   0.78974    0.016
 4915.00    0.62474   0.75444    0.016
 4916.00    0.76107   0.70286    0.016
 4917.00    0.78169   0.66028    0.016
 4918.00    0.55940   0.64751    0.016
 4919.00    0.45505   0.66914    0.016
 4920.00    0.56589   0.70292    0.015
 4921.00    0.68551   0.71727    0.015
 4922.00    0.81913   0.71881    0.016
 4923.00    0.87750   0.73567    0.016
 4924.00    0.83056   0.76387    0.015
 4925.00    0.87279   0.78126    0.015
 4926.00    1.02486   0.79270    0.016
 4927.00    0.96386   0.80251    0.016
 4928.00    0.67154   0.80324    0.015
 4929.00    0.56608   0.79476    0.015
 4930.00    0.63955   0.76976    0.015
 4931.00    0.69948   0.73820    0.015
 4932.00    0.74796   0.73608    0.015
 4933.00    0.74237   0.75595    0.015
 4934.00    0.69658   0.75350    0.015
 4935.00    0.72881   0.72233    0.015
 4936.00    0.81200   0.69524    0.015
 4937.00    0.76783   0.70240    0.015
 4938.00    0.65086   0.73910    0.015
 4939.00    0.58063   0.77011    0.015
 4940.00    0.53367   0.78218    0.000
 4941.00    0.56298   0.78970    0.000
 4942.00    0.62514   0.78915    0.000
 4943.00    0.70370   0.77694    0.000
 4944.00    0.78831   0.77287    0.000
 4945.00    0.84104   0.78334    0.000
 4946.00    0.88379   0.79228    0.000
 4947.00    0.84202   0.79492    0.000
 4948.00    0.77821   0.79820    0.000
 4949.00    0.83031   0.79820    0.000
 4950.00    0.90710   0.78797    0.000
 4951.00    0.91216   0.77732    0.000
 4952.00    0.90514   0.77290    0.000
 4953.00    0.85703   0.75704    0.000
 4954.00    0.80369   0.71010    0.000
 4955.00    0.85340   0.66592    0.000
 4956.00    0.91225   0.68437    0.000
 4957.00    0.79932   0.74327    0.000
 4958.00    0.67733   0.77730    0.000
 4959.00    0.76521   0.77877    0.000
 4960.00    0.85578   0.77578    0.000
 4961.00    0.84300   0.77416    0.000
 4962.00    0.82879   0.75852    0.000
 4963.00    0.78354   0.73531    0.000
 4964.00    0.73451   0.72614    0.000
 4965.00    0.63923   0.72856    0.000
 4966.00    0.55960   0.73193    0.000
 4967.00    0.61112   0.73619    0.000
 4968.00    0.65456   0.74287    0.000
 4969.00    0.64762   0.75429    0.000
 4970.00    0.64105   0.76584    0.000
 4971.00    0.63631   0.77311    0.000
 4972.00    0.63381   0.77655    0.000
 4973.00    0.64023   0.77274    0.000
 4974.00    0.69379   0.76305    0.000
 4975.00    0.90331   0.74840    0.000
 4976.00    1.03490   0.73236    0.000
 4977.00    0.94869   0.72500    0.000
 4978.00    0.81310   0.71748    0.000
 4979.00    0.55945   0.69195    0.000
 4980.00    0.39815   0.66064    0.000
 4981.00    0.42762   0.65269    0.000
 4982.00    0.48290   0.66877    0.000
 4983.00    0.58453   0.69207    0.000
 4984.00    0.62645   0.71910    0.000
 4985.00    0.57456   0.74185    0.000
 4986.00    0.60215   0.74588    0.000
 4987.00    0.73938   0.73533    0.000
 4988.00    0.77616   0.72340    0.000
 4989.00    0.69098   0.72245    0.000
 4990.00    0.66542   0.72942    0.000
 4991.00    0.70365   0.72882    0.000
 4992.00    0.70965   0.72924    0.000
 4993.00    0.68522   0.73891    0.000
 4994.00    0.67348   0.74418    0.000
 4995.00    0.67231   0.73970    0.000
 4996.00    0.68076   0.72495    0.000
 4997.00    0.69626   0.70252    0.000
 4998.00    0.74173   0.68705    0.000
 4999.00    0.80648   0.68492    0.000
 5000.00    0.82676   0.69122    0.000
 5001.00    0.82201   0.69562    0.000
 5002.00    0.85340   0.68361    0.000
 5003.00    0.90250   0.65947    0.000
 5004.00    0.87538   0.65338    0.000
 5005.00    0.81598   0.68041    0.000
 5006.00    0.83313   0.71296    0.000
 5007.00    0.87803   0.72263    0.000
 5008.00    0.79442   0.71231    0.000
 5009.00    0.67138   0.69043    0.000
 5010.00    0.61607   0.66366    0.000
 5011.00    0.57805   0.64462    0.000
 5012.00    0.59311   0.64205    0.000
 5013.00    0.61920   0.65599    0.000
 5014.00    0.60911   0.66810    0.000
 5015.00    0.59311   0.66506    0.000
 5016.00    0.70947   0.66450    0.000
 5017.00    0.84208   0.67834    0.000
 5018.00    0.69694   0.68891    0.000
 5019.00    0.52831   0.68324    0.000
 5020.00    0.45557   0.67873    0.000
 5021.00    0.38751   0.69135    0.000
 5022.00    0.30992   0.70707    0.000
 5023.00    0.23712   0.70993    0.000
 5024.00    0.46539   0.69806    0.000
 5025.00    0.67584   0.68468    0.000
 5026.00    0.52893   0.69208    0.000
 5027.00    0.39076   0.71118    0.000
 5028.00    0.35478   0.72156    0.000
 5029.00    0.33035   0.73083    0.015
 5030.00    0.39920   0.74600    0.015
 5031.00    0.49007   0.75191    0.015
 5032.00    0.71449   0.73133    0.015
 5033.00    0.87568   0.69668    0.015
 5034.00    0.73445   0.68367    0.015
 5035.00    0.62642   0.69108    0.015
 5036.00    0.64770   0.68317    0.015
 5037.00    0.65176   0.65010    0.015
 5038.00    0.59990   0.61327    0.015
 5039.00    0.56776   0.61017    0.015
 5040.00    0.58972   0.65297    0.015
 5041.00    0.59035   0.70142    0.015
 5042.00    0.54081   0.72975    0.015
 5043.00    0.50070   0.74650    0.015
 5044.00    0.47975   0.74601    0.015
 5045.00    0.49349   0.71987    0.015
 5046.00    0.56860   0.68754    0.015
 5047.00    0.61205   0.67395    0.015
 5048.00    0.60649   0.67547    0.015
 5049.00    0.57007   0.67883    0.015
 5050.00    0.49169   0.68844    0.015
 5051.00    0.42557   0.70706    0.015
 5052.00    0.37412   0.72221    0.014
 5053.00    0.45784   0.72569    0.014
 5054.00    0.68420   0.72459    0.014
 5055.00    0.72859   0.72850    0.014
 5056.00    0.60358   0.73386    0.014
 5057.00    0.61451   0.73663    0.014
 5058.00    0.73700   0.74304    0.014
 5059.00    0.76965   0.75023    0.014
 5060.00    0.73741   0.74438    0.014
 5061.00    0.72575   0.71629    0.014
 5062.00    0.72713   0.68167    0.015
 5063.00    0.62871   0.67293    0.014
 5064.00    0.47496   0.68517    0.014
 5065.00    0.62070   0.68840    0.014
 5066.00    0.91084   0.68654    0.014
 5067.00    0.80132   0.69692    0.014
 5068.00    0.52543   0.70538    0.014
 5069.00    0.49635   0.69419    0.014
 5070.00    0.55517   0.68381    0.014
 5071.00    0.66421   0.69133    0.014
 5072.00    0.78835   0.69762    0.014
 5073.00    0.70408   0.69464    0.014
 5074.00    0.56775   0.69683    0.015
 5075.00    0.52932   0.69652    0.014
 5076.00    0.51073   0.66934    0.014
 5077.00    0.48543   0.63211    0.014
 5078.00    0.45906   0.62581    0.014
 5079.00    0.48151   0.64602    0.014
 5080.00    0.50974   0.66015    0.014
 5081.00    0.59618   0.66544    0.014
 5082.00    0.68730   0.67761    0.013
 5083.00    0.66261   0.69223    0.013
 5084.00    0.63270   0.69663    0.013
 5085.00    0.59892   0.69523    0.013
 5086.00    0.56747   0.69827    0.013
 5087.00    0.65456   0.70290    0.013
 5088.00    0.73311   0.70371    0.014
 5089.00    0.65271   0.70725    0.013
 5090.00    0.58153   0.71765    0.013
 5091.00    0.61308   0.72459    0.013
 5092.00    0.63285   0.71864    0.013
 5093.00    0.56074   0.70301    0.014
 5094.00    0.49013   0.68329    0.014
 5095.00    0.42830   0.65976    0.014
 5096.00    0.39136   0.63836    0.014
 5097.00    0.47056   0.63916    0.014
 5098.00    0.52935   0.66597    0.014
 5099.00    0.51031   0.69191    0.013
 5100.00    0.50865   0.69734    0.013
 5101.00    0.56229   0.68913    0.013
 5102.00    0.61806   0.68202    0.014
 5103.00    0.67959   0.67794    0.014
 5104.00    0.70208   0.66827    0.014
 5105.00    0.63432   0.65735    0.014
 5106.00    0.58273   0.65477    0.014
 5107.00    0.56349   0.65408    0.014
 5108.00    0.51100   0.65828    0.014
 5109.00    0.40057   0.67396    0.014
 5110.00    0.39015   0.68670    0.014
 5111.00    0.53228   0.69121    0.014
 5112.00    0.67660   0.69477    0.014
 5113.00    0.82387   0.69949    0.014
 5114.00    0.85147   0.70826    0.015
 5115.00    0.73786   0.71706    0.015
 5116.00    0.66323   0.71651    0.015
 5117.00    0.62914   0.70618    0.015
 5118.00    0.57915   0.69106    0.015
 5119.00    0.51458   0.67499    0.014
 5120.00    0.61864   0.65573    0.014
 5121.00    0.85912   0.63678    0.015
 5122.00    0.81095   0.63214    0.015
 5123.00    0.55729   0.64011    0.014
 5124.00    0.55856   0.64538    0.014
 5125.00    0.71908   0.64425    0.014
 5126.00    0.62611   0.64176    0.014
 5127.00    0.39478   0.64348    0.015
 5128.00    0.43990   0.65356    0.015
 5129.00    0.61616   0.66490    0.015
 5130.00    0.60703   0.66864    0.015
 5131.00    0.52202   0.67113    0.015
 5132.00    0.63712   0.68194    0.015
 5133.00    0.82218   0.68737    0.015
 5134.00    0.81535   0.67396    0.015
 5135.00    0.75195   0.65403    0.015
 5136.00    0.68999   0.63841    0.015
 5137.00    0.62838   0.63866    0.014
 5138.00    0.65014   0.65341    0.014
 5139.00    0.68837   0.65057    0.014
 5140.00    0.62378   0.63503    0.014
 5141.00    0.54333   0.64052    0.014
 5142.00    0.54434   0.65311    0.014
 5143.00    0.55463   0.64863    0.014
 5144.00    0.48861   0.63739    0.014
 5145.00    0.41677   0.63476    0.014
 5146.00    0.50388   0.64399    0.014
 5147.00    0.59752   0.65211    0.014
 5148.00    0.69186   0.64650    0.014
 5149.00    0.77926   0.63647    0.014
 5150.00    0.57409   0.63207    0.014
 5151.00    0.39056   0.63169    0.014
 5152.00    0.58210   0.63810    0.014
 5153.00    0.75166   0.65373    0.014
 5154.00    0.68755   0.67237    0.014
 5155.00    0.61477   0.68544    0.014
 5156.00    0.47685   0.68731    0.014
 5157.00    0.36720   0.68571    0.014
 5158.00    0.41957   0.68487    0.014
 5159.00    0.47855   0.67486    0.014
 5160.00    0.56772   0.66171    0.014
 5161.00    0.63800   0.65311    0.014
 5162.00    0.63781   0.63182    0.014
 5163.00    0.63085   0.58663    0.014
 5164.00    0.60278   0.53260    0.014
 5165.00    0.57594   0.50242    0.013
 5166.00    0.55239   0.51999    0.014
 5167.00    0.55881   0.56365    0.014
 5168.00    0.63343   0.57506    0.014
 5169.00    0.66818   0.53237    0.014
 5170.00    0.62442   0.49527    0.013
 5171.00    0.59888   0.52436    0.013
 5172.00    0.60459   0.59184    0.013
 5173.00    0.58838   0.63559    0.014
 5174.00    0.53921   0.64828    0.014
 5175.00    0.48089   0.65393    0.014
 5176.00    0.41048   0.65624    0.014
 5177.00    0.36519   0.64989    0.014
 5178.00    0.34913   0.63327    0.014
 5179.00    0.37237   0.59475    0.014
 5180.00    0.43596   0.53078    0.013
 5181.00    0.49939   0.48811    0.013
 5182.00    0.56268   0.51731    0.013
 5183.00    0.55962   0.58868    0.013
 5184.00    0.50367   0.63880    0.013
 5185.00    0.57952   0.65081    0.013
 5186.00    0.74785   0.65223    0.013
 5187.00    0.70440   0.66172    0.013
 5188.00    0.53061   0.65237    0.013
 5189.00    0.52896   0.61519    0.014
 5190.00    0.61983   0.59611    0.000
 5191.00    0.58971   0.61099    0.000
 5192.00    0.50312   0.62388    0.000
 5193.00    0.50563   0.62602    0.000
 5194.00    0.54398   0.63481    0.000
 5195.00    0.56788   0.64869    0.000
 5196.00    0.58681   0.66131    0.000
 5197.00    0.52016   0.67018    0.000
 5198.00    0.42878   0.67041    0.000
 5199.00    0.48087   0.66324    0.000
 5200.00    0.56722   0.65494    0.000
 5201.00    0.52308   0.63790    0.000
 5202.00    0.45382   0.60656    0.000
 5203.00    0.46210   0.58376    0.000
 5204.00    0.48196   0.58241    0.000
 5205.00    0.40560   0.58056    0.000
 5206.00    0.31871   0.57688    0.000
 5207.00    0.53148   0.59132    0.000
 5208.00    0.76590   0.61907    0.000
 5209.00    0.76727   0.64788    0.000
 5210.00    0.75994   0.67032    0.000
 5211.00    0.71443   0.67569    0.014
 5212.00    0.66835   0.65963    0.014
 5213.00    0.60840   0.63780    0.014
 5214.00    0.55789   0.63253    0.014
 5215.00    0.66049   0.64747    0.014
 5216.00    0.74510   0.66835    0.014
 5217.00    0.64657   0.68151    0.014
 5218.00    0.56646   0.68682    0.014
 5219.00    0.62055   0.68658    0.014
 5220.00    0.65552   0.67601    0.014
 5221.00    0.58406   0.65305    0.014
 5222.00    0.54483   0.62163    0.014
 5223.00    0.64898   0.58584    0.014
 5224.00    0.72538   0.56224    0.014
 5225.00    0.70040   0.57935    0.014
 5226.00    0.68581   0.62546    0.014
 5227.00    0.70298   0.65850    0.014
 5228.00    0.68901   0.67045    0.014
 5229.00    0.59399   0.66376    0.014
 5230.00    0.51231   0.64008    0.014
 5231.00    0.46046   0.62403    0.014
 5232.00    0.46973   0.62947    0.014
 5233.00    0.59750   0.64936    0.014
 5234.00    0.63681   0.67215    0.014
 5235.00    0.52662   0.68488    0.014
 5236.00    0.48856   0.68466    0.014
 5237.00    0.55731   0.68080    0.014
 5238.00    0.57181   0.68113    0.014
 5239.00    0.51566   0.68065    0.013
 5240.00    0.55957   0.67705    0.013
 5241.00    0.71823   0.68158    0.013
 5242.00    0.80137   0.69085    0.013
 5243.00    0.80812   0.67975    0.013
 5244.00    0.73298   0.64894    0.013
 5245.00    0.58478   0.63355    0.013
 5246.00    0.55243   0.63835    0.013
 5247.00    0.61116   0.63457    0.013
 5248.00    0.62566   0.62681    0.013
 5249.00    0.60958   0.63586    0.013
 5250.00    0.57521   0.65079    0.013
 5251.00    0.52976   0.65081    0.014
 5252.00    0.62308   0.63878    0.014
 5253.00    0.78984   0.64208    0.014
 5254.00    0.80084   0.66823    0.014
 5255.00    0.74032   0.69276    0.013
 5256.00    0.70484   0.69963    0.013
 5257.00    0.67925   0.68979    0.013
 5258.00    0.61581   0.66727    0.014
 5259.00    0.53963   0.63561    0.014
 5260.00    0.59555   0.60258    0.014
 5261.00    0.68886   0.57661    0.014
 5262.00    0.60898   0.55844    0.014
 5263.00    0.48866   0.55176    0.014
 5264.00    0.63755   0.57011    0.015
 5265.00    0.83691   0.59017    0.015
 5266.00    0.80908   0.56665    0.015
 5267.00    0.74834   0.52923    0.015
 5268.00    0.77578   0.54415    0.015
 5269.00    0.81249   0.59520    0.015
 5270.00    0.76099   0.62535    0.015
 5271.00    0.70348   0.62776    0.015
 5272.00    0.59181   0.61867    0.015
 5273.00    0.47832   0.61746    0.015
 5274.00    0.62342   0.64243    0.015
 5275.00    0.76530   0.67523    0.015
 5276.00    0.79473   0.68641    0.015
 5277.00    0.81096   0.67438    0.015
 5278.00    0.62628   0.65436    0.015
 5279.00    0.46450   0.63791    0.014
 5280.00    0.52617   0.62496    0.014
 5281.00    0.60694   0.61948    0.015
 5282.00    0.82220   0.63873    0.015
 5283.00    0.98578   0.67561    0.015
 5284.00    0.86918   0.69807    0.014
 5285.00    0.77163   0.69660    0.014
 5286.00    0.75687   0.69055    0.014
 5287.00    0.74494   0.69446    0.014
 5288.00    0.74316   0.70121    0.014
 5289.00    0.74600   0.69867    0.014
 5290.00    0.76270   0.68843    0.014
 5291.00    0.78763   0.68219    0.014
 5292.00    0.83362   0.67844    0.014
 5293.00    0.85791   0.66105    0.014
 5294.00    0.83450   0.62639    0.014
 5295.00    0.80334   0.59914    0.014
 5296.00    0.75741   0.60673    0.014
 5297.00    0.70151   0.63374    0.014
 5298.00    0.62901   0.64500    0.014
 5299.00    0.59512   0.64375    0.014
 5300.00    0.61756   0.65359    0.014
 5301.00    0.65505   0.67605    0.014
 5302.00    0.71185   0.69412    0.013
 5303.00    0.80746   0.69563    0.013
 5304.00    0.94697   0.68457    0.013
 5305.00    0.93036   0.67802    0.014
 5306.00    0.75806   0.68521    0.014
 5307.00    0.67666   0.69563    0.014
 5308.00    0.67522   0.69777    0.013
 5309.00    0.64412   0.69231    0.013
 5310.00    0.59005   0.68431    0.013
 5311.00    0.59236   0.67912    0.013
 5312.00    0.63310   0.67489    0.013
 5313.00    0.69062   0.66445    0.013
 5314.00    0.75818   0.65533    0.013
 5315.00    0.70792   0.65884    0.013
 5316.00    0.59627   0.66654    0.013
 5317.00    0.58456   0.66837    0.013
 5318.00    0.61800   0.66718    0.013
 5319.00    0.60627   0.66432    0.013
 5320.00    0.57699   0.65276    0.013
 5321.00    0.57821   0.63306    0.013
 5322.00    0.58952   0.62566    0.013
 5323.00    0.61981   0.62996    0.014
 5324.00    0.65536   0.60870    0.014
 5325.00    0.57876   0.55814    0.013
 5326.00    0.47658   0.53848    0.013
 5327.00    0.48728   0.57712    0.013
 5328.00    0.51858   0.62759    0.013
 5329.00    0.53568   0.64772    0.014
 5330.00    0.55078   0.64685    0.014
 5331.00    0.52469   0.65366    0.014
 5332.00    0.49444   0.66840    0.013
 5333.00    0.58833   0.67308    0.014
 5334.00    0.69017   0.66724    0.014
 5335.00    0.60916   0.66216    0.014
 5336.00    0.52360   0.65065    0.014
 5337.00    0.80369   0.62390    0.014
 5338.00    1.06787   0.60705    0.014
 5339.00    0.87732   0.62227    0.014
 5340.00    0.69804   0.64796    0.014
 5341.00    0.68050   0.65952    0.014
 5342.00    0.66098   0.65437    0.014
 5343.00    0.62302   0.64455    0.014
 5344.00    0.60039   0.64323    0.014
 5345.00    0.68231   0.64086    0.014
 5346.00    0.73632   0.63063    0.014
 5347.00    0.64296   0.63092    0.014
 5348.00    0.60276   0.64966    0.014
 5349.00    0.78831   0.66801    0.014
 5350.00    0.87189   0.67312    0.014
 5351.00    0.59798   0.67750    0.014
 5352.00    0.44288   0.68877    0.014
 5353.00    0.63797   0.69664    0.014
 5354.00    0.75767   0.69767    0.014
 5355.00    0.68794   0.69698    0.013
 5356.00    0.66020   0.69651    0.013
 5357.00    0.72334   0.69325    0.014
 5358.00    0.75673   0.68214    0.014
 5359.00    0.73423   0.66660    0.014
 5360.00    0.70949   0.65791    0.014
 5361.00    0.68108   0.65382    0.013
 5362.00    0.69048   0.64648    0.013
 5363.00    0.75429   0.64241    0.013
 5364.00    0.79073   0.64345    0.013
 5365.00    0.79257   0.64313    0.013
 5366.00    0.75683   0.63300    0.013
 5367.00    0.67919   0.60693    0.013
 5368.00    0.71610   0.58060   -2.000
 5369.00    0.86565   0.58398   -2.000
 5370.00    0.94718   0.61897   -2.000
 5371.00    0.96972   0.65450   -2.000
 5372.00    0.89176   0.67258   -2.000
 5373.00    0.73704   0.67408   -2.000
 5374.00    0.74368   0.66664   -2.000
 5375.00    0.85866   0.66461   -2.000
 5376.00    0.80881   0.66794   -2.000
 5377.00    0.66202   0.66520   -2.000
 5378.00    0.49799   0.65750   -2.000
 5379.00    0.32513   0.65101   -2.000
 5380.00    0.39097   0.64480   -2.000
 5381.00    0.56288   0.64524   -2.000
 5382.00    0.60667   0.65545   -2.000
 5383.00    0.60155   0.66241    0.014
 5384.00    0.60798   0.66113    0.013
 5385.00    0.61817   0.65601    0.013
 5386.00    0.70334   0.64617    0.013
 5387.00    0.80887   0.63321    0.013
 5388.00    0.64528   0.62516    0.013
 5389.00    0.42173   0.62320    0.013
 5390.00    0.51616   0.62314    0.013
 5391.00    0.66706   0.62372    0.013
 5392.00    0.73832   0.62386    0.014
 5393.00    0.79876   0.61125    0.014
 5394.00    0.64533   0.58869    0.014
 5395.00    0.47123   0.58891    0.014
 5396.00    0.60786   0.61316    0.014
 5397.00    0.76319   0.62818    0.014
 5398.00    0.73348   0.63094    0.014
 5399.00    0.69825   0.63624    0.014
 5400.00    0.54515   0.63201    0.014
 5401.00    0.40511   0.60509    0.014
 5402.00    0.60211   0.57206    0.014
 5403.00    0.77941   0.56019    0.014
 5404.00    0.68958   0.57775    0.014
 5405.00    0.61347   0.60118    0.014
 5406.00    0.66088   0.60253    0.014
 5407.00    0.68855   0.58991    0.014
 5408.00    0.58577   0.59490    0.013
 5409.00    0.51083   0.61931    0.013
 5410.00    0.57908   0.63822    0.013
 5411.00    0.63905   0.64006    0.013
 5412.00    0.66460   0.63662    0.013
 5413.00    0.68920   0.64389    0.013
 5414.00    0.71053   0.65727    0.013
 5415.00    0.69863   0.66136    0.013
 5416.00    0.59062   0.65392    0.013
 5417.00    0.55997   0.64199    0.013
 5418.00    0.72039   0.63679    0.013
 5419.00    0.83322   0.64237    0.013
 5420.00    0.84474   0.64062    0.013
 5421.00    0.81269   0.62465    0.013
 5422.00    0.70007   0.62115    0.013
 5423.00    0.64610   0.64039    0.013
 5424.00    0.68690   0.66053    0.013
 5425.00    0.70447   0.65454    0.013
 5426.00    0.68913   0.61747    0.013
 5427.00    0.67662   0.59146    0.013
 5428.00    0.66764   0.60497    0.013
 5429.00    0.67994   0.62105    0.013
 5430.00    0.71563   0.61343    0.013
 5431.00    0.72742   0.59764    0.013
 5432.00    0.71604   0.59026    0.013
 5433.00    0.70782   0.59636    0.013
 5434.00    0.70230   0.61318    0.013
 5435.00    0.72847   0.63696    0.013
 5436.00    0.77850   0.65767    0.013
 5437.00    0.76731   0.66773    0.013
 5438.00    0.71562   0.66928    0.013
 5439.00    0.69592   0.66876    0.013
 5440.00    0.69475   0.66822    0.013
 5441.00    0.68171   0.65952    0.013
 5442.00    0.66267   0.63557    0.013
 5443.00    0.57698   0.60025    0.013
 5444.00    0.46216   0.57765    0.013
 5445.00    0.62066   0.59155    0.014
 5446.00    0.88167   0.62373    0.014
 5447.00    0.80824   0.64410    0.014
 5448.00    0.62841   0.64788    0.014
 5449.00    0.54077   0.64386    0.014
 5450.00    0.47763   0.63587    0.014
 5451.00    0.43954   0.61834    0.014
 5452.00    0.40691   0.59042    0.013
 5453.00    0.40221   0.57840    0.014
 5454.00    0.40233   0.60048    0.014
 5455.00    0.63131   0.63301    0.014
 5456.00    0.89031   0.64881    0.014
 5457.00    0.75262   0.64539    0.014
 5458.00    0.57827   0.63372    0.014
 5459.00    0.65018   0.61802    0.014
 5460.00    0.73594   0.60220    0.014
 5461.00    0.74207   0.60357    0.014
 5462.00    0.74748   0.61985    0.014
 5463.00    0.86275   0.62802    0.014
 5464.00    0.96722   0.62860    0.013
 5465.00    0.81798   0.63303    0.013
 5466.00    0.67725   0.63429    0.013
 5467.00    0.64588   0.62651    0.013
 5468.00    0.62067   0.62120    0.013
 5469.00    0.64885   0.62085    0.013
 5470.00    0.65957   0.61379    0.013
 5471.00    0.55840   0.60654    0.013
 5472.00    0.48064   0.60263    0.013
 5473.00    0.52023   0.58379    0.013
 5474.00    0.58084   0.56484    0.013
 5475.00    0.72682   0.57904    0.013
 5476.00    0.81333   0.60942    0.013
 5477.00    0.69968   0.61665    0.013
 5478.00    0.61450   0.59932   -2.000
 5479.00    0.61015   0.58949   -2.000
 5480.00    0.60517   0.59973   -2.000
 5481.00    0.59864   0.61904   -2.000
 5482.00    0.61938   0.63591   -2.000
 5483.00    0.69724   0.63706   -2.000
 5484.00    0.96997   0.61995   -2.000
 5485.00    1.59757   0.60626   -2.000
 5486.00    2.12564   0.61005   -2.000
 5487.00    2.49527   0.61730   -2.000
 5488.00    2.71633   0.62247   -2.000
 5489.00    2.72984   0.62695   -2.000
 5490.00    2.43418   0.62259   -2.000
 5491.00    1.75842   0.61649   -2.000
 5492.00    1.10446   0.62045   -2.000
 5493.00    0.47414   0.62264   -2.000
 5494.00    0.18721   0.61287   -2.000
 5495.00    0.22853   0.61008   -2.000
 5496.00    0.37390   0.62498   -2.000
 5497.00    0.60695   0.63273   -2.000
 5498.00    0.70059   0.61930   -2.000
 5499.00    0.69076   0.60392   -2.000
 5500.00    0.68176   0.60256   -2.000
 5501.00    0.67328   0.60931   -2.000
 5502.00    0.69257   0.60948    0.014
 5503.00    0.72770   0.59731    0.014
 5504.00    0.71261   0.59164    0.014
 5505.00    0.67258   0.60450    0.014
 5506.00    0.58348   0.61603    0.014
 5507.00    0.47330   0.61549    0.014
 5508.00    0.50421   0.60683    0.013
 5509.00    0.58711   0.59195    0.013
 5510.00    0.68534   0.58166    0.013
 5511.00    0.78835   0.58369    0.013
 5512.00    0.76497   0.59250    0.013
 5513.00    0.70869   0.60128    0.013
 5514.00    0.83533   0.60956    0.013
 5515.00    1.00080   0.62272    0.013
 5516.00    0.89725   0.63396    0.013
 5517.00    0.74853   0.63474    0.013
 5518.00    0.73979   0.63027    0.013
 5519.00    0.74878   0.62771    0.013
 5520.00    0.64832   0.62769    0.013
 5521.00    0.53821   0.62723    0.012
 5522.00    0.54158   0.62217    0.012
 5523.00    0.55088   0.61222    0.012
 5524.00    0.48253   0.59637    0.012
 5525.00    0.41514   0.57890    0.012
 5526.00    0.52943   0.57956    0.012
 5527.00    0.64157   0.60028    0.012
 5528.00    0.70734   0.61733    0.012
 5529.00    0.77022   0.61964    0.013
 5530.00    0.79799   0.61539    0.012
 5531.00    0.81864   0.60944    0.012
 5532.00    0.77997   0.60219    0.012
 5533.00    0.73593   0.60295    0.012
 5534.00    0.65852   0.60974    0.012
 5535.00    0.60622   0.61236    0.012
 5536.00    0.67666   0.61587    0.012
 5537.00    0.74262   0.62488    0.012
 5538.00    0.79078   0.63214    0.012
 5539.00    0.80384   0.62883    0.013
 5540.00    0.70102   0.61738    0.013
 5541.00    0.63002   0.61124    0.013
 5542.00    0.64773   0.61248    0.013
 5543.00    0.66180   0.61201    0.013
 5544.00    0.66713   0.61417    0.013
 5545.00    0.65186   0.62455    0.013
 5546.00    0.59412   0.63373    0.013
 5547.00    0.55326   0.63641    0.013
 5548.00    0.54264   0.63604    0.013
 5549.00    0.55165   0.63228    0.013
 5550.00    0.59145   0.62275    0.013
 5551.00    0.62674   0.61269    0.013
 5552.00    0.65583   0.61088    0.013
 5553.00    0.63493   0.61582    0.013
 5554.00    0.55344   0.61697    0.013
 5555.00    0.57976   0.61472    0.013
 5556.00    0.72125   0.61600    0.013
 5557.00    0.77602   0.61739    0.013
 5558.00    0.74905   0.61494    0.013
 5559.00    0.67770   0.60765    0.013
 5560.00    0.56947   0.59999    0.012
 5561.00    0.56645   0.59963    0.012
 5562.00    0.64039   0.59952    0.012
 5563.00    0.67124   0.59432    0.012
 5564.00    0.67442   0.59278    0.012
 5565.00    0.70872   0.59511    0.012
 5566.00    0.76050   0.59292    0.012
 5567.00    0.78791   0.59377    0.012
 5568.00    0.80341   0.60294    0.012
 5569.00    0.81557   0.59930    0.012
 5570.00    0.82632   0.58740    0.012
 5571.00    0.77049   0.59432    0.012
 5572.00    0.69057   0.60674    0.012
 5573.00    0.58397   0.60670    0.012
 5574.00    0.46922   0.60720    0.012
 5575.00    0.49944   0.60968    0.012
 5576.00    0.56657   0.60932    0.012
 5577.00    0.60271   0.61211    0.012
 5578.00    0.63244   0.61220    0.012
 5579.00    0.64939   0.60678    0.012
 5580.00    0.66426   0.60576    0.012
 5581.00    0.70475   0.60542    0.012
 5582.00    0.74838   0.59667    0.012
 5583.00    0.62495   0.57770    0.012
 5584.00    0.48748   0.55539    0.012
 5585.00    0.49832   0.54374    0.012
 5586.00    0.51633   0.54560    0.012
 5587.00    0.61476   0.55731    0.012
 5588.00    0.71085   0.57176    0.012
 5589.00    0.59622   0.57885    0.012
 5590.00    0.49005   0.57842    0.012
 5591.00    0.55211   0.57541    0.012
 5592.00    0.61289   0.58258    0.013
 5593.00    0.65877   0.60237    0.013
 5594.00    0.70221   0.60809    0.013
 5595.00    0.72599   0.59135    0.013
 5596.00    0.75189   0.57795    0.013
 5597.00    0.79068   0.57526    0.013
 5598.00    0.81451   0.56851    0.013
 5599.00    0.76701   0.55937    0.013
 5600.00    0.70573   0.56061    0.013
 5601.00    0.59092   0.57962    0.013
 5602.00    0.52620   0.60387    0.013
 5603.00    0.62356   0.61910    0.013
 5604.00    0.70280   0.62397    0.013
 5605.00    0.73237   0.62249    0.013
 5606.00    0.76165   0.61959    0.013
 5607.00    0.79022   0.61793    0.012
 5608.00    0.82411   0.61965    0.012
 5609.00    0.86879   0.62396    0.012
 5610.00    0.83180   0.62294    0.012
 5611.00    0.65059   0.60145    0.012
 5612.00    0.57367   0.56310    0.012
 5613.00    0.65786   0.54715    0.012
 5614.00    0.68581   0.56647    0.012
 5615.00    0.63744   0.58603    0.012
 5616.00    0.60448   0.58806    0.011
 5617.00    0.58994   0.58636    0.011
 5618.00    0.57821   0.59331    0.011
 5619.00    0.56946   0.60263    0.011
 5620.00    0.57688   0.59739    0.011
 5621.00    0.59934   0.57450    0.011
 5622.00    0.61611   0.55883    0.011
 5623.00    0.62821   0.56752    0.011
 5624.00    0.63013   0.58301    0.011
 5625.00    0.62471   0.59195    0.011
 5626.00    0.62706   0.60134    0.011
 5627.00    0.63434   0.61035    0.011
 5628.00    0.64767   0.61345    0.011
 5629.00    0.66435   0.61165    0.012
 5630.00    0.66505   0.60675    0.011
 5631.00    0.65806   0.60063    0.011
 5632.00    0.71476   0.59478    0.011
 5633.00    0.79791   0.58776    0.012
 5634.00    0.73837   0.57978    0.012
 5635.00    0.62815   0.57838    0.012
 5636.00    0.62994   0.58485    0.012
 5637.00    0.66534   0.58640    0.012
 5638.00    0.68792   0.57830    0.012
 5639.00    0.70730   0.57559    0.012
 5640.00    0.76684   0.58133    0.012
 5641.00    0.83449   0.58550    0.012
 5642.00    0.75319   0.58803    0.012
 5643.00    0.64830   0.59082    0.012
 5644.00    0.57353   0.59414    0.012
 5645.00    0.50231   0.59505    0.012
 5646.00    0.55381   0.59071    0.012
 5647.00    0.61512   0.58705    0.012
 5648.00    0.65327   0.59177    0.012
 5649.00    0.69039   0.60073    0.012
 5650.00    0.65162   0.60239    0.011
 5651.00    0.61317   0.59168    0.011
 5652.00    0.63285   0.58111    0.011
 5653.00    0.65271   0.58394    0.011
 5654.00    0.67585   0.57920    0.011
 5655.00    0.70283   0.55274    0.011
 5656.00    0.77237   0.54042    0.011
 5657.00    0.82458   0.55938    0.011
 5658.00    0.74233   0.57357    0.011
 5659.00    0.66418   0.56723    0.011
 5660.00    0.61014   0.56377    0.011
 5661.00    0.57033   0.57567    0.011
 5662.00    0.59676   0.58939    0.011
 5663.00    0.62167   0.59134    0.011
 5664.00    0.64083   0.58263    0.011
 5665.00    0.68279   0.57621    0.011
 5666.00    0.79712   0.57796    0.011
 5667.00    0.87363   0.58206    0.011
 5668.00    0.84844   0.58547    0.011
 5669.00    0.81293   0.59337    0.011
 5670.00    0.75360   0.60434    0.011
 5671.00    0.72643   0.60761    0.011
 5672.00    0.76343   0.60167    0.011
 5673.00    0.80868   0.59980    0.011
 5674.00    0.86828   0.60446    0.012
 5675.00    0.87352   0.60315    0.012
 5676.00    0.79598   0.59613    0.012
 5677.00    0.76138   0.59364    0.012
 5678.00    0.78423   0.59123    0.012
 5679.00    0.78966   0.57936    0.012
 5680.00    0.77457   0.56995    0.012
 5681.00    0.73284   0.57471    0.012
 5682.00    0.66343   0.58241    0.012
 5683.00    0.63446   0.57981    0.012
 5684.00    0.64254   0.57011    0.012
 5685.00    0.69235   0.56543    0.012
 5686.00    0.77587   0.57051    0.012
 5687.00    0.74572   0.58148    0.012
 5688.00    0.63479   0.59021    0.012
 5689.00    0.60676   0.59748    0.012
 5690.00    0.63043   0.60119    0.012
 5691.00    0.60199   0.59800    0.011
 5692.00    0.54517   0.59383    0.011
 5693.00    0.59804   0.59448    0.011
 5694.00    0.70286   0.59336    0.011
 5695.00    0.75779   0.58361    0.011
 5696.00    0.79235   0.57619    0.011
 5697.00    0.76449   0.57309    0.011
 5698.00    0.71485   0.56514    0.011
 5699.00    0.63044   0.55973    0.011
 5700.00    0.53580   0.56565    0.011
 5701.00    0.55275   0.57598    0.011
 5702.00    0.59687   0.57650    0.011
 5703.00    0.68071   0.56567    0.011
 5704.00    0.77236   0.55483    0.011
 5705.00    0.70942   0.54518    0.011
 5706.00    0.62272   0.53633    0.011
 5707.00    0.57962   0.53792    0.011
 5708.00    0.54146   0.54245    0.011
 5709.00    0.65595   0.54533    0.011
 5710.00    0.78201   0.56028    0.011
 5711.00    0.72732   0.57694    0.011
 5712.00    0.66527   0.58338    0.011
 5713.00    0.58568   0.58698    0.011
 5714.00    0.50654   0.58858    0.011
 5715.00    0.45183   0.58778    0.011
 5716.00    0.40913   0.59125    0.011
 5717.00    0.57278   0.59557    0.011
 5718.00    0.72224   0.59840    0.011
 5719.00    0.72145   0.60278    0.011
 5720.00    0.71276   0.60580    0.011
 5721.00    0.64476   0.60504    0.011
 5722.00    0.58984   0.60246    0.012
 5723.00    0.60952   0.59459    0.011
 5724.00    0.64921   0.58265    0.011
 5725.00    0.77976   0.58185    0.011
 5726.00    0.87845   0.59264    0.011
 5727.00    0.85860   0.59509    0.011
 5728.00    0.82995   0.58336    0.011
 5729.00    0.77390   0.57653    0.011
 5730.00    0.72396   0.58511    0.011
 5731.00    0.69017   0.59582    0.011
 5732.00    0.65421   0.59973    0.011
 5733.00    0.61334   0.59748    0.011
 5734.00    0.58657   0.59308    0.011
 5735.00    0.58753   0.59037    0.011
 5736.00    0.60972   0.58912    0.010
 5737.00    0.66830   0.58918    0.011
 5738.00    0.71529   0.58955    0.011
 5739.00    0.74487   0.58734    0.011
 5740.00    0.74418   0.58400    0.000
 5741.00    0.70356   0.58743    0.000
 5742.00    0.65020   0.59672    0.000
 5743.00    0.58204   0.60036    0.000
 5744.00    0.57089   0.59024    0.000
 5745.00    0.61813   0.57578    0.000
 5746.00    0.67592   0.57659    0.000
 5747.00    0.74324   0.58937    0.000
 5748.00    0.77581   0.59422    0.000
 5749.00    0.78072   0.58277    0.000
 5750.00    0.77272   0.56337    0.000
 5751.00    0.75569   0.55272    0.000
 5752.00    0.67768   0.56238    0.000
 5753.00    0.56223   0.58245    0.000
 5754.00    0.53243   0.59556    0.000
 5755.00    0.54857   0.59894    0.000
 5756.00    0.58261   0.59371    0.000
 5757.00    0.62497   0.58195    0.000
 5758.00    0.65930   0.56802    0.000
 5759.00    0.69040   0.55610    0.000
 5760.00    0.70358   0.55524    0.000
 5761.00    0.71062   0.57237    0.000
 5762.00    0.69631   0.59092    0.000
 5763.00    0.67583   0.59733    0.000
 5764.00    0.63828   0.59810    0.000
 5765.00    0.59667   0.59766    0.000
 5766.00    0.59377   0.59507    0.000
 5767.00    0.59830   0.59262    0.000
 5768.00    0.58464   0.58951    0.000
 5769.00    0.56828   0.58438    0.000
 5770.00    0.62691   0.58197    0.000
 5771.00    0.69372   0.58032    0.000
 5772.00    0.71390   0.57884    0.000
 5773.00    0.73073   0.58266    0.000
 5774.00    0.68225   0.58761    0.000
 5775.00    0.63136   0.58855    0.000
 5776.00    0.64926   0.58289    0.000
 5777.00    0.66673   0.56562    0.000
 5778.00    0.65790   0.54319    0.000
 5779.00    0.64728   0.53530    0.000
 5780.00    0.60775   0.54185    0.000
 5781.00    0.56962   0.54368    0.000
 5782.00    0.54557   0.53686    0.000
 5783.00    0.52563   0.54024    0.000
 5784.00    0.53557   0.55678    0.000
 5785.00    0.55182   0.56986    0.000
 5786.00    0.60318   0.57636    0.000
 5787.00    0.64723   0.57259    0.000
 5788.00    0.65887   0.56333    0.000
 5789.00    0.67969   0.56519    0.000
 5790.00    0.73396   0.57448    0.000
 5791.00    0.78224   0.58249   -2.000
 5792.00    0.81225   0.58892   -2.000
 5793.00    0.82813   0.58746   -2.000
 5794.00    0.80735   0.57425   -2.000
 5795.00    0.76782   0.56434   -2.000
 5796.00    0.68643   0.57315   -2.000
 5797.00    0.64523   0.58928   -2.000
 5798.00    0.68178   0.59729   -2.000
 5799.00    0.73185   0.59919   -2.000
 5800.00    0.80471   0.59416   -2.000
 5801.00    0.83827   0.58068   -2.000
 5802.00    0.81372   0.57100   -2.000
 5803.00    0.74577   0.57083   -2.000
 5804.00    0.62143   0.57495   -2.000
 5805.00    0.58689   0.57847   -2.000
 5806.00    0.65517   0.58018   -2.000
 5807.00    0.68656   0.58317   -2.000
 5808.00    0.68070   0.58656   -2.000
 5809.00    0.67607   0.58714   -2.000
 5810.00    0.67254   0.58576   -2.000
 5811.00    0.70729   0.58179    0.000
 5812.00    0.77210   0.57221    0.000
 5813.00    0.77093   0.56276    0.000
 5814.00    0.72423   0.56578    0.000
 5815.00    0.71609   0.58040    0.000
 5816.00    0.73130   0.59144    0.000
 5817.00    0.73428   0.59431    0.000
 5818.00    0.73080   0.59361    0.000
 5819.00    0.69467   0.59028    0.000
 5820.00    0.64357   0.58600    0.000
 5821.00    0.66350   0.58462    0.000
 5822.00    0.71145   0.58737    0.000
 5823.00    0.69996   0.58855    0.000
 5824.00    0.66849   0.58712    0.000
 5825.00    0.62866   0.58700    0.000
 5826.00    0.58646   0.58967    0.000
 5827.00    0.60869   0.59096    0.000
 5828.00    0.64593   0.58823    0.000
 5829.00    0.72500   0.58635    0.000
 5830.00    0.81189   0.58499    0.000
 5831.00    0.78042   0.57960    0.000
 5832.00    0.73186   0.57542    0.000
 5833.00    0.75652   0.57949    0.000
 5834.00    0.78883   0.58256    0.000
 5835.00    0.75987   0.57795    0.000
 5836.00    0.72677   0.57643    0.000
 5837.00    0.67483   0.58314    0.000
 5838.00    0.62226   0.59027    0.000
 5839.00    0.63705   0.59278    0.000
 5840.00    0.65291   0.59221    0.000
 5841.00    0.70128   0.58891    0.000
 5842.00    0.74603   0.58386    0.000
 5843.00    0.73618   0.57730    0.000
 5844.00    0.72125   0.57059    0.000
 5845.00    0.65694   0.56835    0.000
 5846.00    0.60463   0.57138    0.000
 5847.00    0.63652   0.57470    0.000
 5848.00    0.67233   0.57336    0.000
 5849.00    0.72933   0.56432    0.000
 5850.00    0.76804   0.55243    0.000
 5851.00    0.72750   0.55087    0.000
 5852.00    0.69202   0.55785    0.000
 5853.00    0.67462   0.55568    0.000
 5854.00    0.68150   0.54011    0.000
 5855.00    0.76112   0.53054    0.000
 5856.00    0.81166   0.53885    0.000
 5857.00    0.78801   0.55364    0.000
 5858.00    0.74351   0.56298    0.000
 5859.00    0.65328   0.56121    0.000
 5860.00    0.59526   0.55880    0.000
 5861.00    0.59857   0.56353    0.000
 5862.00    0.62517   0.56657    0.000
 5863.00    0.69046   0.56029    0.000
 5864.00    0.71330   0.55439    0.000
 5865.00    0.67429   0.55993    0.000
 5866.00    0.63832   0.56995    0.000
 5867.00    0.60626   0.57601    0.000
 5868.00    0.61791   0.57631    0.000
 5869.00    0.67892   0.57183    0.000
 5870.00    0.70653   0.56679    0.000
 5871.00    0.70090   0.56382    0.000
 5872.00    0.69727   0.56174    0.000
 5873.00    0.69540   0.55898    0.000
 5874.00    0.67602   0.55826    0.000
 5875.00    0.64308   0.56013    0.000
 5876.00    0.64822   0.55608    0.000
 5877.00    0.67925   0.54862    0.000
 5878.00    0.68006   0.54832    0.000
 5879.00    0.66286   0.55458    0.000
 5880.00    0.64961   0.55433    0.000
 5881.00    0.63843   0.54849    0.000
 5882.00    0.63364   0.54866    0.000
 5883.00    0.63174   0.55230    0.000
 5884.00    0.62142   0.54576    0.000
 5885.00    0.60784   0.51342    0.000
 5886.00    0.63718   0.45039    0.000
 5887.00    0.68068   0.40178    0.000
 5888.00    0.65745   0.41972    0.000
 5889.00    0.61578   0.46879    0.000
 5890.00    0.60658   0.49712    0.000
 5891.00    0.60477   0.49897    0.000
 5892.00    0.62106   0.46542    0.000
 5893.00    0.64064   0.43093    0.000
 5894.00    0.70432   0.45080    0.000
 5895.00    0.77415   0.49519    0.000
 5896.00    0.77627   0.51788    0.000
 5897.00    0.77161   0.52962    0.000
 5898.00    0.70626   0.54140    0.000
 5899.00    0.63705   0.54685    0.000
 5900.00    0.60506   0.54877    0.000
 5901.00    0.57437   0.55078    0.010
 5902.00    0.61366   0.54831    0.011
 5903.00    0.65191   0.54551    0.011
 5904.00    0.66124   0.54887    0.011
 5905.00    0.66746   0.55453    0.010
 5906.00    0.62927   0.55542    0.010
 5907.00    0.59418   0.55466    0.010
 5908.00    0.58787   0.55843    0.010
 5909.00    0.58281   0.55990    0.010
 5910.00    0.58628   0.55066    0.010
 5911.00    0.58276   0.53636    0.010
 5912.00    0.54241   0.53105    0.010
 5913.00    0.51165   0.53372    0.010
 5914.00    0.52152   0.54120    0.010
 5915.00    0.54240   0.54850    0.010
 5916.00    0.60179   0.55223    0.010
 5917.00    0.64764   0.55593    0.010
 5918.00    0.65368   0.55562    0.010
 5919.00    0.65925   0.55068    0.010
 5920.00    0.66367   0.54975    0.010
 5921.00    0.67616   0.55300    0.010
 5922.00    0.70609   0.55609    0.010
 5923.00    0.70597   0.55860    0.009
 5924.00    0.64954   0.55724    0.009
 5925.00    0.59937   0.55125    0.009
 5926.00    0.55945   0.54245    0.009
 5927.00    0.56053   0.53604    0.010
 5928.00    0.62049   0.54253    0.010
 5929.00    0.66455   0.55431    0.010
 5930.00    0.68852   0.55500    0.010
 5931.00    0.68731   0.54454    0.010
 5932.00    0.65808   0.53847    0.010
 5933.00    0.63408   0.54556    0.010
 5934.00    0.61521   0.55327    0.010
 5935.00    0.61382   0.55616    0.010
 5936.00    0.62757   0.55873    0.010
 5937.00    0.62177   0.55434    0.010
 5938.00    0.60105   0.54280    0.010
 5939.00    0.58920   0.53848    0.010
 5940.00    0.58330   0.54284    0.010
 5941.00    0.58712   0.54871    0.010
 5942.00    0.59665   0.55474    0.010
 5943.00    0.58369   0.55869    0.010
 5944.00    0.55923   0.55548    0.010
 5945.00    0.55538   0.54393    0.010
 5946.00    0.56067   0.53475    0.010
 5947.00    0.53483   0.54016    0.010
 5948.00    0.49713   0.54895    0.010
 5949.00    0.51563   0.54390    0.010
 5950.00    0.55232   0.53494    0.010
 5951.00    0.59781   0.53999    0.010
 5952.00    0.64568   0.54811    0.010
 5953.00    0.64064   0.54380    0.010
 5954.00    0.62385   0.53591    0.010
 5955.00    0.60156   0.53608    0.010
 5956.00    0.57828   0.54258    0.010
 5957.00    0.59421   0.55066    0.010
 5958.00    0.61542   0.55670    0.010
 5959.00    0.60504   0.55899    0.010
 5960.00    0.59161   0.55786    0.010
 5961.00    0.59855   0.55574    0.010
 5962.00    0.60669   0.55067    0.010
 5963.00    0.61029   0.54607    0.010
 5964.00    0.61370   0.54941    0.009
 5965.00    0.60708   0.55414    0.010
 5966.00    0.60056   0.55638    0.010
 5967.00    0.59660   0.55904    0.010
 5968.00    0.58977   0.56132    0.010
 5969.00    0.54425   0.56144    0.010
 5970.00    0.50516   0.56036    0.010
 5971.00    0.52355   0.55654    0.010
 5972.00    0.54419   0.54741    0.010
 5973.00    0.57956   0.53693    0.010
 5974.00    0.60408   0.53176    0.010
 5975.00    0.57297   0.53217    0.010
 5976.00    0.54018   0.53776    0.010
 5977.00    0.50042   0.54711    0.010
 5978.00    0.48200   0.55228    0.010
 5979.00    0.53670   0.54893    0.010
 5980.00    0.57861   0.53603    0.010
 5981.00    0.58363   0.52129    0.010
 5982.00    0.57747   0.52123    0.010
 5983.00    0.54379   0.53274    0.010
 5984.00    0.51125   0.53881    0.010
 5985.00    0.48113   0.54081    0.009
 5986.00    0.46307   0.54539    0.009
 5987.00    0.46724   0.54745    0.009
 5988.00    0.47286   0.54219    0.009
 5989.00    0.48079   0.53932    0.009
 5990.00    0.49112   0.54740    0.009
 5991.00    0.50483   0.55591    0.009
 5992.00    0.50933   0.55545    0.009
 5993.00    0.50237   0.54730    0.009
 5994.00    0.50779   0.53631    0.009
 5995.00    0.52680   0.53085    0.009
 5996.00    0.53286   0.53429    0.009
 5997.00    0.52640   0.54115    0.009
 5998.00    0.54702   0.54453    0.010
 5999.00    0.59073   0.53860    0.010
 6000.00    0.60695   0.53177    0.010
 6001.00    0.60250   0.53606    0.010
 6002.00    0.58694   0.54077    0.010
 6003.00    0.56404   0.53627    0.010
 6004.00    0.57677   0.52483    0.010
 6005.00    0.61009   0.51403    0.010
 6006.00    0.61083   0.52044    0.010
 6007.00    0.59516   0.53912    0.010
 6008.00    0.57888   0.54688    0.010
 6009.00    0.56233   0.53848    0.010
 6010.00    0.59035   0.52648    0.010
 6011.00    0.63504   0.52643    0.010
 6012.00    0.63922   0.53241    0.010
 6013.00    0.63055   0.52951    0.010
 6014.00    0.58921   0.52538    0.010
 6015.00    0.53920   0.52938    0.010
 6016.00    0.51423   0.52875    0.010
 6017.00    0.49470   0.52131    0.010
 6018.00    0.52321   0.51921    0.010
 6019.00    0.55998   0.52345    0.010
 6020.00    0.60464   0.52716    0.009
 6021.00    0.65032   0.52816    0.009
 6022.00    0.64595   0.53379    0.009
 6023.00    0.63698   0.53868    0.009
 6024.00    0.60658   0.53684    0.009
 6025.00    0.57498   0.53960    0.009
 6026.00    0.54541   0.54596    0.009
 6027.00    0.51627   0.54739    0.009
 6028.00    0.52554   0.54549    0.009
 6029.00    0.53554   0.54714    0.009
 6030.00    0.56262   0.55033    0.010
 6031.00    0.58807   0.55049    0.010
 6032.00    0.59264   0.54967    0.010
 6033.00    0.59561   0.54998    0.010
 6034.00    0.58472   0.55080    0.010
 6035.00    0.56871   0.55074    0.010
 6036.00    0.51999   0.54707    0.010
 6037.00    0.48224   0.54273    0.010
 6038.00    0.49929   0.54147    0.010
 6039.00    0.51860   0.54088    0.010
 6040.00    0.54703   0.54472    0.010
 6041.00    0.56073   0.55035    0.010
 6042.00    0.52496   0.55171    0.010
 6043.00    0.49010   0.55176    0.010
 6044.00    0.45784   0.55240    0.010
 6045.00    0.44735   0.55128    0.010
 6046.00    0.48959   0.54973    0.009
 6047.00    0.52790   0.55143    0.009
 6048.00    0.55799   0.55268    0.009
 6049.00    0.56959   0.54940    0.009
 6050.00    0.54754   0.54318    0.009
 6051.00    0.52792   0.53910    0.009
 6052.00    0.51215   0.53641    0.009
 6053.00    0.52719   0.53204    0.009
 6054.00    0.58521   0.53153    0.009
 6055.00    0.63089   0.53616    0.009
 6056.00    0.66143   0.54244    0.009
 6057.00    0.65674   0.54642    0.009
 6058.00    0.61394   0.54642    0.009
 6059.00    0.56501   0.54211    0.009
 6060.00    0.51023   0.53523    0.009
 6061.00    0.46002   0.52653    0.009
 6062.00    0.41365   0.51497    0.010
 6063.00    0.39821   0.51750    0.010
 6064.00    0.40569   0.53633    0.010
 6065.00    0.41420   0.54965    0.010
 6066.00    0.42337   0.55249    0.010
 6067.00    0.43197   0.55180    0.010
 6068.00    0.44026   0.55192    0.010
 6069.00    0.44737   0.55291    0.010
 6070.00    0.45391   0.55334    0.010
 6071.00    0.45717   0.55296    0.010
 6072.00    0.45904   0.55161    0.010
 6073.00    0.46460   0.54796    0.010
 6074.00    0.47153   0.54110    0.010
 6075.00    0.48999   0.53024    0.010
 6076.00    0.51203   0.52560    0.010
 6077.00    0.53988   0.53098    0.010
 6078.00    0.56924   0.53008    0.010
 6079.00    0.57390   0.52222    0.009
 6080.00    0.57333   0.52227    0.009
 6081.00    0.54107   0.52736    0.009
 6082.00    0.50351   0.52664    0.009
 6083.00    0.48339   0.52527    0.009
 6084.00    0.46546   0.52928    0.009
 6085.00    0.46686   0.53411    0.009
 6086.00    0.46995   0.53028    0.009
 6087.00    0.48355   0.52028    0.009
 6088.00    0.49770   0.51752    0.009
 6089.00    0.49137   0.52022    0.009
 6090.00    0.48477   0.52100    0.009
 6091.00    0.48468   0.52624    0.009
 6092.00    0.48510   0.53578    0.009
 6093.00    0.49653   0.53670    0.009
 6094.00    0.50451   0.53078    0.009
 6095.00    0.47083   0.53023    0.009
 6096.00    0.44205   0.53600    0.009
 6097.00    0.45395   0.53971    0.010
 6098.00    0.46392   0.52898    0.010
 6099.00    0.46189   0.49918    0.010
 6100.00    0.45330   0.48209    0.010
 6101.00    0.41274   0.50093    0.010
 6102.00    0.38411   0.52484    0.010
 6103.00    0.40270   0.53181    0.010
 6104.00    0.42314   0.52794    0.010
 6105.00    0.44966   0.52447    0.010
 6106.00    0.47339   0.53022    0.009
 6107.00    0.48937   0.53512    0.010
 6108.00    0.50264   0.52893    0.010
 6109.00    0.50946   0.52502    0.009
 6110.00    0.52772   0.53177    0.009
 6111.00    0.56952   0.53896    0.009
 6112.00    0.59019   0.53764    0.009
 6113.00    0.57304   0.52839    0.009
 6114.00    0.55788   0.52613    0.009
 6115.00    0.54581   0.53135    0.009
 6116.00    0.54284   0.52812    0.009
 6117.00    0.55237   0.51650    0.009
 6118.00    0.54942   0.50186    0.009
 6119.00    0.53138   0.48813    0.009
 6120.00    0.51700   0.49593    0.009
 6121.00    0.50653   0.51761    0.009
 6122.00    0.50476   0.52518    0.009
 6123.00    0.51118   0.52153    0.009
 6124.00    0.54470   0.51712    0.010
 6125.00    0.60070   0.51312    0.010
 6126.00    0.62197   0.51485    0.010
 6127.00    0.61788   0.52336    0.010
 6128.00    0.59925   0.53030    0.010
 6129.00    0.57130   0.53258    0.010
 6130.00    0.56064   0.53318    0.010
 6131.00    0.55966   0.52713    0.010
 6132.00    0.56168   0.50871    0.009
 6133.00    0.56517   0.47872    0.010
 6134.00    0.53942   0.45535    0.010
 6135.00    0.50134   0.46799    0.010
 6136.00    0.47261   0.50476    0.010
 6137.00    0.44726   0.52326    0.010
 6138.00    0.47005   0.51349    0.010
 6139.00    0.50752   0.50364    0.009
 6140.00    0.52965   0.51433    0.009
 6141.00    0.54789   0.52931    0.009
 6142.00    0.50535   0.53290    0.009
 6143.00    0.45025   0.53031    0.009
 6144.00    0.43938   0.52601    0.009
 6145.00    0.43570   0.51886    0.009
 6146.00    0.47275   0.51231    0.009
 6147.00    0.51474   0.50978    0.009
 6148.00    0.52177   0.51310    0.009
 6149.00    0.52587   0.51981    0.009
 6150.00    0.49192   0.52390    0.009
 6151.00    0.45615   0.51783    0.009
 6152.00    0.48621   0.50988    0.009
 6153.00    0.51753   0.51089    0.009
 6154.00    0.56585   0.51337    0.009
 6155.00    0.60987   0.51346    0.010
 6156.00    0.56922   0.51252    0.010
 6157.00    0.53101   0.49887    0.010
 6158.00    0.52100   0.46782    0.010
 6159.00    0.50935   0.44361    0.010
 6160.00    0.48464   0.44690    0.010
 6161.00    0.45835   0.46762    0.010
 6162.00    0.42251   0.48556    0.010
 6163.00    0.39424   0.49356    0.009
 6164.00    0.40193   0.49973    0.009
 6165.00    0.41315   0.49594    0.009
 6166.00    0.43811   0.47413    0.009
 6167.00    0.46102   0.46284    0.009
 6168.00    0.47732   0.48054    0.009
 6169.00    0.49589   0.50027    0.009
 6170.00    0.52065   0.50242    0.009
 6171.00    0.54371   0.50119    0.009
 6172.00    0.56278   0.50325    0.009
 6173.00    0.57137   0.50187    0.009
 6174.00    0.55874   0.50066    0.009
 6175.00    0.54240   0.50639    0.009
 6176.00    0.51950   0.51035    0.009
 6177.00    0.50094   0.50721    0.009
 6178.00    0.48910   0.50889    0.009
 6179.00    0.48716   0.51476    0.009
 6180.00    0.49866   0.51583    0.009
 6181.00    0.51473   0.51459    0.009
 6182.00    0.53623   0.51218    0.009
 6183.00    0.55585   0.50362    0.009
 6184.00    0.57348   0.49504    0.009
 6185.00    0.57650   0.49287    0.009
 6186.00    0.56596   0.49347    0.010
 6187.00    0.55473   0.48629    0.010
 6188.00    0.54292   0.46864    0.010
 6189.00    0.54468   0.46663    0.010
 6190.00    0.55620   0.48787    0.010
 6191.00    0.59527   0.50405    0.010
 6192.00    0.65174   0.50819    0.009
 6193.00    0.80240   0.51126    0.009
 6194.00    1.00507   0.51424    0.009
 6195.00    1.31949   0.50921    0.010
 6196.00    1.68758   0.49443   -2.000
 6197.00    1.75881   0.48514   -2.000
 6198.00    1.70698   0.49257   -2.000
 6199.00    1.27867   0.50593   -2.000
 6200.00    0.71692   0.51224   -2.000
 6201.00    0.22080   0.51142   -2.000
 6202.00   -0.25569   0.51014   -2.000
 6203.00   -0.19069   0.51180   -2.000
 6204.00    0.00881   0.51316   -2.000
 6205.00    0.21776   0.51258   -2.000
 6206.00    0.42862   0.51087   -2.000
 6207.00    0.45003   0.50729   -2.000
 6208.00    0.44155   0.50345    0.010
 6209.00    0.41643   0.49743    0.009
 6210.00    0.38936   0.48317    0.009
 6211.00    0.42540   0.46964    0.009
 6212.00    0.46645   0.46627    0.009
 6213.00    0.50638   0.47138    0.009
 6214.00    0.54626   0.48278    0.009
 6215.00    0.58987   0.48842    0.009
 6216.00    0.63289   0.48083    0.009
 6217.00    0.64571   0.47327    0.009
 6218.00    0.65689   0.47599    0.009
 6219.00    0.63800   0.48485    0.009
 6220.00    0.61877   0.49004    0.010
 6221.00    0.59584   0.48800    0.010
 6222.00    0.57026   0.48828    0.009
 6223.00    0.52427   0.49186    0.009
 6224.00    0.48910   0.49299    0.009
 6225.00    0.51720   0.49125    0.009
 6226.00    0.54654   0.48060    0.009
 6227.00    0.58158   0.46122    0.009
 6228.00    0.60405   0.45213    0.009
 6229.00    0.57883   0.46073    0.009
 6230.00    0.55273   0.47369    0.009
 6231.00    0.52387   0.48880    0.009
 6232.00    0.50517   0.50082    0.009
 6233.00    0.51374   0.50132    0.009
 6234.00    0.51939   0.49378    0.009
 6235.00    0.51831   0.48503    0.009
 6236.00    0.50703   0.47643    0.009
 6237.00    0.47542   0.47026    0.009
 6238.00    0.44107   0.47382    0.009
 6239.00    0.40197   0.47488    0.009
 6240.00    0.38136   0.46529    0.009
 6241.00    0.38887   0.46244    0.009
 6242.00    0.41689   0.46598    0.009
 6243.00    0.47233   0.46678    0.009
 6244.00    0.51641   0.47400    0.009
 6245.00    0.54716   0.48668    0.009
 6246.00    0.55010   0.49300    0.010
 6247.00    0.52420   0.49179    0.009
 6248.00    0.50735   0.48306    0.009
 6249.00    0.49878   0.46718    0.009
 6250.00    0.51548   0.45806    0.009
 6251.00    0.55256   0.45966    0.009
 6252.00    0.57881   0.46298    0.009
 6253.00    0.59737   0.46007    0.009
 6254.00    0.60606   0.45198    0.009
 6255.00    0.60860   0.44573    0.009
 6256.00    0.62536   0.45088    0.009
 6257.00    0.64985   0.46586    0.009
 6258.00    0.68041   0.47504    0.009
 6259.00    0.71385   0.48282    0.009
 6260.00    0.64284   0.49218    0.010
 6261.00    0.52926   0.49003    0.011
 6262.00    0.38925   0.47892    0.011
 6263.00    0.24005   0.47765    0.011
 6264.00    0.20113   0.48555    0.011
 6265.00    0.19456   0.48737    0.011
 6266.00    0.30214   0.48317    0.010
 6267.00    0.43744   0.48116    0.010
 6268.00    0.46972   0.48303    0.009
 6269.00    0.48178   0.48744    0.009
 6270.00    0.47170   0.49059    0.009
 6271.00    0.45823   0.48984    0.009
 6272.00    0.45888   0.48940    0.009
 6273.00    0.46111   0.49014    0.009
 6274.00    0.48394   0.48941    0.009
 6275.00    0.50832   0.48757    0.009
 6276.00    0.52897   0.48291    0.009
 6277.00    0.54947   0.47507    0.009
 6278.00    0.54067   0.47292    0.009
 6279.00    0.53140   0.47856    0.009
 6280.00    0.51200   0.48646    0.000
 6281.00    0.49317   0.49234    0.000
 6282.00    0.48388   0.49168    0.000
 6283.00    0.47729   0.49221    0.000
 6284.00    0.49918   0.49733    0.000
 6285.00    0.51707   0.50183    0.000
 6286.00    0.50510   0.50210    0.000
 6287.00    0.49734   0.49554    0.000
 6288.00    0.51359   0.48740    0.000
 6289.00    0.52935   0.48392    0.000
 6290.00    0.54287   0.48426    0.000
 6291.00    0.54545   0.48794    0.000
 6292.00    0.50751   0.48793    0.000
 6293.00    0.47268   0.47830    0.000
 6294.00    0.44755   0.46966    0.000
 6295.00    0.44204   0.47124    0.000
 6296.00    0.48830   0.47804    0.000
 6297.00    0.50873   0.47816    0.000
 6298.00    0.47068   0.46982    0.000
 6299.00    0.42804   0.46499    0.000
 6300.00    0.37642   0.47151    0.000
 6301.00    0.35130   0.48048    0.000
 6302.00    0.37147   0.48254    0.000
 6303.00    0.40154   0.48428    0.000
 6304.00    0.44642   0.49190    0.000
 6305.00    0.48180   0.49741    0.000
 6306.00    0.50465   0.49560    0.000
 6307.00    0.52629   0.48883    0.000
 6308.00    0.54650   0.48193    0.000
 6309.00    0.54535   0.48043    0.000
 6310.00    0.52234   0.48265    0.000
 6311.00    0.49106   0.47752    0.000
 6312.00    0.45234   0.46824    0.000
 6313.00    0.42433   0.46874    0.000
 6314.00    0.40484   0.46879    0.000
 6315.00    0.38581   0.46039    0.000
 6316.00    0.36709   0.46140    0.000
 6317.00    0.35218   0.47378    0.000
 6318.00    0.33960   0.48100    0.000
 6319.00    0.35520   0.48041    0.000
 6320.00    0.38589   0.48234    0.000
 6321.00    0.42159   0.48915    0.009
 6322.00    0.45962   0.49312    0.009
 6323.00    0.43015   0.49244    0.009
 6324.00    0.37364   0.48960    0.009
 6325.00    0.31512   0.49027    0.009
 6326.00    0.25590   0.49206    0.009
 6327.00    0.26833   0.48815    0.009
 6328.00    0.30135   0.48712    0.009
 6329.00    0.36496   0.49309    0.009
 6330.00    0.43583   0.49728    0.009
 6331.00    0.47293   0.48944    0.009
 6332.00    0.50358   0.47103    0.009
 6333.00    0.47747   0.45995    0.009
 6334.00    0.44295   0.46546    0.009
 6335.00    0.45065   0.47461    0.009
 6336.00    0.46293   0.47882    0.009
 6337.00    0.46190   0.48516    0.009
 6338.00    0.45992   0.49032    0.009
 6339.00    0.43990   0.48586    0.009
 6340.00    0.41922   0.47468    0.008
 6341.00    0.41195   0.46720    0.009
 6342.00    0.40456   0.47095    0.009
 6343.00    0.39135   0.47759    0.008
 6344.00    0.37750   0.48088    0.008
 6345.00    0.35361   0.48505    0.009
 6346.00    0.33304   0.48972    0.009
 6347.00    0.34595   0.49103    0.009
 6348.00    0.36199   0.49150    0.009
 6349.00    0.40064   0.49133    0.009
 6350.00    0.43475   0.48682    0.009
 6351.00    0.44371   0.47766    0.009
 6352.00    0.44421   0.47167    0.009
 6353.00    0.40730   0.47470    0.009
 6354.00    0.37466   0.47530    0.009
 6355.00    0.35756   0.46528    0.009
 6356.00    0.34556   0.45674    0.009
 6357.00    0.34913   0.45626    0.009
 6358.00    0.36911   0.45459    0.009
 6359.00    0.43159   0.45014    0.009
 6360.00    0.49384   0.45111    0.009
 6361.00    0.55556   0.45872    0.009
 6362.00    0.59692   0.46709    0.009
 6363.00    0.59898   0.47346    0.009
 6364.00    0.59642   0.47992    0.009
 6365.00    0.58607   0.48601    0.009
 6366.00    0.56425   0.48609    0.009
 6367.00    0.52549   0.48165    0.009
 6368.00    0.47822   0.48139    0.009
 6369.00    0.41988   0.48753    0.009
 6370.00    0.38169   0.49294    0.009
 6371.00    0.36652   0.49287    0.009
 6372.00    0.35936   0.49081    0.009
 6373.00    0.36029   0.49096    0.009
 6374.00    0.37271   0.48944    0.009
 6375.00    0.39535   0.48343    0.009
 6376.00    0.40802   0.47878    0.009
 6377.00    0.41287   0.47818    0.009
 6378.00    0.43049   0.47910    0.009
 6379.00    0.45691   0.48244    0.009
 6380.00    0.47197   0.48410    0.009
 6381.00    0.48016   0.48133    0.009
 6382.00    0.46075   0.48088    0.009
 6383.00    0.42678   0.48524    0.009
 6384.00    0.40867   0.48853    0.009
 6385.00    0.39781   0.48806    0.009
 6386.00    0.38365   0.48729    0.009
 6387.00    0.36819   0.48731    0.009
 6388.00    0.36187   0.48361    0.009
 6389.00    0.35861   0.47131    0.009
 6390.00    0.39070   0.45638    0.009
 6391.00    0.43276   0.45650    0.009
 6392.00    0.43224   0.47160    0.009
 6393.00    0.42185   0.48457    0.009
 6394.00    0.38772   0.48929    0.009
 6395.00    0.34916   0.48382    0.009
 6396.00    0.35115   0.46516    0.009
 6397.00    0.35896   0.44924    0.009
 6398.00    0.36554   0.45954    0.009
 6399.00    0.37200   0.48095    0.009
 6400.00    0.34149   0.49044    0.009
 6401.00    0.30849   0.49147    0.009
 6402.00    0.31240   0.48876    0.009
 6403.00    0.31752   0.48171    0.009
 6404.00    0.30856   0.47161    0.009
 6405.00    0.29993   0.46678    0.009
 6406.00    0.30201   0.47433    0.009
 6407.00    0.30568   0.47884    0.009
 6408.00    0.33338   0.47065    0.009
 6409.00    0.36075   0.46645    0.009
 6410.00    0.38497   0.47160    0.009
 6411.00    0.40557   0.47527    0.009
 6412.00    0.40092   0.47723    0.009
 6413.00    0.39062   0.48045    0.009
 6414.00    0.34992   0.48123    0.009
 6415.00    0.31994   0.47774    0.009
 6416.00    0.33622   0.46931    0.009
 6417.00    0.35526   0.45851    0.009
 6418.00    0.38407   0.45631    0.009
 6419.00    0.39875   0.46834    0.009
 6420.00    0.37115   0.48355    0.009
 6421.00    0.34659   0.48789    0.009
 6422.00    0.32978   0.48591    0.008
 6423.00    0.32383   0.48731    0.008
 6424.00    0.34166   0.49109    0.009
 6425.00    0.35790   0.49066    0.009
 6426.00    0.37115   0.48133    0.009
 6427.00    0.36212   0.46487    0.009
 6428.00    0.31613   0.45528    0.009
 6429.00    0.29106   0.46236    0.009
 6430.00    0.29641   0.47433    0.009
 6431.00    0.30905   0.48145    0.009
 6432.00    0.33101   0.48524    0.009
 6433.00    0.34402   0.48621    0.009
 6434.00    0.34693   0.48013    0.009
 6435.00    0.37212   0.46525    0.009
 6436.00    0.41945   0.45644    0.009
 6437.00    0.44333   0.46705    0.009
 6438.00    0.44666   0.48324    0.009
 6439.00    0.43594   0.48998    0.009
 6440.00    0.41437   0.49056    0.009
 6441.00    0.41101   0.49011    0.009
 6442.00    0.42002   0.49134    0.009
 6443.00    0.40634   0.49319    0.009
 6444.00    0.37917   0.49042    0.009
 6445.00    0.36921   0.47570    0.009
 6446.00    0.36818   0.45012    0.009
 6447.00    0.37662   0.43614    0.009
 6448.00    0.38931   0.44861    0.009
 6449.00    0.40990   0.46863    0.009
 6450.00    0.43353   0.47959    0.009
 6451.00    0.46197   0.47894    0.009
 6452.00    0.49199   0.46924    0.009
 6453.00    0.48507   0.46369    0.009
 6454.00    0.46796   0.47139    0.009
 6455.00    0.43073   0.48354    0.009
 6456.00    0.38894   0.49045    0.009
 6457.00    0.35581   0.48945    0.009
 6458.00    0.32425   0.47614    0.009
 6459.00    0.32926   0.45432    0.009
 6460.00    0.33935   0.44686    0.009
 6461.00    0.33144   0.46076    0.009
 6462.00    0.32172   0.47467    0.009
 6463.00    0.34471   0.48083    0.009
 6464.00    0.36976   0.48355    0.009
 6465.00    0.39615   0.48241    0.009
 6466.00    0.42254   0.47722    0.009
 6467.00    0.43895   0.47218    0.009
 6468.00    0.45563   0.46807    0.009
 6469.00    0.47973   0.46912    0.009
 6470.00    0.49879   0.47548    0.009
 6471.00    0.44650   0.47587    0.009
 6472.00    0.40166   0.47114    0.009
 6473.00    0.42581   0.47177    0.009
 6474.00    0.45162   0.47733    0.009
 6475.00    0.48858   0.47953    0.009
 6476.00    0.51554   0.47888    0.009
 6477.00    0.49008   0.47521    0.009
 6478.00    0.45871   0.46426    0.009
 6479.00    0.40239   0.45314    0.009
 6480.00    0.35368   0.45387    0.009
 6481.00    0.33154   0.46353    0.009
 6482.00    0.30952   0.47126    0.009
 6483.00    0.28786   0.47432    0.009
 6484.00    0.28565   0.47571    0.009
 6485.00    0.33211   0.47614    0.009
 6486.00    0.38584   0.47284    0.009
 6487.00    0.45523   0.46659    0.009
 6488.00    0.50224   0.46134    0.009
 6489.00    0.50738   0.45513    0.009
 6490.00    0.50186   0.43833    0.009
 6491.00    0.47893   0.41343    0.009
 6492.00    0.45888   0.40054    0.009
 6493.00    0.44299   0.40548    0.009
 6494.00    0.43143   0.41816    0.009
 6495.00    0.42532   0.43013    0.009
 6496.00    0.41510   0.43622    0.009
 6497.00    0.40031   0.44373    0.009
 6498.00    0.40905   0.45334    0.009
 6499.00    0.44083   0.45982    0.009
 6500.00    0.47828   0.46383    0.009
 6501.00    0.52062   0.46652    0.009
 6502.00    0.52174   0.46929    0.009
 6503.00    0.49148   0.47123    0.009
 6504.00    0.47270   0.46944    0.009
 6505.00    0.46161   0.46471    0.009
 6506.00    0.46712   0.46350    0.009
 6507.00    0.48236   0.46720    0.009
 6508.00    0.49244   0.47064    0.009
 6509.00    0.49988   0.47100    0.009
 6510.00    0.50464   0.47045    0.009
 6511.00    0.50821   0.46804    0.009
 6512.00    0.49072   0.46218    0.009
 6513.00    0.46525   0.45691    0.009
 6514.00    0.47434   0.45402    0.009
 6515.00    0.49460   0.45147    0.009
 6516.00    0.46204   0.45348    0.009
 6517.00    0.41522   0.46199    0.009
 6518.00    0.39464   0.46864    0.009
 6519.00    0.37987   0.46986    0.009
 6520.00    0.43125   0.46921    0.009
 6521.00    0.49430   0.46977    0.009
 6522.00    0.49344   0.46854    0.009
 6523.00    0.48398   0.46178    0.008
 6524.00    0.45676   0.45624    0.009
 6525.00    0.42784   0.45878    0.009
 6526.00    0.42931   0.46470    0.009
 6527.00    0.43258   0.46672    0.009
 6528.00    0.41005   0.46255    0.000
 6529.00    0.38715   0.45619    0.000
 6530.00    0.40571   0.45401    0.000
 6531.00    0.42530   0.45826    0.000
 6532.00    0.47070   0.46473    0.000
 6533.00    0.51449   0.46665    0.000
 6534.00    0.53670   0.46385    0.000
 6535.00    0.55249   0.46319    0.000
 6536.00    0.51101   0.46714    0.000
 6537.00    0.47131   0.46983    0.000
 6538.00    0.44334   0.46693    0.000
 6539.00    0.41559   0.46143    0.000
 6540.00    0.38893   0.45731    0.000
 6541.00    0.35959   0.45359    0.000
 6542.00    0.31918   0.44565    0.000
 6543.00    0.29958   0.43727    0.000
 6544.00    0.35112   0.43890    0.000
 6545.00    0.40771   0.44721    0.000
 6546.00    0.47883   0.45170    0.000
 6547.00    0.52344   0.44983    0.000
 6548.00    0.50287   0.44495    0.000
 6549.00    0.46561   0.44122    0.000
 6550.00    0.39298   0.43691    0.000
 6551.00    0.34359   0.42906    0.000
 6552.00    0.33703   0.42118    0.000
 6553.00    0.36384   0.41915    0.000
 6554.00    0.44437   0.42191    0.000
 6555.00    0.50920   0.42204    0.000
 6556.00    0.55186   0.41554    0.000
 6557.00    0.58651   0.39857    0.000
 6558.00    0.61121   0.35882    0.000
 6559.00    0.69177   0.30406    0.000
 6560.00    0.83352   0.28704    0.000
 6561.00    0.92825   0.33161    0.000
 6562.00    0.97755   0.38667    0.000
 6563.00    0.92034   0.41564    0.000
 6564.00    0.77238   0.42747    0.000
 6565.00    0.63700   0.42937    0.000
 6566.00    0.51107   0.42611    0.000
 6567.00    0.46963   0.42726    0.000
 6568.00    0.48387   0.43089    0.000
 6569.00    0.46908   0.42899    0.000
 6570.00    0.43754   0.42319    0.000
 6571.00    0.41395   0.42042    0.000
 6572.00    0.39434   0.42478    0.000
 6573.00    0.38278   0.43624    0.000
 6574.00    0.37471   0.44689    0.000
 6575.00    0.37337   0.45145    0.000
 6576.00    0.37454   0.44993    0.000
 6577.00    0.38235   0.44435    0.000
 6578.00    0.39225   0.44020    0.000
 6579.00    0.42884   0.44285    0.000
 6580.00    0.47248   0.44830    0.000
 6581.00    0.51303   0.45057    0.000
 6582.00    0.55291   0.44931    0.000
 6583.00    0.58252   0.44740    0.000
 6584.00    0.61036   0.45007    0.000
 6585.00    0.60565   0.45510    0.000
 6586.00    0.59669   0.45734    0.000
 6587.00    0.53361   0.45614    0.000
 6588.00    0.46558   0.44770    0.000
 6589.00    0.43625   0.43055    0.000
 6590.00    0.40905   0.41753    0.000
 6591.00    0.38506   0.42316    0.000
 6592.00    0.36072   0.43866    0.000
 6593.00    0.29560   0.44694    0.000
 6594.00    0.23228   0.44562    0.000
 6595.00    0.21041   0.44210    0.000
 6596.00    0.19629   0.44390    0.000
 6597.00    0.28033   0.45131    0.000
 6598.00    0.36619   0.45718    0.000
 6599.00    0.46762   0.45758    0.000
 6600.00    0.55220   0.45395    0.000
 6601.00    0.52957   0.44841    0.000
 6602.00    0.50080   0.44404    0.000
 6603.00    0.44148   0.44200    0.000
 6604.00    0.39517   0.43904    0.000
 6605.00    0.40139   0.43324    0.000
 6606.00    0.39973   0.43015    0.000
 6607.00    0.37168   0.43783    0.000
 6608.00    0.34882   0.44975    0.000
 6609.00    0.34064   0.45332    0.009
 6610.00    0.35496   0.44986    0.009
 6611.00    0.42371   0.44927    0.009
 6612.00    0.47538   0.45398    0.009
 6613.00    0.49143   0.45620    0.009
 6614.00    0.48027   0.45419    0.009
 6615.00    0.41975   0.45332    0.009
 6616.00    0.37504   0.45532    0.009
 6617.00    0.35543   0.45754    0.009
 6618.00    0.34436   0.45791    0.009
 6619.00    0.34520   0.45507    0.009
 6620.00    0.34867   0.44807    0.009
 6621.00    0.35537   0.43985    0.009
 6622.00    0.33795   0.43767    0.009
 6623.00    0.29451   0.44278    0.009
 6624.00    0.28337   0.44682    0.009
 6625.00    0.30300   0.44723    0.009
 6626.00    0.36109   0.44639    0.009
 6627.00    0.45148   0.44468    0.009
 6628.00    0.48576   0.44161    0.009
 6629.00    0.47855   0.43517    0.009
 6630.00    0.44053   0.42706    0.009
 6631.00    0.38248   0.42517    0.009
 6632.00    0.37612   0.43279    0.009
 6633.00    0.39912   0.44229    0.010
 6634.00    0.42252   0.44728    0.010
 6635.00    0.44612   0.44670    0.009
 6636.00    0.40704   0.44295    0.009
 6637.00    0.34115   0.44237    0.009
 6638.00    0.31430   0.44565    0.009
 6639.00    0.30177   0.44304    0.009
 6640.00    0.31584   0.43419    0.009
 6641.00    0.33816   0.43229    0.009
 6642.00    0.36396   0.43912    0.009
 6643.00    0.39065   0.44330    0.009
 6644.00    0.39975   0.44199    0.009
 6645.00    0.40514   0.44175    0.009
 6646.00    0.42388   0.44408    0.009
 6647.00    0.44484   0.44501    0.009
 6648.00    0.44136   0.44384    0.009
 6649.00    0.43481   0.44255    0.009
 6650.00    0.42047   0.44200    0.009
 6651.00    0.40546   0.44216    0.009
 6652.00    0.40004   0.44294    0.009
 6653.00    0.39512   0.44276    0.009
 6654.00    0.39761   0.44240    0.009
 6655.00    0.39974   0.44279    0.010
 6656.00    0.36701   0.44197    0.009
 6657.00    0.33445   0.43958    0.009
 6658.00    0.30530   0.43590    0.009
 6659.00    0.28233   0.42934    0.009
 6660.00    0.33375   0.42249    0.009
 6661.00    0.38076   0.42339    0.009
 6662.00    0.39134   0.42889    0.009
 6663.00    0.40176   0.43046    0.009
 6664.00    0.41110   0.42969    0.009
 6665.00    0.41815   0.43178    0.009
 6666.00    0.41411   0.43719    0.009
 6667.00    0.41379   0.44214    0.009
 6668.00    0.42821   0.44381    0.009
 6669.00    0.44055   0.44316    0.009
 6670.00    0.44607   0.44274    0.009
 6671.00    0.43526   0.44285    0.009
 6672.00    0.37913   0.44144    0.009
 6673.00    0.34560   0.43303    0.009
 6674.00    0.36574   0.41708    0.009
 6675.00    0.37701   0.40791    0.009
 6676.00    0.37005   0.41597    0.009
 6677.00    0.37336   0.42906    0.009
 6678.00    0.39502   0.43422    0.009
 6679.00    0.39869   0.43550    0.010
 6680.00    0.37425   0.43753    0.010
 6681.00    0.32940   0.43926    0.010
 6682.00    0.25653   0.43971    0.010
 6683.00    0.24728   0.43901    0.009
 6684.00    0.31484   0.43751    0.010
 6685.00    0.36430   0.43682    0.010
 6686.00    0.39449   0.43791    0.009
 6687.00    0.39174   0.43913    0.009
 6688.00    0.35805   0.43932    0.009
 6689.00    0.35570   0.43873    0.009
 6690.00    0.37930   0.43834    0.009
 6691.00    0.43543   0.43661    0.009
 6692.00    0.51525   0.43072    0.009
 6693.00    0.53090   0.42405    0.009
 6694.00    0.50548   0.42317    0.009
 6695.00    0.44983   0.42707    0.009
 6696.00    0.37726   0.43212    0.000
 6697.00    0.31931   0.43690    0.000
 6698.00    0.26850   0.43828    0.000
 6699.00    0.26021   0.43545    0.000
 6700.00    0.26981   0.43002    0.000
 6701.00    0.30119   0.42625    0.000
 6702.00    0.34042   0.42772    0.000
 6703.00    0.34723   0.43157    0.000
 6704.00    0.34417   0.43371    0.000
 6705.00    0.37470   0.43363    0.000
 6706.00    0.41374   0.43192    0.000
 6707.00    0.43832   0.42950    0.000
 6708.00    0.45992   0.42891    0.000
 6709.00    0.50694   0.42828    0.000
 6710.00    0.55807   0.42510    0.000
 6711.00    0.56134   0.42154    0.000
 6712.00    0.55882   0.41733    0.000
 6713.00    0.52420   0.41108    0.000
 6714.00    0.48692   0.40640    0.000
 6715.00    0.46063   0.41034    0.000
 6716.00    0.43487   0.42070    0.000
 6717.00    0.50226   0.42653    0.000
 6718.00    0.56880   0.42615    0.000
 6719.00    0.51427   0.42639    0.000
 6720.00    0.46095   0.42985    0.000
 6721.00    0.43129   0.43110    0.000
 6722.00    0.40716   0.42744    0.000
 6723.00    0.44640   0.42400    0.000
 6724.00    0.48534   0.42501    0.000
 6725.00    0.52187   0.42833    0.000
 6726.00    0.54237   0.43093    0.000
 6727.00    0.46666   0.43247    0.000
 6728.00    0.41089   0.43218    0.000
 6729.00    0.44959   0.42981    0.000
 6730.00    0.47743   0.42730    0.000
 6731.00    0.46333   0.42719    0.000
 6732.00    0.45651   0.42917    0.000
 6733.00    0.47310   0.42980    0.000
 6734.00    0.45861   0.42637    0.000
 6735.00    0.35938   0.42108    0.000
 6736.00    0.28508   0.41915    0.000
 6737.00    0.26903   0.42184    0.000
 6738.00    0.28764   0.42409    0.000
 6739.00    0.37628   0.42177    0.000
 6740.00    0.46924   0.41944    0.000
 6741.00    0.56979   0.42112    0.000
 6742.00    0.60774   0.42281    0.000
 6743.00    0.54931   0.42177    0.000
 6744.00    0.49899   0.42018    0.000
 6745.00    0.45962   0.41846    0.000
 6746.00    0.43493   0.41632    0.000
 6747.00    0.42771   0.41569    0.000
 6748.00    0.40547   0.41732    0.000
 6749.00    0.36746   0.41680    0.000
 6750.00    0.37983   0.41589    0.000
 6751.00    0.43885   0.41943    0.000
 6752.00    0.49299   0.42330    0.000
 6753.00    0.54314   0.42568    0.011
 6754.00    0.54109   0.42848    0.011
 6755.00    0.50154   0.43110    0.011
 6756.00    0.45900   0.43253    0.012
 6757.00    0.41460   0.43242    0.012
 6758.00    0.37022   0.43061    0.012
 6759.00    0.32587   0.42887    0.012
 6760.00    0.35155   0.42919    0.012
 6761.00    0.41078   0.42926    0.012
 6762.00    0.45959   0.42614    0.012
 6763.00    0.50407   0.42014    0.012
 6764.00    0.51809   0.41530    0.012
 6765.00    0.52133   0.41607    0.012
 6766.00    0.51451   0.41957    0.012
 6767.00    0.50469   0.41924    0.011
 6768.00    0.52982   0.41683    0.011
 6769.00    0.56360   0.41856    0.011
 6770.00    0.45878   0.42398    0.011
 6771.00    0.32615   0.42881    0.011
 6772.00    0.34215   0.43128    0.011
 6773.00    0.38150   0.43156    0.011
 6774.00    0.35062   0.43068    0.011
 6775.00    0.31154   0.43135    0.011
 6776.00    0.34477   0.43304    0.011
 6777.00    0.38370   0.43222    0.011
 6778.00    0.42843   0.42805    0.011
 6779.00    0.47342   0.42109    0.012
 6780.00    0.49796   0.41313    0.012
 6781.00    0.51994   0.40880    0.012
 6782.00    0.43243   0.40987    0.012
 6783.00    0.34824   0.41375    0.012
 6784.00    0.32421   0.41898    0.011
 6785.00    0.30491   0.42312    0.011
 6786.00    0.33739   0.42362    0.011
 6787.00    0.36261   0.42315    0.011
 6788.00    0.33206   0.42356    0.011
 6789.00    0.30472   0.42187    0.011
 6790.00    0.29607   0.41798    0.011
 6791.00    0.30741   0.41628    0.011
 6792.00    0.41120   0.41714    0.011
 6793.00    0.50100   0.41835    0.012
 6794.00    0.53791   0.41971    0.011
 6795.00    0.53896   0.42048    0.011
 6796.00    0.42676   0.42124    0.011
 6797.00    0.37020   0.42285    0.011
 6798.00    0.46264   0.42431    0.011
 6799.00    0.51854   0.42417    0.012
 6800.00    0.49043   0.42190    0.012
 6801.00    0.48068   0.42032    0.012
 6802.00    0.50743   0.42074    0.012
 6803.00    0.48398   0.42000    0.012
 6804.00    0.37356   0.41922    0.012
 6805.00    0.29333   0.42008    0.012
 6806.00    0.25891   0.41919    0.011
 6807.00    0.30453   0.41772    0.011
 6808.00    0.45681   0.41893    0.011
 6809.00    0.49088   0.42052    0.011
 6810.00    0.38621   0.41904    0.011
 6811.00    0.39677   0.41517    0.011
 6812.00    0.52662   0.41436    0.011
 6813.00    0.58618   0.41914    0.012
 6814.00    0.58160   0.42356    0.012
 6815.00    0.55645   0.42297    0.012
 6816.00    0.51476   0.41909    0.012
 6817.00    0.48666   0.41656    0.012
 6818.00    0.46819   0.41877    0.012
 6819.00    0.44857   0.42322    0.012
 6820.00    0.42825   0.42583    0.012
 6821.00    0.41499   0.42621    0.012
 6822.00    0.40557   0.42547    0.012
 6823.00    0.46746   0.42316    0.012
 6824.00    0.56299   0.41796    0.012
 6825.00    0.56215   0.41327    0.012
 6826.00    0.52212   0.41420    0.012
 6827.00    0.43326   0.41897    0.012
 6828.00    0.32744   0.42141    0.012
 6829.00    0.34129   0.42008    0.012
 6830.00    0.39016   0.41932    0.012
 6831.00    0.45933   0.42137    0.012
 6832.00    0.53342   0.42301    0.012
 6833.00    0.49553   0.42142    0.012
 6834.00    0.43572   0.41766    0.012
 6835.00    0.41747   0.41301    0.012
 6836.00    0.40556   0.40742    0.012
 6837.00    0.42977   0.40148    0.012
 6838.00    0.45805   0.39704    0.013
 6839.00    0.45345   0.39742    0.013
 6840.00    0.44640   0.40343    0.013
 6841.00    0.37354   0.41159    0.013
 6842.00    0.29806   0.41721    0.013
 6843.00    0.31774   0.41877    0.012
 6844.00    0.34016   0.41867    0.012
 6845.00    0.44523   0.41813    0.012
 6846.00    0.53682   0.41712    0.012
 6847.00    0.40067   0.41660    0.012
 6848.00    0.28223   0.41699    0.012
 6849.00    0.34915   0.41777    0.012
 6850.00    0.39564   0.41563    0.012
 6851.00    0.29029   0.40820    0.012
 6852.00    0.20867   0.40188    0.012
 6853.00    0.26150   0.40247    0.011
 6854.00    0.33657   0.40586    0.011
 6855.00    0.51207   0.40830    0.011
 6856.00    0.65719   0.40901    0.012
 6857.00    0.68986   0.40542    0.012
 6858.00    0.69754   0.40062    0.012
 6859.00    0.62779   0.40280    0.012
 6860.00    0.52167   0.41135    0.012
 6861.00    0.31985   0.41764    0.012
 6862.00    0.22672   0.41721    0.012
 6863.00    0.37918   0.41175    0.012
 6864.00    0.48355   0.40498    0.012
 6865.00    0.49379   0.40211    0.012
 6866.00    0.46783   0.40535    0.012
 6867.00    0.38007   0.40909    0.013
 6868.00    0.34516   0.40782    0.013
 6869.00    0.38925   0.40481    0.013
 6870.00    0.43479   0.40550    0.013
 6871.00    0.48224   0.40736    0.013
 6872.00    0.49380   0.40746    0.012
 6873.00    0.46385   0.40909    0.012
 6874.00    0.42214   0.41333    0.012
 6875.00    0.36845   0.41622    0.012
 6876.00    0.32718   0.41573    0.012
 6877.00    0.29710   0.41229    0.011
 6878.00    0.31271   0.40607    0.011
 6879.00    0.36457   0.40090    0.011
 6880.00    0.38428   0.40213    0.011
 6881.00    0.38156   0.40750    0.011
 6882.00    0.37560   0.40978    0.011
 6883.00    0.36767   0.40961    0.012
 6884.00    0.34805   0.41205    0.012
 6885.00    0.32220   0.41564    0.012
 6886.00    0.30698   0.41775    0.012
 6887.00    0.29669   0.41896    0.012
 6888.00    0.31465   0.41947    0.012
 6889.00    0.34390   0.41839    0.012
 6890.00    0.35917   0.41660    0.012
 6891.00    0.36967   0.41442    0.012
 6892.00    0.40707   0.41220    0.012
 6893.00    0.45219   0.41218    0.013
 6894.00    0.45321   0.41427    0.012
 6895.00    0.44380   0.41526    0.012
 6896.00    0.41889   0.41381    0.012
 6897.00    0.39103   0.41270    0.012
 6898.00    0.45017   0.41463    0.012
 6899.00    0.52216   0.41709    0.012
 6900.00    0.37700   0.41679    0.012
 6901.00    0.20842   0.41488    0.012
 6902.00    0.19982   0.41423    0.012
 6903.00    0.20253   0.41597    0.012
 6904.00    0.28113   0.41838    0.012
 6905.00    0.36245   0.41941    0.012
 6906.00    0.34200   0.41927    0.012
 6907.00    0.32164   0.41760    0.012
 6908.00    0.31588   0.41474    0.012
 6909.00    0.31203   0.41142    0.012
 6910.00    0.33828   0.40698    0.012
 6911.00    0.36225   0.40378    0.012
 6912.00    0.36336   0.40466    0.012
 6913.00    0.36897   0.40652    0.012
 6914.00    0.40690   0.40769    0.012
 6915.00    0.43975   0.41056    0.012
 6916.00    0.44454   0.41401    0.012
 6917.00    0.43199   0.41636    0.012
 6918.00    0.34297   0.41748    0.012
 6919.00    0.27036   0.41625    0.011
 6920.00    0.25724   0.41084    0.012
 6921.00    0.28254   0.40318    0.012
 6922.00    0.42458   0.39920    0.012
 6923.00    0.50823   0.40201    0.011
 6924.00    0.44097   0.40825    0.011
 6925.00    0.37854   0.41216    0.011
 6926.00    0.32683   0.41298    0.012
 6927.00    0.33069   0.41272    0.012
 6928.00    0.44160   0.41103    0.012
 6929.00    0.46315   0.40726    0.012
 6930.00    0.33450   0.40494    0.012
 6931.00    0.29157   0.40796    0.012
 6932.00    0.37489   0.41200    0.012
 6933.00    0.41244   0.41225    0.012
 6934.00    0.39072   0.41103    0.012
 6935.00    0.37049   0.41167    0.012
 6936.00    0.35198   0.41421    0.013
 6937.00    0.30734   0.41621    0.013
 6938.00    0.23640   0.41555    0.012
 6939.00    0.25426   0.41197    0.012
 6940.00    0.35090   0.40632    0.012
 6941.00    0.37336   0.40008    0.012
 6942.00    0.33780   0.39787    0.012
 6943.00    0.35980   0.40260    0.012
 6944.00    0.42136   0.40896    0.012
 6945.00    0.46280   0.41237    0.012
 6946.00    0.49212   0.41255    0.012
 6947.00    0.47812   0.40863    0.012
 6948.00    0.44132   0.40345    0.012
 6949.00    0.44659   0.40150    0.012
 6950.00    0.47106   0.40173    0.012
 6951.00    0.44102   0.40280    0.012
 6952.00    0.38956   0.40586    0.012
 6953.00    0.27879   0.40977    0.012
 6954.00    0.14818   0.41166    0.012
 6955.00    0.25760   0.41147    0.012
 6956.00    0.43444   0.41105    0.013
 6957.00    0.37496   0.41120    0.013
 6958.00    0.26078   0.41206    0.012
 6959.00    0.27109   0.41292    0.012
 6960.00    0.30450   0.41356    0.012
 6961.00    0.29099   0.41277    0.012
 6962.00    0.27076   0.40994    0.012
 6963.00    0.33019   0.40916    0.012
 6964.00    0.39788   0.41271    0.012
 6965.00    0.37691   0.41608    0.012
 6966.00    0.35004   0.41530    0.012
 6967.00    0.36350   0.41136    0.012
 6968.00    0.37824   0.40895    0.012
 6969.00    0.29780   0.41110    0.012
 6970.00    0.22125   0.41316    0.012
 6971.00    0.26399   0.41011    0.012
 6972.00    0.30510   0.40400    0.012
 6973.00    0.32211   0.39684    0.012
 6974.00    0.33354   0.38676    0.012
 6975.00    0.29132   0.37774    0.012
 6976.00    0.26656   0.37979    0.012
 6977.00    0.36321   0.39224    0.012
 6978.00    0.45609   0.40372    0.013
 6979.00    0.52877   0.41006    0.013
 6980.00    0.55575   0.41336    0.013
 6981.00    0.38588   0.41421    0.013
 6982.00    0.27108   0.41351    0.012
 6983.00    0.35179   0.41250    0.012
 6984.00    0.40685   0.41061    0.012
 6985.00    0.38540   0.40712    0.012
 6986.00    0.35608   0.40449    0.012
 6987.00    0.30677   0.40607    0.012
 6988.00    0.31561   0.41038    0.012
 6989.00    0.45160   0.41299    0.012
 6990.00    0.48188   0.41204    0.012
 6991.00    0.31163   0.40975    0.012
 6992.00    0.16180   0.40943    0.012
 6993.00    0.04577   0.41076    0.012
 6994.00    0.03628   0.41064    0.012
 6995.00    0.18144   0.40638    0.012
 6996.00    0.26518   0.39960    0.012
 6997.00    0.27053   0.39729    0.012
 6998.00    0.30230   0.40180    0.012
 6999.00    0.36378   0.40612    0.012
 7000.00    0.41594   0.40424    0.013
 7001.00    0.45883   0.39939    0.013
 7002.00    0.40776   0.39731    0.013
 7003.00    0.27447   0.39837    0.013
 7004.00    0.18346   0.40103    0.013
 7005.00    0.12505   0.40450    0.013
 7006.00    0.13439   0.40663    0.012
 7007.00    0.18965   0.40553    0.012
 7008.00    0.21027   0.40362    0.012
 7009.00    0.21034   0.40450    0.012
 7010.00    0.22299   0.40589    0.012
 7011.00    0.24216   0.40104    0.012
 7012.00    0.27352   0.38880    0.012
 7013.00    0.31036   0.38044    0.012
 7014.00    0.33395   0.38643    0.012
 7015.00    0.35242   0.39985    0.012
 7016.00    0.30129   0.40879    0.012
 7017.00    0.22733   0.41173    0.012
 7018.00    0.28053   0.40969    0.012
 7019.00    0.36872   0.40207    0.012
 7020.00    0.42620   0.39303    0.013
 7021.00    0.47673   0.39005    0.013
 7022.00    0.47218   0.39445    0.013
 7023.00    0.45767   0.39997    0.013
 7024.00    0.34997   0.40230    0.013
 7025.00    0.22936   0.40309    0.013
 7026.00    0.30736   0.40425    0.013
 7027.00    0.40507   0.40542    0.013
 7028.00    0.26800   0.40541    0.013
 7029.00    0.11622   0.40430    0.012
 7030.00    0.23388   0.40325    0.012
 7031.00    0.35862   0.40319    0.012
 7032.00    0.33245   0.40519    0.012
 7033.00    0.30624   0.40552    0.012
 7034.00    0.27897   0.39869    0.012
 7035.00    0.25342   0.39181    0.012
 7036.00    0.25211   0.39679    0.012
 7037.00    0.24559   0.40982    0.012
 7038.00    0.19110   0.41932    0.012
 7039.00    0.13855   0.42193    0.012
 7040.00    0.09907   0.41884    0.012
 7041.00    0.08986   0.41271    0.012
 7042.00    0.23888   0.40957    0.012
 7043.00    0.37185   0.41263    0.013
 7044.00    0.43720   0.41817    0.013
 7045.00    0.47065   0.42155    0.013
 7046.00    0.39318   0.42120    0.013
 7047.00    0.33694   0.41763    0.013
 7048.00    0.34288   0.41012    0.013
 7049.00    0.32568   0.39914    0.013
 7050.00    0.25073   0.39057   -2.000
 7051.00    0.19757   0.38868   -2.000
 7052.00    0.19129   0.39212   -2.000
 7053.00    0.21629   0.39740   -2.000
 7054.00    0.29972   0.40014   -2.000
 7055.00    0.37690   0.39711   -2.000
 7056.00    0.44390   0.39012   -2.000
 7057.00    0.47044   0.38576   -2.000
 7058.00    0.43913   0.38698   -2.000
 7059.00    0.48312   0.39015   -2.000
 7060.00    0.62187   0.39302   -2.000
 7061.00    0.65123   0.39501   -2.000
 7062.00    0.55929   0.39307   -2.000
 7063.00    0.50279   0.38687   -2.000
 7064.00    0.48097   0.37958   -2.000
 7065.00    0.44563   0.37620   -2.000
 7066.00    0.39863   0.38128   -2.000
 7067.00    0.40413   0.39072   -2.000
 7068.00    0.44951   0.39620   -2.000
 7069.00    0.36745   0.39718   -2.000
 7070.00    0.20029   0.39755   -2.000
 7071.00    0.24440   0.39770   -2.000
 7072.00    0.41206   0.39695   -2.000
 7073.00    0.50463   0.39644   -2.000
 7074.00    0.55892   0.39729   -2.000
 7075.00    0.56838   0.39869   -2.000
 7076.00    0.55804   0.39978   -2.000
 7077.00    0.28796   0.40059   -2.000
 7078.00   -0.08062   0.39901   -2.000
 7079.00   -0.02571   0.39232   -2.000
 7080.00    0.16557   0.38117   -2.000
 7081.00    0.21005   0.37180   -2.000
 7082.00    0.21499   0.37062   -2.000
 7083.00    0.20670   0.37372   -2.000
 7084.00    0.19549   0.37409   -2.000
 7085.00    0.34809   0.37214   -2.000
 7086.00    0.52947   0.36956   -2.000
 7087.00    0.36383   0.36766   -2.000
 7088.00    0.15169   0.36811   -2.000
 7089.00    0.23455   0.36871   -2.000
 7090.00    0.34543   0.36854   -2.000
 7091.00    0.26714   0.36883   -2.000
 7092.00    0.17775   0.36890   -2.000
 7093.00    0.33143   0.36903   -2.000
 7094.00    0.48905   0.37071   -2.000
 7095.00    0.36802   0.37645   -2.000
 7096.00    0.25497   0.38209   -2.000
 7097.00    0.34046   0.38254   -2.000
 7098.00    0.41562   0.37959   -2.000
 7099.00    0.35369   0.37682   -2.000
 7100.00    0.30336   0.37788   -2.000
 7101.00    0.35574   0.38204   -2.000
 7102.00    0.40164   0.38376   -2.000
 7103.00    0.40518   0.38078   -2.000
 7104.00    0.39568   0.37797   -2.000
 7105.00    0.31972   0.37832   -2.000
 7106.00    0.26260   0.37768   -2.000
 7107.00    0.28304   0.37348   -2.000
 7108.00    0.29875   0.37027   -2.000
 7109.00    0.29837   0.37200   -2.000
 7110.00    0.33744   0.37635   -2.000
 7111.00    0.48986   0.37934   -2.000
 7112.00    0.53176   0.38082   -2.000
 7113.00    0.30248   0.38142   -2.000
 7114.00    0.17655   0.38079   -2.000
 7115.00    0.26932   0.37974   -2.000
 7116.00    0.32182   0.37887   -2.000
 7117.00    0.30027   0.37769   -2.000
 7118.00    0.29875   0.37528   -2.000
 7119.00    0.32939   0.37449   -2.000
 7120.00    0.46351   0.37726   -2.000
 7121.00    0.74352   0.37794   -2.000
 7122.00    0.86174   0.37394   -2.000
 7123.00    0.77930   0.37032   -2.000
 7124.00   -0.81891   0.37023   -2.000
 7125.00   -4.07434   0.37020   -2.000
 7126.00   -4.05774   0.36569   -2.000
 7127.00   -0.88573   0.35977   -2.000
 7128.00    0.51588   0.35969   -2.000
 7129.00    0.41197   0.36538   -2.000
 7130.00    0.38169   0.37184   -2.000
 7131.00    0.40655   0.37574   -2.000
 7132.00    0.37567   0.37697   -2.000
 7133.00    0.30812   0.37827   -2.000
 7134.00    0.32392   0.37856   -2.000
 7135.00    0.38772   0.37519   -2.000
 7136.00    0.41016   0.37236   -2.000
 7137.00    0.41185   0.37440   -2.000
 7138.00    0.41534   0.37734   -2.000
 7139.00    0.41962   0.37745   -2.000
 7140.00    0.31647   0.37680   -2.000
 7141.00    0.17329   0.37645   -2.000
 7142.00    0.11321   0.37586   -2.000
 7143.00    0.07938   0.37273   -2.000
 7144.00    0.13443   0.36540   -2.000
 7145.00    0.21293   0.36084   -2.000
 7146.00    0.19150   0.36396   -2.000
 7147.00    0.14853   0.36944   -2.000
 7148.00    0.19867   0.37441   -2.000
 7149.00    0.26474   0.37953   -2.000
 7150.00    0.20954   0.38152   -2.000
 7151.00    0.13865   0.37843   -2.000
 7152.00    0.16173   0.37612   -2.000
 7153.00    0.19334   0.37945   -2.000
 7154.00    0.22623   0.38276   -2.000
 7155.00    0.25918   0.38072   -2.000
 7156.00    0.28838   0.37654   -2.000
 7157.00    0.31790   0.37520   -2.000
 7158.00    0.38322   0.37733   -2.000
 7159.00    0.44589   0.37702   -2.000
 7160.00    0.44846   0.36917   -2.000
 7161.00    0.45993   0.35959   -2.000
 7162.00    0.58354   0.35902   -2.000
 7163.00    0.66494   0.36782   -2.000
 7164.00    0.38627   0.37709   -2.000
 7165.00    0.17352   0.38065   -2.000
 7166.00    0.37848   0.37972   -2.000
 7167.00    0.53331   0.37945   -2.000
 7168.00    0.43929   0.38216   -2.000
 7169.00    0.37439   0.38534   -2.000
 7170.00    0.42670   0.38572   -2.000
 7171.00    0.43155   0.38200   -2.000
 7172.00    0.27788   0.37621   -2.000
 7173.00    0.15321   0.37440   -2.000
 7174.00    0.11033   0.37847   -2.000
 7175.00    0.09477   0.38036   -2.000
 7176.00    0.14513   0.37366   -2.000
 7177.00    0.22731   0.36407   -2.000
 7178.00    0.37574   0.36204   -2.000
 7179.00    0.46064   0.36995   -2.000
 7180.00    0.43051   0.37874   -2.000
 7181.00    0.37311   0.38087   -2.000
 7182.00    0.27252   0.37684   -2.000
 7183.00    0.24659   0.36836   -2.000
 7184.00    0.32440   0.36018   -2.000
 7185.00    0.31290   0.35780   -2.000
 7186.00    0.19222   0.36107   -2.000
 7187.00    0.17709   0.36695   -2.000
 7188.00    0.27573   0.37014   -2.000
 7189.00    0.27968   0.36862   -2.000
 7190.00    0.19359   0.36784   -2.000
 7191.00    0.16046   0.37131   -2.000
 7192.00    0.17172   0.37390   -2.000
 7193.00    0.14969   0.37167   -2.000
 7194.00    0.10308   0.37011   -2.000
 7195.00    0.13265   0.37297   -2.000
 7196.00    0.21160   0.37577   -2.000
 7197.00    0.27026   0.37465   -2.000
 7198.00    0.31740   0.37148   -2.000
 7199.00    0.36168   0.37174   -2.000
 7200.00    0.40453   0.37668   -2.000
 7201.00    0.37850   0.38015   -2.000
 7202.00    0.32306   0.37524   -2.000
 7203.00    0.38333   0.36299   -2.000
 7204.00    0.48595   0.35474   -2.000
 7205.00    0.53652   0.35703   -2.000
 7206.00    0.57097   0.36550   -2.000
 7207.00    0.45083   0.37469   -2.000
 7208.00    0.29079   0.37888   -2.000
 7209.00    0.25830   0.37625   -2.000
 7210.00    0.25264   0.37181   -2.000
 7211.00    0.27267   0.36965   -2.000
 7212.00    0.29697   0.36995   -2.000
 7213.00    0.31207   0.37320   -2.000
 7214.00    0.32602   0.37814   -2.000
 7215.00    0.30691   0.38017   -2.000
 7216.00    0.28493   0.37826   -2.000
 7217.00    0.24614   0.37562   -2.000
 7218.00    0.20650   0.37396   -2.000
