###################################################################
## OUTPUT of StarlightChains_v04.for    [Cid@UFSC - 01/Apr/2007] ##
###################################################################

## Some input info
KUG0210-078._46_32.txt                   [arq_obs]
Base.CB07.vall.4m                        [arq_base]
Masks.EmLines.NEW.gm                     [arq_masks]
StCv04.C11.config                        [arq_config]
   66                                    [N_base]
    0                                    [N_YAV_components = # of components with extra extinction!]
    0                                    [i_FitPowerLaw (1/0 = Yes/No)]
-9.99                                    [alpha_PowerLaw]
CCM                                      [red_law_option]
 1.458241                                [q_norm = A(l_norm)/A(V)]

## (Re)Sampling Parameters
 3741.00                                 [l_ini (A)]
 7218.00                                 [l_fin (A)]
    1.00                                 [dl    (A)]     (OBS: dl_cushion =    50.00 A)

## Normalization info
 4020.00                                 [l_norm (A) - for base]
 4010.00                                 [llow_norm (A) - window for f_obs]
 4060.00                                 [lupp_norm (A) - window for f_obs]
7.299780E-18                             [fobs_norm (in input units)]

## S/N
 3691.00                                 [llow_SN (A) - window for S/N]
 7268.00                                 [lupp_SN (A) - window for S/N]
   2.621                                 [S/N in S/N window]
   3.853                                 [S/N in norm. window]
   0.005                                 [S/N_err in S/N window]
   0.008                                 [S/N_err in norm. window]
  1.0000                                 [fscale_chi2]

## etc...
    -2007885                             [idum_orig]
  2361                                   [NOl_eff]
  2298                                   [Nl_eff]
    63    NSIGMA                         [Ntot_cliped & clip_method]
 10374000                                [Nglobal_steps]
   7                                     [N_chains]
  39                                     [NEX0s_base = N_base in EX0s-fits]
 0   0   1       63   2.0   2.508E+03    [Clip-Bug, RC-Crash & Burn-In warning-flags, n_censored_weights, wei_nsig_threshold & wei_limit]
    87     82.792     81.739      1.053  [idt_all, wdt_TotTime, wdt_UsrTime & wdt_SysTime (sec)]

## Synthesis Results - Best model ##

 1.40304E-05                             [chi2/Nl_eff]
    40.78923                             [adev (%)]

   107.72532                             [sum-of-x (%)]
 2.36304E-18                             [Flux_tot (units of input spectrum!)]
 8.72169E-14                             [Mini_tot (???)]
 4.41204E-14                             [Mcor_tot (???)]

 236.71                                  [v0_min  (km/s)]
   0.00                                  [vd_min  (km/s)]
-0.8952                                  [AV_min  (mag)]
 0.0000                                  [YAV_min (mag)]

# j     x_j(%)      Mini_j(%)     Mcor_j(%)     age_j(yr)     Z_j      (L/M)_j    YAV?  Mstars   component_j        a/Fe...       SSP_chi2r SSP_adev(%)   SSP_AV   SSP_x(%)
  1      9.2337     2.1228E-02    4.1964E-02    1.000000E+06  0.00400  1.094E-02    0   1.0000   age020_m42            0.0000     1.5645E-05    49.8066   1.5041   105.0826
  2      2.1956     1.3781E-03    2.7240E-03    3.160000E+06  0.00400  4.007E-02    0   0.9999   age045_m42            0.0000     1.4800E-05    46.3719   0.9090   106.7639
  3      0.0000     0.0000E+00    0.0000E+00    5.010000E+06  0.00400  2.539E-02    0   0.9488   age055_m42            0.0000     1.5219E-05    48.2311   1.1820   106.3072
  4      0.5375     5.1595E-04    9.4037E-04    6.610000E+06  0.00400  2.620E-02    0   0.9220   age061_m42            0.0000     1.4858E-05    46.5180   0.8500   106.5201
  5      1.0145     1.9300E-03    3.3811E-03    1.000000E+07  0.00400  1.322E-02    0   0.8862   age070_m42            0.0000     1.4712E-05    45.0867   0.6769   106.2378
  6      2.4541     7.8300E-03    1.3266E-02    1.445000E+07  0.00400  7.883E-03    0   0.8571   age078_m42            0.0000     1.5057E-05    46.4113   0.9460   105.7943
  7      0.0000     0.0000E+00    0.0000E+00    2.512000E+07  0.00400  5.251E-03    0   0.8174   age090_m42            0.0000     1.4649E-05    44.6237   0.5731   106.1892
  8      0.0000     0.0000E+00    0.0000E+00    4.000000E+07  0.00400  3.649E-03    0   0.7851   age104_m42            0.0000     1.4483E-05    43.8978   0.3621   106.1546
  9      0.0000     0.0000E+00    0.0000E+00    5.500000E+07  0.00400  3.098E-03    0   0.7629   age110_m42            0.0000     1.4483E-05    44.1301   0.4876   106.2810
 10      0.0000     0.0000E+00    0.0000E+00    1.015200E+08  0.00400  2.228E-03    0   0.7207   age116_m42            0.0000     1.4504E-05    44.2355   0.4951   106.5730
 11     26.1735     6.0228E-01    7.9149E-01    2.861200E+08  0.00400  1.093E-03    0   0.6648   age125_m42            0.0000     1.4170E-05    42.6935  -0.0005   106.9367
 12      0.0000     0.0000E+00    0.0000E+00    5.088000E+08  0.00400  6.597E-04    0   0.6365   age130_m42            0.0000     1.4216E-05    42.4897  -0.0270   107.8809
 13      0.0000     0.0000E+00    0.0000E+00    1.434000E+09  0.00400  2.132E-04    0   0.5798   age139_m42            0.0000     1.4216E-05    40.4024  -0.9814   108.4892
 14      0.5392     2.3007E-01    2.4454E-01    4.250000E+09  0.00400  5.895E-05    0   0.5377   age158_m42            0.0000     1.5526E-05    44.6508  -1.0000   108.1034
 15      0.2355     1.6873E-01    1.7384E-01    7.500000E+09  0.00400  3.510E-05    0   0.5212   age171_m42            0.0000     1.6886E-05    51.9147  -1.0000   107.7425
 16      0.0000     0.0000E+00    0.0000E+00    1.300000E+10  0.00400  2.005E-05    0   0.5034   age193_m42            0.0000     1.8167E-05    58.5082  -1.0000   106.4283
 17      0.1510     2.4910E-01    2.4458E-01    1.800000E+10  0.00400  1.525E-05    0   0.4967   age213_m42            0.0000     1.8497E-05    60.4066  -1.0000   106.3430
 18      0.0000     0.0000E+00    0.0000E+00    1.000000E+06  0.00800  1.238E-02    0   1.0000   age020_m52            0.0000     1.5597E-05    49.7259   1.5078   105.1284
 19      0.0070     5.7477E-06    1.1323E-05    3.160000E+06  0.00800  3.074E-02    0   0.9966   age045_m52            0.0000     1.5594E-05    49.6314   1.4411   105.6592
 20      2.6500     2.4981E-03    4.6632E-03    5.010000E+06  0.00800  2.668E-02    0   0.9443   age055_m52            0.0000     1.5349E-05    48.6006   1.2506   105.9485
 21      0.0000     0.0000E+00    0.0000E+00    6.610000E+06  0.00800  2.136E-02    0   0.9177   age061_m52            0.0000     1.4508E-05    44.1062   0.1910   106.6958
 22      0.0000     0.0000E+00    0.0000E+00    1.000000E+07  0.00800  1.215E-02    0   0.8827   age070_m52            0.0000     1.4904E-05    45.3526   0.8632   106.3690
 23      0.0000     0.0000E+00    0.0000E+00    1.445000E+07  0.00800  8.717E-03    0   0.8552   age078_m52            0.0000     1.5046E-05    45.9451   0.9327   106.3762
 24      0.0000     0.0000E+00    0.0000E+00    2.512000E+07  0.00800  5.592E-03    0   0.8162   age090_m52            0.0000     1.4750E-05    44.3465   0.6504   106.8109
 25      2.7617     1.7829E-02    2.7634E-02    4.000000E+07  0.00800  3.896E-03    0   0.7841   age104_m52            0.0000     1.4662E-05    44.0097   0.5614   107.2531
 26      0.8704     1.0192E-02    1.4558E-02    1.015200E+08  0.00800  2.148E-03    0   0.7226   age116_m52            0.0000     1.4597E-05    44.1788   0.4649   107.5196
 27      0.0000     0.0000E+00    0.0000E+00    2.861200E+08  0.00800  9.925E-04    0   0.6683   age125_m52            0.0000     1.4359E-05    42.7650  -0.0000   107.9578
 28      0.0000     0.0000E+00    0.0000E+00    9.047900E+08  0.00800  3.141E-04    0   0.6138   age135_m52            0.0000     1.4360E-05    39.9218  -0.7558   111.1933
 29      0.0000     0.0000E+00    0.0000E+00    1.434000E+09  0.00800  1.719E-04    0   0.5853   age139_m52            0.0000     1.4710E-05    40.0420  -1.0000   110.1968
 30      0.0000     0.0000E+00    0.0000E+00    2.500000E+09  0.00800  7.872E-05    0   0.5600   age150_m52            0.0000     1.6483E-05    48.7853  -1.0000   108.8628
 31      0.0000     0.0000E+00    0.0000E+00    4.250000E+09  0.00800  4.336E-05    0   0.5426   age158_m52            0.0000     1.6890E-05    50.1000  -1.0000   108.5924
 32      0.6939     5.5243E-01    5.8085E-01    6.250000E+09  0.00800  3.159E-05    0   0.5319   age166_m52            0.0000     1.8763E-05    58.5221  -1.0000   108.0245
 33      0.1278     2.3620E-01    2.3687E-01    1.300000E+10  0.00800  1.361E-05    0   0.5073   age193_m52            0.0000     2.5154E-05    82.5990  -1.0000   105.4042
 34      0.0000     0.0000E+00    0.0000E+00    1.800000E+10  0.00800  9.886E-06    0   0.4990   age213_m52            0.0000     2.7759E-05    88.9239  -1.0000   104.7354
 35      6.1199     9.9689E-03    1.9707E-02    1.000000E+06  0.02000  1.544E-02    0   1.0000   age020_m62            0.0000     1.5611E-05    49.6961   1.5078   105.2891
 36      0.0000     0.0000E+00    0.0000E+00    3.160000E+06  0.02000  3.762E-02    0   0.9858   age045_m62            0.0000     1.5610E-05    49.6288   1.4640   105.7047
 37      0.0000     0.0000E+00    0.0000E+00    5.010000E+06  0.02000  3.296E-02    0   0.9342   age055_m62            0.0000     1.5107E-05    47.7154   1.1633   106.5526
 38      0.0000     0.0000E+00    0.0000E+00    8.710000E+06  0.02000  1.154E-02    0   0.8861   age067_m62            0.0000     1.4944E-05    44.2511   0.4782   106.0874
 39      0.0000     0.0000E+00    0.0000E+00    1.445000E+07  0.02000  7.663E-03    0   0.8472   age078_m62            0.0000     1.4756E-05    44.1432   0.5809   106.7338
 40      0.0000     0.0000E+00    0.0000E+00    2.512000E+07  0.02000  4.532E-03    0   0.8099   age090_m62            0.0000     1.4845E-05    44.2366   0.5834   106.2158
 41      0.6965     6.4098E-03    9.6236E-03    5.500000E+07  0.02000  2.733E-03    0   0.7595   age110_m62            0.0000     1.4765E-05    44.2917   0.5420   106.6927
 42      0.0000     0.0000E+00    0.0000E+00    1.609000E+08  0.02000  1.369E-03    0   0.6985   age120_m62            0.0000     1.4532E-05    43.1956   0.4005   107.6960
 43      0.0000     0.0000E+00    0.0000E+00    2.861200E+08  0.02000  9.013E-04    0   0.6714   age125_m62            0.0000     1.4367E-05    41.7180   0.1861   108.7808
 44     10.1393     5.0718E-01    6.4657E-01    5.088000E+08  0.02000  5.028E-04    0   0.6449   age130_m62            0.0000     1.4258E-05    40.2543  -0.2113   110.9343
 45      7.4119     7.6778E-01    9.3781E-01    9.047900E+08  0.02000  2.428E-04    0   0.6179   age135_m62            0.0000     1.4556E-05    40.7629  -0.8754   112.0411
 46      0.0000     0.0000E+00    0.0000E+00    1.434000E+09  0.02000  1.263E-04    0   0.5908   age139_m62            0.0000     1.5133E-05    39.5258  -1.0000   111.5630
 47      3.2580     1.3691E+00    1.5354E+00    2.500000E+09  0.02000  5.985E-05    0   0.5673   age150_m62            0.0000     1.6967E-05    48.3173  -1.0000   109.3687
 48      0.0000     0.0000E+00    0.0000E+00    4.250000E+09  0.02000  3.271E-05    0   0.5468   age158_m62            0.0000     2.0057E-05    62.5458  -1.0000   108.5508
 49      0.0000     0.0000E+00    0.0000E+00    1.000000E+10  0.02000  1.360E-05    0   0.5167   age181_m62            0.0000     2.5626E-05    80.3616  -1.0000   106.8082
 50      0.0000     0.0000E+00    0.0000E+00    1.800000E+10  0.02000  7.124E-06    0   0.5013   age213_m62            0.0000     3.0357E-05    92.4008  -1.0000   105.0558
 51      0.0000     0.0000E+00    0.0000E+00    1.000000E+06  0.05000  2.592E-02    0   0.9998   age020_m72            0.0000     1.5639E-05    49.7268   1.4982   105.5883
 52      0.9912     5.1453E-04    9.7410E-04    3.160000E+06  0.05000  4.845E-02    0   0.9577   age045_m72            0.0000     1.5588E-05    49.1947   1.3638   106.0167
 53      0.0000     0.0000E+00    0.0000E+00    5.010000E+06  0.05000  3.072E-02    0   0.9147   age055_m72            0.0000     1.5253E-05    46.4292   1.0468   106.2824
 54      3.9979     6.9107E-03    1.2127E-02    6.610000E+06  0.05000  1.455E-02    0   0.8877   age061_m72            0.0000     1.5178E-05    45.8835   0.5659   105.9104
 55      0.0000     0.0000E+00    0.0000E+00    1.000000E+07  0.05000  9.074E-03    0   0.8524   age070_m72            0.0000     1.5336E-05    47.0109   1.2201   106.0034
 56      0.0000     0.0000E+00    0.0000E+00    2.512000E+07  0.05000  4.250E-03    0   0.7902   age090_m72            0.0000     1.5125E-05    45.6809   0.9651   106.2386
 57      0.0000     0.0000E+00    0.0000E+00    4.000000E+07  0.05000  3.087E-03    0   0.7618   age104_m72            0.0000     1.5025E-05    44.9447   0.7769   106.6259
 58      0.0000     0.0000E+00    0.0000E+00    1.015200E+08  0.05000  1.700E-03    0   0.7096   age116_m72            0.0000     1.4627E-05    43.5831   0.5370   107.9457
 59      0.0000     0.0000E+00    0.0000E+00    2.861200E+08  0.05000  7.384E-04    0   0.6633   age125_m72            0.0000     1.4388E-05    41.6474  -0.0001   110.8056
 60      0.0000     0.0000E+00    0.0000E+00    5.088000E+08  0.05000  3.819E-04    0   0.6372   age130_m72            0.0000     1.4530E-05    41.1348  -0.5308   113.2634
 61      0.0000     0.0000E+00    0.0000E+00    9.047900E+08  0.05000  1.676E-04    0   0.6110   age135_m72            0.0000     1.5426E-05    39.3790  -1.0000   112.7324
 62      0.0000     0.0000E+00    0.0000E+00    1.434000E+09  0.05000  8.837E-05    0   0.5874   age139_m72            0.0000     1.7342E-05    48.3701  -1.0000   111.0517
 63      4.1775     2.4821E+00    2.7467E+00    2.500000E+09  0.05000  4.233E-05    0   0.5598   age150_m72            0.0000     2.0124E-05    61.1549  -1.0000   108.7024
 64      0.0000     0.0000E+00    0.0000E+00    6.250000E+09  0.05000  1.435E-05    0   0.5249   age166_m72            0.0000     2.7537E-05    86.2739  -1.0000   106.2358
 65     15.0647     5.8175E+01    5.7914E+01    1.300000E+10  0.05000  6.513E-06    0   0.5036   age193_m72            0.0000     3.4405E-05   102.1852  -1.0000   105.2107
 66      6.2229     3.4573E+01    3.3796E+01    1.800000E+10  0.05000  4.527E-06    0   0.4945   age213_m72            0.0000     3.9948E-05   113.5840  -1.0000   104.4457


## Synthesis Results - Average & Chains ##

# j      x_j: min, <> & last-chain-values for 1 ...  7 chains
  1      9.2337      0.7665      0.5008      0.0342      1.6694      2.6356      0.1733      0.2012      2.1558
  2      2.1956      0.8293      1.2471      3.2166      2.0626      0.0000      0.0000      0.2247      0.5940
  3      0.0000      0.9494      1.2104      0.0000      0.0234      2.4092      0.2117      0.0632      2.2573
  4      0.5375      0.8093      0.0378      4.2362      1.9012      1.6551      0.0000      0.1994      0.3273
  5      1.0145      0.8134      3.3355      2.7530      1.6397      0.0000      0.0951      0.7228      0.2222
  6      2.4541      0.6443      0.0803      2.9148      0.8770      0.0000      0.1264      0.0211      0.0208
  7      0.0000      0.7105      1.0838      0.0000      0.0000      0.0000      0.3768      0.1056      0.2965
  8      0.0000      0.7109      0.0000      1.2308      0.2844      0.2272      0.4733      0.0000      1.3103
  9      0.0000      1.3845      0.0000      1.3108      1.6382      0.7508      1.5073      2.8470      1.6315
 10      0.0000      0.8447      2.9720      0.9721      1.8764      1.4554      0.2539      0.2172      0.3872
 11     26.1735      0.6280      0.0962      0.0000      0.5199      0.6405      0.8522      0.0000      0.0000
 12      0.0000      1.2014      2.0217      0.0000      0.3638      1.6006      0.2230      0.1459      0.4383
 13      0.0000      1.0532      0.5860      0.0000      0.6900      3.7845      0.1481      0.8380      4.0730
 14      0.5392      0.7532      0.8641      0.3311      1.3852      4.7337      0.0000      0.1144      0.0000
 15      0.2355      0.7230      0.7156      1.6461      0.8544      0.6667      1.0813      0.4876      0.0000
 16      0.0000      0.6737      0.4071      4.5729      0.1746      0.7710      0.1924      0.1112      2.4354
 17      0.1510      0.9289      0.7189      0.8231      2.7640      0.5892      0.3509      0.4164      2.7260
 18      0.0000      0.5141      0.0000      0.7900      0.0000      0.5939      0.0688      0.0000      0.0000
 19      0.0070      0.9805      2.2740      1.4174      1.3585      0.8230      1.3265      0.5679      0.2806
 20      2.6500      0.5828      0.0000      0.4714      2.6172      0.0000      0.8797      0.0000      0.6201
 21      0.0000      0.5767      0.0000      1.3697      0.0000      0.8937      0.0310      0.0074      3.4890
 22      0.0000      0.8489      0.0000      1.4657      0.0000      1.2627      0.0000      0.7202      2.6697
 23      0.0000      1.0542      0.4034      0.0000      0.0000      1.6913      0.2685      0.1677      0.8974
 24      0.0000      0.7952      2.4603      1.2513      0.0191      0.6312      0.1893      0.8924      0.1309
 25      2.7617      0.6800      0.0000      1.4036      0.7628      0.9012      0.4046      0.4235      0.0000
 26      0.8704      0.6968      2.9937      1.8747      1.2103      0.0000      0.5845      0.0937      1.1831
 27      0.0000      0.7502      0.0000      1.3823      0.0000      1.2872      0.4063      0.0000      3.8014
 28      0.0000      0.6960      0.3268      3.4325      0.9475      0.0000      0.2233      0.0255      0.0000
 29      0.0000      0.7388      0.7136      1.6093      0.0000      0.4579      0.4086      0.0276      0.0000
 30      0.0000      0.5770      1.7402      2.0736      0.0000      0.5056      0.0000      0.3317      0.0000
 31      0.0000      0.7365      3.6157      1.9997      0.0000      0.2926      0.3876      0.4387      1.0092
 32      0.6939      0.6448      0.2601      1.1529      1.5941      1.5695      0.2824      0.2478      1.8621
 33      0.1278      0.9784      1.7689      0.0000      2.4297      0.0000      0.2819      0.7822      0.7771
 34      0.0000      0.6436      0.7987      0.9075      0.0014      0.4004      0.5145      0.2865      1.8346
 35      6.1199      0.6482      0.5868      0.0000      1.2205      0.4901      0.1318      0.1074      2.6589
 36      0.0000      0.7814      3.2415      2.4395      0.0000      0.7963      0.5661      0.5266      2.5307
 37      0.0000      1.0033      4.1933      4.0236      1.2421      0.0000      0.3364      0.4961      0.1876
 38      0.0000      1.9823      7.1668      3.5022      0.8250      0.9945      2.0208      2.7435      3.5347
 39      0.0000      0.7263      1.5751      0.0000      0.3121      0.0000      0.5251      0.0000      0.0000
 40      0.0000      0.7623      0.0000      1.2282      0.0000      1.6836      0.1813      0.1476      0.1444
 41      0.6965      0.7914      0.4230      1.5707      0.7538      0.0000      0.0000      0.8214      1.6472
 42      0.0000      0.7195      0.0000      0.3998      0.2498      2.2940      0.2054      0.1172      2.5956
 43      0.0000      0.8210      3.6709      2.2575      0.6133      1.1556      0.6371      0.2506      0.9479
 44     10.1393     24.5003     18.1442      5.1620     20.8217     24.9472     30.9658     33.8546     16.3363
 45      7.4119      0.8263      0.9160      0.4403      2.1462      0.0000      0.3542      0.3183      0.0000
 46      0.0000      0.6546      0.1406      1.6058      0.0000      0.3168      0.1642      0.0448      0.9732
 47      3.2580      0.7762      0.0000      2.7762      2.5300      1.6230      0.8294      0.4375      0.0000
 48      0.0000      0.9235      5.0808      1.1169      0.4862      0.6901      0.0000      0.6055      0.4665
 49      0.0000      0.5869      0.3776      0.8779      0.0000      1.8387      0.0000      0.2372      3.1120
 50      0.0000      0.5882      0.0000      0.7961      1.0867      0.2129      0.3128      0.0733      0.0000
 51      0.0000      0.7095      0.0000      3.2217      0.0000      0.6236      0.1623      0.0000      1.1953
 52      0.9912      0.9013      1.6173      1.7606      1.9269      1.8758      0.9764      0.0000      0.2037
 53      0.0000      0.8607      1.2890      5.7622      0.0000      0.4673      0.2497      0.4410      1.2572
 54      3.9979     24.0086     15.8000      7.1107     24.3970     23.0344     28.7608     31.1562     17.5647
 55      0.0000     25.6657     21.1888      6.4163     25.7538     18.0865     38.8594     31.6880     13.4453
 56      0.0000      0.6919      0.7228      1.7771      0.0000      2.3514      0.6596      0.7627      3.1110
 57      0.0000      0.7673      0.9679      1.4179      0.1400      0.9679      0.0000      0.7100      1.8465
 58      0.0000      0.6958      1.6505      3.8064      1.2582      0.3297      0.0000      0.9765      0.6344
 59      0.0000      0.7609      0.0000      1.2989      0.5917      1.1628      0.0000      0.4162      0.7577
 60      0.0000      0.6625      0.7606      0.0000      0.0000      2.2936      0.3127      0.4851      1.0113
 61      0.0000      0.7133      0.0000      1.7351      1.1927      0.4085      0.4337      0.7555      0.0000
 62      0.0000      0.9208      0.0000      5.3444      0.4833      0.0000      0.0095      1.6423      2.5177
 63      4.1775      0.7745      0.0000      4.4463      1.3245      0.5303      0.7373      0.8805      0.8786
 64      0.0000      0.8992      0.0000      0.5778      0.3845      0.0000      0.0000      0.7766      4.0891
 65     15.0647      0.9811      0.6612      0.6159      0.9299      1.8978      0.8771      0.3547      0.0000
 66      6.2229      0.7612      0.6503      2.3405      1.4803      0.2302      1.5786      0.6766      1.4996

# j      m_j: min, <> & last-chain-values for 1 ...  7 chains
  1  4.1964E-02  1.3722E-02  9.4018E-03  3.5831E-04  2.3003E-02  4.8292E-02  3.8407E-03  5.7562E-03  2.3629E-02
  2  2.7240E-03  4.0533E-03  6.3915E-03  9.1975E-03  7.7585E-03  0.0000E+00  0.0000E+00  1.7547E-03  1.7773E-03
  3  0.0000E+00  6.9492E-03  9.2892E-03  0.0000E+00  1.3171E-04  1.8047E-02  1.9179E-03  7.3958E-04  1.0114E-02
  4  9.4037E-04  5.5782E-03  2.7325E-04  1.7082E-02  1.0086E-02  1.1675E-02  0.0000E+00  2.1958E-03  1.3811E-03
  5  3.3811E-03  1.0680E-02  4.5922E-02  2.1147E-02  1.6569E-02  0.0000E+00  1.5447E-03  1.5164E-02  1.7858E-03
  6  1.3266E-02  1.3721E-02  1.7934E-03  3.6315E-02  1.4375E-02  0.0000E+00  3.3319E-03  7.1646E-04  2.7154E-04
  7  0.0000E+00  2.1664E-02  3.4649E-02  0.0000E+00  0.0000E+00  0.0000E+00  1.4216E-02  5.1449E-03  5.5337E-03
  8  0.0000E+00  2.9960E-02  0.0000E+00  3.0345E-02  9.2227E-03  9.7967E-03  2.4682E-02  0.0000E+00  3.3803E-02
  9  0.0000E+00  6.6779E-02  0.0000E+00  3.6987E-02  6.0812E-02  3.7062E-02  8.9972E-02  2.1942E-01  4.8173E-02
 10  0.0000E+00  5.3516E-02  1.9745E-01  3.6034E-02  9.1495E-02  9.4372E-02  1.9904E-02  2.1988E-02  1.5017E-02
 11  7.9149E-01  7.4819E-02  1.2021E-02  0.0000E+00  4.7665E-02  7.8096E-02  1.2565E-01  0.0000E+00  0.0000E+00
 12  0.0000E+00  2.2704E-01  4.0060E-01  0.0000E+00  5.2905E-02  3.0956E-01  5.2155E-02  4.4059E-02  5.0708E-02
 13  0.0000E+00  5.6099E-01  3.2729E-01  0.0000E+00  2.8288E-01  2.0631E+00  9.7612E-02  7.1325E-01  1.3281E+00
 14  2.4454E-01  1.3456E+00  1.6188E+00  3.4608E-01  1.9046E+00  8.6550E+00  0.0000E+00  3.2671E-01  0.0000E+00
 15  1.7384E-01  2.1026E+00  2.1824E+00  2.8009E+00  1.9124E+00  1.9845E+00  3.8918E+00  2.2659E+00  0.0000E+00
 16  0.0000E+00  3.3129E+00  2.0990E+00  1.3156E+01  6.6069E-01  3.8803E+00  1.1707E+00  8.7373E-01  7.3318E+00
 17  2.4458E-01  5.9258E+00  4.8092E+00  3.0718E+00  1.3571E+01  3.8469E+00  2.7705E+00  4.2449E+00  1.0646E+01
 18  0.0000E+00  8.1329E-03  0.0000E+00  7.3120E-03  0.0000E+00  9.6160E-03  1.3465E-03  0.0000E+00  0.0000E+00
 19  1.1323E-05  6.2262E-03  1.5141E-02  5.2658E-03  6.6393E-03  5.3487E-03  1.0424E-02  5.7617E-03  1.0907E-03
 20  4.6632E-03  4.0400E-03  0.0000E+00  1.9120E-03  1.3964E-02  0.0000E+00  7.5471E-03  0.0000E+00  2.6318E-03
 21  0.0000E+00  4.8531E-03  0.0000E+00  6.7431E-03  0.0000E+00  7.6964E-03  3.2235E-04  9.9528E-05  1.7973E-02
 22  0.0000E+00  1.2079E-02  0.0000E+00  1.2202E-02  0.0000E+00  1.8388E-02  0.0000E+00  1.6376E-02  2.3256E-02
 23  0.0000E+00  2.0258E-02  8.1285E-03  0.0000E+00  0.0000E+00  3.3261E-02  6.3846E-03  5.1485E-03  1.0557E-02
 24  0.0000E+00  2.2733E-02  7.3752E-02  2.0928E-02  4.2067E-04  1.8468E-02  6.6988E-03  4.0766E-02  2.2909E-03
 25  2.7634E-02  2.6807E-02  0.0000E+00  3.2369E-02  2.3141E-02  3.6358E-02  1.9736E-02  2.6675E-02  0.0000E+00
 26  1.4558E-02  4.5915E-02  2.0684E-01  7.2266E-02  6.1378E-02  0.0000E+00  4.7659E-02  9.8649E-03  4.7721E-02
 27  0.0000E+00  9.8934E-02  0.0000E+00  1.0666E-01  0.0000E+00  1.7373E-01  6.6310E-02  0.0000E+00  3.0692E-01
 28  0.0000E+00  2.6639E-01  1.3115E-01  7.6862E-01  2.7911E-01  0.0000E+00  1.0575E-01  1.5575E-02  0.0000E+00
 29  0.0000E+00  4.9273E-01  4.9903E-01  6.2787E-01  0.0000E+00  3.1251E-01  3.3722E-01  2.9387E-02  0.0000E+00
 30  0.0000E+00  8.0400E-01  2.5424E+00  1.6904E+00  0.0000E+00  7.2103E-01  0.0000E+00  7.3841E-01  0.0000E+00
 31  0.0000E+00  1.8052E+00  9.2926E+00  2.8674E+00  0.0000E+00  7.3393E-01  1.1757E+00  1.7180E+00  1.5144E+00
 32  5.8085E-01  2.1264E+00  8.9931E-01  2.2244E+00  4.0460E+00  5.2973E+00  1.1525E+00  1.3059E+00  3.7593E+00
 33  2.3687E-01  7.1427E+00  1.3541E+01  0.0000E+00  1.3652E+01  0.0000E+00  2.5471E+00  9.1243E+00  3.4731E+00
 34  0.0000E+00  6.3626E+00  8.2802E+00  5.2491E+00  1.0907E-02  4.0510E+00  6.2944E+00  4.5254E+00  1.1103E+01
 35  1.9707E-02  8.2225E-03  7.8056E-03  0.0000E+00  1.1916E-02  6.3622E-03  2.0689E-03  2.1770E-03  2.0649E-02
 36  0.0000E+00  4.0103E-03  1.7445E-02  7.3251E-03  0.0000E+00  4.1829E-03  3.5957E-03  4.3185E-03  7.9514E-03
 37  0.0000E+00  5.5697E-03  2.4410E-02  1.3068E-02  5.3068E-03  0.0000E+00  2.3113E-03  4.4011E-03  6.3760E-04
 38  0.0000E+00  2.9813E-02  1.1302E-01  3.0815E-02  9.5494E-03  1.5307E-02  3.7611E-02  6.5931E-02  3.2544E-02
 39  0.0000E+00  1.5727E-02  3.5765E-02  0.0000E+00  5.2021E-03  0.0000E+00  1.4071E-02  0.0000E+00  0.0000E+00
 40  0.0000E+00  2.6681E-02  0.0000E+00  2.5151E-02  0.0000E+00  6.0311E-02  7.8537E-03  8.2530E-03  3.0952E-03
 41  9.6236E-03  4.3074E-02  2.4142E-02  5.0017E-02  3.1579E-02  0.0000E+00  0.0000E+00  7.1438E-02  5.4887E-02
 42  0.0000E+00  7.1902E-02  0.0000E+00  2.3377E-02  1.9212E-02  2.3463E-01  2.5398E-02  1.8710E-02  1.5879E-01
 43  0.0000E+00  1.1979E-01  5.6162E-01  1.9270E-01  6.8863E-02  1.7256E-01  1.1504E-01  5.8427E-02  8.4664E-02
 44  6.4657E-01  6.1549E+00  4.7796E+00  7.5867E-01  4.0258E+00  6.4140E+00  9.6271E+00  1.3590E+01  2.5124E+00
 45  9.3781E-01  4.1185E-01  4.7877E-01  1.2839E-01  8.2333E-01  0.0000E+00  2.1851E-01  2.5349E-01  0.0000E+00
 46  0.0000E+00  5.9971E-01  1.3511E-01  8.6074E-01  0.0000E+00  2.9707E-01  1.8621E-01  6.5617E-02  5.4584E-01
 47  1.5354E+00  1.4410E+00  0.0000E+00  3.0154E+00  3.6149E+00  3.0837E+00  1.9056E+00  1.2980E+00  0.0000E+00
 48  0.0000E+00  3.0237E+00  1.7444E+01  2.1395E+00  1.2251E+00  2.3123E+00  0.0000E+00  3.1680E+00  9.3503E-01
 49  0.0000E+00  4.3671E+00  2.9463E+00  3.8218E+00  0.0000E+00  1.4003E+01  0.0000E+00  2.8206E+00  1.4177E+01
 50  0.0000E+00  8.1072E+00  0.0000E+00  6.4189E+00  1.1527E+01  3.0033E+00  5.3356E+00  1.6146E+00  0.0000E+00
 51  0.0000E+00  5.3605E-03  0.0000E+00  1.4240E-02  0.0000E+00  4.8218E-03  1.5174E-03  0.0000E+00  5.5284E-03
 52  9.7410E-04  3.4895E-03  6.5658E-03  3.9879E-03  5.7416E-03  7.4324E-03  4.6784E-03  0.0000E+00  4.8272E-04
 53  0.0000E+00  5.0198E-03  7.8828E-03  1.9660E-02  0.0000E+00  2.7891E-03  1.8022E-03  4.1095E-03  4.4883E-03
 54  1.2127E-02  2.8690E-01  1.9798E-01  4.9712E-02  2.2438E-01  2.8170E-01  4.2533E-01  5.9490E-01  1.2849E-01
 55  0.0000E+00  4.7223E-01  4.0880E-01  6.9067E-02  3.6469E-01  3.4057E-01  8.8483E-01  9.3162E-01  1.5144E-01
 56  0.0000E+00  2.5196E-02  2.7603E-02  3.7862E-02  0.0000E+00  8.7635E-02  2.9726E-02  4.4380E-02  6.9357E-02
 57  0.0000E+00  3.7085E-02  4.9058E-02  4.0096E-02  5.2081E-03  4.7878E-02  0.0000E+00  5.4834E-02  5.4637E-02
 58  0.0000E+00  5.6889E-02  1.4149E-01  1.8206E-01  7.9171E-02  2.7587E-02  0.0000E+00  1.2757E-01  3.1752E-02
 59  0.0000E+00  1.3388E-01  0.0000E+00  1.3370E-01  8.0119E-02  2.0939E-01  0.0000E+00  1.1701E-01  8.1613E-02
 60  0.0000E+00  2.1649E-01  2.6065E-01  0.0000E+00  0.0000E+00  7.6709E-01  1.2646E-01  2.5331E-01  2.0232E-01
 61  0.0000E+00  5.0931E-01  0.0000E+00  7.2482E-01  6.5547E-01  2.9850E-01  3.8323E-01  8.6193E-01  0.0000E+00
 62  0.0000E+00  1.1987E+00  0.0000E+00  4.0707E+00  4.8424E-01  0.0000E+00  1.5329E-02  3.4165E+00  2.0067E+00
 63  2.7467E+00  2.0062E+00  0.0000E+00  6.7379E+00  2.6404E+00  1.4058E+00  2.3636E+00  3.6442E+00  1.3931E+00
 64  0.0000E+00  6.4421E+00  0.0000E+00  2.4219E+00  2.1199E+00  0.0000E+00  0.0000E+00  8.8900E+00  1.7934E+01
 65  5.7914E+01  1.4858E+01  1.0500E+01  5.4571E+00  1.0839E+01  2.9415E+01  1.6438E+01  8.5825E+00  0.0000E+00
 66  3.3796E+01  1.6286E+01  1.4588E+01  2.9295E+01  2.4375E+01  5.0412E+00  4.1797E+01  2.3130E+01  1.9642E+01

# AV, chi2 & Mass for <> & i_chain = 1 ...  7 solutions
AV      -0.8952      0.5266      0.1833      0.0435      0.3269      0.3535     -0.0908     -0.2514      0.0531
chi2 1.4030E-05  4.7490E-05  4.3182E-05  3.8575E-05  3.7002E-05  4.5142E-05  3.9221E-05  4.1883E-05  3.8941E-05
Mass 4.4120E-14  7.5604E-14  4.5467E-14  6.7538E-14  7.5118E-14  5.8546E-14  2.6657E-14  1.6640E-14  6.5380E-14
 236.71                                  [v0_min (km/s) before EX0s...]
   0.00                                  [vd_min (km/s) before EX0s...]


## Synthetic spectrum (Best Model) ##l_obs f_obs f_syn wei
 3478    [Nl_obs]
 3741.00   -0.39188   0.70239    0.000
 3742.00   -0.24875   0.77741    0.000
 3743.00    0.75831   0.83227    0.000
 3744.00    1.07815   0.85226    0.000
 3745.00    0.99760   0.82837   -1.000
 3746.00    1.31200   0.78701   -1.000
 3747.00    1.82695   0.75874   -1.000
 3748.00    1.62952   0.72534   -1.000
 3749.00    1.11882   0.68853   -1.000
 3750.00    0.93329   0.65820   -1.000
 3751.00    0.87052   0.59807   -1.000
 3752.00    0.47794   0.53349   -1.000
 3753.00   -0.02035   0.53546    0.000
 3754.00   -0.23044   0.60577    0.000
 3755.00   -0.36330   0.68274    0.000
 3756.00    1.03943   0.74085   -1.000
 3757.00    2.77920   0.80110   -1.000
 3758.00    2.75181   0.84825   -1.000
 3759.00    2.41593   0.85770   -1.000
 3760.00    0.90737   0.81874   -1.000
 3761.00   -0.75697   0.77640    0.000
 3762.00   -1.56946   0.78133    0.000
 3763.00   -2.30190   0.81273    0.000
 3764.00   -2.38458   0.83829    0.000
 3765.00   -2.42977   0.85106    0.000
 3766.00   -1.34532   0.83667    0.000
 3767.00   -0.25580   0.81367    0.000
 3768.00   -1.80154   0.80447    0.000
 3769.00   -3.20784   0.76596    0.000
 3770.00   -1.22668   0.71072    0.000
 3771.00    0.59318   0.68562   -1.000
 3772.00    0.29937   0.66466   -1.000
 3773.00    0.00794   0.62442   -1.000
 3774.00   -0.26261   0.62199    0.000
 3775.00   -0.42587   0.68057    0.000
 3776.00    0.10644   0.74872   -1.000
 3777.00    0.54171   0.79054   -1.000
 3778.00    0.48583   0.81376   -1.000
 3779.00    0.37979   0.83942   -1.000
 3780.00    0.06842   0.87441   -1.000
 3781.00   -0.09925   0.89963    0.000
 3782.00    0.22051   0.92873   -1.000
 3783.00    0.50777   0.95988   -1.000
 3784.00    0.70210   0.97159   -1.000
 3785.00    0.65685   0.97369   -1.000
 3786.00    0.02624   0.98233   -1.000
 3787.00   -0.43881   0.99297    0.000
 3788.00   -0.55493   0.97003    0.000
 3789.00   -0.72275   0.91321    0.000
 3790.00   -0.98524   0.87512    0.000
 3791.00   -1.02424   0.85633    0.000
 3792.00   -0.70548   0.84115    0.000
 3793.00   -0.22385   0.83166    0.000
 3794.00    0.48654   0.83118   -1.000
 3795.00    0.36323   0.81929   -1.000
 3796.00   -0.79053   0.77544    0.000
 3797.00   -1.55209   0.71016    0.000
 3798.00   -1.88634   0.65573    0.000
 3799.00   -1.56837   0.61389    0.000
 3800.00   -0.62362   0.56105    0.000
 3801.00    0.01739   0.52488   -1.000
 3802.00    0.40103   0.55136   -1.000
 3803.00   -0.13986   0.63425    0.000
 3804.00   -1.37063   0.71457    0.000
 3805.00   -1.69571   0.77065    0.000
 3806.00   -1.42704   0.82642    0.000
 3807.00   -1.16329   0.86456    0.000
 3808.00   -0.90234   0.87409    0.000
 3809.00   -0.78630   0.86438    0.000
 3810.00   -0.74268   0.86471    0.000
 3811.00   -0.58374   0.89394    0.000
 3812.00   -0.37495   0.93495    0.000
 3813.00    0.00455   0.96475    0.022
 3814.00    0.44735   0.96893    0.022
 3815.00    0.62839   0.94579    0.022
 3816.00    0.72716   0.90958    0.021
 3817.00    0.50978   0.88554    0.021
 3818.00    0.20947   0.87476    0.021
 3819.00    0.10718   0.87686    0.021
 3820.00    0.04732   0.89384    0.021
 3821.00   -0.14728   0.89030    0.000
 3822.00   -0.36476   0.84166    0.000
 3823.00   -0.25656   0.80258    0.000
 3824.00   -0.10657   0.82162    0.000
 3825.00   -0.08201   0.86229    0.000
 3826.00   -0.06870   0.87284    0.000
 3827.00   -0.48323   0.83943    0.000
 3828.00   -0.92075   0.80229    0.000
 3829.00   -0.42001   0.78568    0.000
 3830.00    0.10299   0.77100    0.020
 3831.00    0.91755   0.75278    0.021
 3832.00    1.67653   0.73557    0.021
 3833.00    1.20070   0.72017    0.021
 3834.00    0.75144   0.68651    0.020
 3835.00    0.63256   0.62222    0.020
 3836.00    0.54035   0.55809    0.020
 3837.00    0.67362   0.50709    0.022
 3838.00    0.66853   0.48025    0.024
 3839.00   -0.20697   0.50051    0.000
 3840.00   -0.92055   0.54153    0.000
 3841.00   -0.83522   0.58260    0.000
 3842.00   -0.61041   0.62575    0.000
 3843.00    0.17277   0.66357    0.021
 3844.00    0.75949   0.70732    0.022
 3845.00    0.69306   0.76453    0.022
 3846.00    0.63511   0.81586    0.022
 3847.00    0.60100   0.84828    0.000
 3848.00    0.55948   0.86147    0.000
 3849.00    0.50019   0.87188    0.000
 3850.00    0.48578   0.88967    0.000
 3851.00    0.56447   0.90487    0.000
 3852.00    0.61367   0.89666    0.000
 3853.00    0.60967   0.88775    0.000
 3854.00    0.77887   0.90567    0.000
 3855.00    1.22120   0.92585    0.000
 3856.00    1.40362   0.93164    0.000
 3857.00    1.22622   0.92215    0.000
 3858.00    1.17301   0.90812    0.000
 3859.00    1.27115   0.89490    0.000
 3860.00    1.15023   0.89629    0.000
 3861.00    0.79401   0.89442    0.000
 3862.00    0.38097   0.87476    0.000
 3863.00   -0.08590   0.86435    0.000
 3864.00   -0.22438   0.89025    0.000
 3865.00   -0.08852   0.92764    0.000
 3866.00    0.15529   0.94640    0.000
 3867.00    0.47851   0.94606    0.000
 3868.00    0.46962   0.93295    0.000
 3869.00    0.24621   0.92047    0.000
 3870.00   -0.01701   0.91673    0.000
 3871.00   -0.30274   0.91970    0.000
 3872.00   -0.12941   0.92026    0.000
 3873.00    0.26974   0.90404    0.000
 3874.00    0.40357   0.87387    0.000
 3875.00    0.42458   0.85123    0.000
 3876.00   -0.16842   0.85583    0.000
 3877.00   -0.98508   0.88242    0.000
 3878.00   -0.80703   0.90721    0.000
 3879.00   -0.32233   0.90304    0.000
 3880.00    0.34186   0.86571    0.000
 3881.00    1.05214   0.81895    0.020
 3882.00    1.30372   0.80491    0.019
 3883.00    1.45941   0.81634    0.019
 3884.00    0.99108   0.80275    0.019
 3885.00    0.41985   0.76495    0.019
 3886.00    0.63463   0.75003    0.019
 3887.00    0.94675   0.75045    0.019
 3888.00    0.60187   0.70422    0.019
 3889.00    0.20076   0.62439    0.019
 3890.00   -0.31702   0.56206    0.000
 3891.00   -0.84061   0.51688    0.000
 3892.00   -0.14286   0.50087    0.000
 3893.00    0.56334   0.54765    0.019
 3894.00    0.52383   0.63355    0.019
 3895.00    0.45056   0.70905    0.019
 3896.00   -0.31334   0.75269    0.000
 3897.00   -0.93532   0.77566    0.000
 3898.00    0.12096   0.78625    0.018
 3899.00    1.03837   0.80756    0.017
 3900.00    0.82437   0.84601    0.017
 3901.00    0.54243   0.86069    0.016
 3902.00   -0.15450   0.85429    0.000
 3903.00   -0.69010   0.86636    0.000
 3904.00   -0.44928   0.89951    0.000
 3905.00   -0.15039   0.91220    0.000
 3906.00    0.37594   0.90582    0.015
 3907.00    0.65953   0.90968    0.015
 3908.00    0.15188   0.90028    0.015
 3909.00   -0.16645   0.88894    0.000
 3910.00    0.03726   0.91268    0.016
 3911.00    0.30411   0.95546    0.016
 3912.00    0.72007   0.98377    0.017
 3913.00    0.98953   0.99338    0.017
 3914.00    0.96004   0.99923    0.017
 3915.00    0.80908   1.00389    0.017
 3916.00    0.44238   0.99774    0.017
 3917.00    0.38558   0.99053    0.018
 3918.00    0.81028   0.99214    0.018
 3919.00    1.04391   0.98190    0.019
 3920.00    1.01684   0.96997    0.018
 3921.00    0.63359   0.95892    0.018
 3922.00   -0.17752   0.93572    0.000
 3923.00   -0.50579   0.90677    0.000
 3924.00   -0.32272   0.89439    0.000
 3925.00    0.03031   0.90548    0.018
 3926.00    0.54210   0.91590    0.019
 3927.00    0.28829   0.92364    0.019
 3928.00   -0.59605   0.91971    0.000
 3929.00   -1.02467   0.89300    0.000
 3930.00   -1.12291   0.86624    0.000
 3931.00   -0.63588   0.84344    0.000
 3932.00    0.22364   0.81445    0.018
 3933.00    0.73368   0.78900    0.018
 3934.00    1.04924   0.76066    0.018
 3935.00    1.16510   0.71741    0.018
 3936.00    1.18428   0.67453    0.019
 3937.00    0.70287   0.66347    0.019
 3938.00    0.01217   0.68959    0.018
 3939.00    0.21470   0.74127    0.018
 3940.00    0.73675   0.79147    0.018
 3941.00    0.79789   0.83057    0.018
 3942.00    0.71972   0.85992    0.018
 3943.00    0.63288   0.88196    0.018
 3944.00    0.54385   0.89259    0.018
 3945.00    0.58743   0.89105    0.018
 3946.00    0.65805   0.87770    0.018
 3947.00    0.47152   0.86905    0.017
 3948.00    0.24381   0.89217    0.017
 3949.00    0.41272   0.92958    0.017
 3950.00    0.62899   0.93884    0.017
 3951.00    1.04434   0.92867    0.018
 3952.00    1.47591   0.93110    0.018
 3953.00    1.05032   0.94994    0.018
 3954.00    0.58534   0.95875    0.017
 3955.00    0.68996   0.94155    0.018
 3956.00    0.79479   0.92691    0.018
 3957.00    0.53131   0.94181    0.018
 3958.00    0.27782   0.94490    0.018
 3959.00    0.21374   0.91150    0.018
 3960.00    0.17246   0.88293    0.000
 3961.00    0.38805   0.88270    0.000
 3962.00    0.54122   0.88703    0.000
 3963.00    0.20364   0.85831    0.000
 3964.00   -0.00330   0.79019    0.000
 3965.00    0.56488   0.73463    0.000
 3966.00    0.99041   0.70962    0.000
 3967.00    0.74612   0.68278    0.000
 3968.00    0.72047   0.63951    0.000
 3969.00    1.53270   0.57976    0.000
 3970.00    1.91439   0.50839    0.000
 3971.00    0.91994   0.44147    0.000
 3972.00    0.21108   0.39354    0.000
 3973.00    0.27573   0.38427    0.000
 3974.00    0.19705   0.42767    0.000
 3975.00   -0.21440   0.49863    0.000
 3976.00   -0.02518   0.56836    0.000
 3977.00    1.37050   0.63394    0.000
 3978.00    2.03886   0.69756    0.000
 3979.00    1.43501   0.74698    0.000
 3980.00    0.99264   0.78607    0.000
 3981.00    0.79750   0.82704    0.018
 3982.00    0.89953   0.86696    0.018
 3983.00    1.40121   0.90054    0.018
 3984.00    1.49034   0.91381    0.017
 3985.00    1.09091   0.90926    0.017
 3986.00    0.97084   0.90941    0.017
 3987.00    1.14246   0.92308    0.017
 3988.00    1.25617   0.94302    0.017
 3989.00    1.31652   0.95546    0.017
 3990.00    1.24052   0.96824    0.017
 3991.00    1.05381   0.99238    0.017
 3992.00    1.11200   0.99814    0.016
 3993.00    1.34516   0.98592    0.016
 3994.00    1.28904   0.99134    0.016
 3995.00    1.05153   1.01164    0.016
 3996.00    0.70893   1.02644    0.016
 3997.00    0.30874   1.02277    0.016
 3998.00    0.71638   1.01068    0.016
 3999.00    1.50883   0.99612    0.017
 4000.00    1.80202   0.97801    0.017
 4001.00    1.89002   0.97511    0.017
 4002.00    1.73984   1.00624    0.017
 4003.00    1.50602   1.04274    0.017
 4004.00    1.53622   1.05303    0.027
 4005.00    1.64464   1.05498    0.166
 4006.00    1.54853   1.05834   -1.000
 4007.00    1.40217   1.03197   -1.000
 4008.00    1.00589   0.97581   -1.000
 4009.00    0.55992   0.95074   -1.000
 4010.00    0.85906   0.97913   -1.000
 4011.00    1.27397   1.01442   -1.000
 4012.00    1.11382   1.02585   -1.000
 4013.00    0.88754   1.02786   -1.000
 4014.00    1.37274   1.03710   -1.000
 4015.00    1.91295   1.04468   -1.000
 4016.00    1.99632   1.04781   -1.000
 4017.00    2.06044   1.05052   -1.000
 4018.00    1.55772   1.06146   -1.000
 4019.00    1.06395   1.06641    1.503
 4020.00    1.18955   1.05078    0.033
 4021.00    1.33808   1.04476    0.017
 4022.00    1.89092   1.06538    0.017
 4023.00    2.32388   1.07596    0.017
 4024.00    1.46700   1.06120    0.017
 4025.00    0.66722   1.04709    0.017
 4026.00    0.30083   1.03836    0.016
 4027.00    0.06060   1.01258    0.016
 4028.00    0.54805   0.98216    0.016
 4029.00    0.95620   0.98038    0.017
 4030.00    1.00087   1.01332    0.016
 4031.00    0.99743   1.05215    0.016
 4032.00    0.81350   1.05480    0.016
 4033.00    0.58840   1.00778    0.016
 4034.00    0.23422   0.95877    0.016
 4035.00    0.08595   0.94222    0.016
 4036.00    0.48548   0.94046    0.016
 4037.00    0.81858   0.94862    0.015
 4038.00    1.00000   0.97487    0.016
 4039.00    1.01445   1.01856    0.016
 4040.00    0.69880   1.06593    0.016
 4041.00    0.52815   1.08958    0.017
 4042.00    0.60727   1.08063    0.016
 4043.00    0.73657   1.05814    0.016
 4044.00    0.94157   1.04477    0.016
 4045.00    0.72815   1.05146    0.016
 4046.00   -0.03993   1.04726    0.000
 4047.00   -0.24579   0.99368    0.000
 4048.00    0.20474   0.91629    0.016
 4049.00    0.84750   0.88465    0.016
 4050.00    1.68817   0.92987    0.016
 4051.00    1.83561   0.99805    0.016
 4052.00    1.35351   1.03492    0.016
 4053.00    1.19503   1.05149    0.016
 4054.00    1.29558   1.05881    0.016
 4055.00    1.37531   1.04913    0.016
 4056.00    1.44039   1.03094    0.016
 4057.00    1.36644   1.00986    0.016
 4058.00    1.20661   0.99319    0.016
 4059.00    1.01791   0.99003    0.016
 4060.00    0.81362   0.98190    0.016
 4061.00    0.90758   0.96794    0.016
 4062.00    1.14132   0.97700    0.016
 4063.00    1.18637   1.00813    0.016
 4064.00    1.15519   1.02158    0.017
 4065.00    1.39230   0.98795    0.016
 4066.00    1.72193   0.92441    0.016
 4067.00    1.63832   0.89552    0.016
 4068.00    1.43472   0.93135    0.016
 4069.00    1.36882   0.96616    0.016
 4070.00    1.33601   0.96491    0.016
 4071.00    1.22945   0.97588    0.016
 4072.00    1.10861   1.00896    0.016
 4073.00    1.15484   1.00658    0.016
 4074.00    1.22625   0.95380    0.016
 4075.00    1.27283   0.92036    0.016
 4076.00    1.31668   0.95281    0.016
 4077.00    1.06773   0.99364    0.016
 4078.00    0.79734   0.98457    0.016
 4079.00    1.14522   0.93764    0.016
 4080.00    1.51678   0.89391    0.016
 4081.00    1.34974   0.88901    0.016
 4082.00    1.18297   0.92386    0.016
 4083.00    1.13899   0.97322    0.016
 4084.00    1.10540   1.01271    0.015
 4085.00    1.24309   1.01646    0.015
 4086.00    1.36749   0.98894    0.015
 4087.00    1.35519   0.96074    0.015
 4088.00    1.37152   0.94719    0.015
 4089.00    1.59801   0.95330    0.015
 4090.00    1.74459   0.97865    0.015
 4091.00    1.44296   1.00211    0.015
 4092.00    1.19370   1.00196    0.000
 4093.00    1.17878   0.98359    0.000
 4094.00    1.15604   0.96105    0.000
 4095.00    1.10461   0.93494    0.000
 4096.00    0.98003   0.91922    0.000
 4097.00    0.63045   0.91148    0.000
 4098.00    0.42622   0.87650    0.000
 4099.00    0.60187   0.82161    0.000
 4100.00    0.75548   0.78091    0.000
 4101.00    0.85961   0.75434    0.000
 4102.00    1.01210   0.72202    0.000
 4103.00    1.25873   0.66299    0.000
 4104.00    1.43142   0.58496    0.000
 4105.00    1.47867   0.55016    0.000
 4106.00    1.48670   0.59074    0.000
 4107.00    1.43644   0.66141    0.000
 4108.00    1.50426   0.72711    0.000
 4109.00    1.72636   0.78488    0.000
 4110.00    1.54157   0.82338    0.000
 4111.00    0.88842   0.84185    0.000
 4112.00    0.56067   0.84992    0.000
 4113.00    0.56322   0.85243    0.015
 4114.00    0.95694   0.85793    0.015
 4115.00    1.70088   0.87561    0.015
 4116.00    1.75427   0.90303    0.015
 4117.00    1.26284   0.92569    0.015
 4118.00    0.76180   0.93889    0.022
 4119.00    0.25409   0.95063    0.079
 4120.00    0.48982   0.95557   -1.000
 4121.00    1.17793   0.93934   -1.000
 4122.00    1.17298   0.91569   -1.000
 4123.00    0.79983   0.91306   -1.000
 4124.00    0.78699   0.92442   -1.000
 4125.00    0.94030   0.93150   -1.000
 4126.00    1.09870   0.93571   -1.000
 4127.00    1.25912   0.95173   -1.000
 4128.00    1.39910   0.97440   -1.000
 4129.00    1.53216   0.97835   -1.000
 4130.00    1.03500   0.95979    0.038
 4131.00    0.35853   0.94016    0.017
 4132.00    0.74615   0.93520    0.015
 4133.00    1.38360   0.93181    0.015
 4134.00    1.53027   0.91535    0.015
 4135.00    1.58431   0.89124    0.015
 4136.00    1.27568   0.88298    0.015
 4137.00    0.91409   0.89648    0.015
 4138.00    1.07556   0.92836    0.015
 4139.00    1.29263   0.96440    0.015
 4140.00    1.12366   0.97693    0.015
 4141.00    0.92799   0.97777    0.015
 4142.00    1.23710   0.98519    0.015
 4143.00    1.56361   0.99057    0.015
 4144.00    1.61538   0.98114    0.015
 4145.00    1.66542   0.93594    0.015
 4146.00    1.67657   0.86514    0.015
 4147.00    1.67207   0.83439    0.015
 4148.00    1.42542   0.87329    0.015
 4149.00    1.20310   0.92807    0.014
 4150.00    1.22057   0.95412    0.015
 4151.00    1.22059   0.95673    0.015
 4152.00    1.09672   0.94576    0.015
 4153.00    0.99462   0.93094    0.014
 4154.00    1.01136   0.92811    0.014
 4155.00    1.04184   0.92992    0.014
 4156.00    1.13240   0.92533    0.014
 4157.00    1.22833   0.91574    0.014
 4158.00    1.34358   0.91051    0.014
 4159.00    1.37827   0.90911    0.014
 4160.00    1.16982   0.91113    0.014
 4161.00    1.00338   0.92757    0.014
 4162.00    0.94482   0.95252    0.014
 4163.00    0.95867   0.96622    0.014
 4164.00    1.13245   0.96690    0.014
 4165.00    1.13602   0.97245    0.014
 4166.00    0.81353   0.98109    0.014
 4167.00    0.54626   0.97571    0.014
 4168.00    0.37130   0.96176    0.014
 4169.00    0.43519   0.94835    0.014
 4170.00    0.84895   0.93152    0.014
 4171.00    1.19118   0.92414    0.014
 4172.00    1.44130   0.94021    0.014
 4173.00    1.45590   0.95693    0.014
 4174.00    1.20326   0.94221    0.014
 4175.00    1.07229   0.89774    0.014
 4176.00    1.06312   0.86478    0.014
 4177.00    0.87095   0.86898    0.014
 4178.00    0.51724   0.89115    0.014
 4179.00    0.54006   0.90714    0.014
 4180.00    0.85572   0.90409    0.014
 4181.00    1.09171   0.89289    0.014
 4182.00    1.27320   0.90054    0.014
 4183.00    1.08364   0.92059    0.014
 4184.00    0.67168   0.92331    0.014
 4185.00    0.47521   0.91168    0.014
 4186.00    0.39146   0.91286    0.014
 4187.00    0.70407   0.92995    0.014
 4188.00    1.19647   0.95025    0.014
 4189.00    1.46180   0.94652    0.014
 4190.00    1.63854   0.91048    0.014
 4191.00    1.42432   0.89059    0.014
 4192.00    1.08025   0.91068    0.014
 4193.00    1.05621   0.93440    0.014
 4194.00    1.12137   0.93494    0.014
 4195.00    0.99599   0.93581    0.014
 4196.00    0.82690   0.95627    0.014
 4197.00    0.58583   0.96518    0.014
 4198.00    0.33154   0.94061    0.014
 4199.00    0.31199   0.90590    0.014
 4200.00    0.32562   0.88287    0.014
 4201.00    0.46744   0.86396    0.014
 4202.00    0.62232   0.85547    0.014
 4203.00    0.61146   0.86691    0.014
 4204.00    0.58981   0.87266    0.014
 4205.00    0.76623   0.86694    0.014
 4206.00    0.94868   0.87733    0.013
 4207.00    1.09811   0.89970    0.014
 4208.00    1.24159   0.91624    0.014
 4209.00    1.21049   0.93176    0.014
 4210.00    1.18064   0.94788    0.014
 4211.00    1.16905   0.95871    0.014
 4212.00    1.13119   0.95498    0.014
 4213.00    0.84488   0.93984    0.014
 4214.00    0.58849   0.93831    0.014
 4215.00    0.53787   0.95137    0.014
 4216.00    0.49969   0.95343    0.013
 4217.00    0.52764   0.93044    0.013
 4218.00    0.61557   0.88803    0.013
 4219.00    0.95975   0.86795    0.013
 4220.00    1.18896   0.90256    0.013
 4221.00    1.01308   0.95396    0.013
 4222.00    0.88735   0.98158    0.013
 4223.00    0.91011   0.98911    0.013
 4224.00    0.88085   0.98972    0.013
 4225.00    0.72032   0.97447    0.013
 4226.00    0.71139   0.94067    0.013
 4227.00    1.03188   0.89529    0.013
 4228.00    1.32545   0.83743    0.013
 4229.00    1.56826   0.77139    0.013
 4230.00    1.53358   0.73781    0.013
 4231.00    1.04208   0.77936    0.013
 4232.00    0.69364   0.86203    0.012
 4233.00    0.55172   0.92542    0.012
 4234.00    0.57990   0.95809    0.012
 4235.00    0.82404   0.95522    0.012
 4236.00    0.95080   0.92090    0.012
 4237.00    0.94623   0.89973    0.012
 4238.00    0.89652   0.90010    0.012
 4239.00    0.80225   0.89186    0.012
 4240.00    0.68060   0.88884    0.012
 4241.00    0.53510   0.90096    0.012
 4242.00    0.50228   0.90822    0.012
 4243.00    0.55583   0.91578    0.012
 4244.00    0.52089   0.93548    0.013
 4245.00    0.42633   0.94976    0.013
 4246.00    0.61519   0.95559    0.013
 4247.00    0.97140   0.97640    0.013
 4248.00    1.13517   0.99724    0.013
 4249.00    1.19985   0.98326    0.013
 4250.00    0.93267   0.94443    0.013
 4251.00    0.51743   0.91483    0.013
 4252.00    0.63566   0.89656    0.013
 4253.00    0.95845   0.87152    0.014
 4254.00    1.05790   0.86166    0.013
 4255.00    1.08457   0.88763    0.013
 4256.00    0.95889   0.90668    0.013
 4257.00    0.79162   0.88631    0.013
 4258.00    0.85722   0.86635    0.013
 4259.00    0.97499   0.89058    0.013
 4260.00    1.29079   0.93565    0.013
 4261.00    1.64200   0.94355    0.014
 4262.00    1.13038   0.90630    0.013
 4263.00    0.50072   0.86047    0.013
 4264.00    0.48629   0.84212    0.013
 4265.00    0.53196   0.87317    0.013
 4266.00    0.34117   0.93100    0.013
 4267.00    0.13591   0.96973    0.013
 4268.00    0.39944   0.98289    0.013
 4269.00    0.67414   0.98416    0.013
 4270.00    0.66102   0.96599    0.013
 4271.00    0.65291   0.93521    0.013
 4272.00    0.77712   0.91086    0.013
 4273.00    0.85943   0.88008    0.013
 4274.00    0.36582   0.82718    0.013
 4275.00   -0.04866   0.78840    0.000
 4276.00    0.25566   0.79790    0.013
 4277.00    0.55709   0.81728    0.013
 4278.00    0.83932   0.82426    0.013
 4279.00    1.09614   0.85342    0.013
 4280.00    1.22142   0.90553    0.013
 4281.00    1.29701   0.94543    0.013
 4282.00    1.16514   0.95010   -2.000
 4283.00    0.98270   0.92270   -2.000
 4284.00    0.62567   0.89729   -2.000
 4285.00    0.36228   0.89141   -2.000
 4286.00    0.37108   0.89678   -2.000
 4287.00    0.37989   0.90460   -2.000
 4288.00    0.38871   0.89838   -2.000
 4289.00    0.41918   0.88401   -2.000
 4290.00    0.49594   0.88179   -2.000
 4291.00    0.44839   0.87616   -2.000
 4292.00    0.17002   0.83934   -2.000
 4293.00    0.12907   0.79530   -2.000
 4294.00    0.47315   0.79440   -2.000
 4295.00    0.72344   0.83797   -2.000
 4296.00    0.84031   0.87950   -2.000
 4297.00    0.75506   0.88223   -2.000
 4298.00    0.41686   0.86757    0.013
 4299.00    0.39802   0.86475    0.013
 4300.00    0.73146   0.85945    0.013
 4301.00    0.86493   0.83314    0.013
 4302.00    0.80384   0.78465    0.013
 4303.00    0.81545   0.74377    0.013
 4304.00    0.88944   0.74305    0.013
 4305.00    0.81563   0.75878    0.013
 4306.00    0.63014   0.76603    0.013
 4307.00    0.44487   0.77751    0.013
 4308.00    0.25976   0.78648    0.013
 4309.00    0.31445   0.77795    0.013
 4310.00    0.50858   0.75343    0.013
 4311.00    0.60339   0.72333    0.013
 4312.00    0.64786   0.71374    0.012
 4313.00    0.81013   0.73558    0.012
 4314.00    1.02409   0.76981    0.012
 4315.00    0.96911   0.79920    0.012
 4316.00    0.81281   0.81925    0.012
 4317.00    0.77377   0.83118    0.012
 4318.00    0.77220   0.85640    0.012
 4319.00    0.63638   0.91489    0.012
 4320.00    0.46466   0.97263    0.012
 4321.00    0.57160   0.98789    0.013
 4322.00    0.73952   0.97198    0.013
 4323.00    0.56750   0.94897    0.013
 4324.00    0.33635   0.92636    0.013
 4325.00    0.32721   0.91013    0.013
 4326.00    0.34743   0.88223    0.013
 4327.00    0.48826   0.82327    0.013
 4328.00    0.64035   0.75174    0.013
 4329.00    0.75072   0.71461    0.013
 4330.00    0.85870   0.75095    0.000
 4331.00    0.76170   0.83426    0.000
 4332.00    0.65952   0.89317    0.000
 4333.00    0.50932   0.89520    0.000
 4334.00    0.37032   0.87201    0.000
 4335.00    0.50033   0.86132    0.000
 4336.00    0.65965   0.86066    0.000
 4337.00    1.20049   0.85909    0.000
 4338.00    1.62562   0.85752    0.000
 4339.00    1.03995   0.83443    0.000
 4340.00    0.56525   0.76129    0.000
 4341.00    0.80728   0.66733    0.000
 4342.00    1.05378   0.59503    0.000
 4343.00    1.32281   0.54245    0.000
 4344.00    1.41980   0.52943    0.000
 4345.00    0.81461   0.58521    0.000
 4346.00    0.38289   0.66336    0.000
 4347.00    0.53801   0.71231    0.000
 4348.00    0.70643   0.75082    0.000
 4349.00    0.91282   0.78970    0.000
 4350.00    1.05259   0.81150    0.000
 4351.00    1.02999   0.83318    0.013
 4352.00    1.01038   0.87061    0.013
 4353.00    0.99706   0.88320    0.013
 4354.00    1.01929   0.83469    0.015
 4355.00    1.10650   0.77258    0.040
 4356.00    1.18602   0.76994   -1.000
 4357.00    1.25325   0.81598   -1.000
 4358.00    1.27061   0.85497   -1.000
 4359.00    1.21806   0.88092   -1.000
 4360.00    1.19741   0.90541   -1.000
 4361.00    1.21612   0.90834   -1.000
 4362.00    1.28329   0.88538   -1.000
 4363.00    1.40315   0.87645   -1.000
 4364.00    1.36702   0.90198   -1.000
 4365.00    1.18126   0.93142   -1.000
 4366.00    0.92841   0.93970    0.045
 4367.00    0.61883   0.94577    0.016
 4368.00    0.58081   0.96471    0.012
 4369.00    0.74508   0.96842    0.012
 4370.00    0.81727   0.93742    0.012
 4371.00    0.82921   0.90079    0.013
 4372.00    0.71759   0.89179    0.013
 4373.00    0.53522   0.90110    0.012
 4374.00    0.50602   0.90912    0.012
 4375.00    0.55324   0.91334    0.013
 4376.00    0.53581   0.90327    0.012
 4377.00    0.49049   0.86858    0.012
 4378.00    0.46466   0.83156    0.012
 4379.00    0.44604   0.83131    0.012
 4380.00    0.71807   0.87413    0.013
 4381.00    1.08124   0.92096    0.013
 4382.00    1.02069   0.93566    0.012
 4383.00    0.84929   0.92234    0.012
 4384.00    0.63104   0.89986    0.012
 4385.00    0.40278   0.85837    0.012
 4386.00    0.84199   0.78033    0.012
 4387.00    1.39407   0.70778    0.012
 4388.00    1.26045   0.70844    0.012
 4389.00    1.03923   0.77564    0.012
 4390.00    0.69775   0.83470    0.012
 4391.00    0.34554   0.84863    0.012
 4392.00    0.67368   0.84424    0.012
 4393.00    1.03805   0.84294    0.012
 4394.00    0.94789   0.84806    0.012
 4395.00    0.84871   0.86510    0.012
 4396.00    0.74018   0.88256    0.012
 4397.00    0.63364   0.87963    0.012
 4398.00    0.57088   0.86454    0.012
 4399.00    0.50948   0.87416    0.012
 4400.00    0.46495   0.91582    0.012
 4401.00    0.42803   0.94577    0.012
 4402.00    0.45512   0.93381    0.012
 4403.00    0.49734   0.89363    0.012
 4404.00    0.63440   0.86566    0.012
 4405.00    0.76299   0.87964    0.012
 4406.00    0.84990   0.89376    0.012
 4407.00    0.92269   0.84897    0.012
 4408.00    0.93914   0.78670    0.012
 4409.00    0.91030   0.78496    0.012
 4410.00    0.73128   0.82211    0.012
 4411.00    0.66816   0.83719    0.012
 4412.00    0.92973   0.84614    0.012
 4413.00    1.10029   0.88287    0.012
 4414.00    1.05271   0.92491    0.012
 4415.00    0.93810   0.94890    0.012
 4416.00    0.68474   0.95341    0.012
 4417.00    0.54335   0.91968    0.012
 4418.00    0.60350   0.85486    0.012
 4419.00    0.60981   0.82111    0.012
 4420.00    0.53136   0.84221    0.012
 4421.00    0.57475   0.88203    0.012
 4422.00    0.78650   0.91979    0.012
 4423.00    0.90526   0.94678    0.012
 4424.00    0.91092   0.94352    0.012
 4425.00    0.74142   0.90826    0.012
 4426.00    0.38411   0.87666    0.012
 4427.00    0.36097   0.87945    0.012
 4428.00    0.65391   0.89650    0.012
 4429.00    0.74514   0.89893    0.012
 4430.00    0.66815   0.89330    0.012
 4431.00    0.60654   0.89864    0.012
 4432.00    0.55623   0.90843    0.012
 4433.00    0.56258   0.89736    0.012
 4434.00    0.60547   0.88171    0.012
 4435.00    0.75997   0.89248    0.012
 4436.00    0.97744   0.90179    0.012
 4437.00    1.26854   0.87520    0.012
 4438.00    1.59578   0.83342    0.013
 4439.00    1.57754   0.82081    0.013
 4440.00    1.41269   0.85388    0.013
 4441.00    1.25458   0.90682    0.013
 4442.00    1.09893   0.94661    0.013
 4443.00    1.01364   0.95355    0.012
 4444.00    0.94999   0.92203    0.012
 4445.00    0.76091   0.87408    0.012
 4446.00    0.53972   0.84361    0.012
 4447.00    0.72298   0.85044    0.012
 4448.00    0.99053   0.89180    0.012
 4449.00    1.01719   0.93324    0.012
 4450.00    1.00427   0.94074    0.012
 4451.00    0.89903   0.93226    0.012
 4452.00    0.78240   0.93325    0.012
 4453.00    0.66785   0.92767    0.012
 4454.00    0.55347   0.91597    0.012
 4455.00    0.75031   0.91687    0.012
 4456.00    0.96251   0.91291    0.012
 4457.00    0.71060   0.88109    0.012
 4458.00    0.45870   0.83571    0.012
 4459.00    0.67170   0.81631    0.012
 4460.00    0.87392   0.83067    0.012
 4461.00    0.85804   0.84329    0.000
 4462.00    0.86253   0.83860    0.000
 4463.00    1.10643   0.83171    0.000
 4464.00    1.29403   0.82364    0.000
 4465.00    1.02503   0.81401    0.000
 4466.00    0.78407   0.83128    0.000
 4467.00    0.71371   0.87238    0.000
 4468.00    0.69607   0.89224    0.000
 4469.00    0.93133   0.88584    0.000
 4470.00    1.08915   0.87910    0.000
 4471.00    0.94452   0.87437    0.000
 4472.00    0.79676   0.86064    0.000
 4473.00    0.63884   0.84490    0.000
 4474.00    0.55660   0.84307    0.000
 4475.00    0.68263   0.85988    0.000
 4476.00    0.81160   0.89276    0.000
 4477.00    0.94753   0.92480    0.000
 4478.00    0.98175   0.93476    0.000
 4479.00    0.80878   0.93354    0.000
 4480.00    0.75847   0.94675    0.000
 4481.00    0.92563   0.96397    0.000
 4482.00    1.02747   0.95189    0.012
 4483.00    1.02802   0.90231    0.012
 4484.00    0.98342   0.84360    0.012
 4485.00    0.87733   0.81749    0.012
 4486.00    0.89048   0.84245    0.012
 4487.00    1.04664   0.89525    0.012
 4488.00    1.05763   0.93910    0.012
 4489.00    0.91515   0.96067    0.012
 4490.00    0.78168   0.96027    0.012
 4491.00    0.65662   0.93468    0.012
 4492.00    0.54474   0.89363    0.012
 4493.00    0.44370   0.86530    0.012
 4494.00    0.52667   0.86987    0.012
 4495.00    0.74281   0.89854    0.012
 4496.00    0.76701   0.91658    0.011
 4497.00    0.66929   0.89832    0.011
 4498.00    0.63923   0.86336    0.011
 4499.00    0.64675   0.85071    0.012
 4500.00    0.69034   0.86682    0.012
 4501.00    0.75136   0.89664    0.012
 4502.00    0.85691   0.92503    0.012
 4503.00    0.98104   0.93506    0.012
 4504.00    0.73345   0.91887    0.012
 4505.00    0.35319   0.90282    0.012
 4506.00    0.37360   0.92519    0.012
 4507.00    0.51483   0.96924    0.012
 4508.00    0.66796   0.98951    0.012
 4509.00    0.82407   0.97942    0.011
 4510.00    0.88136   0.95795    0.012
 4511.00    0.91857   0.94128    0.012
 4512.00    0.57083   0.93917    0.012
 4513.00    0.16170   0.94997    0.011
 4514.00    0.39608   0.95974    0.011
 4515.00    0.70693   0.95143    0.011
 4516.00    0.78677   0.92762    0.011
 4517.00    0.84792   0.90599    0.012
 4518.00    0.88208   0.89719    0.012
 4519.00    0.91500   0.90367    0.012
 4520.00    0.64145   0.91085    0.011
 4521.00    0.37247   0.90461    0.011
 4522.00    0.52940   0.90246    0.011
 4523.00    0.67717   0.91905    0.011
 4524.00    0.65295   0.93908    0.011
 4525.00    0.61417   0.93869    0.011
 4526.00    0.41225   0.91400    0.011
 4527.00    0.28507   0.89384    0.011
 4528.00    0.74280   0.88608    0.011
 4529.00    1.10792   0.86789    0.011
 4530.00    0.92548   0.83859    0.011
 4531.00    0.74454   0.81226    0.011
 4532.00    0.57068   0.79916    0.011
 4533.00    0.45946   0.80499    0.011
 4534.00    0.58770   0.82253    0.011
 4535.00    0.67985   0.84346    0.011
 4536.00    0.65688   0.85579    0.011
 4537.00    0.60943   0.84023    0.011
 4538.00    0.49581   0.81262    0.011
 4539.00    0.44795   0.81512    0.011
 4540.00    0.55249   0.86423    0.011
 4541.00    0.63636   0.91843    0.011
 4542.00    0.67881   0.92754    0.011
 4543.00    0.64387   0.89944    0.011
 4544.00    0.47379   0.86949    0.011
 4545.00    0.43063   0.86517    0.011
 4546.00    0.58143   0.88573    0.011
 4547.00    0.71727   0.89663    0.011
 4548.00    0.83301   0.88183    0.011
 4549.00    0.88279   0.86938    0.011
 4550.00    0.85461   0.87553    0.000
 4551.00    0.86047   0.87888    0.000
 4552.00    0.90184   0.86171    0.000
 4553.00    0.87960   0.84362    0.000
 4554.00    0.79887   0.85515    0.000
 4555.00    0.79831   0.87465    0.000
 4556.00    0.86273   0.86979    0.000
 4557.00    0.77596   0.85337    0.000
 4558.00    0.58138   0.84110    0.000
 4559.00    0.40561   0.84463    0.000
 4560.00    0.24161   0.87386    0.000
 4561.00    0.25928   0.90958    0.000
 4562.00    0.37631   0.92607    0.000
 4563.00    0.41175   0.92656    0.000
 4564.00    0.40839   0.92517    0.000
 4565.00    0.46287   0.92683    0.000
 4566.00    0.54106   0.91666    0.000
 4567.00    0.48832   0.88386    0.000
 4568.00    0.38970   0.85370    0.000
 4569.00    0.44096   0.85378    0.000
 4570.00    0.53650   0.88428    0.000
 4571.00    0.77212   0.92056    0.000
 4572.00    1.04206   0.93438    0.000
 4573.00    0.92709   0.92405    0.000
 4574.00    0.73584   0.89604    0.000
 4575.00    0.50337   0.86690    0.000
 4576.00    0.26452   0.87564    0.000
 4577.00    0.45324   0.91049    0.000
 4578.00    0.69088   0.92083    0.000
 4579.00    0.66857   0.91178    0.000
 4580.00    0.62630   0.90960    0.000
 4581.00    0.70930   0.90584    0.000
 4582.00    0.79750   0.88585    0.000
 4583.00    0.82175   0.85548    0.000
 4584.00    0.84104   0.83707    0.000
 4585.00    0.67127   0.84472    0.000
 4586.00    0.52236   0.86307    0.000
 4587.00    0.73806   0.86619    0.000
 4588.00    0.94525   0.85649    0.000
 4589.00    1.06120   0.85036    0.000
 4590.00    1.16310   0.85646    0.000
 4591.00    1.15875   0.87856    0.000
 4592.00    1.14055   0.90330    0.000
 4593.00    1.04270   0.91193    0.000
 4594.00    0.94785   0.89764    0.000
 4595.00    0.86671   0.87251    0.000
 4596.00    0.79076   0.85781    0.000
 4597.00    0.73422   0.85689    0.000
 4598.00    0.70391   0.85445    0.000
 4599.00    0.75564   0.84848    0.000
 4600.00    0.78386   0.84958    0.000
 4601.00    0.74969   0.85662    0.000
 4602.00    0.73285   0.86609    0.000
 4603.00    0.75554   0.86861    0.000
 4604.00    0.72947   0.85748    0.000
 4605.00    0.60720   0.85386    0.000
 4606.00    0.51704   0.86220    0.000
 4607.00    0.48207   0.86533    0.000
 4608.00    0.54094   0.86039    0.000
 4609.00    0.74112   0.85534    0.000
 4610.00    0.78810   0.86577    0.000
 4611.00    0.63236   0.89482    0.000
 4612.00    0.62956   0.92680    0.000
 4613.00    0.80500   0.93976    0.000
 4614.00    0.93039   0.92620    0.000
 4615.00    1.00436   0.90381    0.000
 4616.00    0.99623   0.88974    0.000
 4617.00    0.91368   0.88651    0.000
 4618.00    0.79375   0.89707    0.000
 4619.00    0.64397   0.90877    0.000
 4620.00    0.61783   0.91040    0.000
 4621.00    0.67860   0.91187    0.000
 4622.00    0.61549   0.90301    0.000
 4623.00    0.47600   0.88837    0.000
 4624.00    0.48192   0.89585    0.000
 4625.00    0.56616   0.91115    0.000
 4626.00    0.68515   0.91000    0.000
 4627.00    0.82039   0.90694    0.000
 4628.00    0.83517   0.90604    0.000
 4629.00    0.80138   0.89735    0.000
 4630.00    0.82939   0.89211    0.000
 4631.00    0.87866   0.89555    0.000
 4632.00    0.84124   0.89110    0.000
 4633.00    0.77872   0.88056    0.000
 4634.00    0.74418   0.88732    0.000
 4635.00    0.71636   0.90305    0.000
 4636.00    0.77415   0.89616    0.000
 4637.00    0.84847   0.87373    0.000
 4638.00    0.73321   0.86450    0.000
 4639.00    0.58949   0.86818    0.000
 4640.00    0.69527   0.86506    0.000
 4641.00    0.82852   0.84996    0.000
 4642.00    0.83035   0.83648    0.000
 4643.00    0.82263   0.82980    0.000
 4644.00    0.63852   0.83352    0.000
 4645.00    0.44773   0.85357    0.000
 4646.00    0.61337   0.86671    0.000
 4647.00    0.77255   0.85828    0.000
 4648.00    0.62501   0.84245    0.000
 4649.00    0.48542   0.81906    0.000
 4650.00    0.47562   0.78880    0.000
 4651.00    0.47158   0.77782    0.000
 4652.00    0.52641   0.79294    0.000
 4653.00    0.59266   0.81789    0.000
 4654.00    0.74234   0.84125    0.000
 4655.00    0.89052   0.85813    0.000
 4656.00    1.03030   0.86805    0.000
 4657.00    1.08650   0.86360    0.000
 4658.00    0.76972   0.84081    0.000
 4659.00    0.54250   0.82209    0.000
 4660.00    0.64329   0.82471    0.000
 4661.00    0.69379   0.84830    0.000
 4662.00    0.58998   0.88512    0.000
 4663.00    0.51027   0.91296    0.000
 4664.00    0.49339   0.91387    0.000
 4665.00    0.48052   0.89053    0.000
 4666.00    0.47665   0.86061    0.000
 4667.00    0.52129   0.84044    0.000
 4668.00    0.66014   0.83538    0.000
 4669.00    0.71238   0.82359    0.000
 4670.00    0.61795   0.78401    0.000
 4671.00    0.54249   0.74611    0.000
 4672.00    0.49517   0.75154    0.000
 4673.00    0.60749   0.79163    0.000
 4674.00    0.92803   0.83168    0.000
 4675.00    1.03245   0.85264    0.000
 4676.00    0.88854   0.85008    0.000
 4677.00    0.86050   0.83773    0.000
 4678.00    0.94987   0.83484    0.000
 4679.00    0.95569   0.84776    0.000
 4680.00    0.88683   0.86499    0.000
 4681.00    0.82936   0.86264    0.000
 4682.00    0.78086   0.84088    0.000
 4683.00    0.77114   0.82074    0.000
 4684.00    0.78829   0.80967    0.000
 4685.00    0.71509   0.80631    0.000
 4686.00    0.58700   0.81620    0.000
 4687.00    0.65947   0.83331    0.000
 4688.00    0.83827   0.83908    0.000
 4689.00    0.90794   0.83395    0.000
 4690.00    0.92739   0.82901    0.000
 4691.00    0.72840   0.82484    0.000
 4692.00    0.44286   0.82540    0.000
 4693.00    0.41666   0.83084    0.000
 4694.00    0.47803   0.82880    0.000
 4695.00    0.65774   0.82210    0.000
 4696.00    0.87104   0.82425    0.000
 4697.00    0.81847   0.83261    0.000
 4698.00    0.70365   0.84429    0.000
 4699.00    0.65594   0.85993    0.000
 4700.00    0.62086   0.86453    0.000
 4701.00    0.52107   0.84320    0.000
 4702.00    0.41188   0.80965    0.000
 4703.00    0.54111   0.79642    0.000
 4704.00    0.69556   0.80326    0.000
 4705.00    0.80306   0.80259    0.000
 4706.00    0.90734   0.79071    0.000
 4707.00    0.95143   0.78813    0.000
 4708.00    0.99347   0.80611    0.000
 4709.00    0.89217   0.82221    0.000
 4710.00    0.78947   0.81615    0.000
 4711.00    0.64882   0.79922    0.000
 4712.00    0.51638   0.79053    0.000
 4713.00    0.51011   0.79411    0.000
 4714.00    0.49975   0.81389    0.000
 4715.00    0.44921   0.83709    0.000
 4716.00    0.42556   0.83491    0.000
 4717.00    0.59203   0.81197    0.000
 4718.00    0.72749   0.79440    0.000
 4719.00    0.69428   0.80426    0.000
 4720.00    0.64525   0.83507    0.000
 4721.00    0.52723   0.85689    0.000
 4722.00    0.47975   0.86510    0.000
 4723.00    0.68532   0.87513    0.000
 4724.00    0.84840   0.88112    0.000
 4725.00    0.88356   0.87291    0.000
 4726.00    0.87093   0.85960    0.000
 4727.00    0.73582   0.86047    0.000
 4728.00    0.69229   0.87551    0.000
 4729.00    0.85068   0.88136    0.000
 4730.00    0.95543   0.85754    0.000
 4731.00    0.95765   0.81108    0.000
 4732.00    0.90782   0.77784    0.000
 4733.00    0.77118   0.77507    0.000
 4734.00    0.67620   0.78550    0.000
 4735.00    0.64213   0.79881    0.000
 4736.00    0.60692   0.81591    0.000
 4737.00    0.57023   0.82797    0.000
 4738.00    0.60562   0.83458    0.000
 4739.00    0.72267   0.83509    0.000
 4740.00    0.84582   0.81898    0.000
 4741.00    0.97509   0.81490    0.000
 4742.00    0.91954   0.84001    0.000
 4743.00    0.70115   0.85427    0.000
 4744.00    0.55895   0.84241    0.000
 4745.00    0.47591   0.83181    0.000
 4746.00    0.49747   0.83842    0.000
 4747.00    0.59044   0.84980    0.000
 4748.00    0.75113   0.84789    0.000
 4749.00    0.95234   0.84332    0.000
 4750.00    0.97042   0.85371    0.000
 4751.00    0.89290   0.86308    0.000
 4752.00    0.85051   0.85943    0.000
 4753.00    0.82401   0.85735    0.000
 4754.00    0.86765   0.85937    0.000
 4755.00    0.93860   0.85300    0.000
 4756.00    0.95612   0.83825    0.000
 4757.00    0.95595   0.82686    0.000
 4758.00    0.79311   0.81971    0.000
 4759.00    0.58503   0.81780    0.000
 4760.00    0.58544   0.81853    0.000
 4761.00    0.63354   0.82194    0.010
 4762.00    0.48636   0.82931    0.010
 4763.00    0.30342   0.83776    0.010
 4764.00    0.52079   0.83878    0.010
 4765.00    0.79453   0.82040    0.010
 4766.00    0.93364   0.79585    0.010
 4767.00    1.05910   0.78546    0.010
 4768.00    0.82546   0.77808    0.011
 4769.00    0.56859   0.76524    0.011
 4770.00    0.62325   0.76273    0.011
 4771.00    0.68729   0.77896    0.010
 4772.00    0.72906   0.80434    0.010
 4773.00    0.77532   0.82753    0.010
 4774.00    0.95153   0.83257    0.011
 4775.00    1.10961   0.81574    0.011
 4776.00    1.00562   0.80444    0.011
 4777.00    0.89383   0.81752    0.011
 4778.00    0.70874   0.84065    0.011
 4779.00    0.57221   0.84850    0.010
 4780.00    0.76813   0.84396    0.010
 4781.00    0.94216   0.84675    0.010
 4782.00    1.00025   0.84767    0.010
 4783.00    1.03757   0.83815    0.010
 4784.00    0.98648   0.83121    0.010
 4785.00    0.92408   0.82705    0.010
 4786.00    0.82197   0.81268    0.010
 4787.00    0.75504   0.79597    0.010
 4788.00    0.79208   0.79948    0.010
 4789.00    0.81489   0.80608    0.010
 4790.00    0.80190   0.79475    0.010
 4791.00    0.75012   0.79296    0.010
 4792.00    0.61423   0.80191    0.010
 4793.00    0.57557   0.79929    0.010
 4794.00    0.71991   0.79817    0.010
 4795.00    0.78950   0.80759    0.010
 4796.00    0.73626   0.82093    0.010
 4797.00    0.66240   0.84262    0.010
 4798.00    0.55882   0.86578    0.010
 4799.00    0.55308   0.87210    0.010
 4800.00    0.67132   0.85912    0.010
 4801.00    0.72645   0.83833    0.010
 4802.00    0.71112   0.81560    0.010
 4803.00    0.71361   0.79839    0.010
 4804.00    0.73366   0.79975    0.010
 4805.00    0.71191   0.82256    0.010
 4806.00    0.65383   0.84728    0.010
 4807.00    0.67144   0.85064    0.010
 4808.00    0.74696   0.83259    0.010
 4809.00    0.81838   0.81141    0.010
 4810.00    0.88702   0.80417    0.010
 4811.00    0.82460   0.79887    0.010
 4812.00    0.68495   0.79348    0.010
 4813.00    0.70168   0.80142    0.010
 4814.00    0.79878   0.81478    0.010
 4815.00    0.83555   0.81765    0.010
 4816.00    0.84545   0.81391    0.010
 4817.00    0.67943   0.81236    0.010
 4818.00    0.44611   0.81477    0.010
 4819.00    0.51619   0.82042    0.010
 4820.00    0.68492   0.82936    0.010
 4821.00    0.69159   0.83873    0.010
 4822.00    0.65414   0.84525    0.010
 4823.00    0.78351   0.84855    0.010
 4824.00    0.95017   0.84554    0.010
 4825.00    0.94028   0.83647    0.010
 4826.00    0.89892   0.81427    0.010
 4827.00    0.80217   0.77964    0.010
 4828.00    0.69787   0.77140    0.010
 4829.00    0.52903   0.79723    0.010
 4830.00    0.35392   0.81710    0.010
 4831.00    0.56240   0.81393    0.010
 4832.00    0.79415   0.80103    0.010
 4833.00    0.86848   0.79663    0.010
 4834.00    0.93781   0.80023    0.010
 4835.00    0.85858   0.78983    0.010
 4836.00    0.77527   0.77452    0.010
 4837.00    0.58562   0.78351    0.010
 4838.00    0.41823   0.80341    0.010
 4839.00    0.55484   0.80937    0.010
 4840.00    0.66296   0.80523    0.010
 4841.00    0.51346   0.80234    0.010
 4842.00    0.41626   0.79278    0.010
 4843.00    0.66614   0.77238    0.010
 4844.00    0.85765   0.76068    0.010
 4845.00    0.74796   0.76699    0.010
 4846.00    0.69341   0.76979    0.010
 4847.00    0.86839   0.76200    0.010
 4848.00    0.98994   0.76903    0.000
 4849.00    0.92754   0.79028    0.000
 4850.00    0.89819   0.79579    0.000
 4851.00    0.96469   0.77689    0.000
 4852.00    0.97600   0.74852    0.000
 4853.00    0.85071   0.73981    0.000
 4854.00    0.78019   0.75431    0.000
 4855.00    0.82649   0.75860    0.000
 4856.00    0.83781   0.74865    0.000
 4857.00    0.78432   0.73668    0.000
 4858.00    0.69594   0.70599    0.000
 4859.00    0.55108   0.66441    0.000
 4860.00    0.54108   0.65516    0.000
 4861.00    0.72259   0.66789    0.000
 4862.00    0.91371   0.65362    0.000
 4863.00    1.11684   0.60184    0.000
 4864.00    1.04534   0.53091    0.000
 4865.00    0.67143   0.48347    0.000
 4866.00    0.50409   0.50842    0.000
 4867.00    0.53736   0.57454    0.000
 4868.00    0.54498   0.61760    0.000
 4869.00    0.53064   0.64629    0.000
 4870.00    0.55433   0.67554    0.000
 4871.00    0.60669   0.69208    0.000
 4872.00    0.68946   0.69898    0.000
 4873.00    0.79236   0.70493    0.000
 4874.00    0.87560   0.68694    0.000
 4875.00    0.94743   0.65074    0.010
 4876.00    0.93213   0.65042    0.010
 4877.00    0.87276   0.69054    0.010
 4878.00    0.78133   0.71939    0.010
 4879.00    0.67586   0.72442    0.009
 4880.00    0.65378   0.73247    0.010
 4881.00    0.66304   0.74619    0.010
 4882.00    0.70649   0.75913    0.010
 4883.00    0.76083   0.78062    0.010
 4884.00    0.79532   0.78287    0.010
 4885.00    0.82453   0.75639    0.010
 4886.00    0.57169   0.74632    0.010
 4887.00    0.25733   0.75922    0.010
 4888.00    0.33527   0.75578    0.010
 4889.00    0.48122   0.73083    0.009
 4890.00    0.62211   0.71657    0.009
 4891.00    0.76233   0.72520    0.010
 4892.00    0.64486   0.73826    0.010
 4893.00    0.50345   0.73428    0.010
 4894.00    0.76561   0.70605    0.010
 4895.00    1.05066   0.68195    0.010
 4896.00    0.88009   0.71304    0.010
 4897.00    0.70008   0.77206    0.010
 4898.00    0.62400   0.81068    0.010
 4899.00    0.55997   0.83037    0.010
 4900.00    0.78229   0.83333    0.010
 4901.00    0.98098   0.82715    0.010
 4902.00    0.87406   0.81918    0.010
 4903.00    0.76457   0.79950    0.010
 4904.00    0.63273   0.78260    0.010
 4905.00    0.54680   0.78686    0.010
 4906.00    0.75618   0.78650    0.010
 4907.00    0.93104   0.77158    0.010
 4908.00    0.93230   0.77286    0.010
 4909.00    0.90973   0.79905    0.010
 4910.00    0.79008   0.82081    0.010
 4911.00    0.70928   0.81511    0.010
 4912.00    0.75956   0.78841    0.010
 4913.00    0.73146   0.75825    0.010
 4914.00    0.48025   0.73896    0.010
 4915.00    0.32886   0.74301    0.010
 4916.00    0.42029   0.76422    0.010
 4917.00    0.53974   0.78090    0.010
 4918.00    0.71801   0.79334    0.010
 4919.00    0.81831   0.80782    0.010
 4920.00    0.77632   0.80890    0.010
 4921.00    0.73155   0.78213    0.010
 4922.00    0.68234   0.72723    0.010
 4923.00    0.62571   0.67212    0.010
 4924.00    0.55870   0.64846    0.010
 4925.00    0.58334   0.66660    0.010
 4926.00    0.72085   0.71016    0.010
 4927.00    0.82531   0.73523    0.010
 4928.00    0.89389   0.73251    0.010
 4929.00    0.91744   0.73769    0.010
 4930.00    0.89788   0.76752    0.010
 4931.00    0.84980   0.79120    0.010
 4932.00    0.77765   0.80267    0.010
 4933.00    0.70738   0.81685    0.010
 4934.00    0.63850   0.82129    0.010
 4935.00    0.54560   0.81640    0.010
 4936.00    0.43701   0.79823    0.010
 4937.00    0.47121   0.75948    0.010
 4938.00    0.58704   0.74271    0.010
 4939.00    0.66018   0.76621    0.010
 4940.00    0.71208   0.77603    0.000
 4941.00    0.84057   0.74551    0.000
 4942.00    1.00203   0.70520    0.000
 4943.00    0.83555   0.69742    0.000
 4944.00    0.54798   0.73428    0.000
 4945.00    0.49554   0.77879    0.000
 4946.00    0.51664   0.79585    0.000
 4947.00    0.77478   0.80471    0.000
 4948.00    1.09476   0.81044    0.000
 4949.00    0.89731   0.79687    0.000
 4950.00    0.58968   0.78519    0.000
 4951.00    0.54685   0.79541    0.000
 4952.00    0.54863   0.80794    0.000
 4953.00    0.77244   0.81034    0.000
 4954.00    1.02449   0.81340    0.000
 4955.00    0.93148   0.81962    0.000
 4956.00    0.80785   0.81116    0.000
 4957.00    0.69075   0.79337    0.000
 4958.00    0.57399   0.78494    0.000
 4959.00    0.60181   0.77644    0.000
 4960.00    0.63428   0.73843    0.000
 4961.00    0.81418   0.67265    0.000
 4962.00    0.97890   0.66205    0.000
 4963.00    0.81366   0.72830    0.000
 4964.00    0.66299   0.78255    0.000
 4965.00    0.69112   0.78910    0.000
 4966.00    0.70713   0.78207    0.000
 4967.00    0.62161   0.78457    0.000
 4968.00    0.54684   0.77620    0.000
 4969.00    0.53915   0.74622    0.000
 4970.00    0.53938   0.72772    0.000
 4971.00    0.57845   0.73085    0.000
 4972.00    0.63170   0.73551    0.000
 4973.00    0.74148   0.74293    0.000
 4974.00    0.78437   0.75132    0.000
 4975.00    0.60601   0.76155    0.000
 4976.00    0.45605   0.77472    0.000
 4977.00    0.38542   0.78187    0.000
 4978.00    0.34275   0.78745    0.000
 4979.00    0.36699   0.78629    0.000
 4980.00    0.37630   0.77701    0.000
 4981.00    0.35480   0.76501    0.000
 4982.00    0.39967   0.74427    0.000
 4983.00    0.56380   0.73100    0.000
 4984.00    0.67036   0.73040    0.000
 4985.00    0.68647   0.71342    0.000
 4986.00    0.69434   0.67336    0.000
 4987.00    0.69084   0.65146    0.000
 4988.00    0.74638   0.66599    0.000
 4989.00    0.87361   0.68950    0.000
 4990.00    0.89139   0.71405    0.000
 4991.00    0.79203   0.74440    0.000
 4992.00    0.69897   0.75878    0.000
 4993.00    0.61187   0.75240    0.000
 4994.00    0.63076   0.73935    0.000
 4995.00    0.73790   0.72978    0.000
 4996.00    0.75871   0.73852    0.000
 4997.00    0.71626   0.74291    0.000
 4998.00    0.74144   0.73609    0.000
 4999.00    0.81016   0.74515    0.000
 5000.00    0.77872   0.75545    0.000
 5001.00    0.69090   0.75397    0.000
 5002.00    0.64040   0.74465    0.000
 5003.00    0.60818   0.72002    0.000
 5004.00    0.64550   0.69660    0.000
 5005.00    0.71226   0.69138    0.000
 5006.00    0.83703   0.69558    0.000
 5007.00    0.98284   0.70254    0.000
 5008.00    0.74309   0.69867    0.000
 5009.00    0.38506   0.67274    0.000
 5010.00    0.29868   0.64988    0.000
 5011.00    0.28166   0.66672    0.000
 5012.00    0.52425   0.71000    0.000
 5013.00    0.82078   0.73299    0.000
 5014.00    0.74501   0.72794    0.000
 5015.00    0.60831   0.71095    0.000
 5016.00    0.45839   0.68112    0.000
 5017.00    0.30685   0.65365    0.000
 5018.00    0.38960   0.64239    0.000
 5019.00    0.49216   0.65379    0.000
 5020.00    0.49322   0.67606    0.000
 5021.00    0.48932   0.67855    0.000
 5022.00    0.65709   0.66997    0.000
 5023.00    0.82534   0.67728    0.000
 5024.00    0.86149   0.69260    0.000
 5025.00    0.88965   0.69205    0.000
 5026.00    0.75741   0.67911    0.000
 5027.00    0.63576   0.68639    0.000
 5028.00    0.63791   0.70979    0.000
 5029.00    0.64584   0.72026    0.009
 5030.00    0.70048   0.71555    0.009
 5031.00    0.72974   0.69484    0.009
 5032.00    0.60511   0.68790    0.009
 5033.00    0.55568   0.71132    0.009
 5034.00    0.86587   0.72838    0.010
 5035.00    1.05322   0.73460    0.010
 5036.00    0.76215   0.75022    0.010
 5037.00    0.51219   0.76702    0.009
 5038.00    0.39555   0.76060    0.010
 5039.00    0.33932   0.72169    0.010
 5040.00    0.44893   0.68775    0.010
 5041.00    0.53248   0.69569    0.009
 5042.00    0.55477   0.70346    0.009
 5043.00    0.60640   0.67769    0.009
 5044.00    0.71767   0.63391    0.009
 5045.00    0.76421   0.60326    0.009
 5046.00    0.69623   0.63162    0.009
 5047.00    0.68451   0.69395    0.009
 5048.00    0.75989   0.73166    0.009
 5049.00    0.75343   0.75392    0.009
 5050.00    0.63573   0.76910    0.009
 5051.00    0.62699   0.75459    0.009
 5052.00    0.74865   0.71329    0.010
 5053.00    0.79897   0.68288    0.010
 5054.00    0.77399   0.68098    0.009
 5055.00    0.78282   0.68539    0.009
 5056.00    0.82312   0.68860    0.009
 5057.00    0.78773   0.70524    0.009
 5058.00    0.69024   0.72688    0.009
 5059.00    0.56482   0.73764    0.009
 5060.00    0.41924   0.73671    0.009
 5061.00    0.38824   0.73737    0.009
 5062.00    0.42989   0.74550    0.009
 5063.00    0.37720   0.74797    0.009
 5064.00    0.27222   0.75080    0.009
 5065.00    0.28173   0.76220    0.009
 5066.00    0.34645   0.76720    0.009
 5067.00    0.43657   0.74974    0.009
 5068.00    0.53728   0.70656    0.009
 5069.00    0.61285   0.67625    0.009
 5070.00    0.67948   0.68885    0.009
 5071.00    0.60531   0.70203    0.009
 5072.00    0.48879   0.69368    0.009
 5073.00    0.49214   0.69573    0.009
 5074.00    0.52543   0.71561    0.009
 5075.00    0.40085   0.71610    0.009
 5076.00    0.24428   0.69376    0.009
 5077.00    0.36127   0.69440    0.009
 5078.00    0.52174   0.71120    0.009
 5079.00    0.53406   0.70857    0.009
 5080.00    0.52885   0.70200    0.009
 5081.00    0.51143   0.71164    0.009
 5082.00    0.49302   0.70567    0.009
 5083.00    0.42981   0.65898    0.009
 5084.00    0.36458   0.62593    0.009
 5085.00    0.48393   0.64080    0.008
 5086.00    0.60378   0.66513    0.008
 5087.00    0.64036   0.67126    0.008
 5088.00    0.67217   0.67814    0.008
 5089.00    0.61517   0.69689    0.009
 5090.00    0.56978   0.70877    0.009
 5091.00    0.65374   0.70754    0.009
 5092.00    0.71693   0.70676    0.009
 5093.00    0.61829   0.71349    0.009
 5094.00    0.55024   0.71704    0.009
 5095.00    0.66242   0.71661    0.009
 5096.00    0.72515   0.72510    0.009
 5097.00    0.55705   0.73940    0.009
 5098.00    0.45465   0.74056    0.009
 5099.00    0.60267   0.72452    0.009
 5100.00    0.72576   0.70489    0.009
 5101.00    0.76954   0.68620    0.009
 5102.00    0.77421   0.66100    0.009
 5103.00    0.67344   0.64188    0.009
 5104.00    0.61568   0.65772    0.009
 5105.00    0.65738   0.69304    0.009
 5106.00    0.68876   0.71107    0.009
 5107.00    0.69951   0.70530    0.009
 5108.00    0.68987   0.69410    0.009
 5109.00    0.64471   0.69117    0.009
 5110.00    0.60346   0.68729    0.009
 5111.00    0.56818   0.67200    0.009
 5112.00    0.57452   0.66360    0.009
 5113.00    0.63665   0.66484    0.009
 5114.00    0.71335   0.66094    0.009
 5115.00    0.80726   0.67192    0.009
 5116.00    0.84778   0.69318    0.009
 5117.00    0.83274   0.70058    0.009
 5118.00    0.77852   0.70475    0.009
 5119.00    0.68835   0.71007    0.009
 5120.00    0.55251   0.71534    0.009
 5121.00    0.37974   0.72770    0.009
 5122.00    0.33844   0.73501    0.009
 5123.00    0.39074   0.72861    0.009
 5124.00    0.46841   0.71376    0.009
 5125.00    0.56191   0.69689    0.009
 5126.00    0.68856   0.68037    0.009
 5127.00    0.83331   0.65601    0.009
 5128.00    0.76545   0.63758    0.009
 5129.00    0.59673   0.64301    0.009
 5130.00    0.54653   0.65488    0.009
 5131.00    0.54482   0.65582    0.009
 5132.00    0.55727   0.65178    0.009
 5133.00    0.57467   0.64995    0.009
 5134.00    0.56128   0.65649    0.009
 5135.00    0.53881   0.67315    0.009
 5136.00    0.54244   0.68478    0.009
 5137.00    0.55245   0.68387    0.009
 5138.00    0.56659   0.68677    0.009
 5139.00    0.58154   0.70310    0.009
 5140.00    0.64580   0.70219    0.009
 5141.00    0.71767   0.67944    0.009
 5142.00    0.64143   0.65841    0.009
 5143.00    0.54832   0.64344    0.009
 5144.00    0.52721   0.65658    0.009
 5145.00    0.51159   0.67588    0.009
 5146.00    0.59641   0.65770    0.009
 5147.00    0.68536   0.64372    0.009
 5148.00    0.62327   0.66180    0.009
 5149.00    0.56211   0.66774    0.009
 5150.00    0.59240   0.65440    0.009
 5151.00    0.62106   0.64450    0.009
 5152.00    0.62134   0.64616    0.009
 5153.00    0.61310   0.66023    0.009
 5154.00    0.51406   0.66438    0.009
 5155.00    0.43636   0.65289    0.009
 5156.00    0.51937   0.64380    0.009
 5157.00    0.59807   0.64122    0.009
 5158.00    0.65213   0.64313    0.009
 5159.00    0.67682   0.65662    0.009
 5160.00    0.56772   0.67733    0.009
 5161.00    0.49877   0.69697    0.009
 5162.00    0.57959   0.70674    0.009
 5163.00    0.65483   0.70229    0.009
 5164.00    0.71268   0.70146    0.009
 5165.00    0.70184   0.70004    0.009
 5166.00    0.50909   0.68257    0.009
 5167.00    0.35623   0.66896    0.009
 5168.00    0.29408   0.65921    0.009
 5169.00    0.23237   0.62556    0.009
 5170.00    0.17149   0.56790    0.009
 5171.00    0.17967   0.51303    0.009
 5172.00    0.30636   0.49960    0.009
 5173.00    0.44248   0.53743    0.009
 5174.00    0.59278   0.58151    0.009
 5175.00    0.68590   0.56812    0.009
 5176.00    0.70349   0.50793    0.009
 5177.00    0.67721   0.48952    0.009
 5178.00    0.59989   0.54834    0.009
 5179.00    0.53003   0.61920    0.009
 5180.00    0.46780   0.64706    0.009
 5181.00    0.41348   0.65288    0.009
 5182.00    0.36631   0.66048    0.008
 5183.00    0.43983   0.65989    0.008
 5184.00    0.60961   0.64710    0.009
 5185.00    0.59248   0.62359    0.009
 5186.00    0.44422   0.57434    0.009
 5187.00    0.45223   0.50574    0.009
 5188.00    0.55640   0.48511    0.009
 5189.00    0.52713   0.54498    0.009
 5190.00    0.42613   0.62143    0.000
 5191.00    0.41491   0.65915    0.000
 5192.00    0.44560   0.66115    0.000
 5193.00    0.61683   0.66664    0.000
 5194.00    0.84458   0.67982    0.000
 5195.00    0.85266   0.65347    0.000
 5196.00    0.78534   0.60638    0.000
 5197.00    0.83798   0.60249    0.000
 5198.00    0.92527   0.62706    0.000
 5199.00    0.89652   0.63404    0.000
 5200.00    0.84006   0.63801    0.000
 5201.00    0.78355   0.65451    0.000
 5202.00    0.72702   0.66910    0.000
 5203.00    0.58589   0.67956    0.000
 5204.00    0.43210   0.68527    0.000
 5205.00    0.48843   0.68167    0.000
 5206.00    0.56778   0.67244    0.000
 5207.00    0.56172   0.66216    0.000
 5208.00    0.54948   0.63599    0.000
 5209.00    0.47700   0.59689    0.000
 5210.00    0.40227   0.58021    0.000
 5211.00    0.61685   0.58466    0.009
 5212.00    0.82659   0.57764    0.009
 5213.00    0.81124   0.57792    0.009
 5214.00    0.78131   0.60297    0.009
 5215.00    0.51512   0.63658    0.009
 5216.00    0.28655   0.66960    0.009
 5217.00    0.44094   0.69017    0.009
 5218.00    0.57585   0.68813    0.009
 5219.00    0.56892   0.66391    0.009
 5220.00    0.58081   0.64273    0.009
 5221.00    0.69754   0.64634    0.009
 5222.00    0.78886   0.66883    0.009
 5223.00    0.76709   0.68990    0.009
 5224.00    0.73613   0.69920    0.009
 5225.00    0.67157   0.70409    0.009
 5226.00    0.63556   0.70082    0.009
 5227.00    0.68694   0.68295    0.009
 5228.00    0.70486   0.65338    0.009
 5229.00    0.63572   0.61731    0.009
 5230.00    0.61281   0.57977    0.009
 5231.00    0.69334   0.56482    0.009
 5232.00    0.77026   0.60164    0.009
 5233.00    0.84020   0.65509    0.009
 5234.00    0.94070   0.68177    0.009
 5235.00    1.09283   0.68940    0.009
 5236.00    1.12211   0.67448    0.009
 5237.00    0.96946   0.64545    0.009
 5238.00    0.88447   0.63658    0.009
 5239.00    0.88758   0.65020    0.009
 5240.00    0.91254   0.67609    0.009
 5241.00    0.96256   0.69977    0.008
 5242.00    0.94662   0.70781    0.008
 5243.00    0.86396   0.70301    0.009
 5244.00    0.78592   0.69736    0.009
 5245.00    0.71199   0.69848    0.008
 5246.00    0.67296   0.69777    0.008
 5247.00    0.66136   0.69526    0.009
 5248.00    0.65071   0.70515    0.009
 5249.00    0.64069   0.71446    0.009
 5250.00    0.67022   0.69034    0.009
 5251.00    0.72372   0.65031    0.009
 5252.00    0.82072   0.64364    0.009
 5253.00    0.94075   0.65436    0.009
 5254.00    0.88620   0.64407    0.009
 5255.00    0.75149   0.63700    0.009
 5256.00    0.77502   0.65303    0.009
 5257.00    0.86111   0.66858    0.009
 5258.00    0.90612   0.66379    0.009
 5259.00    0.93727   0.64951    0.009
 5260.00    0.79725   0.66135    0.009
 5261.00    0.60877   0.69496    0.009
 5262.00    0.66309   0.71813    0.009
 5263.00    0.77408   0.72040    0.009
 5264.00    0.58742   0.70463    0.009
 5265.00    0.34496   0.67689    0.009
 5266.00    0.48608   0.64124    0.009
 5267.00    0.68278   0.60660    0.009
 5268.00    0.75738   0.58105    0.009
 5269.00    0.81914   0.56271    0.009
 5270.00    0.70427   0.55883    0.009
 5271.00    0.57736   0.58673    0.009
 5272.00    0.62755   0.60282    0.009
 5273.00    0.68367   0.55994    0.010
 5274.00    0.63327   0.52365    0.009
 5275.00    0.58358   0.56082    0.009
 5276.00    0.56043   0.62082    0.009
 5277.00    0.54173   0.64555    0.009
 5278.00    0.59089   0.64476    0.009
 5279.00    0.64011   0.63342    0.009
 5280.00    0.68991   0.63579    0.009
 5281.00    0.73519   0.66974    0.009
 5282.00    0.74863   0.70284    0.009
 5283.00    0.76385   0.70777    0.009
 5284.00    0.78870   0.68942    0.009
 5285.00    0.80747   0.66603    0.009
 5286.00    0.79981   0.64983    0.009
 5287.00    0.77458   0.63673    0.009
 5288.00    0.68644   0.63449    0.009
 5289.00    0.64525   0.66386    0.009
 5290.00    0.74504   0.70605    0.009
 5291.00    0.81689   0.72384    0.009
 5292.00    0.81734   0.71629    0.009
 5293.00    0.83442   0.71041    0.009
 5294.00    0.88807   0.71790    0.009
 5295.00    0.88437   0.72531    0.009
 5296.00    0.77123   0.72013    0.009
 5297.00    0.72241   0.70813    0.009
 5298.00    0.78070   0.70302    0.009
 5299.00    0.79751   0.69791    0.009
 5300.00    0.75378   0.67348    0.009
 5301.00    0.69254   0.63196    0.009
 5302.00    0.60880   0.60737    0.009
 5303.00    0.60321   0.62648    0.009
 5304.00    0.68599   0.65730    0.009
 5305.00    0.69659   0.66195    0.008
 5306.00    0.63520   0.65931    0.008
 5307.00    0.57334   0.67567    0.008
 5308.00    0.51105   0.70371    0.009
 5309.00    0.55615   0.72260    0.009
 5310.00    0.68448   0.72122    0.009
 5311.00    0.66131   0.70613    0.008
 5312.00    0.53490   0.69968    0.008
 5313.00    0.51611   0.71026    0.008
 5314.00    0.56157   0.72155    0.009
 5315.00    0.71227   0.72138    0.009
 5316.00    0.91779   0.71358    0.009
 5317.00    0.84932   0.70475    0.009
 5318.00    0.65708   0.70024    0.009
 5319.00    0.61294   0.69624    0.009
 5320.00    0.62635   0.68530    0.009
 5321.00    0.68803   0.67828    0.009
 5322.00    0.76566   0.68416    0.009
 5323.00    0.73149   0.68946    0.009
 5324.00    0.66633   0.68900    0.009
 5325.00    0.66676   0.68780    0.009
 5326.00    0.68216   0.68363    0.009
 5327.00    0.73323   0.66792    0.009
 5328.00    0.79082   0.64545    0.009
 5329.00    0.75962   0.64301    0.009
 5330.00    0.71596   0.64920    0.009
 5331.00    0.68201   0.61736    0.009
 5332.00    0.64903   0.55783    0.009
 5333.00    0.76679   0.54790    0.009
 5334.00    0.89421   0.60284    0.009
 5335.00    0.63278   0.66132    0.009
 5336.00    0.36057   0.67628    0.009
 5337.00    0.41624   0.66807    0.009
 5338.00    0.47171   0.67689    0.009
 5339.00    0.52135   0.69468    0.009
 5340.00    0.57378   0.69824    0.009
 5341.00    0.66624   0.69098    0.009
 5342.00    0.75231   0.68538    0.009
 5343.00    0.77851   0.66938    0.009
 5344.00    0.80212   0.63567    0.008
 5345.00    0.80805   0.62033    0.008
 5346.00    0.80247   0.64426    0.008
 5347.00    0.73605   0.67332    0.008
 5348.00    0.66599   0.68282    0.008
 5349.00    0.58050   0.67418    0.008
 5350.00    0.49558   0.66364    0.008
 5351.00    0.41265   0.66470    0.008
 5352.00    0.42163   0.66113    0.008
 5353.00    0.70150   0.64883    0.008
 5354.00    0.89542   0.65260    0.008
 5355.00    0.87336   0.67638    0.008
 5356.00    0.85573   0.69566    0.008
 5357.00    0.84767   0.69963    0.008
 5358.00    0.80617   0.70605    0.008
 5359.00    0.70185   0.71985    0.008
 5360.00    0.62481   0.72649    0.008
 5361.00    0.59250   0.72618    0.008
 5362.00    0.57300   0.72484    0.008
 5363.00    0.57192   0.72337    0.008
 5364.00    0.61088   0.71858    0.008
 5365.00    0.70048   0.70491    0.008
 5366.00    0.75088   0.68871    0.008
 5367.00    0.75758   0.68216    0.008
 5368.00    0.74361   0.67833   -2.000
 5369.00    0.70933   0.66872   -2.000
 5370.00    0.77980   0.66397   -2.000
 5371.00    0.94111   0.66457   -2.000
 5372.00    1.08883   0.66337   -2.000
 5373.00    1.22615   0.65054   -2.000
 5374.00    1.11650   0.61926   -2.000
 5375.00    0.84103   0.59093   -2.000
 5376.00    0.75607   0.59955   -2.000
 5377.00    0.78315   0.64377   -2.000
 5378.00    0.72980   0.68404   -2.000
 5379.00    0.63520   0.70284   -2.000
 5380.00    0.53652   0.70145   -2.000
 5381.00    0.43603   0.69034   -2.000
 5382.00    0.49488   0.68922   -2.000
 5383.00    0.61457   0.69523    0.008
 5384.00    0.68029   0.69276    0.008
 5385.00    0.72851   0.68382    0.008
 5386.00    0.79813   0.67563    0.008
 5387.00    0.87356   0.66763    0.008
 5388.00    0.71092   0.66927    0.008
 5389.00    0.49525   0.68178    0.008
 5390.00    0.55794   0.68843    0.008
 5391.00    0.67007   0.68547    0.008
 5392.00    0.62112   0.67906    0.008
 5393.00    0.55031   0.66769    0.008
 5394.00    0.56478   0.65347    0.008
 5395.00    0.58749   0.64533    0.008
 5396.00    0.64964   0.64351    0.008
 5397.00    0.71417   0.64368    0.008
 5398.00    0.72370   0.64416    0.008
 5399.00    0.73189   0.64361    0.008
 5400.00    0.75559   0.62847    0.008
 5401.00    0.77424   0.60269    0.008
 5402.00    0.66279   0.60618    0.008
 5403.00    0.55651   0.63686    0.008
 5404.00    0.52050   0.65330    0.008
 5405.00    0.49513   0.65531    0.008
 5406.00    0.56535   0.66102    0.008
 5407.00    0.62135   0.65502    0.008
 5408.00    0.58329   0.62341    0.008
 5409.00    0.55995   0.58549    0.008
 5410.00    0.61232   0.57260    0.008
 5411.00    0.66329   0.59428    0.008
 5412.00    0.70843   0.62126    0.008
 5413.00    0.74771   0.62091    0.008
 5414.00    0.76681   0.60522    0.008
 5415.00    0.76418   0.61196    0.008
 5416.00    0.69867   0.64108    0.008
 5417.00    0.65778   0.66233    0.008
 5418.00    0.67767   0.66359    0.008
 5419.00    0.71938   0.66027    0.008
 5420.00    0.80758   0.67001    0.008
 5421.00    0.82799   0.68569    0.008
 5422.00    0.72304   0.68972    0.008
 5423.00    0.66374   0.68034    0.008
 5424.00    0.67818   0.66598    0.008
 5425.00    0.68779   0.66004    0.008
 5426.00    0.69055   0.66683    0.008
 5427.00    0.67273   0.66501    0.008
 5428.00    0.62927   0.64774    0.008
 5429.00    0.60724   0.64535    0.008
 5430.00    0.60878   0.66736    0.008
 5431.00    0.58646   0.68884    0.008
 5432.00    0.54100   0.68005    0.008
 5433.00    0.51959   0.63681    0.008
 5434.00    0.51873   0.60850    0.008
 5435.00    0.52370   0.62560    0.008
 5436.00    0.53307   0.64353    0.008
 5437.00    0.51489   0.63304    0.008
 5438.00    0.47849   0.61423    0.008
 5439.00    0.50427   0.60694    0.008
 5440.00    0.56607   0.61536    0.008
 5441.00    0.64836   0.63477    0.008
 5442.00    0.74098   0.66086    0.008
 5443.00    0.75149   0.68407    0.008
 5444.00    0.72613   0.69652    0.008
 5445.00    0.68815   0.69941    0.008
 5446.00    0.64546   0.69864    0.008
 5447.00    0.72379   0.69744    0.008
 5448.00    0.84064   0.68815    0.008
 5449.00    0.83230   0.66167    0.008
 5450.00    0.79067   0.62122    0.008
 5451.00    0.71627   0.59396    0.008
 5452.00    0.63473   0.60817    0.008
 5453.00    0.72241   0.64349    0.008
 5454.00    0.83931   0.66559    0.008
 5455.00    0.70554   0.66937    0.008
 5456.00    0.53890   0.66436    0.008
 5457.00    0.50154   0.65519    0.008
 5458.00    0.47612   0.63565    0.008
 5459.00    0.55388   0.60530    0.008
 5460.00    0.63743   0.59250    0.008
 5461.00    0.56373   0.61671    0.008
 5462.00    0.48868   0.65228    0.008
 5463.00    0.63968   0.66974    0.008
 5464.00    0.77854   0.66539    0.008
 5465.00    0.63262   0.65173    0.008
 5466.00    0.49328   0.63610    0.008
 5467.00    0.43846   0.62064    0.008
 5468.00    0.40435   0.62209    0.008
 5469.00    0.54954   0.64024    0.008
 5470.00    0.66409   0.65017    0.008
 5471.00    0.58229   0.65038    0.008
 5472.00    0.53508   0.65416    0.008
 5473.00    0.66124   0.65454    0.008
 5474.00    0.77886   0.64502    0.008
 5475.00    0.86190   0.63904    0.008
 5476.00    0.88343   0.64011    0.008
 5477.00    0.69796   0.63341    0.008
 5478.00    0.58357   0.62489   -2.000
 5479.00    0.67110   0.62053   -2.000
 5480.00    0.74098   0.60147   -2.000
 5481.00    0.76799   0.58112   -2.000
 5482.00    0.74058   0.59544   -2.000
 5483.00    0.59918   0.62900   -2.000
 5484.00    0.63943   0.63833   -2.000
 5485.00    1.01048   0.61876   -2.000
 5486.00    1.33946   0.60582   -2.000
 5487.00    1.60149   0.61617   -2.000
 5488.00    1.67850   0.63782   -2.000
 5489.00    1.49703   0.65781   -2.000
 5490.00    1.15390   0.66048   -2.000
 5491.00    0.61203   0.64130   -2.000
 5492.00    0.27664   0.62522   -2.000
 5493.00    0.16503   0.63246   -2.000
 5494.00    0.17920   0.64404   -2.000
 5495.00    0.31362   0.64736   -2.000
 5496.00    0.45743   0.64929   -2.000
 5497.00    0.60916   0.64442   -2.000
 5498.00    0.66553   0.63721   -2.000
 5499.00    0.65113   0.64114   -2.000
 5500.00    0.64401   0.64396   -2.000
 5501.00    0.64164   0.63253   -2.000
 5502.00    0.66227   0.62824    0.007
 5503.00    0.69601   0.64484    0.007
 5504.00    0.75535   0.65519    0.007
 5505.00    0.82740   0.64133    0.008
 5506.00    0.72680   0.62424    0.007
 5507.00    0.55200   0.62210    0.007
 5508.00    0.52864   0.62871    0.007
 5509.00    0.56107   0.62877    0.007
 5510.00    0.59068   0.61527    0.007
 5511.00    0.61941   0.60872    0.007
 5512.00    0.67990   0.62348    0.007
 5513.00    0.74866   0.63817    0.007
 5514.00    0.68525   0.63784    0.007
 5515.00    0.59377   0.62711    0.007
 5516.00    0.55172   0.61022    0.007
 5517.00    0.51797   0.59834    0.007
 5518.00    0.54300   0.59961    0.007
 5519.00    0.57548   0.60874    0.007
 5520.00    0.59744   0.61836    0.007
 5521.00    0.61848   0.62804    0.007
 5522.00    0.54357   0.64330    0.008
 5523.00    0.46364   0.65739    0.008
 5524.00    0.48263   0.65930    0.008
 5525.00    0.50250   0.65398    0.008
 5526.00    0.44909   0.65098    0.008
 5527.00    0.40305   0.65122    0.008
 5528.00    0.51575   0.65074    0.008
 5529.00    0.61854   0.64563    0.008
 5530.00    0.60037   0.63556    0.008
 5531.00    0.58920   0.61855    0.008
 5532.00    0.63641   0.59901    0.008
 5533.00    0.67692   0.59803    0.007
 5534.00    0.67572   0.61998    0.007
 5535.00    0.68474   0.63969    0.007
 5536.00    0.74367   0.64307    0.008
 5537.00    0.78000   0.63856    0.008
 5538.00    0.72663   0.63284    0.007
 5539.00    0.70143   0.62560    0.007
 5540.00    0.76915   0.62466    0.007
 5541.00    0.81218   0.63024    0.007
 5542.00    0.78638   0.63250    0.007
 5543.00    0.76803   0.63614    0.007
 5544.00    0.76749   0.64651    0.007
 5545.00    0.76895   0.65562    0.007
 5546.00    0.77454   0.65399    0.007
 5547.00    0.74411   0.64285    0.007
 5548.00    0.64910   0.63557    0.007
 5549.00    0.62911   0.63632    0.007
 5550.00    0.72677   0.63578    0.007
 5551.00    0.76509   0.63722    0.007
 5552.00    0.72171   0.64804    0.007
 5553.00    0.69501   0.65940    0.007
 5554.00    0.68851   0.66363    0.007
 5555.00    0.68062   0.66300    0.007
 5556.00    0.67124   0.65832    0.007
 5557.00    0.66085   0.64864    0.007
 5558.00    0.64950   0.63771    0.007
 5559.00    0.67507   0.63398    0.007
 5560.00    0.73132   0.63805    0.007
 5561.00    0.72077   0.64000    0.007
 5562.00    0.66136   0.63777    0.007
 5563.00    0.62106   0.63829    0.007
 5564.00    0.59304   0.64011    0.007
 5565.00    0.57987   0.63786    0.007
 5566.00    0.57505   0.63031    0.007
 5567.00    0.56433   0.62260    0.007
 5568.00    0.55074   0.62282    0.007
 5569.00    0.51476   0.62442    0.007
 5570.00    0.46932   0.61883    0.007
 5571.00    0.49340   0.61480    0.007
 5572.00    0.54262   0.61669    0.007
 5573.00    0.56995   0.61540    0.007
 5574.00    0.59059   0.61482    0.007
 5575.00    0.60795   0.62331    0.007
 5576.00    0.62449   0.62350    0.007
 5577.00    0.64189   0.61150    0.007
 5578.00    0.65946   0.61373    0.007
 5579.00    0.71430   0.62732    0.007
 5580.00    0.77522   0.63079    0.007
 5581.00    0.67441   0.63076    0.007
 5582.00    0.55384   0.63375    0.007
 5583.00    0.51902   0.63444    0.007
 5584.00    0.49141   0.63632    0.007
 5585.00    0.56655   0.63697    0.007
 5586.00    0.64666   0.63141    0.007
 5587.00    0.69425   0.62753    0.007
 5588.00    0.74090   0.62646    0.007
 5589.00    0.76068   0.61862    0.007
 5590.00    0.77753   0.59993    0.007
 5591.00    0.73612   0.57689    0.007
 5592.00    0.69635   0.56253    0.007
 5593.00    0.67572   0.56226    0.007
 5594.00    0.65533   0.57373    0.007
 5595.00    0.63694   0.59039    0.007
 5596.00    0.62491   0.60091    0.007
 5597.00    0.65130   0.60137    0.007
 5598.00    0.67757   0.59732    0.007
 5599.00    0.70332   0.60222    0.007
 5600.00    0.73188   0.62213    0.007
 5601.00    0.77137   0.63318    0.007
 5602.00    0.78440   0.61864    0.007
 5603.00    0.71181   0.60053    0.007
 5604.00    0.68224   0.59467    0.007
 5605.00    0.77049   0.58981    0.007
 5606.00    0.80622   0.58150    0.007
 5607.00    0.71866   0.58027    0.007
 5608.00    0.65838   0.59570    0.007
 5609.00    0.65343   0.62094    0.007
 5610.00    0.65482   0.64067    0.007
 5611.00    0.66739   0.64902    0.007
 5612.00    0.67454   0.64820    0.007
 5613.00    0.67330   0.64399    0.007
 5614.00    0.69090   0.64107    0.007
 5615.00    0.73407   0.64218    0.007
 5616.00    0.77026   0.64717    0.007
 5617.00    0.79811   0.64882    0.007
 5618.00    0.76062   0.63132    0.007
 5619.00    0.65429   0.59210    0.007
 5620.00    0.58715   0.56585    0.007
 5621.00    0.55643   0.57838    0.007
 5622.00    0.57661   0.60244    0.007
 5623.00    0.63847   0.60877    0.007
 5624.00    0.63574   0.60579    0.007
 5625.00    0.58644   0.61057    0.007
 5626.00    0.58804   0.62086    0.007
 5627.00    0.62185   0.62016    0.007
 5628.00    0.69612   0.60022    0.007
 5629.00    0.79276   0.57983    0.007
 5630.00    0.87901   0.58192    0.007
 5631.00    0.96024   0.59846    0.007
 5632.00    0.93686   0.61057    0.007
 5633.00    0.87002   0.61955    0.007
 5634.00    0.75597   0.62949    0.007
 5635.00    0.62515   0.63505    0.007
 5636.00    0.58417   0.63442    0.007
 5637.00    0.57015   0.63011    0.007
 5638.00    0.60201   0.62366    0.007
 5639.00    0.64529   0.61647    0.007
 5640.00    0.65859   0.60863    0.007
 5641.00    0.66583   0.60046    0.007
 5642.00    0.68570   0.59727    0.007
 5643.00    0.70757   0.60266    0.007
 5644.00    0.67971   0.60764    0.007
 5645.00    0.64600   0.60241    0.007
 5646.00    0.62107   0.59605    0.007
 5647.00    0.59685   0.59843    0.007
 5648.00    0.71314   0.60368    0.007
 5649.00    0.83569   0.60732    0.007
 5650.00    0.76235   0.61061    0.007
 5651.00    0.68624   0.61442    0.007
 5652.00    0.58387   0.61683    0.007
 5653.00    0.49049   0.61430    0.007
 5654.00    0.56271   0.61017    0.007
 5655.00    0.63253   0.61297    0.007
 5656.00    0.67570   0.62215    0.007
 5657.00    0.71557   0.62706    0.007
 5658.00    0.72986   0.61935    0.007
 5659.00    0.73788   0.60681    0.007
 5660.00    0.70915   0.60580    0.007
 5661.00    0.67697   0.60592    0.007
 5662.00    0.62878   0.58481    0.007
 5663.00    0.58408   0.56351    0.007
 5664.00    0.55262   0.57304    0.007
 5665.00    0.54852   0.59251    0.007
 5666.00    0.63121   0.59235    0.007
 5667.00    0.71132   0.58567    0.007
 5668.00    0.78452   0.59367    0.007
 5669.00    0.82609   0.60999    0.007
 5670.00    0.79469   0.61727    0.007
 5671.00    0.73901   0.61101    0.007
 5672.00    0.63486   0.60202    0.007
 5673.00    0.56196   0.59987    0.007
 5674.00    0.54342   0.60230    0.007
 5675.00    0.54148   0.60566    0.007
 5676.00    0.56480   0.61340    0.007
 5677.00    0.57680   0.62619    0.007
 5678.00    0.57363   0.63388    0.007
 5679.00    0.57045   0.63044    0.007
 5680.00    0.56725   0.62655    0.007
 5681.00    0.57680   0.62988    0.007
 5682.00    0.59958   0.63105    0.007
 5683.00    0.69367   0.62500    0.007
 5684.00    0.85310   0.62004    0.007
 5685.00    0.90146   0.61768    0.007
 5686.00    0.86013   0.60868    0.007
 5687.00    0.74813   0.59702    0.007
 5688.00    0.58590   0.59769    0.007
 5689.00    0.55076   0.60717    0.007
 5690.00    0.59484   0.60843    0.007
 5691.00    0.62695   0.59818    0.007
 5692.00    0.65252   0.58906    0.007
 5693.00    0.67794   0.59134    0.007
 5694.00    0.70329   0.60301    0.007
 5695.00    0.64019   0.61507    0.007
 5696.00    0.54095   0.62402    0.007
 5697.00    0.52267   0.62961    0.007
 5698.00    0.53263   0.62821    0.007
 5699.00    0.56950   0.62236    0.007
 5700.00    0.61429   0.62006    0.007
 5701.00    0.66352   0.61976    0.007
 5702.00    0.71383   0.61227    0.007
 5703.00    0.72016   0.60210    0.007
 5704.00    0.71783   0.59755    0.007
 5705.00    0.64505   0.59147    0.007
 5706.00    0.56146   0.58321    0.007
 5707.00    0.54939   0.58442    0.007
 5708.00    0.54543   0.59533    0.007
 5709.00    0.51430   0.60206    0.007
 5710.00    0.48112   0.59513    0.007
 5711.00    0.50706   0.58140    0.007
 5712.00    0.53541   0.56972    0.007
 5713.00    0.55022   0.56042    0.007
 5714.00    0.56510   0.55871    0.007
 5715.00    0.58731   0.56402    0.007
 5716.00    0.61187   0.56744    0.007
 5717.00    0.67683   0.57716    0.007
 5718.00    0.73884   0.59602    0.007
 5719.00    0.76964   0.60892    0.007
 5720.00    0.78942   0.61395    0.007
 5721.00    0.72654   0.61629    0.007
 5722.00    0.66857   0.61582    0.007
 5723.00    0.63864   0.61663    0.007
 5724.00    0.62429   0.62053    0.007
 5725.00    0.68072   0.62449    0.007
 5726.00    0.72690   0.62944    0.007
 5727.00    0.73497   0.63452    0.007
 5728.00    0.74579   0.63529    0.007
 5729.00    0.76519   0.63225    0.007
 5730.00    0.76319   0.62514    0.007
 5731.00    0.70468   0.61250    0.007
 5732.00    0.64219   0.60529    0.007
 5733.00    0.57070   0.61276    0.007
 5734.00    0.55833   0.62123    0.007
 5735.00    0.66217   0.61491    0.007
 5736.00    0.72396   0.60409    0.007
 5737.00    0.71374   0.60717    0.007
 5738.00    0.71687   0.61987    0.007
 5739.00    0.74002   0.62752    0.007
 5740.00    0.74301   0.62672    0.000
 5741.00    0.71941   0.62156    0.000
 5742.00    0.66551   0.61718    0.000
 5743.00    0.57642   0.61593    0.000
 5744.00    0.54470   0.61649    0.000
 5745.00    0.57174   0.61704    0.000
 5746.00    0.61219   0.61562    0.000
 5747.00    0.66474   0.61244    0.000
 5748.00    0.69329   0.61300    0.000
 5749.00    0.70273   0.62080    0.000
 5750.00    0.65537   0.62850    0.000
 5751.00    0.56822   0.62450    0.000
 5752.00    0.58619   0.60902    0.000
 5753.00    0.66872   0.60059    0.000
 5754.00    0.74081   0.61035    0.000
 5755.00    0.80728   0.62226    0.000
 5756.00    0.74027   0.61836    0.000
 5757.00    0.61107   0.59987    0.000
 5758.00    0.59778   0.58213    0.000
 5759.00    0.63102   0.58173    0.000
 5760.00    0.67015   0.59984    0.000
 5761.00    0.71130   0.61933    0.000
 5762.00    0.69440   0.62786    0.000
 5763.00    0.66077   0.62539    0.000
 5764.00    0.66972   0.61420    0.000
 5765.00    0.68880   0.59874    0.000
 5766.00    0.64963   0.58411    0.000
 5767.00    0.59928   0.57762    0.000
 5768.00    0.61320   0.58800    0.000
 5769.00    0.63668   0.60919    0.000
 5770.00    0.65204   0.62306    0.000
 5771.00    0.66652   0.62645    0.000
 5772.00    0.63864   0.62640    0.000
 5773.00    0.60772   0.62443    0.000
 5774.00    0.60612   0.62087    0.000
 5775.00    0.60561   0.61744    0.000
 5776.00    0.60107   0.61320    0.000
 5777.00    0.59869   0.60961    0.000
 5778.00    0.67456   0.60837    0.000
 5779.00    0.74601   0.60727    0.000
 5780.00    0.74632   0.60895    0.000
 5781.00    0.74465   0.61424    0.000
 5782.00    0.72288   0.61717    0.000
 5783.00    0.69651   0.61379    0.000
 5784.00    0.63685   0.60031    0.000
 5785.00    0.59250   0.57669    0.000
 5786.00    0.63314   0.55829    0.000
 5787.00    0.67537   0.55848    0.000
 5788.00    0.72468   0.56453    0.000
 5789.00    0.76124   0.56063    0.000
 5790.00    0.75136   0.55762    0.000
 5791.00    0.73735   0.57087   -2.000
 5792.00    0.71075   0.58985   -2.000
 5793.00    0.71282   0.60083   -2.000
 5794.00    0.78934   0.60189   -2.000
 5795.00    0.84904   0.59431   -2.000
 5796.00    0.87120   0.59003   -2.000
 5797.00    0.85967   0.59747   -2.000
 5798.00    0.78297   0.60790   -2.000
 5799.00    0.68454   0.61608   -2.000
 5800.00    0.54947   0.61947   -2.000
 5801.00    0.51033   0.61095   -2.000
 5802.00    0.61298   0.59631   -2.000
 5803.00    0.67853   0.59503   -2.000
 5804.00    0.69587   0.61086   -2.000
 5805.00    0.72378   0.62615   -2.000
 5806.00    0.76381   0.63198   -2.000
 5807.00    0.78976   0.63027   -2.000
 5808.00    0.80149   0.61937   -2.000
 5809.00    0.76478   0.60539   -2.000
 5810.00    0.68493   0.59968   -2.000
 5811.00    0.62479   0.60217    0.000
 5812.00    0.58011   0.60641    0.000
 5813.00    0.55986   0.60915    0.000
 5814.00    0.55644   0.61175    0.000
 5815.00    0.59166   0.61541    0.000
 5816.00    0.65026   0.61727    0.000
 5817.00    0.71434   0.61566    0.000
 5818.00    0.78132   0.61197    0.000
 5819.00    0.76016   0.60456    0.000
 5820.00    0.69861   0.59409    0.000
 5821.00    0.67381   0.58991    0.000
 5822.00    0.66351   0.59947    0.000
 5823.00    0.67740   0.61456    0.000
 5824.00    0.69941   0.62291    0.000
 5825.00    0.71596   0.62420    0.000
 5826.00    0.73097   0.62162    0.000
 5827.00    0.78903   0.61700    0.000
 5828.00    0.85712   0.61372    0.000
 5829.00    0.85235   0.61435    0.000
 5830.00    0.83398   0.61692    0.000
 5831.00    0.79467   0.61766    0.000
 5832.00    0.75234   0.61741    0.000
 5833.00    0.72103   0.61855    0.000
 5834.00    0.69087   0.62078    0.000
 5835.00    0.70914   0.62064    0.000
 5836.00    0.73069   0.61822    0.000
 5837.00    0.75228   0.61668    0.000
 5838.00    0.77388   0.61332    0.000
 5839.00    0.80001   0.60723    0.000
 5840.00    0.82497   0.60632    0.000
 5841.00    0.81282   0.61086    0.000
 5842.00    0.79993   0.61009    0.000
 5843.00    0.77599   0.60510    0.000
 5844.00    0.75323   0.60753    0.000
 5845.00    0.74203   0.61662    0.000
 5846.00    0.72560   0.62301    0.000
 5847.00    0.67248   0.62439    0.000
 5848.00    0.62309   0.62244    0.000
 5849.00    0.59381   0.61711    0.000
 5850.00    0.58107   0.60949    0.000
 5851.00    0.63995   0.60127    0.000
 5852.00    0.69075   0.59574    0.000
 5853.00    0.71269   0.59610    0.000
 5854.00    0.71839   0.59951    0.000
 5855.00    0.67542   0.60040    0.000
 5856.00    0.64388   0.59497    0.000
 5857.00    0.64152   0.58347    0.000
 5858.00    0.63275   0.57543    0.000
 5859.00    0.60990   0.57884    0.000
 5860.00    0.60326   0.58297    0.000
 5861.00    0.62747   0.57329    0.000
 5862.00    0.64862   0.55723    0.000
 5863.00    0.66470   0.55503    0.000
 5864.00    0.65152   0.56843    0.000
 5865.00    0.59571   0.58253    0.000
 5866.00    0.57326   0.58740    0.000
 5867.00    0.59355   0.58407    0.000
 5868.00    0.61181   0.58371    0.000
 5869.00    0.62776   0.58853    0.000
 5870.00    0.62713   0.58805    0.000
 5871.00    0.60999   0.58067    0.000
 5872.00    0.64597   0.57960    0.000
 5873.00    0.72859   0.58957    0.000
 5874.00    0.80169   0.59987    0.000
 5875.00    0.86743   0.60316    0.000
 5876.00    0.82209   0.59967    0.000
 5877.00    0.70122   0.59296    0.000
 5878.00    0.63763   0.58859    0.000
 5879.00    0.60820   0.58870    0.000
 5880.00    0.69220   0.58862    0.000
 5881.00    0.83518   0.58536    0.000
 5882.00    0.88771   0.58291    0.000
 5883.00    0.89945   0.58075    0.000
 5884.00    0.84777   0.57385    0.000
 5885.00    0.77151   0.56772    0.000
 5886.00    0.68901   0.57049    0.000
 5887.00    0.60445   0.57595    0.000
 5888.00    0.55858   0.57356    0.000
 5889.00    0.52341   0.56912    0.000
 5890.00    0.47897   0.57033    0.000
 5891.00    0.43242   0.56863    0.000
 5892.00    0.43033   0.54671    0.000
 5893.00    0.43631   0.49298    0.000
 5894.00    0.44839   0.42581    0.000
 5895.00    0.46131   0.40051    0.000
 5896.00    0.52846   0.43793    0.000
 5897.00    0.60105   0.48793    0.000
 5898.00    0.60731   0.50845    0.000
 5899.00    0.60935   0.49205    0.000
 5900.00    0.61967   0.45026    0.000
 5901.00    0.63013   0.43423    0.006
 5902.00    0.60405   0.47235    0.006
 5903.00    0.58043   0.51898    0.006
 5904.00    0.62616   0.54141    0.006
 5905.00    0.67080   0.55433    0.006
 5906.00    0.69968   0.56531    0.006
 5907.00    0.72545   0.57031    0.006
 5908.00    0.72224   0.57251    0.006
 5909.00    0.71952   0.57234    0.006
 5910.00    0.72016   0.56851    0.006
 5911.00    0.70880   0.56745    0.006
 5912.00    0.63421   0.57237    0.006
 5913.00    0.56710   0.57722    0.006
 5914.00    0.53166   0.57814    0.006
 5915.00    0.50534   0.57920    0.006
 5916.00    0.51093   0.58236    0.006
 5917.00    0.50911   0.57979    0.006
 5918.00    0.48551   0.56750    0.006
 5919.00    0.47328   0.55515    0.006
 5920.00    0.48955   0.55246    0.006
 5921.00    0.51650   0.55720    0.006
 5922.00    0.56650   0.56557    0.006
 5923.00    0.60322   0.57226    0.006
 5924.00    0.61503   0.57581    0.006
 5925.00    0.63043   0.57785    0.006
 5926.00    0.65168   0.57522    0.006
 5927.00    0.65112   0.57114    0.006
 5928.00    0.61924   0.57243    0.006
 5929.00    0.61101   0.57657    0.006
 5930.00    0.63265   0.58009    0.006
 5931.00    0.64879   0.58219    0.006
 5932.00    0.65881   0.57912    0.006
 5933.00    0.65737   0.57133    0.006
 5934.00    0.64468   0.56277    0.006
 5935.00    0.62434   0.56102    0.006
 5936.00    0.59739   0.57100    0.006
 5937.00    0.56719   0.58060    0.006
 5938.00    0.53453   0.57683    0.006
 5939.00    0.53316   0.56569    0.006
 5940.00    0.55275   0.56327    0.006
 5941.00    0.56313   0.57174    0.006
 5942.00    0.56811   0.57893    0.006
 5943.00    0.55961   0.58222    0.006
 5944.00    0.54422   0.58301    0.006
 5945.00    0.52220   0.57557    0.006
 5946.00    0.49724   0.56440    0.006
 5947.00    0.53879   0.56248    0.006
 5948.00    0.60567   0.56890    0.006
 5949.00    0.67108   0.57664    0.006
 5950.00    0.73602   0.58312    0.006
 5951.00    0.75662   0.58510    0.006
 5952.00    0.76522   0.57847    0.006
 5953.00    0.74485   0.56599    0.006
 5954.00    0.71804   0.56034    0.006
 5955.00    0.67327   0.56738    0.006
 5956.00    0.62532   0.57256    0.006
 5957.00    0.62068   0.56503    0.006
 5958.00    0.62188   0.55907    0.006
 5959.00    0.63927   0.56606    0.006
 5960.00    0.65821   0.57096    0.006
 5961.00    0.64762   0.56397    0.006
 5962.00    0.63527   0.55739    0.006
 5963.00    0.69307   0.56009    0.006
 5964.00    0.75239   0.56875    0.006
 5965.00    0.76901   0.57795    0.006
 5966.00    0.78459   0.58409    0.006
 5967.00    0.77370   0.58565    0.006
 5968.00    0.76266   0.58395    0.006
 5969.00    0.74960   0.58047    0.006
 5970.00    0.73812   0.57458    0.006
 5971.00    0.74074   0.57176    0.006
 5972.00    0.74577   0.57710    0.006
 5973.00    0.76672   0.58250    0.006
 5974.00    0.77648   0.58506    0.006
 5975.00    0.72888   0.58771    0.006
 5976.00    0.68389   0.58956    0.006
 5977.00    0.64965   0.58870    0.006
 5978.00    0.62349   0.58620    0.006
 5979.00    0.62496   0.58068    0.006
 5980.00    0.62872   0.57062    0.006
 5981.00    0.63908   0.56021    0.006
 5982.00    0.64193   0.55571    0.006
 5983.00    0.62632   0.55832    0.006
 5984.00    0.62033   0.56655    0.006
 5985.00    0.63482   0.57611    0.006
 5986.00    0.64663   0.57859    0.006
 5987.00    0.65351   0.57085    0.006
 5988.00    0.67198   0.55559    0.006
 5989.00    0.70914   0.54371    0.006
 5990.00    0.73457   0.54783    0.006
 5991.00    0.74339   0.55975    0.006
 5992.00    0.75749   0.56566    0.006
 5993.00    0.77816   0.56903    0.006
 5994.00    0.77530   0.57408    0.006
 5995.00    0.74662   0.57468    0.006
 5996.00    0.70658   0.56935    0.006
 5997.00    0.65554   0.56865    0.006
 5998.00    0.64409   0.57716    0.006
 5999.00    0.66643   0.58402    0.006
 6000.00    0.69882   0.58167    0.006
 6001.00    0.73877   0.57170    0.006
 6002.00    0.73072   0.56071    0.006
 6003.00    0.69097   0.55704    0.006
 6004.00    0.66422   0.56212    0.006
 6005.00    0.64499   0.56882    0.006
 6006.00    0.64245   0.56981    0.006
 6007.00    0.64833   0.56330    0.006
 6008.00    0.65506   0.55919    0.006
 6009.00    0.66215   0.56418    0.006
 6010.00    0.66368   0.56640    0.006
 6011.00    0.66314   0.55838    0.006
 6012.00    0.62917   0.54563    0.006
 6013.00    0.58458   0.53903    0.006
 6014.00    0.58674   0.55006    0.006
 6015.00    0.60129   0.56826    0.006
 6016.00    0.61565   0.57273    0.006
 6017.00    0.62997   0.56212    0.006
 6018.00    0.65387   0.55152    0.006
 6019.00    0.67943   0.55308    0.006
 6020.00    0.67787   0.55834    0.006
 6021.00    0.67277   0.55550    0.006
 6022.00    0.66312   0.55290    0.006
 6023.00    0.65305   0.55592    0.006
 6024.00    0.68371   0.55424    0.006
 6025.00    0.71663   0.54783    0.006
 6026.00    0.73774   0.54688    0.006
 6027.00    0.75816   0.55123    0.006
 6028.00    0.73556   0.55513    0.006
 6029.00    0.71342   0.55786    0.006
 6030.00    0.70188   0.56408    0.006
 6031.00    0.69483   0.56756    0.006
 6032.00    0.74492   0.56673    0.006
 6033.00    0.78969   0.57090    0.006
 6034.00    0.78868   0.57648    0.006
 6035.00    0.77891   0.57656    0.006
 6036.00    0.71319   0.57502    0.006
 6037.00    0.65071   0.57734    0.006
 6038.00    0.60446   0.58085    0.006
 6039.00    0.56878   0.58133    0.006
 6040.00    0.57586   0.58045    0.006
 6041.00    0.58652   0.58033    0.006
 6042.00    0.60918   0.58050    0.006
 6043.00    0.62115   0.57940    0.006
 6044.00    0.60279   0.57578    0.006
 6045.00    0.60405   0.57194    0.006
 6046.00    0.65283   0.57114    0.006
 6047.00    0.70236   0.57270    0.006
 6048.00    0.75343   0.57771    0.006
 6049.00    0.79073   0.58304    0.006
 6050.00    0.80302   0.58483    0.006
 6051.00    0.79098   0.58529    0.006
 6052.00    0.74027   0.58527    0.006
 6053.00    0.70108   0.58322    0.006
 6054.00    0.67792   0.58133    0.006
 6055.00    0.67982   0.58402    0.006
 6056.00    0.71247   0.58551    0.006
 6057.00    0.73402   0.58067    0.006
 6058.00    0.74357   0.57358    0.006
 6059.00    0.73345   0.56947    0.006
 6060.00    0.70456   0.56631    0.006
 6061.00    0.69465   0.56202    0.006
 6062.00    0.70069   0.56187    0.006
 6063.00    0.67670   0.56734    0.006
 6064.00    0.63045   0.57431    0.006
 6065.00    0.61480   0.57794    0.006
 6066.00    0.61906   0.57640    0.006
 6067.00    0.62326   0.57043    0.006
 6068.00    0.62741   0.56199    0.006
 6069.00    0.59278   0.55141    0.006
 6070.00    0.53892   0.54214    0.006
 6071.00    0.52548   0.54929    0.006
 6072.00    0.52938   0.57037    0.006
 6073.00    0.56971   0.58386    0.006
 6074.00    0.62343   0.58589    0.006
 6075.00    0.66314   0.58470    0.006
 6076.00    0.69850   0.58512    0.006
 6077.00    0.67772   0.58698    0.006
 6078.00    0.64237   0.58772    0.006
 6079.00    0.60866   0.58723    0.006
 6080.00    0.57530   0.58497    0.006
 6081.00    0.58659   0.57931    0.006
 6082.00    0.60535   0.57103    0.006
 6083.00    0.65018   0.56117    0.006
 6084.00    0.69830   0.55742    0.006
 6085.00    0.69267   0.56064    0.006
 6086.00    0.68233   0.55740    0.006
 6087.00    0.66535   0.55054    0.006
 6088.00    0.64803   0.55328    0.006
 6089.00    0.63532   0.55911    0.006
 6090.00    0.62291   0.55831    0.006
 6091.00    0.62692   0.55780    0.006
 6092.00    0.63196   0.56240    0.006
 6093.00    0.65891   0.56592    0.006
 6094.00    0.68349   0.56036    0.006
 6095.00    0.67946   0.55019    0.006
 6096.00    0.67119   0.54743    0.006
 6097.00    0.62770   0.55056    0.006
 6098.00    0.58925   0.55337    0.006
 6099.00    0.58206   0.56019    0.006
 6100.00    0.57967   0.56944    0.006
 6101.00    0.60071   0.56947    0.006
 6102.00    0.62035   0.56384    0.006
 6103.00    0.63451   0.56371    0.006
 6104.00    0.64385   0.56973    0.006
 6105.00    0.63735   0.57194    0.006
 6106.00    0.62914   0.55666    0.006
 6107.00    0.61617   0.52544    0.006
 6108.00    0.59912   0.51229    0.006
 6109.00    0.57235   0.53459    0.006
 6110.00    0.54747   0.55923    0.006
 6111.00    0.52645   0.56543    0.006
 6112.00    0.53215   0.56065    0.006
 6113.00    0.58566   0.55808    0.006
 6114.00    0.62543   0.56458    0.006
 6115.00    0.64368   0.56841    0.006
 6116.00    0.63697   0.56208    0.006
 6117.00    0.59594   0.55980    0.006
 6118.00    0.58931   0.56786    0.006
 6119.00    0.62431   0.57525    0.006
 6120.00    0.67274   0.57268    0.006
 6121.00    0.73551   0.56317    0.006
 6122.00    0.74038   0.56060    0.006
 6123.00    0.69077   0.56470    0.006
 6124.00    0.62240   0.55925    0.006
 6125.00    0.53846   0.54453    0.006
 6126.00    0.51814   0.52768    0.006
 6127.00    0.54428   0.51675    0.006
 6128.00    0.56043   0.52945    0.006
 6129.00    0.57018   0.55367    0.006
 6130.00    0.57870   0.56049    0.006
 6131.00    0.58652   0.55467    0.006
 6132.00    0.61629   0.54918    0.006
 6133.00    0.65678   0.54562    0.006
 6134.00    0.65629   0.54860    0.006
 6135.00    0.63853   0.55867    0.006
 6136.00    0.62446   0.56621    0.006
 6137.00    0.61172   0.56768    0.006
 6138.00    0.57796   0.56622    0.006
 6139.00    0.53779   0.55696    0.006
 6140.00    0.52209   0.53416    0.006
 6141.00    0.51262   0.50182    0.006
 6142.00    0.50165   0.48123    0.006
 6143.00    0.49037   0.49933    0.006
 6144.00    0.50207   0.53984    0.006
 6145.00    0.51750   0.55907    0.006
 6146.00    0.54889   0.54807    0.006
 6147.00    0.58222   0.53822    0.006
 6148.00    0.56555   0.55001    0.006
 6149.00    0.54469   0.56655    0.006
 6150.00    0.55655   0.57090    0.006
 6151.00    0.56998   0.56697    0.006
 6152.00    0.58226   0.56081    0.006
 6153.00    0.59499   0.55216    0.006
 6154.00    0.63481   0.54310    0.006
 6155.00    0.67496   0.53885    0.006
 6156.00    0.72153   0.54281    0.006
 6157.00    0.76308   0.55112    0.006
 6158.00    0.74674   0.55521    0.006
 6159.00    0.72545   0.54787    0.006
 6160.00    0.66460   0.53959    0.006
 6161.00    0.61260   0.54109    0.006
 6162.00    0.61385   0.54343    0.006
 6163.00    0.61649   0.54177    0.006
 6164.00    0.62577   0.53716    0.006
 6165.00    0.63317   0.51869    0.006
 6166.00    0.63333   0.48384    0.006
 6167.00    0.63958   0.45966    0.006
 6168.00    0.66547   0.46602    0.006
 6169.00    0.68355   0.49091    0.006
 6170.00    0.68029   0.51159    0.006
 6171.00    0.66578   0.52067    0.006
 6172.00    0.62493   0.52636    0.006
 6173.00    0.60358   0.52046    0.006
 6174.00    0.62172   0.49673    0.006
 6175.00    0.64075   0.48605    0.006
 6176.00    0.66136   0.50569    0.006
 6177.00    0.67539   0.52697    0.006
 6178.00    0.67927   0.52937    0.006
 6179.00    0.67848   0.52774    0.006
 6180.00    0.67135   0.52931    0.006
 6181.00    0.64647   0.52743    0.006
 6182.00    0.60043   0.52609    0.006
 6183.00    0.58206   0.53208    0.006
 6184.00    0.59277   0.53663    0.006
 6185.00    0.60362   0.53410    0.006
 6186.00    0.61460   0.53601    0.006
 6187.00    0.61622   0.54228    0.006
 6188.00    0.61017   0.54273    0.006
 6189.00    0.62315   0.54079    0.006
 6190.00    0.64981   0.53798    0.006
 6191.00    0.64972   0.52834    0.006
 6192.00    0.63273   0.51831    0.006
 6193.00    0.65069   0.51545    0.006
 6194.00    0.68796   0.51615    0.006
 6195.00    0.93319   0.50790    0.006
 6196.00    1.27828   0.48846   -2.000
 6197.00    1.63984   0.48688   -2.000
 6198.00    2.00823   0.51076   -2.000
 6199.00    1.85900   0.52924   -2.000
 6200.00    1.52630   0.53370   -2.000
 6201.00    0.96792   0.53652   -2.000
 6202.00    0.34200   0.53959   -2.000
 6203.00    0.10264   0.53403   -2.000
 6204.00   -0.04070   0.51785   -2.000
 6205.00    0.07338   0.50773   -2.000
 6206.00    0.23928   0.51680   -2.000
 6207.00    0.40077   0.53283   -2.000
 6208.00    0.56157   0.53992    0.006
 6209.00    0.53197   0.53854    0.006
 6210.00    0.48005   0.53614    0.006
 6211.00    0.45316   0.53705    0.006
 6212.00    0.42825   0.53825    0.006
 6213.00    0.44953   0.53802    0.006
 6214.00    0.47285   0.53676    0.006
 6215.00    0.51789   0.53258    0.006
 6216.00    0.56181   0.52745    0.006
 6217.00    0.54140   0.52068    0.006
 6218.00    0.52098   0.50484    0.006
 6219.00    0.50051   0.48899    0.006
 6220.00    0.48886   0.48442    0.006
 6221.00    0.57423   0.49022    0.006
 6222.00    0.65281   0.50315    0.006
 6223.00    0.67888   0.51043    0.006
 6224.00    0.69652   0.50243    0.006
 6225.00    0.66484   0.49376    0.006
 6226.00    0.64348   0.49680    0.006
 6227.00    0.66999   0.50658    0.006
 6228.00    0.69469   0.51192    0.006
 6229.00    0.71254   0.50905    0.006
 6230.00    0.71526   0.50910    0.006
 6231.00    0.67011   0.51393    0.006
 6232.00    0.62305   0.51616    0.006
 6233.00    0.57088   0.51402    0.006
 6234.00    0.53696   0.50183    0.006
 6235.00    0.54507   0.47936    0.006
 6236.00    0.57434   0.46895    0.006
 6237.00    0.64579   0.47965    0.006
 6238.00    0.68888   0.49492    0.006
 6239.00    0.68273   0.51222    0.006
 6240.00    0.66101   0.52685    0.006
 6241.00    0.61565   0.52860    0.006
 6242.00    0.59657   0.52044    0.006
 6243.00    0.61259   0.51002    0.006
 6244.00    0.62008   0.49940    0.006
 6245.00    0.61755   0.49057    0.006
 6246.00    0.59020   0.49371    0.006
 6247.00    0.53713   0.49538    0.006
 6248.00    0.51786   0.48426    0.006
 6249.00    0.52951   0.48135    0.006
 6250.00    0.53396   0.48683    0.006
 6251.00    0.53261   0.48874    0.006
 6252.00    0.53386   0.49827    0.006
 6253.00    0.53695   0.51329    0.006
 6254.00    0.56046   0.51857    0.006
 6255.00    0.59667   0.51505    0.006
 6256.00    0.63744   0.50544    0.006
 6257.00    0.68068   0.48868    0.006
 6258.00    0.76290   0.47904    0.006
 6259.00    0.86354   0.48142    0.006
 6260.00    0.97334   0.48514    0.007
 6261.00    1.08688   0.48151    0.007
 6262.00    1.00687   0.47134    0.007
 6263.00    0.85950   0.46309    0.008
 6264.00    0.67017   0.46882    0.007
 6265.00    0.46853   0.48744    0.007
 6266.00    0.41818   0.49961    0.007
 6267.00    0.40459   0.50900    0.006
 6268.00    0.48781   0.52029    0.006
 6269.00    0.59003   0.51833    0.006
 6270.00    0.65928   0.50476    0.006
 6271.00    0.72349   0.50175    0.006
 6272.00    0.75970   0.51073    0.006
 6273.00    0.79276   0.51365    0.006
 6274.00    0.74429   0.50819    0.006
 6275.00    0.68969   0.50556    0.006
 6276.00    0.64217   0.50883    0.006
 6277.00    0.59494   0.51467    0.006
 6278.00    0.58302   0.51863    0.006
 6279.00    0.57165   0.51703    0.006
 6280.00    0.57260   0.51467    0.000
 6281.00    0.57349   0.51587    0.000
 6282.00    0.57345   0.51654    0.000
 6283.00    0.57341   0.51529    0.000
 6284.00    0.57345   0.50991    0.000
 6285.00    0.57407   0.50022    0.000
 6286.00    0.57900   0.49708    0.000
 6287.00    0.58947   0.50332    0.000
 6288.00    0.63142   0.51262    0.000
 6289.00    0.66144   0.51920    0.000
 6290.00    0.63744   0.51776    0.000
 6291.00    0.61642   0.51817    0.000
 6292.00    0.60646   0.52507    0.000
 6293.00    0.59230   0.53110    0.000
 6294.00    0.56507   0.53320    0.000
 6295.00    0.54290   0.52712    0.000
 6296.00    0.53408   0.51775    0.000
 6297.00    0.52545   0.51214    0.000
 6298.00    0.51725   0.51075    0.000
 6299.00    0.51819   0.51558    0.000
 6300.00    0.53708   0.51741    0.000
 6301.00    0.55707   0.50660    0.000
 6302.00    0.57891   0.49520    0.000
 6303.00    0.58723   0.49566    0.000
 6304.00    0.57528   0.50464    0.000
 6305.00    0.55843   0.50694    0.000
 6306.00    0.53511   0.49691    0.000
 6307.00    0.53807   0.48961    0.000
 6308.00    0.57150   0.49679    0.000
 6309.00    0.59202   0.50733    0.000
 6310.00    0.59937   0.50946    0.000
 6311.00    0.59797   0.51031    0.000
 6312.00    0.58870   0.52087    0.000
 6313.00    0.58626   0.53048    0.000
 6314.00    0.58925   0.52917    0.000
 6315.00    0.60383   0.51963    0.000
 6316.00    0.62651   0.50968    0.000
 6317.00    0.63416   0.50690    0.000
 6318.00    0.63260   0.51085    0.000
 6319.00    0.61733   0.50741    0.000
 6320.00    0.59472   0.49655    0.000
 6321.00    0.58929   0.49646    0.006
 6322.00    0.59186   0.49807    0.006
 6323.00    0.61132   0.48677    0.006
 6324.00    0.63755   0.48479    0.006
 6325.00    0.62048   0.49953    0.005
 6326.00    0.58862   0.50964    0.005
 6327.00    0.54778   0.50926    0.005
 6328.00    0.50436   0.51009    0.005
 6329.00    0.48406   0.51732    0.005
 6330.00    0.46925   0.52207    0.005
 6331.00    0.48191   0.52192    0.005
 6332.00    0.49983   0.51865    0.006
 6333.00    0.52938   0.52006    0.006
 6334.00    0.56065   0.52458    0.006
 6335.00    0.58580   0.52026    0.006
 6336.00    0.61027   0.51662    0.006
 6337.00    0.64378   0.52212    0.006
 6338.00    0.67793   0.52782    0.006
 6339.00    0.67943   0.52143    0.006
 6340.00    0.67975   0.50018    0.006
 6341.00    0.66946   0.48477    0.006
 6342.00    0.65786   0.49075    0.006
 6343.00    0.60140   0.50314    0.006
 6344.00    0.54601   0.50765    0.006
 6345.00    0.50759   0.51375    0.006
 6346.00    0.47190   0.52115    0.006
 6347.00    0.46368   0.51813    0.006
 6348.00    0.45587   0.50518    0.006
 6349.00    0.45105   0.49386    0.005
 6350.00    0.44239   0.49719    0.005
 6351.00    0.41253   0.50624    0.005
 6352.00    0.38989   0.50980    0.005
 6353.00    0.39914   0.51361    0.005
 6354.00    0.41867   0.51907    0.006
 6355.00    0.47555   0.52055    0.006
 6356.00    0.51820   0.52098    0.006
 6357.00    0.51749   0.52251    0.006
 6358.00    0.51850   0.51902    0.006
 6359.00    0.52397   0.50703    0.006
 6360.00    0.52446   0.49729    0.006
 6361.00    0.51385   0.50076    0.006
 6362.00    0.50932   0.50354    0.006
 6363.00    0.51651   0.49236    0.006
 6364.00    0.52696   0.48077    0.006
 6365.00    0.54290   0.48016    0.006
 6366.00    0.55867   0.47918    0.006
 6367.00    0.57419   0.47319    0.006
 6368.00    0.57971   0.47356    0.006
 6369.00    0.57226   0.48262    0.006
 6370.00    0.56392   0.49277    0.006
 6371.00    0.55457   0.49953    0.006
 6372.00    0.56096   0.50713    0.006
 6373.00    0.58322   0.51613    0.006
 6374.00    0.59758   0.51821    0.006
 6375.00    0.60491   0.51229    0.006
 6376.00    0.60543   0.51062    0.005
 6377.00    0.60061   0.51820    0.005
 6378.00    0.57411   0.52649    0.005
 6379.00    0.53268   0.52694    0.005
 6380.00    0.50274   0.52349    0.005
 6381.00    0.47973   0.52376    0.005
 6382.00    0.52083   0.52360    0.005
 6383.00    0.59572   0.51656    0.005
 6384.00    0.65363   0.50899    0.006
 6385.00    0.70377   0.50776    0.006
 6386.00    0.70407   0.50959    0.006
 6387.00    0.68475   0.51426    0.006
 6388.00    0.62838   0.51722    0.006
 6389.00    0.55958   0.51376    0.006
 6390.00    0.51727   0.51163    0.006
 6391.00    0.48243   0.51590    0.006
 6392.00    0.48835   0.52056    0.006
 6393.00    0.50374   0.52051    0.006
 6394.00    0.50679   0.52005    0.006
 6395.00    0.50755   0.52228    0.006
 6396.00    0.50449   0.52074    0.006
 6397.00    0.50087   0.50755    0.006
 6398.00    0.49284   0.48727    0.006
 6399.00    0.48434   0.48317    0.006
 6400.00    0.53194   0.50011    0.006
 6401.00    0.58331   0.51740    0.006
 6402.00    0.60174   0.52483    0.006
 6403.00    0.61910   0.52178    0.006
 6404.00    0.58811   0.50175    0.006
 6405.00    0.55705   0.47827    0.005
 6406.00    0.52433   0.48484    0.005
 6407.00    0.49431   0.51158    0.006
 6408.00    0.50486   0.52622    0.006
 6409.00    0.51680   0.52800    0.006
 6410.00    0.54229   0.52545    0.006
 6411.00    0.56661   0.51929    0.006
 6412.00    0.58283   0.50782    0.006
 6413.00    0.59661   0.49843    0.006
 6414.00    0.59734   0.50558    0.006
 6415.00    0.58898   0.51448    0.006
 6416.00    0.54139   0.50614    0.006
 6417.00    0.50500   0.49860    0.006
 6418.00    0.50847   0.50345    0.006
 6419.00    0.51227   0.50823    0.006
 6420.00    0.51706   0.51054    0.006
 6421.00    0.52571   0.51529    0.006
 6422.00    0.54418   0.51769    0.006
 6423.00    0.55586   0.51403    0.006
 6424.00    0.55267   0.50487    0.006
 6425.00    0.55214   0.49113    0.006
 6426.00    0.55665   0.48461    0.006
 6427.00    0.56496   0.49644    0.006
 6428.00    0.57955   0.51654    0.006
 6429.00    0.58710   0.52393    0.006
 6430.00    0.58441   0.51981    0.006
 6431.00    0.57554   0.51925    0.006
 6432.00    0.55879   0.52522    0.006
 6433.00    0.54735   0.52846    0.006
 6434.00    0.54189   0.52080    0.006
 6435.00    0.55030   0.50104    0.006
 6436.00    0.57250   0.48472    0.006
 6437.00    0.59685   0.48990    0.006
 6438.00    0.62310   0.50532    0.006
 6439.00    0.61356   0.51586    0.006
 6440.00    0.57639   0.52072    0.006
 6441.00    0.57943   0.52181    0.006
 6442.00    0.60977   0.51728    0.006
 6443.00    0.63175   0.50114    0.006
 6444.00    0.64877   0.48655    0.006
 6445.00    0.63957   0.49570    0.006
 6446.00    0.61679   0.51717    0.006
 6447.00    0.60568   0.52849    0.006
 6448.00    0.59983   0.52922    0.006
 6449.00    0.58019   0.52699    0.006
 6450.00    0.55521   0.52751    0.006
 6451.00    0.54071   0.53115    0.006
 6452.00    0.52966   0.53144    0.006
 6453.00    0.51427   0.51778    0.006
 6454.00    0.49769   0.48642    0.005
 6455.00    0.48992   0.46199    0.005
 6456.00    0.48416   0.47124    0.005
 6457.00    0.48147   0.49699    0.005
 6458.00    0.47935   0.51479    0.006
 6459.00    0.49491   0.51824    0.006
 6460.00    0.51292   0.50811    0.006
 6461.00    0.55478   0.49842    0.006
 6462.00    0.59902   0.50370    0.006
 6463.00    0.61450   0.51737    0.006
 6464.00    0.62817   0.52726    0.006
 6465.00    0.60993   0.52991    0.006
 6466.00    0.59078   0.51974    0.006
 6467.00    0.57468   0.49474    0.006
 6468.00    0.56020   0.47927    0.006
 6469.00    0.59043   0.49064    0.006
 6470.00    0.62109   0.50816    0.005
 6471.00    0.65780   0.51754    0.006
 6472.00    0.68741   0.52268    0.006
 6473.00    0.65127   0.52373    0.006
 6474.00    0.61144   0.51863    0.006
 6475.00    0.54664   0.51168    0.006
 6476.00    0.48948   0.50526    0.006
 6477.00    0.47239   0.50459    0.005
 6478.00    0.46055   0.51214    0.005
 6479.00    0.47091   0.51407    0.005
 6480.00    0.49113   0.50739    0.005
 6481.00    0.54577   0.50657    0.005
 6482.00    0.60525   0.51368    0.005
 6483.00    0.67894   0.51640    0.005
 6484.00    0.73578   0.51477    0.005
 6485.00    0.75048   0.51240    0.006
 6486.00    0.74657   0.50200    0.006
 6487.00    0.70255   0.48656    0.006
 6488.00    0.66384   0.48173    0.006
 6489.00    0.63506   0.49101    0.006
 6490.00    0.62166   0.50167    0.006
 6491.00    0.63338   0.50679    0.006
 6492.00    0.61684   0.50921    0.005
 6493.00    0.55980   0.51127    0.006
 6494.00    0.52125   0.50916    0.006
 6495.00    0.50600   0.50187    0.006
 6496.00    0.51003   0.49541    0.006
 6497.00    0.53547   0.49070    0.006
 6498.00    0.54681   0.47618    0.006
 6499.00    0.54434   0.44725    0.006
 6500.00    0.53765   0.42686    0.005
 6501.00    0.52731   0.42846    0.006
 6502.00    0.50274   0.44120    0.005
 6503.00    0.46733   0.45480    0.005
 6504.00    0.47736   0.46212    0.005
 6505.00    0.51780   0.47045    0.005
 6506.00    0.57403   0.48271    0.005
 6507.00    0.63952   0.49117    0.006
 6508.00    0.65216   0.49570    0.006
 6509.00    0.63779   0.49918    0.006
 6510.00    0.62209   0.50287    0.006
 6511.00    0.60579   0.50678    0.006
 6512.00    0.61358   0.50621    0.006
 6513.00    0.63051   0.50029    0.005
 6514.00    0.65254   0.49580    0.006
 6515.00    0.67620   0.49870    0.006
 6516.00    0.63686   0.50400    0.006
 6517.00    0.58049   0.50502    0.006
 6518.00    0.53470   0.50483    0.006
 6519.00    0.49126   0.50441    0.006
 6520.00    0.50371   0.49907    0.005
 6521.00    0.52601   0.49253    0.005
 6522.00    0.54262   0.48910    0.005
 6523.00    0.55846   0.48541    0.005
 6524.00    0.54322   0.48412    0.005
 6525.00    0.52500   0.49195    0.005
 6526.00    0.53481   0.50163    0.005
 6527.00    0.54628   0.50529    0.005
 6528.00    0.54114   0.50437    0.000
 6529.00    0.53545   0.50512    0.000
 6530.00    0.51025   0.50692    0.000
 6531.00    0.48704   0.50194    0.000
 6532.00    0.51417   0.49323    0.000
 6533.00    0.54203   0.49188    0.000
 6534.00    0.57953   0.49821    0.000
 6535.00    0.61203   0.50365    0.000
 6536.00    0.59991   0.50211    0.000
 6537.00    0.58907   0.49416    0.000
 6538.00    0.58655   0.48827    0.000
 6539.00    0.58467   0.49104    0.000
 6540.00    0.58603   0.49964    0.000
 6541.00    0.59516   0.50472    0.000
 6542.00    0.63636   0.50197    0.000
 6543.00    0.66706   0.49945    0.000
 6544.00    0.66193   0.50378    0.000
 6545.00    0.64926   0.50922    0.000
 6546.00    0.61491   0.50753    0.000
 6547.00    0.59711   0.50064    0.000
 6548.00    0.62002   0.49421    0.000
 6549.00    0.64078   0.49004    0.000
 6550.00    0.65698   0.48300    0.000
 6551.00    0.66083   0.47153    0.000
 6552.00    0.64192   0.46853    0.000
 6553.00    0.62495   0.47710    0.000
 6554.00    0.61108   0.48568    0.000
 6555.00    0.58811   0.48612    0.000
 6556.00    0.55229   0.48021    0.000
 6557.00    0.55985   0.47437    0.000
 6558.00    0.62133   0.46995    0.000
 6559.00    0.69645   0.46258    0.000
 6560.00    0.78654   0.45353    0.000
 6561.00    0.83861   0.44935    0.000
 6562.00    0.85396   0.45216    0.000
 6563.00    0.83058   0.45494    0.000
 6564.00    0.77421   0.45268    0.000
 6565.00    0.72688   0.44469    0.000
 6566.00    0.68634   0.41855    0.000
 6567.00    0.66917   0.36246    0.000
 6568.00    0.66741   0.31821    0.000
 6569.00    0.65820   0.34059    0.000
 6570.00    0.64468   0.39911    0.000
 6571.00    0.61198   0.43904    0.000
 6572.00    0.56962   0.45696    0.000
 6573.00    0.56931   0.46207    0.000
 6574.00    0.58729   0.45791    0.000
 6575.00    0.60598   0.45584    0.000
 6576.00    0.62494   0.46008    0.000
 6577.00    0.63406   0.46063    0.000
 6578.00    0.64007   0.45467    0.000
 6579.00    0.69873   0.44935    0.000
 6580.00    0.77132   0.45035    0.000
 6581.00    0.82344   0.46145    0.000
 6582.00    0.87115   0.47617    0.000
 6583.00    0.87743   0.48543    0.000
 6584.00    0.87660   0.48652    0.000
 6585.00    0.79485   0.48030    0.000
 6586.00    0.70259   0.47239    0.000
 6587.00    0.61957   0.47247    0.000
 6588.00    0.53741   0.47905    0.000
 6589.00    0.49568   0.48419    0.000
 6590.00    0.45618   0.48466    0.000
 6591.00    0.44773   0.48208    0.000
 6592.00    0.44022   0.48332    0.000
 6593.00    0.45950   0.48966    0.000
 6594.00    0.47849   0.49365    0.000
 6595.00    0.49055   0.49430    0.000
 6596.00    0.50234   0.48897    0.000
 6597.00    0.51057   0.47153    0.000
 6598.00    0.51970   0.45062    0.000
 6599.00    0.53654   0.44767    0.000
 6600.00    0.55357   0.46385    0.000
 6601.00    0.57188   0.47833    0.000
 6602.00    0.58625   0.48101    0.000
 6603.00    0.58100   0.47696    0.000
 6604.00    0.57431   0.47487    0.000
 6605.00    0.56177   0.48108    0.000
 6606.00    0.54589   0.49033    0.000
 6607.00    0.51884   0.49379    0.000
 6608.00    0.50187   0.49157    0.000
 6609.00    0.51340   0.48639    0.006
 6610.00    0.52916   0.48073    0.006
 6611.00    0.55514   0.47691    0.006
 6612.00    0.57746   0.47418    0.006
 6613.00    0.59213   0.46885    0.006
 6614.00    0.59676   0.46214    0.005
 6615.00    0.58316   0.46508    0.005
 6616.00    0.57515   0.47932    0.005
 6617.00    0.57603   0.48957    0.005
 6618.00    0.56515   0.48757    0.005
 6619.00    0.53791   0.48295    0.005
 6620.00    0.46189   0.48644    0.005
 6621.00    0.32611   0.49149    0.005
 6622.00    0.25671   0.49039    0.005
 6623.00    0.25900   0.48760    0.005
 6624.00    0.32328   0.48844    0.005
 6625.00    0.44662   0.49165    0.005
 6626.00    0.51819   0.49390    0.005
 6627.00    0.54629   0.49281    0.005
 6628.00    0.53548   0.48640    0.005
 6629.00    0.49591   0.47540    0.005
 6630.00    0.47383   0.46717    0.005
 6631.00    0.46312   0.47025    0.005
 6632.00    0.46617   0.47784    0.005
 6633.00    0.47706   0.48088    0.006
 6634.00    0.48478   0.47997    0.006
 6635.00    0.49093   0.47759    0.006
 6636.00    0.50084   0.47519    0.006
 6637.00    0.51236   0.47066    0.006
 6638.00    0.51068   0.46162    0.006
 6639.00    0.50418   0.45536    0.005
 6640.00    0.52128   0.45989    0.005
 6641.00    0.54572   0.47071    0.005
 6642.00    0.53556   0.47889    0.005
 6643.00    0.51645   0.48113    0.005
 6644.00    0.49161   0.47775    0.005
 6645.00    0.46557   0.47413    0.005
 6646.00    0.51063   0.47707    0.005
 6647.00    0.56754   0.47892    0.005
 6648.00    0.59099   0.47057    0.005
 6649.00    0.61023   0.46360    0.005
 6650.00    0.57332   0.46813    0.005
 6651.00    0.53152   0.47507    0.005
 6652.00    0.49020   0.47559    0.005
 6653.00    0.44890   0.47372    0.005
 6654.00    0.48660   0.47543    0.005
 6655.00    0.52558   0.47762    0.006
 6656.00    0.55679   0.47599    0.006
 6657.00    0.58536   0.47263    0.006
 6658.00    0.55843   0.47128    0.006
 6659.00    0.53021   0.47210    0.006
 6660.00    0.48647   0.47406    0.006
 6661.00    0.44900   0.47414    0.005
 6662.00    0.46321   0.47251    0.005
 6663.00    0.48059   0.47289    0.005
 6664.00    0.51756   0.47336    0.005
 6665.00    0.54239   0.47098    0.005
 6666.00    0.50828   0.46754    0.005
 6667.00    0.47239   0.46275    0.005
 6668.00    0.42945   0.45412    0.005
 6669.00    0.40943   0.45001    0.005
 6670.00    0.46463   0.45503    0.005
 6671.00    0.51346   0.45990    0.005
 6672.00    0.54460   0.46004    0.005
 6673.00    0.57154   0.46028    0.005
 6674.00    0.58848   0.46483    0.006
 6675.00    0.61810   0.47183    0.006
 6676.00    0.67374   0.47602    0.006
 6677.00    0.73517   0.47617    0.006
 6678.00    0.80692   0.47516    0.006
 6679.00    0.84704   0.47509    0.006
 6680.00    0.83774   0.47582    0.006
 6681.00    0.78231   0.47246    0.006
 6682.00    0.66361   0.45820    0.006
 6683.00    0.58272   0.44117    0.006
 6684.00    0.54748   0.44061    0.006
 6685.00    0.52687   0.45443    0.005
 6686.00    0.52182   0.46305    0.005
 6687.00    0.54632   0.46410    0.005
 6688.00    0.59859   0.46541    0.005
 6689.00    0.61103   0.46852    0.005
 6690.00    0.59050   0.47024    0.005
 6691.00    0.56452   0.46978    0.005
 6692.00    0.53458   0.46819    0.005
 6693.00    0.52062   0.46641    0.005
 6694.00    0.51689   0.46681    0.005
 6695.00    0.50911   0.46887    0.005
 6696.00    0.49906   0.46991    0.000
 6697.00    0.51661   0.46956    0.000
 6698.00    0.54759   0.46908    0.000
 6699.00    0.59240   0.46819    0.000
 6700.00    0.64301   0.46371    0.000
 6701.00    0.66829   0.45513    0.000
 6702.00    0.68444   0.44995    0.000
 6703.00    0.64043   0.45169    0.000
 6704.00    0.57811   0.45765    0.000
 6705.00    0.53569   0.46519    0.000
 6706.00    0.49831   0.46972    0.000
 6707.00    0.49347   0.46865    0.000
 6708.00    0.49532   0.46333    0.000
 6709.00    0.53783   0.45734    0.000
 6710.00    0.58693   0.45599    0.000
 6711.00    0.56968   0.45983    0.000
 6712.00    0.54441   0.46337    0.000
 6713.00    0.57710   0.46464    0.000
 6714.00    0.61460   0.46441    0.000
 6715.00    0.63137   0.46144    0.000
 6716.00    0.64715   0.45888    0.000
 6717.00    0.65615   0.45901    0.000
 6718.00    0.66473   0.45749    0.000
 6719.00    0.65484   0.45296    0.000
 6720.00    0.64253   0.44706    0.000
 6721.00    0.58311   0.43993    0.000
 6722.00    0.52805   0.43264    0.000
 6723.00    0.52315   0.43187    0.000
 6724.00    0.52781   0.44197    0.000
 6725.00    0.60852   0.45287    0.000
 6726.00    0.67500   0.45514    0.000
 6727.00    0.65609   0.45329    0.000
 6728.00    0.63621   0.45540    0.000
 6729.00    0.61178   0.45989    0.000
 6730.00    0.59775   0.45949    0.000
 6731.00    0.62391   0.45448    0.000
 6732.00    0.65052   0.45217    0.000
 6733.00    0.67854   0.45448    0.000
 6734.00    0.67126   0.45783    0.000
 6735.00    0.56775   0.46087    0.000
 6736.00    0.49452   0.46285    0.000
 6737.00    0.49204   0.46202    0.000
 6738.00    0.49735   0.45869    0.000
 6739.00    0.51837   0.45624    0.000
 6740.00    0.53247   0.45681    0.000
 6741.00    0.53439   0.45951    0.000
 6742.00    0.54447   0.45897    0.000
 6743.00    0.56711   0.45300    0.000
 6744.00    0.55154   0.44780    0.000
 6745.00    0.48432   0.44871    0.000
 6746.00    0.43816   0.45271    0.000
 6747.00    0.41705   0.45251    0.000
 6748.00    0.41118   0.44839    0.000
 6749.00    0.42130   0.44824    0.000
 6750.00    0.41950   0.45212    0.000
 6751.00    0.40666   0.45291    0.000
 6752.00    0.45202   0.45008    0.000
 6753.00    0.54488   0.44738    0.006
 6754.00    0.60983   0.44551    0.006
 6755.00    0.65474   0.44401    0.006
 6756.00    0.61600   0.44533    0.006
 6757.00    0.52452   0.44697    0.006
 6758.00    0.49337   0.44500    0.006
 6759.00    0.49548   0.44535    0.006
 6760.00    0.57864   0.44906    0.006
 6761.00    0.70064   0.45256    0.006
 6762.00    0.74862   0.45667    0.007
 6763.00    0.76598   0.46094    0.007
 6764.00    0.76995   0.46322    0.007
 6765.00    0.76919   0.46410    0.007
 6766.00    0.73542   0.46338    0.007
 6767.00    0.69180   0.46043    0.006
 6768.00    0.67238   0.45896    0.006
 6769.00    0.65896   0.46025    0.007
 6770.00    0.62157   0.46012    0.006
 6771.00    0.57936   0.45503    0.006
 6772.00    0.57921   0.44757    0.006
 6773.00    0.58566   0.44438    0.006
 6774.00    0.60991   0.44752    0.006
 6775.00    0.63624   0.45021    0.006
 6776.00    0.66113   0.44793    0.006
 6777.00    0.68590   0.44676    0.006
 6778.00    0.71202   0.45155    0.006
 6779.00    0.73819   0.45841    0.006
 6780.00    0.63937   0.46301    0.006
 6781.00    0.53971   0.46471    0.006
 6782.00    0.46242   0.46405    0.006
 6783.00    0.38889   0.46343    0.006
 6784.00    0.38331   0.46505    0.006
 6785.00    0.38016   0.46600    0.006
 6786.00    0.40355   0.46318    0.006
 6787.00    0.43185   0.45651    0.006
 6788.00    0.49792   0.44691    0.006
 6789.00    0.56210   0.43793    0.006
 6790.00    0.61529   0.43448    0.006
 6791.00    0.65913   0.43676    0.006
 6792.00    0.65974   0.44269    0.006
 6793.00    0.66520   0.45019    0.006
 6794.00    0.68898   0.45384    0.006
 6795.00    0.69888   0.45296    0.006
 6796.00    0.66500   0.45296    0.006
 6797.00    0.63201   0.45361    0.006
 6798.00    0.60143   0.45031    0.006
 6799.00    0.60358   0.44593    0.006
 6800.00    0.68091   0.44518    0.006
 6801.00    0.70351   0.44634    0.006
 6802.00    0.61729   0.44796    0.006
 6803.00    0.53667   0.44989    0.006
 6804.00    0.46577   0.45091    0.006
 6805.00    0.42777   0.45207    0.006
 6806.00    0.43966   0.45404    0.006
 6807.00    0.45393   0.45588    0.006
 6808.00    0.47137   0.45496    0.006
 6809.00    0.48314   0.45190    0.006
 6810.00    0.48827   0.45149    0.006
 6811.00    0.50844   0.45209    0.006
 6812.00    0.54420   0.45048    0.006
 6813.00    0.56634   0.45039    0.006
 6814.00    0.57605   0.45135    0.006
 6815.00    0.59410   0.44990    0.006
 6816.00    0.61885   0.44948    0.006
 6817.00    0.60540   0.45176    0.006
 6818.00    0.56491   0.45246    0.006
 6819.00    0.56352   0.44904    0.006
 6820.00    0.58641   0.44449    0.006
 6821.00    0.58071   0.44561    0.006
 6822.00    0.55949   0.45215    0.006
 6823.00    0.58496   0.45636    0.006
 6824.00    0.63244   0.45427    0.006
 6825.00    0.63246   0.44929    0.006
 6826.00    0.61318   0.44770    0.006
 6827.00    0.53828   0.45184    0.006
 6828.00    0.44405   0.45737    0.006
 6829.00    0.44136   0.45964    0.006
 6830.00    0.46544   0.45935    0.006
 6831.00    0.50381   0.45833    0.006
 6832.00    0.54563   0.45510    0.006
 6833.00    0.58012   0.44873    0.006
 6834.00    0.61317   0.44452    0.006
 6835.00    0.60421   0.44707    0.006
 6836.00    0.58885   0.45312    0.006
 6837.00    0.58280   0.45547    0.006
 6838.00    0.57780   0.45338    0.006
 6839.00    0.59014   0.45310    0.007
 6840.00    0.60378   0.45614    0.007
 6841.00    0.55502   0.45749    0.006
 6842.00    0.50378   0.45482    0.006
 6843.00    0.41338   0.45016    0.006
 6844.00    0.32996   0.44425    0.006
 6845.00    0.53502   0.43738    0.006
 6846.00    0.72665   0.43056    0.006
 6847.00    0.69147   0.42676    0.006
 6848.00    0.65950   0.42989    0.006
 6849.00    0.66102   0.43901    0.006
 6850.00    0.65337   0.44806    0.006
 6851.00    0.57759   0.45199    0.006
 6852.00    0.51136   0.45214    0.006
 6853.00    0.49933   0.45222    0.006
 6854.00    0.49196   0.45222    0.006
 6855.00    0.50559   0.45145    0.006
 6856.00    0.52574   0.45070    0.006
 6857.00    0.57005   0.45065    0.006
 6858.00    0.59371   0.45076    0.006
 6859.00    0.55343   0.44696    0.006
 6860.00    0.51801   0.43785    0.006
 6861.00    0.49541   0.43211    0.006
 6862.00    0.47824   0.43443    0.006
 6863.00    0.47335   0.43863    0.006
 6864.00    0.47233   0.44128    0.006
 6865.00    0.47890   0.44045    0.006
 6866.00    0.47264   0.43437    0.006
 6867.00    0.44447   0.43024    0.006
 6868.00    0.42318   0.43607    0.006
 6869.00    0.41219   0.44701    0.006
 6870.00    0.39812   0.45223    0.006
 6871.00    0.37998   0.44954    0.006
 6872.00    0.40680   0.44208    0.006
 6873.00    0.48563   0.43365    0.006
 6874.00    0.51277   0.43238    0.006
 6875.00    0.48716   0.43947    0.006
 6876.00    0.47151   0.44349    0.006
 6877.00    0.46483   0.43955    0.006
 6878.00    0.43160   0.43584    0.006
 6879.00    0.37729   0.43763    0.006
 6880.00    0.33843   0.44029    0.006
 6881.00    0.31036   0.44102    0.006
 6882.00    0.36669   0.44343    0.006
 6883.00    0.47467   0.44830    0.006
 6884.00    0.49961   0.45078    0.006
 6885.00    0.48017   0.44915    0.006
 6886.00    0.47269   0.44469    0.006
 6887.00    0.47076   0.43790    0.006
 6888.00    0.48065   0.43337    0.006
 6889.00    0.49526   0.43619    0.006
 6890.00    0.50864   0.44250    0.006
 6891.00    0.52160   0.44450    0.006
 6892.00    0.52962   0.44449    0.006
 6893.00    0.53624   0.44805    0.006
 6894.00    0.56555   0.45199    0.006
 6895.00    0.60024   0.45427    0.006
 6896.00    0.58799   0.45695    0.006
 6897.00    0.56680   0.45691    0.006
 6898.00    0.59800   0.45343    0.006
 6899.00    0.63694   0.45155    0.006
 6900.00    0.65917   0.45081    0.006
 6901.00    0.67959   0.44861    0.006
 6902.00    0.62436   0.44814    0.006
 6903.00    0.56378   0.45159    0.006
 6904.00    0.55282   0.45373    0.006
 6905.00    0.54364   0.45070    0.006
 6906.00    0.54321   0.44803    0.006
 6907.00    0.54367   0.45116    0.006
 6908.00    0.57374   0.45504    0.006
 6909.00    0.59923   0.45425    0.006
 6910.00    0.55219   0.45159    0.006
 6911.00    0.50454   0.45160    0.006
 6912.00    0.45079   0.45498    0.006
 6913.00    0.40322   0.45757    0.006
 6914.00    0.40006   0.45781    0.006
 6915.00    0.40428   0.45767    0.006
 6916.00    0.44912   0.45656    0.006
 6917.00    0.49302   0.45344    0.006
 6918.00    0.53271   0.44860    0.006
 6919.00    0.55786   0.44294    0.006
 6920.00    0.53029   0.44070    0.006
 6921.00    0.50320   0.44312    0.006
 6922.00    0.47757   0.44478    0.006
 6923.00    0.47121   0.44570    0.006
 6924.00    0.51469   0.44870    0.006
 6925.00    0.53961   0.45248    0.006
 6926.00    0.52328   0.45543    0.006
 6927.00    0.52002   0.45646    0.006
 6928.00    0.54195   0.45383    0.006
 6929.00    0.54232   0.44630    0.006
 6930.00    0.50647   0.43748    0.006
 6931.00    0.50109   0.43394    0.006
 6932.00    0.54058   0.43783    0.006
 6933.00    0.54813   0.44467    0.006
 6934.00    0.51432   0.44869    0.006
 6935.00    0.50594   0.44970    0.006
 6936.00    0.52658   0.44958    0.006
 6937.00    0.53835   0.44721    0.006
 6938.00    0.54119   0.44221    0.006
 6939.00    0.52310   0.44022    0.006
 6940.00    0.48642   0.44477    0.006
 6941.00    0.46340   0.44925    0.006
 6942.00    0.45105   0.44885    0.006
 6943.00    0.50597   0.44701    0.006
 6944.00    0.60714   0.44787    0.006
 6945.00    0.60079   0.45158    0.006
 6946.00    0.52963   0.45490    0.006
 6947.00    0.49950   0.45411    0.006
 6948.00    0.49097   0.44873    0.006
 6949.00    0.48525   0.44106    0.006
 6950.00    0.48082   0.43383    0.006
 6951.00    0.49551   0.43265    0.006
 6952.00    0.51772   0.43969    0.006
 6953.00    0.51933   0.44780    0.006
 6954.00    0.51405   0.45193    0.006
 6955.00    0.47623   0.45210    0.006
 6956.00    0.42927   0.44735    0.006
 6957.00    0.44290   0.44131    0.006
 6958.00    0.47054   0.43888    0.006
 6959.00    0.47033   0.43833    0.006
 6960.00    0.46495   0.43887    0.006
 6961.00    0.41853   0.44283    0.006
 6962.00    0.36623   0.44780    0.006
 6963.00    0.45976   0.44970    0.006
 6964.00    0.56839   0.44939    0.006
 6965.00    0.55669   0.44944    0.006
 6966.00    0.53698   0.45051    0.006
 6967.00    0.47491   0.45186    0.006
 6968.00    0.41151   0.45309    0.006
 6969.00    0.49378   0.45419    0.006
 6970.00    0.57151   0.45308    0.006
 6971.00    0.51025   0.44925    0.006
 6972.00    0.45119   0.44838    0.006
 6973.00    0.42514   0.45357    0.006
 6974.00    0.39668   0.45842    0.006
 6975.00    0.34507   0.45709    0.006
 6976.00    0.31485   0.45141    0.006
 6977.00    0.43348   0.44865    0.006
 6978.00    0.53236   0.45264    0.006
 6979.00    0.52524   0.45608    0.006
 6980.00    0.52389   0.45219    0.006
 6981.00    0.54738   0.44476    0.006
 6982.00    0.56815   0.43667    0.006
 6983.00    0.57926   0.42482    0.006
 6984.00    0.58193   0.41421    0.006
 6985.00    0.55944   0.41742    0.006
 6986.00    0.54039   0.43232    0.006
 6987.00    0.53006   0.44559    0.006
 6988.00    0.53478   0.45321    0.006
 6989.00    0.57242   0.45724    0.006
 6990.00    0.57018   0.45804    0.006
 6991.00    0.49232   0.45706    0.006
 6992.00    0.42565   0.45600    0.006
 6993.00    0.37753   0.45396    0.006
 6994.00    0.38828   0.44904    0.006
 6995.00    0.48449   0.44424    0.006
 6996.00    0.52163   0.44542    0.006
 6997.00    0.48338   0.45144    0.006
 6998.00    0.49073   0.45552    0.006
 6999.00    0.54937   0.45431    0.006
 7000.00    0.55552   0.45101    0.006
 7001.00    0.50959   0.45057    0.006
 7002.00    0.50616   0.45293    0.006
 7003.00    0.53993   0.45325    0.006
 7004.00    0.54006   0.44752    0.006
 7005.00    0.51428   0.43869    0.006
 7006.00    0.48994   0.43591    0.006
 7007.00    0.46657   0.44180    0.006
 7008.00    0.49086   0.44764    0.007
 7009.00    0.54344   0.44571    0.007
 7010.00    0.53331   0.43946    0.007
 7011.00    0.49070   0.43656    0.007
 7012.00    0.45209   0.43825    0.007
 7013.00    0.41526   0.44201    0.007
 7014.00    0.43396   0.44644    0.007
 7015.00    0.47409   0.44920    0.007
 7016.00    0.42624   0.44778    0.007
 7017.00    0.34951   0.44516    0.007
 7018.00    0.37481   0.44616    0.007
 7019.00    0.42819   0.44791    0.007
 7020.00    0.43695   0.44226    0.007
 7021.00    0.43563   0.42784    0.007
 7022.00    0.47137   0.41770    0.007
 7023.00    0.51381   0.42493    0.007
 7024.00    0.43661   0.44168    0.006
 7025.00    0.34285   0.45245    0.006
 7026.00    0.37884   0.45532    0.006
 7027.00    0.42771   0.45333    0.007
 7028.00    0.37357   0.44569    0.007
 7029.00    0.31297   0.43526    0.007
 7030.00    0.37527   0.43082    0.007
 7031.00    0.44095   0.43547    0.007
 7032.00    0.47833   0.44193    0.007
 7033.00    0.51187   0.44474    0.007
 7034.00    0.43987   0.44648    0.007
 7035.00    0.37859   0.44918    0.007
 7036.00    0.46775   0.45082    0.007
 7037.00    0.55028   0.44986    0.007
 7038.00    0.57162   0.44756    0.007
 7039.00    0.58155   0.44628    0.007
 7040.00    0.51461   0.44734    0.007
 7041.00    0.46342   0.45048    0.007
 7042.00    0.49461   0.45078    0.007
 7043.00    0.51714   0.44154    0.007
 7044.00    0.50316   0.43121    0.007
 7045.00    0.48817   0.43663    0.007
 7046.00    0.46965   0.45409    0.007
 7047.00    0.47721   0.46736    0.007
 7048.00    0.56114   0.47080    0.007
 7049.00    0.60659   0.46636    0.007
 7050.00    0.55595   0.45782   -2.000
 7051.00    0.53091   0.45289   -2.000
 7052.00    0.56091   0.45638   -2.000
 7053.00    0.55898   0.46365   -2.000
 7054.00    0.49740   0.46740   -2.000
 7055.00    0.48307   0.46572   -2.000
 7056.00    0.54579   0.46223   -2.000
 7057.00    0.55351   0.45509   -2.000
 7058.00    0.48255   0.44076   -2.000
 7059.00    0.46943   0.42649   -2.000
 7060.00    0.52906   0.42025   -2.000
 7061.00    0.58682   0.42187   -2.000
 7062.00    0.64248   0.42824   -2.000
 7063.00    0.58758   0.43279   -2.000
 7064.00    0.42453   0.42951   -2.000
 7065.00    0.40582   0.42014   -2.000
 7066.00    0.51162   0.41356   -2.000
 7067.00    0.56292   0.41467   -2.000
 7068.00    0.57282   0.41924   -2.000
 7069.00    0.58195   0.42380   -2.000
 7070.00    0.59057   0.42743   -2.000
 7071.00    0.59605   0.42591   -2.000
 7072.00    0.59968   0.41847   -2.000
 7073.00    0.59067   0.40924   -2.000
 7074.00    0.57523   0.40453   -2.000
 7075.00    0.57811   0.41018   -2.000
 7076.00    0.58909   0.42255   -2.000
 7077.00    0.60216   0.43084   -2.000
 7078.00    0.61602   0.43203   -2.000
 7079.00    0.65245   0.43116   -2.000
 7080.00    0.69614   0.43063   -2.000
 7081.00    0.65074   0.42944   -2.000
 7082.00    0.58135   0.42852   -2.000
 7083.00    0.57209   0.42978   -2.000
 7084.00    0.57612   0.43217   -2.000
 7085.00    0.49986   0.43423   -2.000
 7086.00    0.40948   0.43674   -2.000
 7087.00    0.46088   0.43638   -2.000
 7088.00    0.53127   0.42846   -2.000
 7089.00    0.49624   0.41447   -2.000
 7090.00    0.45119   0.40227   -2.000
 7091.00    0.44907   0.40047   -2.000
 7092.00    0.44946   0.40511   -2.000
 7093.00    0.50657   0.40490   -2.000
 7094.00    0.56574   0.40036   -2.000
 7095.00    0.71501   0.39659   -2.000
 7096.00    0.85448   0.39480   -2.000
 7097.00    0.75003   0.39602   -2.000
 7098.00    0.64109   0.39762   -2.000
 7099.00    0.47235   0.39744   -2.000
 7100.00    0.33707   0.39790   -2.000
 7101.00    0.49840   0.39868   -2.000
 7102.00    0.62091   0.39954   -2.000
 7103.00    0.48975   0.40141   -2.000
 7104.00    0.39519   0.40528   -2.000
 7105.00    0.48703   0.40993   -2.000
 7106.00    0.56094   0.41104   -2.000
 7107.00    0.56101   0.40782   -2.000
 7108.00    0.55885   0.40374   -2.000
 7109.00    0.54910   0.40379   -2.000
 7110.00    0.57318   0.40873   -2.000
 7111.00    0.69450   0.41196   -2.000
 7112.00    0.73635   0.40876   -2.000
 7113.00    0.58324   0.40449   -2.000
 7114.00    0.46348   0.40475   -2.000
 7115.00    0.41429   0.40541   -2.000
 7116.00    0.42509   0.40133   -2.000
 7117.00    0.54617   0.39695   -2.000
 7118.00    0.60463   0.39835   -2.000
 7119.00    0.56246   0.40376   -2.000
 7120.00    0.58721   0.40775   -2.000
 7121.00    0.70627   0.40939   -2.000
 7122.00    0.77511   0.41044   -2.000
 7123.00    0.78165   0.41023   -2.000
 7124.00    0.77336   0.40879   -2.000
 7125.00    0.74884   0.40752   -2.000
 7126.00    0.74730   0.40643   -2.000
 7127.00    0.76792   0.40423   -2.000
 7128.00    0.61368   0.40246   -2.000
 7129.00    0.31074   0.40457   -2.000
 7130.00    0.11594   0.40561   -2.000
 7131.00    0.00213   0.39976   -2.000
 7132.00    0.00703   0.39265   -2.000
 7133.00    0.09003   0.39160   -2.000
 7134.00    0.21392   0.39379   -2.000
 7135.00    0.36137   0.39074   -2.000
 7136.00    0.43762   0.38310   -2.000
 7137.00    0.47815   0.38069   -2.000
 7138.00    0.49037   0.38656   -2.000
 7139.00    0.49028   0.39442   -2.000
 7140.00    0.54729   0.40009   -2.000
 7141.00    0.62558   0.40199   -2.000
 7142.00    0.63932   0.40300   -2.000
 7143.00    0.63268   0.40491   -2.000
 7144.00    0.53720   0.40219   -2.000
 7145.00    0.41828   0.39664   -2.000
 7146.00    0.44862   0.39731   -2.000
 7147.00    0.51112   0.40296   -2.000
 7148.00    0.53547   0.40488   -2.000
 7149.00    0.55329   0.40318   -2.000
 7150.00    0.51227   0.40194   -2.000
 7151.00    0.46362   0.40153   -2.000
 7152.00    0.37054   0.39959   -2.000
 7153.00    0.27342   0.39238   -2.000
 7154.00    0.38094   0.38510   -2.000
 7155.00    0.49967   0.38665   -2.000
 7156.00    0.51576   0.39321   -2.000
 7157.00    0.53093   0.39930   -2.000
 7158.00    0.65885   0.40607   -2.000
 7159.00    0.77379   0.41075   -2.000
 7160.00    0.59437   0.40858   -2.000
 7161.00    0.44697   0.40384   -2.000
 7162.00    0.70288   0.40577   -2.000
 7163.00    0.91423   0.41188   -2.000
 7164.00    0.74540   0.41088   -2.000
 7165.00    0.60423   0.40419   -2.000
 7166.00    0.63829   0.40061   -2.000
 7167.00    0.66764   0.40329   -2.000
 7168.00    0.67361   0.40632   -2.000
 7169.00    0.68337   0.40037   -2.000
 7170.00    0.70835   0.38795   -2.000
 7171.00    0.65959   0.38257   -2.000
 7172.00    0.36448   0.39076   -2.000
 7173.00    0.20009   0.40350   -2.000
 7174.00    0.40444   0.41021   -2.000
 7175.00    0.53256   0.40923   -2.000
 7176.00    0.47680   0.40685   -2.000
 7177.00    0.43329   0.40899   -2.000
 7178.00    0.41527   0.41365   -2.000
 7179.00    0.43389   0.41515   -2.000
 7180.00    0.51889   0.41214   -2.000
 7181.00    0.52414   0.40592   -2.000
 7182.00    0.40318   0.40125   -2.000
 7183.00    0.36185   0.40466   -2.000
 7184.00    0.43113   0.41058   -2.000
 7185.00    0.45876   0.40647   -2.000
 7186.00    0.43545   0.39403   -2.000
 7187.00    0.41210   0.38741   -2.000
 7188.00    0.38869   0.39463   -2.000
 7189.00    0.39170   0.40791   -2.000
 7190.00    0.41983   0.41376   -2.000
 7191.00    0.50198   0.41069   -2.000
 7192.00    0.62943   0.40182   -2.000
 7193.00    0.63082   0.39062   -2.000
 7194.00    0.53917   0.38510   -2.000
 7195.00    0.47605   0.38797   -2.000
 7196.00    0.43144   0.39504   -2.000
 7197.00    0.52195   0.40043   -2.000
 7198.00    0.68911   0.39914   -2.000
 7199.00    0.70420   0.39593   -2.000
 7200.00    0.64420   0.39849   -2.000
 7201.00    0.58026   0.40396   -2.000
 7202.00    0.51463   0.40338   -2.000
 7203.00    0.46807   0.39855   -2.000
 7204.00    0.42847   0.39866   -2.000
 7205.00    0.50600   0.40255   -2.000
 7206.00    0.61982   0.40356   -2.000
 7207.00    0.55525   0.40084   -2.000
 7208.00    0.44463   0.39975   -2.000
 7209.00    0.42076   0.40469   -2.000
 7210.00    0.41513   0.41127   -2.000
 7211.00    0.37667   0.41019   -2.000
 7212.00    0.33276   0.39741   -2.000
 7213.00    0.43324   0.38276   -2.000
 7214.00    0.55176   0.38048   -2.000
 7215.00    0.38394   0.38941   -2.000
 7216.00    0.19133   0.40163   -2.000
 7217.00    0.18054   0.41070   -2.000
 7218.00    0.17899   0.40999   -2.000
